###################################################################
## OUTPUT of StarlightChains_v04.for    [Cid@UFSC - 01/Apr/2007] ##
###################################################################

## Some input info
NGC1904_b_1.cxt                          [arq_obs]
Base.BC03.N                              [arq_base]
NGC1904_b_1.msk                          [arq_masks]
StCv04.C99.config                        [arq_config]
   45                                    [N_base]
    0                                    [N_YAV_components = # of components with extra extinction!]
    0                                    [i_FitPowerLaw (1/0 = Yes/No)]
-9.99                                    [alpha_PowerLaw]
CCM                                      [red_law_option]
 1.458241                                [q_norm = A(l_norm)/A(V)]

## (Re)Sampling Parameters
 3359.00                                 [l_ini (A)]
 6428.00                                 [l_fin (A)]
    1.00                                 [dl    (A)]     (OBS: dl_cushion =    50.00 A)

## Normalization info
 4020.00                                 [l_norm (A) - for base]
 4010.00                                 [llow_norm (A) - window for f_obs]
 4060.00                                 [lupp_norm (A) - window for f_obs]
3.423556E-14                             [fobs_norm (in input units)]

## S/N
 4730.00                                 [llow_SN (A) - window for S/N]
 4780.00                                 [lupp_SN (A) - window for S/N]
 126.287                                 [S/N in S/N window]
 125.997                                 [S/N in norm. window]
 129.607                                 [S/N_err in S/N window]
 129.310                                 [S/N_err in norm. window]
  1.0000                                 [fscale_chi2]

## etc...
  2147483645                             [idum_orig]
  3066                                   [NOl_eff]
  2001                                   [Nl_eff]
  1065    NSIGMA                         [Ntot_cliped & clip_method]
  1148700                                [Nglobal_steps]
   7                                     [N_chains]
   6                                     [NEX0s_base = N_base in EX0s-fits]
 0   0   1      245   2.0   2.750E+02    [Clip-Bug, RC-Crash & Burn-In warning-flags, n_censored_weights, wei_nsig_threshold & wei_limit]
    20     20.329     20.321      0.008  [idt_all, wdt_TotTime, wdt_UsrTime & wdt_SysTime (sec)]

## Synthesis Results - Best model ##

 2.23407E+00                             [chi2/Nl_eff]
     1.11913                             [adev (%)]

   102.56390                             [sum-of-x (%)]
 5.71561E-14                             [Flux_tot (units of input spectrum!)]
 3.21540E-10                             [Mini_tot (???)]
 1.77142E-10                             [Mcor_tot (???)]

 -10.35                                  [v0_min  (km/s)]
 114.91                                  [vd_min  (km/s)]
 0.3627                                  [AV_min  (mag)]
 0.0000                                  [YAV_min (mag)]

# j     x_j(%)      Mini_j(%)     Mcor_j(%)     age_j(yr)     Z_j      (L/M)_j    YAV?  Mstars   component_j        a/Fe...       SSP_chi2r SSP_adev(%)   SSP_AV   SSP_x(%)
  1      0.0000     0.0000E+00    0.0000E+00    1.000000E+06  0.00400  1.114E-02    0   1.0000   age020_m42            0.0000     3.3104E+02    10.3790   3.3400    76.2945
  2     18.4282     7.8416E-02    1.4232E-01    3.160000E+06  0.00400  4.073E-02    0   0.9999   age045_m42            0.0000     6.1065E+01     4.7031   2.3378    91.6767
  3      0.0000     0.0000E+00    0.0000E+00    5.010000E+06  0.00400  2.534E-02    0   0.9488   age055_m42            0.0000     1.6301E+02     7.5451   2.7671    84.5175
  4      0.4611     6.2880E-03    1.0115E-02    1.000000E+07  0.00400  1.271E-02    0   0.8862   age070_m42            0.0000     1.3771E+02     7.4305   1.9792    88.2271
  5      0.0000     0.0000E+00    0.0000E+00    2.512000E+07  0.00400  5.070E-03    0   0.8174   age090_m42            0.0000     1.1811E+02     6.8745   1.8485    89.8099
  6      0.0000     0.0000E+00    0.0000E+00    4.000000E+07  0.00400  3.505E-03    0   0.7851   age104_m42            0.0000     6.6413E+01     5.1163   1.5233    93.1189
  7     18.7195     1.4305E+00    1.8713E+00    1.015200E+08  0.00400  2.268E-03    0   0.7207   age116_m42            0.0000     1.0821E+02     4.0615   1.4685   104.9519
  8      0.0000     0.0000E+00    0.0000E+00    2.861200E+08  0.00400  1.079E-03    0   0.6613   age125_m42            0.0000     1.2490E+02     4.8057   0.9711   107.2178
  9      0.0000     0.0000E+00    0.0000E+00    6.405400E+08  0.00400  5.077E-04    0   0.6197   age132_m42            0.0000     1.4558E+02     5.2169   0.6080   111.4132
 10     18.4696     9.0553E+00    9.9015E+00    9.047900E+08  0.00400  3.535E-04    0   0.6024   age135_m42            0.0000     8.0007E+01     4.1719   0.3747   110.2892
 11      0.0000     0.0000E+00    0.0000E+00    1.434000E+09  0.00400  1.910E-04    0   0.5716   age139_m42            0.0000     3.6928E+01     3.6941  -0.1493   108.5979
 12     42.6228     7.5240E+01    7.4610E+01    2.500000E+09  0.00400  9.818E-05    0   0.5463   age150_m42            0.0000     3.6625E+01     3.2579  -0.4138   103.3041
 13      3.8626     1.4189E+01    1.3465E+01    5.000000E+09  0.00400  4.718E-05    0   0.5228   age161_m42            0.0000     6.5698E+01     3.7059  -0.5728    99.5317
 14      0.0000     0.0000E+00    0.0000E+00    1.100000E+10  0.00400  2.205E-05    0   0.4980   age185_m42            0.0000     1.3217E+02     5.1418  -0.8355    97.3135
 15      0.0000     0.0000E+00    0.0000E+00    1.300000E+10  0.00400  1.883E-05    0   0.4927   age193_m42            0.0000     1.4332E+02     5.3154  -0.8522    97.1100
 16      0.0000     0.0000E+00    0.0000E+00    1.000000E+06  0.02000  1.989E-02    0   1.0000   age020_m62            0.0000     3.3117E+02    10.3595   3.3052    76.9441
 17      0.0000     0.0000E+00    0.0000E+00    3.160000E+06  0.02000  3.772E-02    0   0.9858   age045_m62            0.0000     2.9225E+02     9.8306   3.1639    79.1858
 18      0.0000     0.0000E+00    0.0000E+00    5.010000E+06  0.02000  3.227E-02    0   0.9342   age055_m62            0.0000     1.0269E+02     5.9940   2.6173    87.7859
 19      0.0000     0.0000E+00    0.0000E+00    1.000000E+07  0.02000  1.011E-02    0   0.8751   age070_m62            0.0000     3.3124E+02    11.4227   2.0281    83.4525
 20      0.0000     0.0000E+00    0.0000E+00    2.512000E+07  0.02000  4.206E-03    0   0.8099   age090_m62            0.0000     2.4137E+02     9.4480   1.9572    84.7037
 21      0.0000     0.0000E+00    0.0000E+00    4.000000E+07  0.02000  3.373E-03    0   0.7799   age104_m62            0.0000     5.2163E+01     4.5704   1.7353    94.7884
 22      0.0000     0.0000E+00    0.0000E+00    1.015200E+08  0.02000  1.878E-03    0   0.7221   age116_m62            0.0000     8.1736E+01     3.5326   1.5100   104.6954
 23      0.0000     0.0000E+00    0.0000E+00    2.861200E+08  0.02000  8.869E-04    0   0.6700   age125_m62            0.0000     2.5519E+02     6.8458   0.9697   112.7607
 24      0.0000     0.0000E+00    0.0000E+00    6.405400E+08  0.02000  3.657E-04    0   0.6322   age132_m62            0.0000     1.6923E+02     6.8880   0.2864   116.2032
 25      0.0000     0.0000E+00    0.0000E+00    9.047900E+08  0.02000  2.312E-04    0   0.6152   age135_m62            0.0000     9.3955E+01     5.7467  -0.0810   114.8052
 26      0.0000     0.0000E+00    0.0000E+00    1.434000E+09  0.02000  1.168E-04    0   0.5865   age139_m62            0.0000     5.1715E+01     4.2935  -0.4803   107.8968
 27      0.0000     0.0000E+00    0.0000E+00    2.500000E+09  0.02000  5.505E-05    0   0.5610   age150_m62            0.0000     1.0564E+02     5.3977  -0.8491   104.6476
 28      0.0000     0.0000E+00    0.0000E+00    5.000000E+09  0.02000  2.596E-05    0   0.5353   age161_m62            0.0000     2.3433E+02     7.1528  -1.0000    99.9923
 29      0.0000     0.0000E+00    0.0000E+00    1.100000E+10  0.02000  1.169E-05    0   0.5103   age185_m62            0.0000     5.4704E+02    12.1483  -1.0000    91.3245
 30      0.0000     0.0000E+00    0.0000E+00    1.300000E+10  0.02000  9.691E-06    0   0.5047   age193_m62            0.0000     6.0688E+02    12.8666  -1.0000    90.1898
 31      0.0000     0.0000E+00    0.0000E+00    1.000000E+06  0.05000  2.651E-02    0   0.9998   age020_m72            0.0000     3.0778E+02     9.8392   3.3075    77.8476
 32      0.0000     0.0000E+00    0.0000E+00    3.160000E+06  0.05000  4.817E-02    0   0.9577   age045_m72            0.0000     2.0220E+02     8.0438   3.0133    82.7685
 33      0.0000     0.0000E+00    0.0000E+00    5.010000E+06  0.05000  3.101E-02    0   0.9147   age055_m72            0.0000     1.8368E+02     7.9012   2.6497    85.3760
 34      0.0000     0.0000E+00    0.0000E+00    1.000000E+07  0.05000  8.954E-03    0   0.8524   age070_m72            0.0000     1.9807E+02     7.8821   2.8950    83.8869
 35      0.0000     0.0000E+00    0.0000E+00    2.512000E+07  0.05000  4.207E-03    0   0.7902   age090_m72            0.0000     8.4559E+01     5.2320   2.4405    90.1611
 36      0.0000     0.0000E+00    0.0000E+00    4.000000E+07  0.05000  3.198E-03    0   0.7618   age104_m72            0.0000     3.6915E+01     2.6671   1.8920    99.8543
 37      0.0000     0.0000E+00    0.0000E+00    1.015200E+08  0.05000  1.716E-03    0   0.7092   age116_m72            0.0000     1.0929E+02     4.1391   1.5882   105.1792
 38      0.0000     0.0000E+00    0.0000E+00    2.861200E+08  0.05000  7.047E-04    0   0.6618   age125_m72            0.0000     2.5093E+02     7.3276   0.7554   113.4945
 39      0.0000     0.0000E+00    0.0000E+00    6.405400E+08  0.05000  2.633E-04    0   0.6253   age132_m72            0.0000     1.3505E+02     6.6814  -0.0983   115.6665
 40      0.0000     0.0000E+00    0.0000E+00    9.047900E+08  0.05000  1.484E-04    0   0.6088   age135_m72            0.0000     8.3638E+01     5.6534  -0.5683   109.7007
 41      0.0000     0.0000E+00    0.0000E+00    1.434000E+09  0.05000  7.827E-05    0   0.5847   age139_m72            0.0000     1.3945E+02     6.6062  -0.9517   105.6700
 42      0.0000     0.0000E+00    0.0000E+00    2.500000E+09  0.05000  3.759E-05    0   0.5583   age150_m72            0.0000     2.7854E+02     8.0822  -1.0000    97.6772
 43      0.0000     0.0000E+00    0.0000E+00    5.000000E+09  0.05000  1.548E-05    0   0.5320   age161_m72            0.0000     6.6313E+02    13.8422  -1.0000    85.9655
 44      0.0000     0.0000E+00    0.0000E+00    1.100000E+10  0.05000  6.532E-06    0   0.5070   age185_m72            0.0000     1.1944E+03    18.7876  -1.0000    75.3997
 45      0.0000     0.0000E+00    0.0000E+00    1.300000E+10  0.05000  5.316E-06    0   0.5018   age193_m72            0.0000     1.3903E+03    20.1179  -1.0000    72.2958


## Synthesis Results - Average & Chains ##

# j      x_j: min, <> & last-chain-values for 1 ...  7 chains
  1      0.0000      0.0029      0.0000      0.0000      0.0000      0.0000      0.0000      0.0000      0.0057
  2     18.4282     16.1138     16.1767     16.3507     16.2697     16.3069     16.1814     16.3653     16.4527
  3      0.0000      0.0111      0.0000      0.0000      0.0000      0.0000      0.0000      0.0000      0.0000
  4      0.4611      2.2298      2.2249      2.2204      2.2325      2.1067      2.3262      2.2083      2.0795
  5      0.0000      0.0215      0.0166      0.0000      0.0000      0.0000      0.0000      0.0000      0.0000
  6      0.0000      0.0156      0.0059      0.0000      0.0000      0.0000      0.0000      0.0000      0.0000
  7     18.7195     18.4163     18.7508     18.6436     18.4768     18.5753     18.4677     18.4614     18.5061
  8      0.0000      0.0693      0.0582      0.0414      0.0348      0.0000      0.0000      0.0000      0.1856
  9      0.0000      0.0971      0.2153      0.3173      0.0814      0.0302      0.0772      0.1478      0.0372
 10     18.4696     18.4746     17.8741     18.3480     18.9919     18.4938     19.0038     18.6257     18.5340
 11      0.0000      0.7343      0.5944      0.1282      0.0000      0.6392      0.0000      0.3944      0.1878
 12     42.6228     40.8183     41.3950     41.2974     41.2945     41.3460     40.9871     40.8970     41.3181
 13      3.8626      4.9881      4.6668      4.9085      4.9653      4.8366      5.1476      4.9308      4.8924
 14      0.0000      0.0103      0.0000      0.0000      0.0000      0.0000      0.0000      0.0056      0.0000
 15      0.0000      0.0098      0.0000      0.0000      0.0036      0.0000      0.0000      0.0000      0.0000
 16      0.0000      0.0023      0.0000      0.0000      0.0000      0.0000      0.0000      0.0000      0.0000
 17      0.0000      0.0038      0.0000      0.0000      0.0000      0.0000      0.0000      0.0000      0.0000
 18      0.0000      0.0164      0.1054      0.0000      0.0000      0.0000      0.0000      0.0000      0.0000
 19      0.0000      0.0057      0.0000      0.0000      0.0000      0.0000      0.0000      0.0000      0.0080
 20      0.0000      0.0027      0.0000      0.0000      0.0000      0.0000      0.0000      0.0000      0.0000
 21      0.0000      0.0082      0.0000      0.0000      0.0000      0.0000      0.0000      0.0000      0.0000
 22      0.0000      0.0243      0.0000      0.0000      0.0000      0.0000      0.0000      0.0000      0.0000
 23      0.0000      0.0204      0.0105      0.0000      0.0000      0.0546      0.0000      0.0000      0.0000
 24      0.0000      0.0206      0.0000      0.0023      0.0000      0.0000      0.0028      0.0000      0.0000
 25      0.0000      0.0514      0.0000      0.0000      0.0000      0.0000      0.0000      0.0573      0.0000
 26      0.0000      0.0983      0.1613      0.1696      0.0000      0.1466      0.1446      0.2674      0.1386
 27      0.0000      0.0198      0.0000      0.0000      0.0000      0.0000      0.0123      0.0000      0.0000
 28      0.0000      0.0088      0.0000      0.0336      0.0000      0.0000      0.0000      0.0004      0.0000
 29      0.0000      0.0052      0.0000      0.0000      0.0000      0.0000      0.0000      0.0006      0.0000
 30      0.0000      0.0034      0.0000      0.0089      0.0000      0.0020      0.0000      0.0000      0.0000
 31      0.0000      0.0037      0.0000      0.0000      0.0000      0.0000      0.0000      0.0000      0.0000
 32      0.0000      0.0043      0.0000      0.0000      0.0000      0.0000      0.0000      0.0000      0.0000
 33      0.0000      0.0069      0.0000      0.0000      0.0000      0.0000      0.0000      0.0000      0.0001
 34      0.0000      0.0031      0.0000      0.0000      0.0000      0.0019      0.0000      0.0000      0.0000
 35      0.0000      0.0070      0.0000      0.0000      0.0000      0.0000      0.0000      0.0000      0.0000
 36      0.0000      0.0136      0.0000      0.0000      0.0000      0.0000      0.0000      0.0000      0.0000
 37      0.0000      0.0152      0.0102      0.0000      0.0000      0.0091      0.0000      0.0000      0.0000
 38      0.0000      0.0364      0.1366      0.0000      0.0000      0.0000      0.0869      0.0000      0.0718
 39      0.0000      0.0609      0.1565      0.0000      0.0000      0.0000      0.0000      0.0000      0.0557
 40      0.0000      0.0650      0.0000      0.0000      0.0898      0.0476      0.0000      0.2111      0.0689
 41      0.0000      0.0425      0.0000      0.0654      0.1184      0.0000      0.1311      0.0000      0.0504
 42      0.0000      0.0261      0.0000      0.0000      0.0273      0.0000      0.0000      0.0000      0.0000
 43      0.0000      0.0023      0.0000      0.0000      0.0000      0.0000      0.0000      0.0000      0.0000
 44      0.0000      0.0008      0.0000      0.0000      0.0000      0.0000      0.0000      0.0000      0.0000
 45      0.0000      0.0008      0.0000      0.0000      0.0000      0.0000      0.0000      0.0000      0.0000

# j      m_j: min, <> & last-chain-values for 1 ...  7 chains
  1  0.0000E+00  7.8719E-05  0.0000E+00  0.0000E+00  0.0000E+00  0.0000E+00  0.0000E+00  0.0000E+00  1.5725E-04
  2  1.4232E-01  1.2135E-01  1.2317E-01  1.2342E-01  1.2272E-01  1.2331E-01  1.2188E-01  1.2391E-01  1.2451E-01
  3  0.0000E+00  1.2755E-04  0.0000E+00  0.0000E+00  0.0000E+00  0.0000E+00  0.0000E+00  0.0000E+00  0.0000E+00
  4  1.0115E-02  4.7690E-02  4.8113E-02  4.7604E-02  4.7827E-02  4.5244E-02  4.9763E-02  4.7486E-02  4.4695E-02
  5  0.0000E+00  1.0623E-03  8.3118E-04  0.0000E+00  0.0000E+00  0.0000E+00  0.0000E+00  0.0000E+00  0.0000E+00
  6  0.0000E+00  1.0718E-03  4.1191E-04  0.0000E+00  0.0000E+00  0.0000E+00  0.0000E+00  0.0000E+00  0.0000E+00
  7  1.8713E+00  1.7951E+00  1.8480E+00  1.8216E+00  1.8040E+00  1.8182E+00  1.8005E+00  1.8093E+00  1.8127E+00
  8  0.0000E+00  1.3020E-02  1.1068E-02  7.7936E-03  6.5562E-03  0.0000E+00  0.0000E+00  0.0000E+00  3.5055E-02
  9  0.0000E+00  3.6348E-02  8.1515E-02  1.1908E-01  3.0524E-02  1.1347E-02  2.8925E-02  5.5638E-02  1.3996E-02
 10  9.9015E+00  9.6573E+00  9.4470E+00  9.6139E+00  9.9442E+00  9.7075E+00  9.9361E+00  9.7889E+00  9.7358E+00
 11  0.0000E+00  6.7411E-01  5.5170E-01  1.1793E-01  0.0000E+00  5.8926E-01  0.0000E+00  3.6398E-01  1.7326E-01
 12  7.4610E+01  6.9670E+01  7.1438E+01  7.0656E+01  7.0600E+01  7.0864E+01  6.9973E+01  7.0182E+01  7.0869E+01
 13  1.3465E+01  1.6955E+01  1.6039E+01  1.6724E+01  1.6906E+01  1.6508E+01  1.7501E+01  1.6851E+01  1.6711E+01
 14  0.0000E+00  7.1587E-02  0.0000E+00  0.0000E+00  0.0000E+00  0.0000E+00  0.0000E+00  3.9241E-02  0.0000E+00
 15  0.0000E+00  7.8552E-02  0.0000E+00  0.0000E+00  2.8570E-02  0.0000E+00  0.0000E+00  0.0000E+00  0.0000E+00
 16  0.0000E+00  3.5786E-05  0.0000E+00  0.0000E+00  0.0000E+00  0.0000E+00  0.0000E+00  0.0000E+00  0.0000E+00
 17  0.0000E+00  3.0380E-05  0.0000E+00  0.0000E+00  0.0000E+00  0.0000E+00  0.0000E+00  0.0000E+00  0.0000E+00
 18  0.0000E+00  1.4555E-04  9.4668E-04  0.0000E+00  0.0000E+00  0.0000E+00  0.0000E+00  0.0000E+00  0.0000E+00
 19  0.0000E+00  1.5101E-04  0.0000E+00  0.0000E+00  0.0000E+00  0.0000E+00  0.0000E+00  0.0000E+00  2.1294E-04
 20  0.0000E+00  1.6051E-04  0.0000E+00  0.0000E+00  0.0000E+00  0.0000E+00  0.0000E+00  0.0000E+00  0.0000E+00
 21  0.0000E+00  5.8001E-04  0.0000E+00  0.0000E+00  0.0000E+00  0.0000E+00  0.0000E+00  0.0000E+00  0.0000E+00
 22  0.0000E+00  2.8627E-03  0.0000E+00  0.0000E+00  0.0000E+00  0.0000E+00  0.0000E+00  0.0000E+00  0.0000E+00
 23  0.0000E+00  4.7383E-03  2.4631E-03  0.0000E+00  0.0000E+00  1.2702E-02  0.0000E+00  0.0000E+00  0.0000E+00
 24  0.0000E+00  1.0934E-02  0.0000E+00  1.2214E-03  0.0000E+00  0.0000E+00  1.5063E-03  0.0000E+00  0.0000E+00
 25  0.0000E+00  4.1941E-02  0.0000E+00  0.0000E+00  0.0000E+00  0.0000E+00  0.0000E+00  4.7015E-02  0.0000E+00
 26  0.0000E+00  1.5140E-01  2.5118E-01  2.6187E-01  0.0000E+00  2.2673E-01  2.2279E-01  4.1406E-01  2.1447E-01
 27  0.0000E+00  6.1879E-02  0.0000E+00  0.0000E+00  0.0000E+00  0.0000E+00  3.8509E-02  0.0000E+00  0.0000E+00
 28  0.0000E+00  5.5467E-02  0.0000E+00  2.1323E-01  0.0000E+00  0.0000E+00  0.0000E+00  2.7252E-03  0.0000E+00
 29  0.0000E+00  6.9194E-02  0.0000E+00  0.0000E+00  0.0000E+00  0.0000E+00  0.0000E+00  7.9868E-03  0.0000E+00
 30  0.0000E+00  5.5092E-02  0.0000E+00  1.4243E-01  0.0000E+00  3.1661E-02  0.0000E+00  0.0000E+00  0.0000E+00
 31  0.0000E+00  4.2800E-05  0.0000E+00  0.0000E+00  0.0000E+00  0.0000E+00  0.0000E+00  0.0000E+00  0.0000E+00
 32  0.0000E+00  2.6158E-05  0.0000E+00  0.0000E+00  0.0000E+00  0.0000E+00  0.0000E+00  0.0000E+00  0.0000E+00
 33  0.0000E+00  6.2734E-05  0.0000E+00  0.0000E+00  0.0000E+00  0.0000E+00  0.0000E+00  0.0000E+00  1.3293E-06
 34  0.0000E+00  9.0840E-05  0.0000E+00  0.0000E+00  0.0000E+00  5.5060E-05  0.0000E+00  0.0000E+00  0.0000E+00
 35  0.0000E+00  4.0168E-04  0.0000E+00  0.0000E+00  0.0000E+00  0.0000E+00  0.0000E+00  0.0000E+00  0.0000E+00
 36  0.0000E+00  9.9044E-04  0.0000E+00  0.0000E+00  0.0000E+00  0.0000E+00  0.0000E+00  0.0000E+00  0.0000E+00
 37  0.0000E+00  1.9275E-03  1.3050E-03  0.0000E+00  0.0000E+00  1.1594E-03  0.0000E+00  0.0000E+00  0.0000E+00
 38  0.0000E+00  1.0491E-02  3.9792E-02  0.0000E+00  0.0000E+00  0.0000E+00  2.5044E-02  0.0000E+00  2.0779E-02
 39  0.0000E+00  4.4344E-02  1.1525E-01  0.0000E+00  0.0000E+00  0.0000E+00  0.0000E+00  0.0000E+00  4.0748E-02
 40  0.0000E+00  8.1753E-02  0.0000E+00  0.0000E+00  1.1324E-01  6.0132E-02  0.0000E+00  2.6703E-01  8.7105E-02
 41  0.0000E+00  9.7369E-02  0.0000E+00  1.5014E-01  2.7183E-01  0.0000E+00  3.0051E-01  0.0000E+00  1.1608E-01
 42  0.0000E+00  1.1873E-01  0.0000E+00  0.0000E+00  1.2469E-01  0.0000E+00  0.0000E+00  0.0000E+00  0.0000E+00
 43  0.0000E+00  2.4553E-02  0.0000E+00  0.0000E+00  0.0000E+00  0.0000E+00  0.0000E+00  0.0000E+00  0.0000E+00
 44  0.0000E+00  1.9995E-02  0.0000E+00  0.0000E+00  0.0000E+00  0.0000E+00  0.0000E+00  0.0000E+00  0.0000E+00
 45  0.0000E+00  2.2234E-02  0.0000E+00  0.0000E+00  0.0000E+00  0.0000E+00  0.0000E+00  0.0000E+00  0.0000E+00

# AV, chi2 & Mass for <> & i_chain = 1 ...  7 solutions
AV       0.3627      0.3470      0.3529      0.3511      0.3482      0.3470      0.3483      0.3497      0.3497
chi2 2.2341E+00  2.2604E+00  2.2537E+00  2.2528E+00  2.2538E+00  2.2549E+00  2.2547E+00  2.2539E+00  2.2535E+00
Mass 1.7714E-10  1.7787E-10  1.7731E-10  1.7842E-10  1.7786E-10  1.7713E-10  1.7814E-10  1.7755E-10  1.7765E-10
 -10.42                                  [v0_min (km/s) before EX0s...]
 114.72                                  [vd_min (km/s) before EX0s...]


## Synthetic spectrum (Best Model) ##l_obs f_obs f_syn wei
 3070    [Nl_obs]
 3359.00    0.27357   0.54299   -1.000
 3360.00    0.27108   0.52852   -1.000
 3361.00    0.28301   0.52675   -1.000
 3362.00    0.29706   0.53841   -1.000
 3363.00    0.30788   0.55627   -1.000
 3364.00    0.32501   0.56996   -1.000
 3365.00    0.34501   0.57247   -1.000
 3366.00    0.34984   0.56377   -1.000
 3367.00    0.34951   0.54960   -1.000
 3368.00    0.34390   0.53685   -1.000
 3369.00    0.32811   0.52889   -1.000
 3370.00    0.32409   0.52488   -1.000
 3371.00    0.32998   0.52316   -1.000
 3372.00    0.33165   0.52514   -1.000
 3373.00    0.34024   0.53431   -1.000
 3374.00    0.36068   0.55103   -1.000
 3375.00    0.37980   0.56916   -1.000
 3376.00    0.39502   0.57926   -1.000
 3377.00    0.40492   0.57628   -1.000
 3378.00    0.40839   0.56393   -1.000
 3379.00    0.39926   0.55161   -1.000
 3380.00    0.39375   0.54736   -1.000
 3381.00    0.40198   0.55292   -1.000
 3382.00    0.40722   0.56416   -1.000
 3383.00    0.41106   0.57574   -1.000
 3384.00    0.41603   0.58509   -1.000
 3385.00    0.41694   0.59198   -1.000
 3386.00    0.42241   0.59609   -1.000
 3387.00    0.43248   0.59703   -1.000
 3388.00    0.43027   0.59561   -1.000
 3389.00    0.42466   0.59289   -1.000
 3390.00    0.43083   0.58881   -1.000
 3391.00    0.43374   0.58306   -1.000
 3392.00    0.43157   0.57751   -1.000
 3393.00    0.43180   0.57622   -1.000
 3394.00    0.43321   0.58202   -1.000
 3395.00    0.44313   0.59370   -1.000
 3396.00    0.45831   0.60692   -1.000
 3397.00    0.46696   0.61699   -1.000
 3398.00    0.47536   0.62073   -1.000
 3399.00    0.48219   0.61740   -1.000
 3400.00    0.47806   0.60869   -1.000
 3401.00    0.47835   0.59764   -1.000
 3402.00    0.47823   0.58737   -1.000
 3403.00    0.46629   0.58004   -1.000
 3404.00    0.45670   0.57564   -1.000
 3405.00    0.45489   0.57203   -1.000
 3406.00    0.45738   0.56759   -1.000
 3407.00    0.45304   0.56351   -1.000
 3408.00    0.44286   0.56265   -1.000
 3409.00    0.45350   0.56608   -1.000
 3410.00    0.46567   0.57141   -1.000
 3411.00    0.46185   0.57493   -1.000
 3412.00    0.46013   0.57497   -1.000
 3413.00    0.45852   0.57306   -1.000
 3414.00    0.45502   0.57223   -1.000
 3415.00    0.45896   0.57489   -1.000
 3416.00    0.46715   0.58189   -1.000
 3417.00    0.47783   0.59233   -1.000
 3418.00    0.48926   0.60367   -1.000
 3419.00    0.50065   0.61240   -1.000
 3420.00    0.50313   0.61571   -1.000
 3421.00    0.49686   0.61346   -1.000
 3422.00    0.49163   0.60818   -1.000
 3423.00    0.49374   0.60296   -1.000
 3424.00    0.49043   0.59976   -1.000
 3425.00    0.49028   0.59963   -1.000
 3426.00    0.49858   0.60355   -1.000
 3427.00    0.50454   0.61180   -1.000
 3428.00    0.51379   0.62188   -1.000
 3429.00    0.52336   0.62858   -1.000
 3430.00    0.52214   0.62789   -1.000
 3431.00    0.51902   0.62058   -1.000
 3432.00    0.52008   0.61158   -1.000
 3433.00    0.51427   0.60599   -1.000
 3434.00    0.51299   0.60541   -1.000
 3435.00    0.52212   0.60724   35.508
 3436.00    0.52408   0.60686   -1.000
 3437.00    0.51825   0.60058   -1.000
 3438.00    0.50704   0.58727   -1.000
 3439.00    0.49650   0.56874   -1.000
 3440.00    0.48202   0.54959   43.111
 3441.00    0.47001   0.53580   42.030
 3442.00    0.47172   0.53113   39.977
 3443.00    0.47789   0.53489   37.768
 3444.00    0.48288   0.54386   36.131
 3445.00    0.49135   0.55602   -1.000
 3446.00    0.50238   0.57117   -1.000
 3447.00    0.51622   0.58814   -1.000
 3448.00    0.53201   0.60276   -1.000
 3449.00    0.53967   0.60955   -1.000
 3450.00    0.53497   0.60588   -1.000
 3451.00    0.53675   0.59455   -1.000
 3452.00    0.53748   0.58219   -1.000
 3453.00    0.53079   0.57497   -1.000
 3454.00    0.53324   0.57454   -1.000
 3455.00    0.54593   0.57741   -1.000
 3456.00    0.55902   0.57823   55.664
 3457.00    0.55640   0.57416   34.978
 3458.00    0.54312   0.56638   35.038
 3459.00    0.53757   0.55825   73.046
 3460.00    0.54197   0.55355  275.035
 3461.00    0.54461   0.55514  275.035
 3462.00    0.54341   0.56286   -1.000
 3463.00    0.54743   0.57266   -1.000
 3464.00    0.55391   0.57991   -1.000
 3465.00    0.55595   0.58368   -1.000
 3466.00    0.55409   0.58631   -1.000
 3467.00    0.56183   0.58996   -1.000
 3468.00    0.57196   0.59458   -1.000
 3469.00    0.57779   0.59841   -1.000
 3470.00    0.57932   0.59923   -1.000
 3471.00    0.57980   0.59543   -1.000
 3472.00    0.57075   0.58649   55.164
 3473.00    0.55912   0.57344   35.769
 3474.00    0.54907   0.55951   35.832
 3475.00    0.53432   0.54971   75.484
 3476.00    0.52437   0.54804   -1.000
 3477.00    0.53814   0.55448   -1.000
 3478.00    0.55689   0.56511  275.035
 3479.00    0.57644   0.57510  275.035
 3480.00    0.58722   0.58110  275.035
 3481.00    0.58704   0.58211  275.035
 3482.00    0.57971   0.57967  275.035
 3483.00    0.57200   0.57755  275.035
 3484.00    0.57461   0.57972  275.035
 3485.00    0.58569   0.58694  275.035
 3486.00    0.59143   0.59496  275.035
 3487.00    0.59373   0.59750  275.035
 3488.00    0.59282   0.59175  275.035
 3489.00    0.57591   0.58101  275.035
 3490.00    0.55830   0.57176   -1.000
 3491.00    0.54873   0.56792   -1.000
 3492.00    0.54802   0.56789   -1.000
 3493.00    0.55644   0.56718  275.035
 3494.00    0.55532   0.56343  275.035
 3495.00    0.54993   0.55894  275.035
 3496.00    0.55184   0.55875  275.035
 3497.00    0.55378   0.56571  275.035
 3498.00    0.56396   0.57703   -1.000
 3499.00    0.57883   0.58667  271.992
 3500.00    0.58208   0.59152  269.533
 3501.00    0.58194   0.59329  273.540
 3502.00    0.59463   0.59433  275.035
 3503.00    0.60297   0.59412  275.035
 3504.00    0.59577   0.59101  275.035
 3505.00    0.59364   0.58579  275.035
 3506.00    0.59216   0.58142   -1.000
 3507.00    0.59145   0.57948   -1.000
 3508.00    0.59245   0.57859   -1.000
 3509.00    0.58654   0.57639   -1.000
 3510.00    0.57753   0.57196  275.035
 3511.00    0.57072   0.56612  275.035
 3512.00    0.56835   0.56062  275.035
 3513.00    0.56523   0.55806  275.035
 3514.00    0.56059   0.56132  275.035
 3515.00    0.57199   0.57114  275.035
 3516.00    0.59293   0.58427  275.035
 3517.00    0.59987   0.59505  275.035
 3518.00    0.59411   0.59877  275.035
 3519.00    0.58707   0.59433  275.035
 3520.00    0.57781   0.58439  275.035
 3521.00    0.56824   0.57269   52.055
 3522.00    0.55767   0.56150   35.472
 3523.00    0.55240   0.55147   35.791
 3524.00    0.54669   0.54401   81.702
 3525.00    0.53412   0.54212  275.035
 3526.00    0.53042   0.54822   -1.000
 3527.00    0.54188   0.56116   -1.000
 3528.00    0.56257   0.57597   -1.000
 3529.00    0.57454   0.58708   -1.000
 3530.00    0.58736   0.59221  275.035
 3531.00    0.58759   0.59322  275.035
 3532.00    0.59171   0.59373  275.035
 3533.00    0.59744   0.59581  275.035
 3534.00    0.59457   0.59916  275.035
 3535.00    0.59163   0.60258  275.035
 3536.00    0.59219   0.60584   -1.000
 3537.00    0.59170   0.60958   -1.000
 3538.00    0.59537   0.61379   -1.000
 3539.00    0.59714   0.61713   -1.000
 3540.00    0.59997   0.61847   -1.000
 3541.00    0.59602   0.61867   -1.000
 3542.00    0.59214   0.61964   -1.000
 3543.00    0.59923   0.62189   -1.000
 3544.00    0.60709   0.62398   -1.000
 3545.00    0.60235   0.62446   -1.000
 3546.00    0.60076   0.62348   -1.000
 3547.00    0.60065   0.62255   -1.000
 3548.00    0.59428   0.62271   -1.000
 3549.00    0.59435   0.62349   -1.000
 3550.00    0.59522   0.62340   -1.000
 3551.00    0.59044   0.62121   -1.000
 3552.00    0.58194   0.61702   -1.000
 3553.00    0.57756   0.61231   -1.000
 3554.00    0.57739   0.60888   -1.000
 3555.00    0.58051   0.60740   -1.000
 3556.00    0.58083   0.60695   -1.000
 3557.00    0.57377   0.60625   -1.000
 3558.00    0.57650   0.60527   -1.000
 3559.00    0.58143   0.60574   -1.000
 3560.00    0.58255   0.60917   -1.000
 3561.00    0.58418   0.61404   -1.000
 3562.00    0.58502   0.61510   50.360
 3563.00    0.58123   0.60724   35.982
 3564.00    0.57003   0.59105   36.194
 3565.00    0.54667   0.57337   35.914
 3566.00    0.53714   0.56116   36.662
 3567.00    0.53513   0.55492   37.539
 3568.00    0.53404   0.55026   36.960
 3569.00    0.52610   0.54414   35.454
 3570.00    0.52008   0.53830   86.337
 3571.00    0.52677   0.53650  275.035
 3572.00    0.53676   0.53949  275.035
 3573.00    0.54123   0.54443  275.035
 3574.00    0.54888   0.54838  275.035
 3575.00    0.55357   0.55067  275.035
 3576.00    0.55534   0.55156   51.446
 3577.00    0.55757   0.55011   38.117
 3578.00    0.56104   0.54454   40.533
 3579.00    0.55282   0.53478   41.425
 3580.00    0.53272   0.52380   41.620
 3581.00    0.52123   0.51569   42.388
 3582.00    0.52019   0.51187   43.688
 3583.00    0.52685   0.51005   44.573
 3584.00    0.52282   0.50709   43.196
 3585.00    0.51073   0.50279   40.915
 3586.00    0.50366   0.50051   38.873
 3587.00    0.50014   0.50381   35.861
 3588.00    0.50602   0.51366   88.097
 3589.00    0.52496   0.52835  275.035
 3590.00    0.54100   0.54436  275.035
 3591.00    0.55355   0.55796  275.035
 3592.00    0.56986   0.56711  275.035
 3593.00    0.57213   0.57298  275.035
 3594.00    0.57241   0.57863  274.101
 3595.00    0.57770   0.58623  266.683
 3596.00    0.58399   0.59541  261.514
 3597.00    0.59285   0.60398  262.387
 3598.00    0.59964   0.60966  272.122
 3599.00    0.60894   0.61051  275.035
 3600.00    0.60620   0.60534  275.035
 3601.00    0.58760   0.59472  275.035
 3602.00    0.58138   0.58162  275.035
 3603.00    0.57064   0.57042  275.035
 3604.00    0.56405   0.56417  275.035
 3605.00    0.56795   0.56252  275.035
 3606.00    0.57548   0.56226   -1.000
 3607.00    0.57319   0.56033   -1.000
 3608.00    0.56619   0.55697  275.035
 3609.00    0.55001   0.55498  275.035
 3610.00    0.54617   0.55649  275.035
 3611.00    0.56243   0.56092  275.035
 3612.00    0.57233   0.56634  275.035
 3613.00    0.56945   0.57213  275.035
 3614.00    0.57839   0.57777  275.035
 3615.00    0.59043   0.58070  275.035
 3616.00    0.59146   0.57744   47.319
 3617.00    0.57723   0.56816   92.100
 3618.00    0.55567   0.55886  275.035
 3619.00    0.54727   0.55697  275.035
 3620.00    0.56386   0.56431  274.111
 3621.00    0.58150   0.57698  269.860
 3622.00    0.58984   0.58976  261.703
 3623.00    0.59582   0.60073  251.013
 3624.00    0.59895   0.61144   -1.000
 3625.00    0.61449   0.62345  247.598
 3626.00    0.62989   0.63466  259.781
 3627.00    0.63645   0.63936  275.035
 3628.00    0.63220   0.63256  275.035
 3629.00    0.61050   0.61452  275.035
 3630.00    0.57478   0.59216   -1.000
 3631.00    0.55726   0.57519   -1.000
 3632.00    0.56089   0.56930  275.035
 3633.00    0.56867   0.57318  275.035
 3634.00    0.58450   0.58090  275.035
 3635.00    0.59503   0.58781  262.748
 3636.00    0.59849   0.59369  253.115
 3637.00    0.60723   0.60090  250.587
 3638.00    0.61810   0.60993  255.124
 3639.00    0.62783   0.61742  263.193
 3640.00    0.62471   0.61914  275.035
 3641.00    0.61680   0.61331  275.035
 3642.00    0.60603   0.60227  275.035
 3643.00    0.59304   0.59041  275.035
 3644.00    0.58595   0.58126  275.035
 3645.00    0.58478   0.57574  275.035
 3646.00    0.58270   0.57278  275.035
 3647.00    0.57816   0.57166  275.035
 3648.00    0.58164   0.57317  272.897
 3649.00    0.58532   0.57839  260.954
 3650.00    0.58791   0.58735  253.368
 3651.00    0.60076   0.59864  249.156
 3652.00    0.61015   0.61005  247.646
 3653.00    0.61352   0.61961  245.308
 3654.00    0.62053   0.62689  242.680
 3655.00    0.63052   0.63270  238.937
 3656.00    0.63263   0.63809  238.070
 3657.00    0.62904   0.64288   -1.000
 3658.00    0.63493   0.64558  240.106
 3659.00    0.63438   0.64504  242.724
 3660.00    0.63644   0.64119  246.503
 3661.00    0.63459   0.63520  248.997
 3662.00    0.63186   0.62896  247.176
 3663.00    0.63155   0.62431  246.511
 3664.00    0.62826   0.62196  250.477
 3665.00    0.63120   0.62104  253.902
 3666.00    0.62843   0.61960  259.322
 3667.00    0.62199   0.61666  259.680
 3668.00    0.61258   0.61366  251.784
 3669.00    0.61479   0.61339  245.603
 3670.00    0.62042   0.61751  243.760
 3671.00    0.62668   0.62420  243.527
 3672.00    0.62983   0.62982  243.941
 3673.00    0.63480   0.63145  249.795
 3674.00    0.63283   0.62815  257.629
 3675.00    0.63361   0.62085   -1.000
 3676.00    0.63052   0.61116   -1.000
 3677.00    0.61512   0.60143   -1.000
 3678.00    0.59789   0.59415  267.966
 3679.00    0.59781   0.59091  260.334
 3680.00    0.60337   0.59177   -1.000
 3681.00    0.60544   0.59507  260.918
 3682.00    0.61237   0.59809   -1.000
 3683.00    0.61081   0.59791   -1.000
 3684.00    0.60960   0.59295   -1.000
 3685.00    0.60004   0.58493   -1.000
 3686.00    0.59453   0.57880   -1.000
 3687.00    0.59436   0.57993   -1.000
 3688.00    0.60435   0.58955   -1.000
 3689.00    0.62059   0.60398   -1.000
 3690.00    0.63318   0.61739   -1.000
 3691.00    0.63459   0.62618  249.072
 3692.00    0.63974   0.63011  248.983
 3693.00    0.64269   0.63084   -1.000
 3694.00    0.64244   0.62942   -1.000
 3695.00    0.63621   0.62694  237.203
 3696.00    0.63055   0.62662  230.757
 3697.00    0.63677   0.63234  227.064
 3698.00    0.64443   0.64470  229.763
 3699.00    0.66671   0.65786  238.986
 3700.00    0.68017   0.66210   -1.000
 3701.00    0.66616   0.65058   -1.000
 3702.00    0.64356   0.62466   -1.000
 3703.00    0.60922   0.59359   -1.000
 3704.00    0.57939   0.56938   -1.000
 3705.00    0.57513   0.55938   -1.000
 3706.00    0.58913   0.56302   -1.000
 3707.00    0.60594   0.57308   -1.000
 3708.00    0.61480   0.58176   -1.000
 3709.00    0.61760   0.58557   -1.000
 3710.00    0.61503   0.58696   -1.000
 3711.00    0.60275   0.59248  226.268
 3712.00    0.61310   0.60730  224.537
 3713.00    0.63936   0.63063  229.086
 3714.00    0.67663   0.65601   -1.000
 3715.00    0.70244   0.67514   -1.000
 3716.00    0.70071   0.68084   -1.000
 3717.00    0.68999   0.66882   -1.000
 3718.00    0.66467   0.63881   44.123
 3719.00    0.61568   0.59722  114.584
 3720.00    0.56747   0.55753   -1.000
 3721.00    0.53826   0.53533  266.921
 3722.00    0.55047   0.53915   -1.000
 3723.00    0.58844   0.56632   -1.000
 3724.00    0.63862   0.60478   -1.000
 3725.00    0.67342   0.64051   -1.000
 3726.00    0.69247   0.66522   -1.000
 3727.00    0.69212   0.67916   -1.000
 3728.00    0.68559   0.68482  270.707
 3729.00    0.68776   0.68010  275.035
 3730.00    0.68096   0.65986   42.758
 3731.00    0.64737   0.62221   37.789
 3732.00    0.59633   0.57342   39.890
 3733.00    0.54626   0.52703   38.577
 3734.00    0.50584   0.49745   35.253
 3735.00    0.50235   0.49399  114.547
 3736.00    0.52402   0.51780  275.035
 3737.00    0.57151   0.56214  261.934
 3738.00    0.63039   0.61520   -1.000
 3739.00    0.67655   0.66397  265.696
 3740.00    0.70122   0.69785  275.035
 3741.00    0.71580   0.71215  275.035
 3742.00    0.70697   0.70826  275.035
 3743.00    0.69158   0.69077  275.035
 3744.00    0.66669   0.66425   42.972
 3745.00    0.63646   0.63132   36.859
 3746.00    0.60493   0.59297   37.657
 3747.00    0.56776   0.55219  129.316
 3748.00    0.53424   0.51674   -1.000
 3749.00    0.50337   0.49818  273.125
 3750.00    0.51236   0.50596  251.270
 3751.00    0.56280   0.54014   -1.000
 3752.00    0.62097   0.59119   -1.000
 3753.00    0.67244   0.64521   -1.000
 3754.00    0.71579   0.68932   -1.000
 3755.00    0.74448   0.71492   -1.000
 3756.00    0.74036   0.72020   -1.000
 3757.00    0.71612   0.71086  275.035
 3758.00    0.69674   0.69798  275.035
 3759.00    0.68695   0.69111  268.423
 3760.00    0.69654   0.69308  265.673
 3761.00    0.72024   0.70036   -1.000
 3762.00    0.73364   0.70709   -1.000
 3763.00    0.72787   0.70830   -1.000
 3764.00    0.72061   0.70052   -1.000
 3765.00    0.71601   0.68252   -1.000
 3766.00    0.70072   0.65543   -1.000
 3767.00    0.67346   0.62242   -1.000
 3768.00    0.63436   0.58860   -1.000
 3769.00    0.60944   0.56157   -1.000
 3770.00    0.58420   0.55002   -1.000
 3771.00    0.59338   0.55938   -1.000
 3772.00    0.63291   0.58744   -1.000
 3773.00    0.68066   0.62509   -1.000
 3774.00    0.70919   0.66303   -1.000
 3775.00    0.72458   0.69749   -1.000
 3776.00    0.74875   0.72920   -1.000
 3777.00    0.77264   0.75939  222.459
 3778.00    0.79398   0.78772  220.371
 3779.00    0.81316   0.81230  219.020
 3780.00    0.82420   0.83135  218.912
 3781.00    0.83497   0.84395  223.194
 3782.00    0.83887   0.84978   -1.000
 3783.00    0.84049   0.84832  250.950
 3784.00    0.83375   0.83885  264.590
 3785.00    0.81130   0.82198   -1.000
 3786.00    0.79102   0.80103  271.392
 3787.00    0.78131   0.78116  267.217
 3788.00    0.77409   0.76603  264.147
 3789.00    0.76647   0.75538  267.188
 3790.00    0.76829   0.74537   -1.000
 3791.00    0.75944   0.73076   -1.000
 3792.00    0.74045   0.70711   -1.000
 3793.00    0.70660   0.67299   -1.000
 3794.00    0.67148   0.63044   -1.000
 3795.00    0.63161   0.58430   -1.000
 3796.00    0.59147   0.54241   -1.000
 3797.00    0.55913   0.51498   -1.000
 3798.00    0.54656   0.51190   -1.000
 3799.00    0.57725   0.53735   -1.000
 3800.00    0.62841   0.58530   -1.000
 3801.00    0.68701   0.64246   -1.000
 3802.00    0.73424   0.69575   -1.000
 3803.00    0.76190   0.73673   -1.000
 3804.00    0.78382   0.76331   -1.000
 3805.00    0.79446   0.77874   -1.000
 3806.00    0.79380   0.78969  246.240
 3807.00    0.79539   0.80310  242.533
 3808.00    0.81209   0.82160  246.285
 3809.00    0.82920   0.84085   -1.000
 3810.00    0.84612   0.85272  274.370
 3811.00    0.84318   0.85069  275.035
 3812.00    0.82543   0.83440   -1.000
 3813.00    0.80527   0.81129  275.035
 3814.00    0.78137   0.79212   -1.000
 3815.00    0.78514   0.78372  275.035
 3816.00    0.80228   0.78475   -1.000
 3817.00    0.80304   0.78725   -1.000
 3818.00    0.80878   0.78389   -1.000
 3819.00    0.79300   0.77428   -1.000
 3820.00    0.77399   0.76368  275.035
 3821.00    0.77328   0.75650   -1.000
 3822.00    0.78607   0.75077   41.754
 3823.00    0.77591   0.74042   36.906
 3824.00    0.74729   0.72306   36.726
 3825.00    0.71712   0.70252   36.161
 3826.00    0.70345   0.68428   35.566
 3827.00    0.70652   0.66981   35.882
 3828.00    0.70065   0.65584   37.380
 3829.00    0.69211   0.63736   40.234
 3830.00    0.67579   0.61061   41.723
 3831.00    0.65109   0.57474   -1.000
 3832.00    0.60549   0.53305   39.560
 3833.00    0.56006   0.49291   38.605
 3834.00    0.52191   0.46351   39.234
 3835.00    0.51009   0.45187   40.181
 3836.00    0.53348   0.45945   -1.000
 3837.00    0.56466   0.48286   -1.000
 3838.00    0.59460   0.51720   -1.000
 3839.00    0.62054   0.55869   -1.000
 3840.00    0.65693   0.60508   -1.000
 3841.00    0.70164   0.65332   -1.000
 3842.00    0.73634   0.69895   -1.000
 3843.00    0.77276   0.73802   -1.000
 3844.00    0.80086   0.76874   -1.000
 3845.00    0.81167   0.79194   -1.000
 3846.00    0.81090   0.80904  275.035
 3847.00    0.81955   0.82056  275.035
 3848.00    0.82533   0.82698  275.035
 3849.00    0.81797   0.83058   -1.000
 3850.00    0.81201   0.83499   -1.000
 3851.00    0.81572   0.84144   -1.000
 3852.00    0.84091   0.84759  275.035
 3853.00    0.85251   0.84962  275.035
 3854.00    0.84933   0.84576  275.035
 3855.00    0.83747   0.83752   38.567
 3856.00    0.82438   0.82758   36.241
 3857.00    0.81643   0.81825   35.745
 3858.00    0.80559   0.81220  162.883
 3859.00    0.79055   0.81219   -1.000
 3860.00    0.79175   0.81968   -1.000
 3861.00    0.82705   0.83232  275.035
 3862.00    0.86151   0.84474   -1.000
 3863.00    0.87553   0.85255   -1.000
 3864.00    0.86693   0.85505  275.035
 3865.00    0.86299   0.85496  275.035
 3866.00    0.86924   0.85469   -1.000
 3867.00    0.86550   0.85415  275.035
 3868.00    0.86159   0.85079   38.707
 3869.00    0.84741   0.84152  170.520
 3870.00    0.82118   0.82648  275.035
 3871.00    0.79764   0.81037   -1.000
 3872.00    0.77651   0.80030   -1.000
 3873.00    0.78165   0.80002   -1.000
 3874.00    0.80997   0.80594  275.035
 3875.00    0.82777   0.80940   -1.000
 3876.00    0.81513   0.80361  275.035
 3877.00    0.78838   0.78979  275.035
 3878.00    0.76484   0.77446  275.035
 3879.00    0.75367   0.76229  275.035
 3880.00    0.75797   0.75224  275.035
 3881.00    0.75487   0.73987   -1.000
 3882.00    0.74444   0.72176   -1.000
 3883.00    0.73503   0.69624   -1.000
 3884.00    0.72368   0.66194   -1.000
 3885.00    0.68965   0.61925   -1.000
 3886.00    0.63834   0.57277   -1.000
 3887.00    0.59277   0.53276   -1.000
 3888.00    0.56164   0.51107   -1.000
 3889.00    0.56495   0.51494   -1.000
 3890.00    0.60651   0.54307   -1.000
 3891.00    0.66074   0.58584   -1.000
 3892.00    0.70991   0.63076   -1.000
 3893.00    0.72804   0.66933   -1.000
 3894.00    0.74497   0.70041   -1.000
 3895.00    0.76937   0.72631   -1.000
 3896.00    0.78214   0.74864   -1.000
 3897.00    0.80050   0.76705   -1.000
 3898.00    0.80317   0.78144   -1.000
 3899.00    0.79851   0.79365  229.195
 3900.00    0.82153   0.80555   -1.000
 3901.00    0.83446   0.81636   -1.000
 3902.00    0.84573   0.82333   -1.000
 3903.00    0.84263   0.82532   -1.000
 3904.00    0.83318   0.82500  236.563
 3905.00    0.82080   0.82802  220.648
 3906.00    0.82750   0.83903  214.814
 3907.00    0.84890   0.85796  212.707
 3908.00    0.87948   0.88035  210.684
 3909.00    0.89472   0.89959  209.391
 3910.00    0.90744   0.91113  211.666
 3911.00    0.90921   0.91440  215.984
 3912.00    0.90364   0.91121  221.058
 3913.00    0.89532   0.90466  223.998
 3914.00    0.88447   0.89798   -1.000
 3915.00    0.89175   0.89291  233.461
 3916.00    0.88070   0.88886  243.668
 3917.00    0.87153   0.88414   -1.000
 3918.00    0.86614   0.87766   -1.000
 3919.00    0.85919   0.87042   -1.000
 3920.00    0.85736   0.86469  254.264
 3921.00    0.85420   0.86233  255.948
 3922.00    0.85623   0.86262  268.291
 3923.00    0.86214   0.86192  275.035
 3924.00    0.85320   0.85563  275.035
 3925.00    0.83422   0.84016   40.942
 3926.00    0.81067   0.81451   44.471
 3927.00    0.77777   0.77975   52.037
 3928.00    0.73108   0.73734   61.559
 3929.00    0.67027   0.68849   72.069
 3930.00    0.59595   0.63412   -1.000
 3931.00    0.51691   0.57864   -1.000
 3932.00    0.44217   0.53204   -1.000
 3933.00    0.40626   0.50736   -1.000
 3934.00    0.41324   0.51371   -1.000
 3935.00    0.47320   0.54995   -1.000
 3936.00    0.57057   0.60474   -1.000
 3937.00    0.64551   0.66455   -1.000
 3938.00    0.71530   0.71923  275.035
 3939.00    0.76728   0.76316  275.035
 3940.00    0.79700   0.79455  275.035
 3941.00    0.80614   0.81357   -1.000
 3942.00    0.81747   0.82315  254.590
 3943.00    0.82615   0.82830  239.503
 3944.00    0.82748   0.83351  236.504
 3945.00    0.85086   0.84069  234.771
 3946.00    0.87477   0.84862   -1.000
 3947.00    0.87295   0.85505   -1.000
 3948.00    0.86413   0.85899  219.626
 3949.00    0.87082   0.86093  222.827
 3950.00    0.87823   0.86163  219.088
 3951.00    0.88087   0.86188   -1.000
 3952.00    0.87661   0.86241  215.731
 3953.00    0.87608   0.86253  223.548
 3954.00    0.88606   0.86009   -1.000
 3955.00    0.87138   0.85365   -1.000
 3956.00    0.85501   0.84419  228.453
 3957.00    0.84912   0.83351   -1.000
 3958.00    0.85379   0.82065   -1.000
 3959.00    0.84949   0.80140   -1.000
 3960.00    0.81483   0.77313   -1.000
 3961.00    0.76923   0.73711   37.577
 3962.00    0.73209   0.69651   42.097
 3963.00    0.69432   0.65230   51.874
 3964.00    0.64325   0.60091   63.501
 3965.00    0.57169   0.54006   70.383
 3966.00    0.47564   0.47315   65.652
 3967.00    0.38001   0.41146   54.239
 3968.00    0.31862   0.36985   44.554
 3969.00    0.31245   0.35900   37.252
 3970.00    0.36476   0.38052   -1.000
 3971.00    0.45231   0.42758   -1.000
 3972.00    0.54833   0.48915   -1.000
 3973.00    0.62502   0.55485   -1.000
 3974.00    0.69207   0.61793   -1.000
 3975.00    0.74614   0.67456   -1.000
 3976.00    0.78088   0.72409   -1.000
 3977.00    0.81366   0.76653   -1.000
 3978.00    0.84460   0.80175   -1.000
 3979.00    0.87471   0.82867   -1.000
 3980.00    0.88192   0.84641   -1.000
 3981.00    0.88594   0.85696   -1.000
 3982.00    0.88774   0.86459   -1.000
 3983.00    0.89490   0.87332   -1.000
 3984.00    0.91600   0.88413   -1.000
 3985.00    0.92926   0.89557   -1.000
 3986.00    0.93177   0.90649   -1.000
 3987.00    0.93837   0.91683   -1.000
 3988.00    0.94641   0.92714  178.295
 3989.00    0.95013   0.93748  173.947
 3990.00    0.96251   0.94750  176.092
 3991.00    0.96816   0.95650  180.390
 3992.00    0.98191   0.96288  184.551
 3993.00    0.98572   0.96456   -1.000
 3994.00    0.97530   0.96071  189.655
 3995.00    0.95523   0.95333  185.310
 3996.00    0.94330   0.94669  176.691
 3997.00    0.93705   0.94480  170.723
 3998.00    0.94514   0.94942  168.032
 3999.00    0.96831   0.95854  165.631
 4000.00    0.98054   0.96784  168.999
 4001.00    0.99518   0.97266   -1.000
 4002.00    0.99436   0.97015   -1.000
 4003.00    0.98686   0.96048   -1.000
 4004.00    0.96519   0.94855  177.282
 4005.00    0.94578   0.94118  170.317
 4006.00    0.95914   0.94351  168.161
 4007.00    0.96624   0.95530  166.348
 4008.00    0.98288   0.97061  165.819
 4009.00    0.99718   0.98336  167.060
 4010.00    1.00000   0.99078  167.963
 4011.00    0.99390   0.99383  166.651
 4012.00    1.00054   0.99517  164.238
 4013.00    0.99403   0.99673  165.765
 4014.00    0.99769   0.99919  167.846
 4015.00    1.00613   1.00206  166.959
 4016.00    1.00553   1.00532  164.302
 4017.00    1.00289   1.00924  164.785
 4018.00    1.00894   1.01365  167.285
 4019.00    1.01240   1.01728  168.221
 4020.00    1.01266   1.01821  169.330
 4021.00    1.00390   1.01525  170.658
 4022.00    0.99879   1.00888  166.233
 4023.00    0.99926   1.00180  160.222
 4024.00    0.99382   0.99757  157.071
 4025.00    0.99932   0.99852  158.670
 4026.00    1.01166   1.00293  165.454
 4027.00    1.01356   1.00565  177.015
 4028.00    1.00613   1.00178  184.298
 4029.00    0.99322   0.99063  186.308
 4030.00    0.97375   0.97692  183.762
 4031.00    0.95250   0.96645   -1.000
 4032.00    0.96108   0.96364  168.675
 4033.00    0.96988   0.96941  160.364
 4034.00    0.97672   0.98238  154.843
 4035.00    0.99648   0.99993  154.456
 4036.00    1.02148   1.01824  157.892
 4037.00    1.03053   1.03275  161.669
 4038.00    1.03080   1.04008  163.350
 4039.00    1.02934   1.03969  164.213
 4040.00    1.01620   1.03374   -1.000
 4041.00    1.00620   1.02394   -1.000
 4042.00    1.00549   1.00900  204.021
 4043.00    0.99054   0.98951  194.714
 4044.00    0.96283   0.96997  175.517
 4045.00    0.93767   0.95909   -1.000
 4046.00    0.94108   0.96318   -1.000
 4047.00    0.97529   0.97985  158.929
 4048.00    1.00294   1.00075  160.195
 4049.00    1.01562   1.01676  164.733
 4050.00    1.01369   1.02338  168.964
 4051.00    1.02090   1.02097  171.505
 4052.00    1.01186   1.01311  172.827
 4053.00    0.99757   1.00400  174.007
 4054.00    0.99784   0.99680  175.756
 4055.00    0.99115   0.99297  173.429
 4056.00    0.98936   0.99218  167.046
 4057.00    0.98209   0.99440  163.996
 4058.00    0.99173   0.99870  167.285
 4059.00    1.00286   1.00159  179.961
 4060.00    1.01483   0.99880  191.978
 4061.00    1.00788   0.98749   -1.000
 4062.00    0.97465   0.97075  178.899
 4063.00    0.95218   0.95489  174.662
 4064.00    0.95345   0.94566  169.878
 4065.00    0.96745   0.94493   -1.000
 4066.00    0.97881   0.95070   -1.000
 4067.00    0.97829   0.95862  169.560
 4068.00    0.98776   0.96381   -1.000
 4069.00    0.99097   0.96307   -1.000
 4070.00    0.98534   0.95664   -1.000
 4071.00    0.97092   0.94889   -1.000
 4072.00    0.96267   0.94383  177.238
 4073.00    0.97746   0.94088   -1.000
 4074.00    0.97591   0.93563   -1.000
 4075.00    0.96426   0.92495   -1.000
 4076.00    0.94146   0.91242   -1.000
 4077.00    0.92146   0.90538  164.843
 4078.00    0.92851   0.90968  160.376
 4079.00    0.95109   0.92382   -1.000
 4080.00    0.97461   0.94038   -1.000
 4081.00    0.98498   0.95095   -1.000
 4082.00    0.98325   0.95197   -1.000
 4083.00    0.97211   0.94666   -1.000
 4084.00    0.96087   0.94127  156.324
 4085.00    0.95789   0.94102  151.604
 4086.00    0.97216   0.94620   -1.000
 4087.00    0.97974   0.95310   -1.000
 4088.00    0.98367   0.95646   -1.000
 4089.00    0.98152   0.95334   -1.000
 4090.00    0.97162   0.94418   -1.000
 4091.00    0.95225   0.93107   -1.000
 4092.00    0.94456   0.91541   -1.000
 4093.00    0.94102   0.89622   -1.000
 4094.00    0.92412   0.87227   -1.000
 4095.00    0.89698   0.84293   -1.000
 4096.00    0.87680   0.80831   -1.000
 4097.00    0.85815   0.76805   -1.000
 4098.00    0.82888   0.72153   -1.000
 4099.00    0.77381   0.67178   -1.000
 4100.00    0.70506   0.62771   -1.000
 4101.00    0.64290   0.60232   -1.000
 4102.00    0.63858   0.60569   -1.000
 4103.00    0.69462   0.63711   -1.000
 4104.00    0.76684   0.68573   -1.000
 4105.00    0.82525   0.73707   -1.000
 4106.00    0.86114   0.78057   -1.000
 4107.00    0.87507   0.81315   -1.000
 4108.00    0.88397   0.83668   -1.000
 4109.00    0.88937   0.85491   -1.000
 4110.00    0.90872   0.87144   -1.000
 4111.00    0.91447   0.88827   -1.000
 4112.00    0.93298   0.90607   -1.000
 4113.00    0.95202   0.92382   -1.000
 4114.00    0.96081   0.93963   -1.000
 4115.00    0.96916   0.95078  173.190
 4116.00    0.97698   0.95553   -1.000
 4117.00    0.97137   0.95452  172.466
 4118.00    0.95999   0.95083  170.840
 4119.00    0.95379   0.94805  170.927
 4120.00    0.95032   0.94798  168.920
 4121.00    0.95639   0.95065  166.057
 4122.00    0.95757   0.95517  165.800
 4123.00    0.96485   0.96064  168.251
 4124.00    0.97924   0.96541  171.774
 4125.00    0.98800   0.96728   -1.000
 4126.00    0.98652   0.96504   -1.000
 4127.00    0.98004   0.95992   -1.000
 4128.00    0.97329   0.95429  182.280
 4129.00    0.97351   0.94918   -1.000
 4130.00    0.97024   0.94427   -1.000
 4131.00    0.95620   0.93983  180.632
 4132.00    0.94011   0.93873  171.651
 4133.00    0.94348   0.94416  166.409
 4134.00    0.95229   0.95718  163.817
 4135.00    0.97210   0.97502  161.426
 4136.00    0.99224   0.99351  161.202
 4137.00    0.99986   1.00877  165.114
 4138.00    1.00556   1.01795  174.516
 4139.00    1.00657   1.01866  189.093
 4140.00    1.00273   1.00988  197.270
 4141.00    0.98992   0.99332  189.022
 4142.00    0.96497   0.97523  177.878
 4143.00    0.93269   0.96344   -1.000
 4144.00    0.94550   0.96257   -1.000
 4145.00    0.96610   0.97113  174.259
 4146.00    0.98446   0.98235  178.962
 4147.00    0.98653   0.99035  180.746
 4148.00    0.98125   0.99365  179.333
 4149.00    0.97932   0.99416   -1.000
 4150.00    0.99620   0.99380  180.483
 4151.00    1.04267   0.99239   -1.000
 4152.00    0.97626   0.98899  178.200
 4153.00    0.91934   0.98407   -1.000
 4154.00    0.94706   0.98015   -1.000
 4155.00    0.98209   0.97997  171.409
 4156.00    0.96713   0.98464   -1.000
 4157.00    0.97048   0.99278   -1.000
 4158.00    0.98417   1.00169   -1.000
 4159.00    0.99562   1.00903  164.959
 4160.00    1.00371   1.01402  166.233
 4161.00    0.99689   1.01746   -1.000
 4162.00    0.99420   1.02046   -1.000
 4163.00    1.00106   1.02295   -1.000
 4164.00    1.00327   1.02381   -1.000
 4165.00    1.00014   1.02196   -1.000
 4166.00    0.99272   1.01756   -1.000
 4167.00    0.99080   1.01148   -1.000
 4168.00    0.99372   1.00346  187.280
 4169.00    0.98977   0.99179  197.494
 4170.00    0.97571   0.97507  196.753
 4171.00    0.95376   0.95623  189.388
 4172.00    0.93066   0.94152  183.315
 4173.00    0.92174   0.93650   -1.000
 4174.00    0.92656   0.94114   -1.000
 4175.00    0.94511   0.95017  183.317
 4176.00    0.94819   0.95818  180.489
 4177.00    0.94671   0.96372   -1.000
 4178.00    0.94814   0.96856   -1.000
 4179.00    0.96202   0.97404  176.755
 4180.00    0.97316   0.97919  173.182
 4181.00    0.96989   0.98272  170.544
 4182.00    0.96548   0.98487   -1.000
 4183.00    0.96795   0.98650   -1.000
 4184.00    0.97142   0.98747   -1.000
 4185.00    0.96711   0.98643   -1.000
 4186.00    0.95815   0.98344   -1.000
 4187.00    0.95149   0.98054   -1.000
 4188.00    0.94881   0.98014   -1.000
 4189.00    0.96030   0.98311   -1.000
 4190.00    0.96310   0.98848   -1.000
 4191.00    0.96842   0.99446   -1.000
 4192.00    0.97813   0.99879   -1.000
 4193.00    0.99016   0.99869  187.291
 4194.00    0.98739   0.99205  190.095
 4195.00    0.97101   0.97932  190.052
 4196.00    0.95217   0.96347  187.733
 4197.00    0.94052   0.94869  185.017
 4198.00    0.93039   0.93825  184.518
 4199.00    0.93051   0.93344  183.048
 4200.00    0.93398   0.93367  180.309
 4201.00    0.93954   0.93759  178.761
 4202.00    0.94209   0.94427  175.032
 4203.00    0.94607   0.95340  170.743
 4204.00    0.95342   0.96470  167.814
 4205.00    0.95421   0.97692   -1.000
 4206.00    0.94873   0.98822   -1.000
 4207.00    0.96573   0.99671   -1.000
 4208.00    0.96839   1.00172   -1.000
 4209.00    0.96705   1.00425   -1.000
 4210.00    0.96947   1.00582   -1.000
 4211.00    0.97248   1.00644   -1.000
 4212.00    0.97811   1.00408   -1.000
 4213.00    0.97509   0.99710   -1.000
 4214.00    0.96338   0.98691   -1.000
 4215.00    0.94493   0.97842   -1.000
 4216.00    0.93102   0.97671   -1.000
 4217.00    0.94448   0.98296   -1.000
 4218.00    0.96190   0.99375   -1.000
 4219.00    0.97360   1.00305   -1.000
 4220.00    0.97899   1.00566   -1.000
 4221.00    0.97656   0.99832   -1.000
 4222.00    0.96652   0.98010   -1.000
 4223.00    0.94897   0.95279  232.858
 4224.00    0.92532   0.92227  214.110
 4225.00    0.88967   0.89761  185.866
 4226.00    0.85835   0.88845   -1.000
 4227.00    0.86469   0.89871   -1.000
 4228.00    0.90842   0.92373  161.127
 4229.00    0.95038   0.95162  165.073
 4230.00    0.97329   0.97091  169.011
 4231.00    0.97465   0.97684  170.941
 4232.00    0.96380   0.97220  174.936
 4233.00    0.95431   0.96343  177.319
 4234.00    0.94696   0.95607  175.326
 4235.00    0.93540   0.95250   -1.000
 4236.00    0.93149   0.95301   -1.000
 4237.00    0.93191   0.95702   -1.000
 4238.00    0.94118   0.96380   -1.000
 4239.00    0.94515   0.97190   -1.000
 4240.00    0.94795   0.97981   -1.000
 4241.00    0.95744   0.98645   -1.000
 4242.00    0.96021   0.99127   -1.000
 4243.00    0.95791   0.99346   -1.000
 4244.00    0.95625   0.99146   -1.000
 4245.00    0.95112   0.98429   -1.000
 4246.00    0.93937   0.97337   -1.000
 4247.00    0.92213   0.96241   -1.000
 4248.00    0.91524   0.95543   -1.000
 4249.00    0.91455   0.95408   -1.000
 4250.00    0.91468   0.95735   -1.000
 4251.00    0.92724   0.96224   -1.000
 4252.00    0.94390   0.96585   -1.000
 4253.00    0.94596   0.96715   -1.000
 4254.00    0.94297   0.96732   -1.000
 4255.00    0.94358   0.96780   -1.000
 4256.00    0.95558   0.96752  180.539
 4257.00    0.95791   0.96386  182.846
 4258.00    0.95023   0.95645  174.605
 4259.00    0.93491   0.94918  164.003
 4260.00    0.92343   0.94822   -1.000
 4261.00    0.92364   0.95663   -1.000
 4262.00    0.94176   0.97234   -1.000
 4263.00    0.96166   0.98913   -1.000
 4264.00    0.97365   1.00115   -1.000
 4265.00    0.97934   1.00528   -1.000
 4266.00    0.97343   1.00123   -1.000
 4267.00    0.96020   0.98994   -1.000
 4268.00    0.95346   0.97282   -1.000
 4269.00    0.94346   0.95194  197.350
 4270.00    0.91871   0.93098  192.541
 4271.00    0.89791   0.91460   -1.000
 4272.00    0.89263   0.90682  177.553
 4273.00    0.90085   0.90915  166.512
 4274.00    0.90708   0.92050  160.414
 4275.00    0.92003   0.93770   -1.000
 4276.00    0.94099   0.95617   -1.000
 4277.00    0.95860   0.97054  174.078
 4278.00    0.96688   0.97730  173.698
 4279.00    0.95294   0.97663   -1.000
 4280.00    0.93409   0.97208   -1.000
 4281.00    0.92606   0.96724   -1.000
 4282.00    0.92742   0.96341   -1.000
 4283.00    0.93207   0.95954   -1.000
 4284.00    0.92972   0.95377   -1.000
 4285.00    0.92353   0.94488   -1.000
 4286.00    0.91469   0.93237   -1.000
 4287.00    0.89998   0.91718   -1.000
 4288.00    0.88224   0.90218   -1.000
 4289.00    0.86825   0.89194   -1.000
 4290.00    0.86274   0.89005   -1.000
 4291.00    0.87161   0.89591   -1.000
 4292.00    0.89582   0.90425  181.499
 4293.00    0.90896   0.90913  186.763
 4294.00    0.90711   0.90726  197.884
 4295.00    0.90314   0.89869  215.007
 4296.00    0.89846   0.88426  228.071
 4297.00    0.88063   0.86522   -1.000
 4298.00    0.84910   0.84385  221.734
 4299.00    0.82623   0.82447  218.510
 4300.00    0.81281   0.81149  215.331
 4301.00    0.80799   0.80727  213.534
 4302.00    0.81391   0.81086  216.025
 4303.00    0.82269   0.81866  224.767
 4304.00    0.83248   0.82570  235.731
 4305.00    0.84062   0.82783  238.894
 4306.00    0.83392   0.82428  231.764
 4307.00    0.81639   0.81872  218.276
 4308.00    0.80149   0.81665   -1.000
 4309.00    0.80058   0.82145   -1.000
 4310.00    0.81549   0.83214   -1.000
 4311.00    0.83557   0.84582  174.027
 4312.00    0.84762   0.86127  159.085
 4313.00    0.85939   0.88043   -1.000
 4314.00    0.87504   0.90519   -1.000
 4315.00    0.90005   0.93432   -1.000
 4316.00    0.93425   0.96201   -1.000
 4317.00    0.95693   0.98163   -1.000
 4318.00    0.96164   0.98914   -1.000
 4319.00    0.96066   0.98463   -1.000
 4320.00    0.95054   0.97053   -1.000
 4321.00    0.94088   0.94944  194.206
 4322.00    0.92737   0.92386  196.499
 4323.00    0.89783   0.89788  180.874
 4324.00    0.86772   0.87793  162.908
 4325.00    0.85769   0.87053  153.538
 4326.00    0.86610   0.87742  151.816
 4327.00    0.88695   0.89360  152.259
 4328.00    0.91599   0.90988  150.879
 4329.00    0.92899   0.91958  148.411
 4330.00    0.92529   0.92120  147.245
 4331.00    0.91254   0.91684  147.678
 4332.00    0.90789   0.90780  152.022
 4333.00    0.90402   0.89243  163.401
 4334.00    0.89582   0.86710   -1.000
 4335.00    0.87683   0.82862   -1.000
 4336.00    0.83705   0.77746   -1.000
 4337.00    0.78702   0.71954   -1.000
 4338.00    0.72244   0.66617   -1.000
 4339.00    0.65716   0.63008   -1.000
 4340.00    0.62536   0.62080  164.258
 4341.00    0.65332   0.63961  159.472
 4342.00    0.71658   0.67931   -1.000
 4343.00    0.77884   0.72814   -1.000
 4344.00    0.81551   0.77640   -1.000
 4345.00    0.85355   0.81885   -1.000
 4346.00    0.87761   0.85359   -1.000
 4347.00    0.88952   0.87905  161.872
 4348.00    0.90359   0.89337  171.680
 4349.00    0.91330   0.89637  171.035
 4350.00    0.90091   0.89194  163.400
 4351.00    0.87915   0.88776  156.590
 4352.00    0.87089   0.89090  152.294
 4353.00    0.89208   0.90338  150.047
 4354.00    0.91921   0.92159  151.117
 4355.00    0.93300   0.93953  154.211
 4356.00    0.94116   0.95318  154.705
 4357.00    0.94472   0.96184  151.001
 4358.00    0.93844   0.96773   -1.000
 4359.00    0.93606   0.97377   -1.000
 4360.00    0.94362   0.98170   -1.000
 4361.00    0.95580   0.99115   -1.000
 4362.00    0.96949   1.00030   -1.000
 4363.00    0.97435   1.00704   -1.000
 4364.00    0.97742   1.00930   -1.000
 4365.00    0.97344   1.00585   -1.000
 4366.00    0.96310   0.99724   -1.000
 4367.00    0.95635   0.98611   -1.000
 4368.00    0.95178   0.97563   -1.000
 4369.00    0.94741   0.96744   -1.000
 4370.00    0.95411   0.96067  162.728
 4371.00    0.95417   0.95309  167.413
 4372.00    0.95347   0.94346  165.161
 4373.00    0.94545   0.93357  157.574
 4374.00    0.92339   0.92784  151.046
 4375.00    0.91681   0.93026  149.623
 4376.00    0.92528   0.94079  151.188
 4377.00    0.94625   0.95444  155.224
 4378.00    0.96190   0.96409  165.475
 4379.00    0.96611   0.96357  184.613
 4380.00    0.96631   0.94994   -1.000
 4381.00    0.95258   0.92483   -1.000
 4382.00    0.92526   0.89536   -1.000
 4383.00    0.89372   0.87205   -1.000
 4384.00    0.87784   0.86387  159.336
 4385.00    0.89244   0.87190   -1.000
 4386.00    0.92630   0.88964   -1.000
 4387.00    0.94688   0.90810   -1.000
 4388.00    0.94847   0.92168   -1.000
 4389.00    0.94549   0.92997  155.305
 4390.00    0.94678   0.93500  157.301
 4391.00    0.94996   0.93837  159.717
 4392.00    0.95629   0.94005  156.833
 4393.00    0.95186   0.94012  150.115
 4394.00    0.93992   0.94050  147.805
 4395.00    0.93623   0.94334  151.211
 4396.00    0.94769   0.94821  156.682
 4397.00    0.96413   0.95171  159.299
 4398.00    0.96515   0.95116  156.796
 4399.00    0.95310   0.94749  156.397
 4400.00    0.94024   0.94365  163.449
 4401.00    0.94269   0.94121  170.757
 4402.00    0.95385   0.93882  169.479
 4403.00    0.95378   0.93503  164.449
 4404.00    0.93761   0.93094  162.513
 4405.00    0.93163   0.92916  159.580
 4406.00    0.94095   0.93145  152.988
 4407.00    0.94591   0.93790  146.827
 4408.00    0.94953   0.94778  142.924
 4409.00    0.95597   0.96006  143.094
 4410.00    0.96660   0.97204  148.601
 4411.00    0.98357   0.97930  156.472
 4412.00    0.99279   0.97796  159.878
 4413.00    0.98290   0.96750  157.135
 4414.00    0.95948   0.95233  151.076
 4415.00    0.94233   0.94006  145.394
 4416.00    0.93764   0.93734  142.951
 4417.00    0.94362   0.94586  144.959
 4418.00    0.96122   0.96152  148.576
 4419.00    0.97790   0.97724  150.061
 4420.00    0.98858   0.98703  149.079
 4421.00    0.98690   0.98978  148.775
 4422.00    0.98129   0.98819  149.449
 4423.00    0.98012   0.98577  149.590
 4424.00    0.98156   0.98425  148.606
 4425.00    0.98252   0.98358  148.707
 4426.00    0.97473   0.98352  149.996
 4427.00    0.97017   0.98416  149.695
 4428.00    0.97166   0.98530  148.011
 4429.00    0.97487   0.98633  148.840
 4430.00    0.97712   0.98615  154.882
 4431.00    0.97698   0.98366  160.700
 4432.00    0.97647   0.97854  159.397
 4433.00    0.96483   0.97208  151.456
 4434.00    0.94847   0.96780  142.969
 4435.00    0.94405   0.96971   -1.000
 4436.00    0.95488   0.97883   -1.000
 4437.00    0.97960   0.99165  145.865
 4438.00    1.00080   1.00141  152.747
 4439.00    1.00040   1.00258  157.175
 4440.00    0.98597   0.99406  155.199
 4441.00    0.96805   0.98037  148.812
 4442.00    0.94334   0.96920   -1.000
 4443.00    0.93158   0.96673   -1.000
 4444.00    0.93777   0.97431   -1.000
 4445.00    0.95438   0.98760   -1.000
 4446.00    0.96989   1.00037   -1.000
 4447.00    0.97506   1.00830   -1.000
 4448.00    0.97820   1.01072   -1.000
 4449.00    0.97654   1.00925   -1.000
 4450.00    0.97337   1.00544   -1.000
 4451.00    0.97802   0.99938   -1.000
 4452.00    0.97821   0.99018  160.185
 4453.00    0.96864   0.97806  157.149
 4454.00    0.95426   0.96584  155.359
 4455.00    0.94314   0.95728  155.842
 4456.00    0.94758   0.95457  156.970
 4457.00    0.95679   0.95655  158.576
 4458.00    0.95828   0.96058  158.357
 4459.00    0.95848   0.96448  153.884
 4460.00    0.95130   0.96786  148.544
 4461.00    0.94858   0.97145   -1.000
 4462.00    0.95441   0.97589   -1.000
 4463.00    0.96512   0.98072  147.026
 4464.00    0.97097   0.98429  149.200
 4465.00    0.97233   0.98484  151.445
 4466.00    0.96729   0.98174  151.166
 4467.00    0.95886   0.97651  147.944
 4468.00    0.95292   0.97248  142.994
 4469.00    0.95161   0.97316   -1.000
 4470.00    0.95878   0.98002   -1.000
 4471.00    0.97131   0.99187   -1.000
 4472.00    0.98550   1.00570  134.892
 4473.00    0.99551   1.01824   -1.000
 4474.00    1.00116   1.02733   -1.000
 4475.00    1.00218   1.03206   -1.000
 4476.00    0.99937   1.03207   -1.000
 4477.00    1.00023   1.02675   -1.000
 4478.00    1.00046   1.01572  149.617
 4479.00    0.99255   1.00065  145.925
 4480.00    0.97884   0.98612  139.799
 4481.00    0.96546   0.97849  135.401
 4482.00    0.96079   0.98142  133.743
 4483.00    0.96811   0.99364   -1.000
 4484.00    0.98133   1.00932   -1.000
 4485.00    0.99599   1.02143   -1.000
 4486.00    1.00199   1.02549   -1.000
 4487.00    0.99970   1.02147   -1.000
 4488.00    0.99257   1.01335   -1.000
 4489.00    0.97974   1.00635   -1.000
 4490.00    0.97153   1.00403   -1.000
 4491.00    0.97971   1.00613   -1.000
 4492.00    0.99362   1.01011  146.987
 4493.00    0.99174   1.01311   -1.000
 4494.00    0.98068   1.01456   -1.000
 4495.00    0.97575   1.01578   -1.000
 4496.00    0.97576   1.01775   -1.000
 4497.00    0.98278   1.02028   -1.000
 4498.00    0.99140   1.02192   -1.000
 4499.00    0.99541   1.02222   -1.000
 4500.00    0.99185   1.02251   -1.000
 4501.00    0.98335   1.02561   -1.000
 4502.00    0.98942   1.03289   -1.000
 4503.00    1.00573   1.04285   -1.000
 4504.00    1.01151   1.05198   -1.000
 4505.00    1.01529   1.05689   -1.000
 4506.00    1.01601   1.05709   -1.000
 4507.00    1.00782   1.05436   -1.000
 4508.00    1.00651   1.05175   -1.000
 4509.00    1.00730   1.05064   -1.000
 4510.00    1.00677   1.05019   -1.000
 4511.00    1.00942   1.04843   -1.000
 4512.00    1.00780   1.04402   -1.000
 4513.00    1.00012   1.03753   -1.000
 4514.00    0.99651   1.03060   -1.000
 4515.00    0.99482   1.02498   -1.000
 4516.00    0.99344   1.02134   -1.000
 4517.00    0.99288   1.01899   -1.000
 4518.00    0.98970   1.01726   -1.000
 4519.00    0.98603   1.01573   -1.000
 4520.00    0.98362   1.01401   -1.000
 4521.00    0.98243   1.01165   -1.000
 4522.00    0.98002   1.00806   -1.000
 4523.00    0.98078   1.00309   -1.000
 4524.00    0.97676   0.99679   -1.000
 4525.00    0.97693   0.98887  153.941
 4526.00    0.97428   0.97953  152.052
 4527.00    0.96481   0.96983  149.270
 4528.00    0.95290   0.96207  147.348
 4529.00    0.94887   0.95806  148.654
 4530.00    0.95517   0.95730  153.402
 4531.00    0.95823   0.95754  155.693
 4532.00    0.95695   0.95646  150.472
 4533.00    0.94385   0.95506  141.505
 4534.00    0.93304   0.95676   -1.000
 4535.00    0.93706   0.96502   -1.000
 4536.00    0.95623   0.97969   -1.000
 4537.00    0.98375   0.99670  137.813
 4538.00    0.98864   1.01067   -1.000
 4539.00    0.64266   1.01799   -1.000
 4540.00    0.07302   1.01928   -1.000
 4541.00   -0.00189   1.01723    0.000
 4542.00    0.35779   1.01461   -1.000
 4543.00    0.59485   1.01219   -1.000
 4544.00    0.43756   1.00918   -1.000
 4545.00    0.85896   1.00469   -1.000
 4546.00    1.00221   0.99808   81.124
 4547.00    0.97036   0.98953  151.876
 4548.00    0.95845   0.98062   -1.000
 4549.00    0.94357   0.97402   -1.000
 4550.00    0.94561   0.97180   -1.000
 4551.00    0.96016   0.97331  145.350
 4552.00    0.96667   0.97556  141.678
 4553.00    0.96191   0.97645  136.151
 4554.00    0.95497   0.97687  131.967
 4555.00    0.95597   0.97961   -1.000
 4556.00    0.96838   0.98706  131.547
 4557.00    0.98326   0.99850  131.488
 4558.00    0.99303   1.01113  132.822
 4559.00    0.99923   1.02187   -1.000
 4560.00    1.00690   1.02813   -1.000
 4561.00    1.00493   1.02878   -1.000
 4562.00    0.99354   1.02430   -1.000
 4563.00    0.98397   1.01718   -1.000
 4564.00    0.98077   1.01152   -1.000
 4565.00    0.98249   1.01022   -1.000
 4566.00    0.99042   1.01371   -1.000
 4567.00    1.00037   1.01934  136.795
 4568.00    1.00324   1.02305  138.395
 4569.00    0.99961   1.02240   -1.000
 4570.00    0.98696   1.01772   -1.000
 4571.00    0.97266   1.01230   -1.000
 4572.00    0.97110   1.00986   -1.000
 4573.00    0.98066   1.01209   -1.000
 4574.00    0.99240   1.01705   -1.000
 4575.00    1.00099   1.02158  137.211
 4576.00    1.00248   1.02291  140.843
 4577.00    0.99807   1.01983   -1.000
 4578.00    0.99573   1.01252  141.014
 4579.00    0.99251   1.00213  139.388
 4580.00    0.98555   0.99066  139.034
 4581.00    0.97988   0.98053  139.705
 4582.00    0.97677   0.97379  139.338
 4583.00    0.97281   0.97156  136.524
 4584.00    0.97178   0.97390  133.185
 4585.00    0.97796   0.97944  131.556
 4586.00    0.98661   0.98662  132.396
 4587.00    0.99298   0.99351  134.653
 4588.00    0.99486   0.99878  137.122
 4589.00    0.99145   1.00154  138.499
 4590.00    0.98759   1.00173  137.957
 4591.00    0.98341   1.00040  136.779
 4592.00    0.97899   0.99909  136.029
 4593.00    0.97835   0.99937  135.725
 4594.00    0.98542   1.00164  135.432
 4595.00    0.99848   1.00528  135.807
 4596.00    1.00161   1.00907  137.070
 4597.00    0.99799   1.01175  137.916
 4598.00    1.00007   1.01248  137.421
 4599.00    1.00297   1.01119  135.860
 4600.00    0.99540   1.00863  135.135
 4601.00    0.98651   1.00599  135.211
 4602.00    0.98070   1.00459   -1.000
 4603.00    0.98041   1.00493   -1.000
 4604.00    0.98909   1.00707  129.561
 4605.00    0.99768   1.01077  127.357
 4606.00    1.00267   1.01567  126.856
 4607.00    1.00688   1.02127  128.040
 4608.00    1.00659   1.02642  129.690
 4609.00    1.00674   1.02999   -1.000
 4610.00    1.00895   1.03094  130.968
 4611.00    1.00754   1.02951  130.024
 4612.00    1.00251   1.02686   -1.000
 4613.00    0.99758   1.02391   -1.000
 4614.00    0.99666   1.02126   -1.000
 4615.00    0.99570   1.01833  130.716
 4616.00    0.99783   1.01500  130.019
 4617.00    0.99856   1.01158  128.341
 4618.00    0.99588   1.00937  127.220
 4619.00    0.99428   1.00985  127.420
 4620.00    0.99843   1.01336  127.718
 4621.00    1.00688   1.01903  128.408
 4622.00    1.01164   1.02476  129.210
 4623.00    1.00858   1.02850  129.312
 4624.00    1.00040   1.02969   -1.000
 4625.00    0.99687   1.02839   -1.000
 4626.00    0.99995   1.02546   -1.000
 4627.00    1.00255   1.02198  128.979
 4628.00    0.99904   1.01890  128.454
 4629.00    0.99170   1.01741   -1.000
 4630.00    0.99126   1.01767   -1.000
 4631.00    1.00052   1.01885  132.123
 4632.00    1.00626   1.01926  132.529
 4633.00    1.00535   1.01785  133.982
 4634.00    1.00583   1.01505  135.188
 4635.00    1.00598   1.01227  135.337
 4636.00    0.99965   1.01057  134.082
 4637.00    0.99555   1.01062  131.232
 4638.00    0.99937   1.01252  128.678
 4639.00    1.00457   1.01607  128.080
 4640.00    1.00899   1.02073  129.591
 4641.00    1.01218   1.02511  132.682
 4642.00    1.01477   1.02745  136.445
 4643.00    1.01533   1.02597  138.646
 4644.00    1.01018   1.02043  137.609
 4645.00    1.00095   1.01217  134.680
 4646.00    0.99142   1.00370  132.154
 4647.00    0.98779   0.99824  131.170
 4648.00    0.99290   0.99772  130.969
 4649.00    0.99705   1.00160  131.605
 4650.00    0.99891   1.00763  133.979
 4651.00    1.00125   1.01259  136.366
 4652.00    1.00183   1.01447  136.501
 4653.00    0.99910   1.01304  133.619
 4654.00    0.99031   1.00988  128.812
 4655.00    0.98112   1.00771   -1.000
 4656.00    0.97819   1.00918   -1.000
 4657.00    0.98605   1.01524   -1.000
 4658.00    1.00197   1.02453  126.651
 4659.00    1.01691   1.03347  129.513
 4660.00    1.02205   1.03842  130.902
 4661.00    1.01709   1.03780  132.070
 4662.00    1.01060   1.03184  136.076
 4663.00    1.00930   1.02211  141.981
 4664.00    1.00942   1.01002  144.943
 4665.00    1.00391   0.99667  142.515
 4666.00    0.99023   0.98379  137.157
 4667.00    0.97524   0.97419  132.418
 4668.00    0.97197   0.97065  130.339
 4669.00    0.97875   0.97405  130.101
 4670.00    0.98996   0.98300  130.104
 4671.00    1.00003   0.99435  129.146
 4672.00    1.00653   1.00493  127.273
 4673.00    1.00849   1.01329  126.671
 4674.00    1.00929   1.01882  128.487
 4675.00    1.01189   1.02168  131.226
 4676.00    1.01474   1.02120  133.595
 4677.00    1.01619   1.01719  135.316
 4678.00    1.01089   1.01050  135.019
 4679.00    1.00050   1.00303  132.323
 4680.00    0.99480   0.99723  129.772
 4681.00    0.99334   0.99438  129.247
 4682.00    0.99731   0.99466  129.548
 4683.00    1.00406   0.99716  129.949
 4684.00    1.00735   1.00044  130.327
 4685.00    1.01018   1.00343  130.312
 4686.00    1.01481   1.00557  130.818
 4687.00    1.01769   1.00685  131.437
 4688.00    1.01579   1.00736  130.707
 4689.00    1.01124   1.00745  128.885
 4690.00    1.00865   1.00735  126.434
 4691.00    1.00804   1.00749  124.229
 4692.00    1.01108   1.00847  123.854
 4693.00    1.01462   1.01013  126.108
 4694.00    1.01529   1.01173  129.949
 4695.00    1.01863   1.01210  132.596
 4696.00    1.02042   1.01018  132.655
 4697.00    1.01663   1.00538  132.616
 4698.00    1.00862   0.99845  134.410
 4699.00    1.00544   0.99050  135.932
 4700.00    1.00546   0.98263   -1.000
 4701.00    0.99982   0.97613   -1.000
 4702.00    0.99278   0.97184  132.558
 4703.00    0.98736   0.97056  134.973
 4704.00    0.98988   0.97177  136.949
 4705.00    0.99433   0.97369  137.114
 4706.00    0.98985   0.97464  134.493
 4707.00    0.98369   0.97434  130.580
 4708.00    0.98170   0.97416  128.264
 4709.00    0.98495   0.97601  128.425
 4710.00    0.99221   0.98006  130.393
 4711.00    1.00097   0.98527  131.548
 4712.00    1.00765   0.98973  130.021
 4713.00    1.00880   0.99241  127.406
 4714.00    1.00607   0.99431  125.878
 4715.00    1.00476   0.99679  125.332
 4716.00    1.00753   1.00095  124.904
 4717.00    1.01076   1.00615  125.302
 4718.00    1.01024   1.01101  126.321
 4719.00    1.01184   1.01449  126.299
 4720.00    1.01318   1.01619  125.155
 4721.00    1.01169   1.01690  124.643
 4722.00    1.00981   1.01715  126.454
 4723.00    1.00772   1.01709  130.591
 4724.00    1.01311   1.01591  134.494
 4725.00    1.01732   1.01253  135.474
 4726.00    1.01539   1.00640  134.373
 4727.00    1.00813   0.99819  133.154
 4728.00    1.00075   0.98980  131.798
 4729.00    1.00186   0.98331  130.442
 4730.00    1.00219   0.97988   -1.000
 4731.00    0.99656   0.97968  128.826
 4732.00    0.99330   0.98191  129.297
 4733.00    0.99650   0.98489  130.058
 4734.00    0.99994   0.98725  129.127
 4735.00    0.99894   0.98841  128.383
 4736.00    0.99642   0.98875  128.886
 4737.00    0.99752   0.98926  129.326
 4738.00    0.99988   0.99071  128.785
 4739.00    1.00313   0.99308  127.501
 4740.00    1.00643   0.99579  127.041
 4741.00    1.00650   0.99850  127.263
 4742.00    1.00811   1.00108  126.756
 4743.00    1.00947   1.00348  125.582
 4744.00    1.00846   1.00576  124.880
 4745.00    1.00876   1.00795  124.908
 4746.00    1.00884   1.01023  125.049
 4747.00    1.00875   1.01298  125.606
 4748.00    1.01041   1.01593  126.844
 4749.00    1.01219   1.01851  128.085
 4750.00    1.01538   1.01996  129.035
 4751.00    1.01737   1.01919  129.268
 4752.00    1.01379   1.01606  129.435
 4753.00    1.00859   1.01134  130.229
 4754.00    1.00247   1.00667  130.729
 4755.00    0.99980   1.00369  130.127
 4756.00    1.00082   1.00324  129.506
 4757.00    0.99951   1.00488  130.613
 4758.00    0.99905   1.00702  133.444
 4759.00    0.99940   1.00768  135.878
 4760.00    1.00003   1.00493  136.674
 4761.00    0.99760   0.99838  136.551
 4762.00    0.98785   0.98919  135.854
 4763.00    0.98230   0.98034  134.329
 4764.00    0.98270   0.97466  131.728
 4765.00    0.98574   0.97364  129.393
 4766.00    0.98883   0.97739  128.819
 4767.00    0.99235   0.98448  129.608
 4768.00    1.00073   0.99282  130.762
 4769.00    1.00594   1.00023  130.325
 4770.00    1.00686   1.00527  127.971
 4771.00    1.00274   1.00815  126.311
 4772.00    1.00032   1.01016  126.072
 4773.00    1.00241   1.01268  126.357
 4774.00    1.00442   1.01619  127.008
 4775.00    1.01046   1.01948  128.213
 4776.00    1.01263   1.02130  129.263
 4777.00    1.00859   1.02073  129.744
 4778.00    1.00697   1.01811  130.245
 4779.00    1.00585   1.01472  131.143
 4780.00    1.00341   1.01166  131.542
 4781.00    1.00441   1.00920  131.759
 4782.00    1.00384   1.00681  132.745
 4783.00    1.00040   1.00417  133.756
 4784.00    0.99977   1.00106  133.963
 4785.00    0.99977   0.99793  133.487
 4786.00    0.99245   0.99552  132.715
 4787.00    0.98513   0.99459  131.544
 4788.00    0.98883   0.99555  129.672
 4789.00    0.99535   0.99839  127.050
 4790.00    0.99557   1.00307  124.596
 4791.00    0.99704   1.00923  123.501
 4792.00    1.00245   1.01641  124.125
 4793.00    1.00789   1.02356  126.189
 4794.00    1.01511   1.02932  128.662
 4795.00    1.01816   1.03225  130.531
 4796.00    1.01382   1.03151  130.398
 4797.00    1.00789   1.02796  128.258
 4798.00    1.00078   1.02332  126.091
 4799.00    0.99374   1.01976   -1.000
 4800.00    0.99545   1.01856  126.687
 4801.00    1.00433   1.01926  128.377
 4802.00    1.00754   1.02023  129.725
 4803.00    1.00707   1.01996  130.142
 4804.00    1.00643   1.01805  129.898
 4805.00    1.00252   1.01534  129.404
 4806.00    0.99985   1.01330  128.444
 4807.00    1.00146   1.01260  127.417
 4808.00    1.00605   1.01324  126.672
 4809.00    1.00732   1.01470  126.357
 4810.00    1.00277   1.01623  126.128
 4811.00    1.00341   1.01770  125.724
 4812.00    1.00896   1.01960  125.053
 4813.00    1.00953   1.02222  124.264
 4814.00    1.01005   1.02550  123.661
 4815.00    1.01021   1.02903  123.453
 4816.00    1.01455   1.03207  123.450
 4817.00    1.01731   1.03403  124.138
 4818.00    1.01554   1.03451  126.636
 4819.00    1.01294   1.03317  129.458
 4820.00    1.01348   1.02931  130.188
 4821.00    1.00895   1.02247  128.567
 4822.00    0.99777   1.01354  126.428
 4823.00    0.98848   1.00472  126.052
 4824.00    0.98861   0.99905  127.250
 4825.00    0.99319   0.99803  128.326
 4826.00    0.99887   1.00042  128.577
 4827.00    1.00243   1.00382  129.307
 4828.00    1.00308   1.00574  129.912
 4829.00    1.00492   1.00537  128.626
 4830.00    1.00256   1.00312  126.740
 4831.00    1.00091   0.99994  125.844
 4832.00    1.00042   0.99730  125.836
 4833.00    0.99964   0.99589  126.311
 4834.00    0.99995   0.99572  127.647
 4835.00    1.00233   0.99610  129.772
 4836.00    1.00005   0.99583  130.664
 4837.00    0.99809   0.99400  130.464
 4838.00    0.99502   0.99030  129.935
 4839.00    0.98517   0.98539  129.068
 4840.00    0.98093   0.98053  127.884
 4841.00    0.98341   0.97690  126.118
 4842.00    0.98678   0.97507  124.984
 4843.00    0.98768   0.97462  126.425
 4844.00    0.98896   0.97477  128.627
 4845.00    0.99235   0.97452  129.277
 4846.00    0.98980   0.97258  128.044
 4847.00    0.98194   0.96858  127.187
 4848.00    0.97732   0.96354  127.588
 4849.00    0.97398   0.95845  128.572
 4850.00    0.96983   0.95338  131.463
 4851.00    0.96940   0.94695   -1.000
 4852.00    0.96671   0.93699   -1.000
 4853.00    0.95524   0.92204   -1.000
 4854.00    0.94036   0.90208   -1.000
 4855.00    0.92482   0.87866   -1.000
 4856.00    0.90955   0.85234   -1.000
 4857.00    0.89518   0.82209   -1.000
 4858.00    0.86284   0.78616   -1.000
 4859.00    0.79808   0.74567   -1.000
 4860.00    0.72346   0.70805  144.815
 4861.00    0.68075   0.68363  138.617
 4862.00    0.69611   0.68111  135.071
 4863.00    0.75994   0.70108   -1.000
 4864.00    0.83057   0.73677   -1.000
 4865.00    0.87479   0.77846   -1.000
 4866.00    0.90155   0.81731   -1.000
 4867.00    0.91840   0.84825   -1.000
 4868.00    0.93057   0.86924   -1.000
 4869.00    0.93878   0.88093   -1.000
 4870.00    0.93459   0.88586   -1.000
 4871.00    0.92349   0.88809   -1.000
 4872.00    0.92321   0.89217   -1.000
 4873.00    0.93809   0.90006   -1.000
 4874.00    0.95546   0.91085   -1.000
 4875.00    0.96702   0.92218   -1.000
 4876.00    0.96652   0.93227   -1.000
 4877.00    0.96357   0.94141   -1.000
 4878.00    0.96643   0.95022  131.506
 4879.00    0.97213   0.95855  131.439
 4880.00    0.97720   0.96522  131.749
 4881.00    0.97905   0.96865  133.375
 4882.00    0.97909   0.96869  134.558
 4883.00    0.97663   0.96636  134.283
 4884.00    0.97397   0.96288  133.902
 4885.00    0.97231   0.95940  135.188
 4886.00    0.97364   0.95618  137.911
 4887.00    0.97574   0.95296   -1.000
 4888.00    0.97359   0.94934   -1.000
 4889.00    0.96574   0.94553  128.079
 4890.00    0.95366   0.94371  123.590
 4891.00    0.94767   0.94681  120.876
 4892.00    0.95907   0.95682  119.769
 4893.00    0.97901   0.97297  119.784
 4894.00    0.99769   0.99098  121.644
 4895.00    1.00941   1.00651  124.495
 4896.00    1.01204   1.01663  126.386
 4897.00    1.00847   1.02041  126.382
 4898.00    1.00292   1.01905  126.279
 4899.00    0.99528   1.01475  127.419
 4900.00    0.98953   1.00968  126.983
 4901.00    0.98780   1.00534  124.624
 4902.00    0.98550   1.00249  123.099
 4903.00    0.98597   1.00151  123.601
 4904.00    0.98794   1.00292  126.041
 4905.00    0.99531   1.00596  129.544
 4906.00    1.00194   1.00820  131.871
 4907.00    1.00497   1.00748  131.157
 4908.00    0.99997   1.00264  128.930
 4909.00    0.98873   0.99487  126.975
 4910.00    0.98163   0.98734  125.300
 4911.00    0.98280   0.98348  124.030
 4912.00    0.98774   0.98479  124.105
 4913.00    0.99347   0.98990  127.302
 4914.00    0.99871   0.99558  133.571
 4915.00    0.99986   0.99772  140.310
 4916.00    1.00114   0.99276  143.491
 4917.00    0.99252   0.97976  140.642
 4918.00    0.97221   0.96119  135.605
 4919.00    0.94785   0.94199  132.705
 4920.00    0.93947   0.92764  132.054
 4921.00    0.94510   0.92134   -1.000
 4922.00    0.95198   0.92303   -1.000
 4923.00    0.95599   0.93037   -1.000
 4924.00    0.95984   0.94149  123.810
 4925.00    0.97009   0.95521  122.879
 4926.00    0.98496   0.96992  122.109
 4927.00    0.99398   0.98424  122.734
 4928.00    0.99934   0.99607  125.470
 4929.00    1.00775   1.00339  129.740
 4930.00    1.00764   1.00506  131.395
 4931.00    0.99679   1.00090  129.757
 4932.00    0.98562   0.99235  128.976
 4933.00    0.97625   0.98248  131.654
 4934.00    0.96918   0.97421  135.430
 4935.00    0.97185   0.96888  135.685
 4936.00    0.97894   0.96546  131.974
 4937.00    0.97745   0.96261  127.615
 4938.00    0.96512   0.96131  124.758
 4939.00    0.95636   0.96336  123.298
 4940.00    0.96334   0.97001  123.047
 4941.00    0.98008   0.98046  123.715
 4942.00    0.99163   0.99157  124.170
 4943.00    0.99725   1.00042  123.437
 4944.00    0.99657   1.00561  122.051
 4945.00    0.99500   1.00779  121.372
 4946.00    0.99704   1.00877  120.911
 4947.00    0.99727   1.01022  121.218
 4948.00    1.00248   1.01250  122.009
 4949.00    1.00617   1.01470  123.265
 4950.00    1.00225   1.01564  124.780
 4951.00    0.99844   1.01465  127.617
 4952.00    0.99946   1.01147  133.339
 4953.00    1.00083   1.00563  139.217
 4954.00    0.99383   0.99663  138.723
 4955.00    0.98370   0.98405  132.042
 4956.00    0.96603   0.96969  126.612
 4957.00    0.94537   0.95869  124.726
 4958.00    0.94462   0.95577  124.914
 4959.00    0.96212   0.96228  125.815
 4960.00    0.98488   0.97483  127.179
 4961.00    0.99466   0.98785  129.565
 4962.00    0.99905   0.99703  131.561
 4963.00    0.99883   1.00037  132.041
 4964.00    0.99244   0.99843  131.751
 4965.00    0.98978   0.99338  130.930
 4966.00    0.98639   0.98763  129.637
 4967.00    0.98261   0.98303  128.242
 4968.00    0.98592   0.98057  126.747
 4969.00    0.98769   0.98079  125.462
 4970.00    0.98909   0.98357  124.773
 4971.00    0.98709   0.98818  125.281
 4972.00    0.99063   0.99357  126.498
 4973.00    0.99676   0.99863  128.123
 4974.00    1.00000   1.00201  130.130
 4975.00    1.00007   1.00289  131.879
 4976.00    0.99786   1.00103  133.679
 4977.00    0.99378   0.99636  137.428
 4978.00    0.98520   0.98897  141.952
 4979.00    0.98207   0.97884  143.162
 4980.00    0.97234   0.96593  141.119
 4981.00    0.95545   0.95118  137.456
 4982.00    0.94203   0.93724  133.197
 4983.00    0.93741   0.92793  129.649
 4984.00    0.94125   0.92637  128.909
 4985.00    0.95226   0.93273  130.383
 4986.00    0.96821   0.94411   -1.000
 4987.00    0.97792   0.95629   -1.000
 4988.00    0.98062   0.96525  131.401
 4989.00    0.98043   0.96923  130.677
 4990.00    0.97337   0.96921  130.498
 4991.00    0.96682   0.96764  129.980
 4992.00    0.96815   0.96677  129.321
 4993.00    0.96959   0.96771  129.747
 4994.00    0.97083   0.97019  131.263
 4995.00    0.97615   0.97286  133.710
 4996.00    0.98329   0.97407  135.657
 4997.00    0.98418   0.97240  136.144
 4998.00    0.97615   0.96722  135.176
 4999.00    0.97091   0.95940  134.174
 5000.00    0.96230   0.95096  135.409
 5001.00    0.95795   0.94402  138.527
 5002.00    0.96387   0.93947   -1.000
 5003.00    0.96972   0.93643   -1.000
 5004.00    0.96440   0.93348   -1.000
 5005.00    0.95470   0.93043   -1.000
 5006.00    0.94593   0.92912  132.420
 5007.00    0.94637   0.93123  135.889
 5008.00    0.95763   0.93607   -1.000
 5009.00    0.97278   0.94087   -1.000
 5010.00    0.97299   0.94204   -1.000
 5011.00    0.95919   0.93791   -1.000
 5012.00    0.94662   0.92960  139.118
 5013.00    0.93457   0.92051  137.985
 5014.00    0.93051   0.91365  137.891
 5015.00    0.93645   0.91003   -1.000
 5016.00    0.94295   0.90896   -1.000
 5017.00    0.94550   0.90928   -1.000
 5018.00    0.94280   0.91122   -1.000
 5019.00    0.94692   0.91538   -1.000
 5020.00    0.95384   0.92125   -1.000
 5021.00    0.96682   0.92797   -1.000
 5022.00    0.96812   0.93449   -1.000
 5023.00    0.96482   0.94051   -1.000
 5024.00    0.96579   0.94593  133.331
 5025.00    0.96717   0.94984  131.084
 5026.00    0.96625   0.95204  129.068
 5027.00    0.96726   0.95343  127.027
 5028.00    0.96921   0.95495  125.426
 5029.00    0.97332   0.95752  125.268
 5030.00    0.97550   0.96151  128.449
 5031.00    0.97388   0.96616  133.387
 5032.00    0.97857   0.96982  136.305
 5033.00    0.98387   0.97052  137.151
 5034.00    0.97981   0.96697  138.570
 5035.00    0.96687   0.95971  143.214
 5036.00    0.95817   0.94999  149.063
 5037.00    0.95836   0.93919   -1.000
 5038.00    0.95121   0.92763   -1.000
 5039.00    0.97476   0.91594   -1.000
 5040.00    0.71318   0.90715   -1.000
 5041.00    0.19135   0.90504   -1.000
 5042.00   -0.00952   0.91185    0.000
 5043.00    0.20724   0.92655   -1.000
 5044.00    0.80801   0.94446   -1.000
 5045.00    0.98075   0.96025  103.040
 5046.00    0.98525   0.96964  148.753
 5047.00    0.98477   0.97098  134.468
 5048.00    0.97568   0.96542  132.660
 5049.00    0.96287   0.95655  129.356
 5050.00    0.95095   0.94830  126.810
 5051.00    0.95248   0.94386  125.387
 5052.00    0.96044   0.94518  124.832
 5053.00    0.97483   0.95176   -1.000
 5054.00    0.98622   0.96059   -1.000
 5055.00    0.98941   0.96938  125.185
 5056.00    0.99400   0.97696  124.485
 5057.00    0.99298   0.98289  124.367
 5058.00    0.99281   0.98734  125.738
 5059.00    0.98730   0.99036  129.037
 5060.00    0.98707   0.99142  133.506
 5061.00    0.98830   0.98994  135.689
 5062.00    0.98754   0.98522  134.624
 5063.00    0.98187   0.97729  132.630
 5064.00    0.96787   0.96807  131.903
 5065.00    0.95841   0.95983  131.327
 5066.00    0.96318   0.95432  130.502
 5067.00    0.96825   0.95173  131.198
 5068.00    0.97169   0.95114   -1.000
 5069.00    0.97270   0.95144   -1.000
 5070.00    0.97674   0.95158   -1.000
 5071.00    0.97880   0.95089   -1.000
 5072.00    0.97564   0.94979   -1.000
 5073.00    0.97319   0.94917   -1.000
 5074.00    0.97187   0.94918   -1.000
 5075.00    0.97833   0.94901   -1.000
 5076.00    0.97790   0.94722   -1.000
 5077.00    0.96885   0.94265   -1.000
 5078.00    0.95967   0.93524   -1.000
 5079.00    0.94505   0.92713  135.899
 5080.00    0.93743   0.92138  133.462
 5081.00    0.94250   0.91976   -1.000
 5082.00    0.95373   0.92257   -1.000
 5083.00    0.96424   0.92870   -1.000
 5084.00    0.96814   0.93684   -1.000
 5085.00    0.97498   0.94545   -1.000
 5086.00    0.98336   0.95321   -1.000
 5087.00    0.99250   0.95966   -1.000
 5088.00    0.99800   0.96488   -1.000
 5089.00    0.98846   0.96911  124.269
 5090.00    0.98220   0.97265  125.031
 5091.00    0.98658   0.97568  127.424
 5092.00    0.98869   0.97790  130.181
 5093.00    0.99348   0.97825  133.287
 5094.00    0.99301   0.97538  136.162
 5095.00    0.98888   0.96860   -1.000
 5096.00    0.98249   0.95874   -1.000
 5097.00    0.97213   0.94814   -1.000
 5098.00    0.96161   0.93994   -1.000
 5099.00    0.95883   0.93636   -1.000
 5100.00    0.97078   0.93805   -1.000
 5101.00    0.97440   0.94344   -1.000
 5102.00    0.98049   0.94938   -1.000
 5103.00    0.98483   0.95327   -1.000
 5104.00    0.98158   0.95362   -1.000
 5105.00    0.97625   0.95048   -1.000
 5106.00    0.96947   0.94513   -1.000
 5107.00    0.95774   0.93977  132.390
 5108.00    0.95243   0.93637  130.717
 5109.00    0.95346   0.93616  129.122
 5110.00    0.95882   0.93938  127.896
 5111.00    0.96678   0.94547   -1.000
 5112.00    0.97515   0.95290   -1.000
 5113.00    0.98430   0.96037   -1.000
 5114.00    0.98596   0.96693  124.965
 5115.00    0.98723   0.97225  126.433
 5116.00    0.98764   0.97610  128.316
 5117.00    0.99356   0.97807  130.414
 5118.00    0.99682   0.97768  133.609
 5119.00    0.99023   0.97443  137.579
 5120.00    0.98436   0.96842  138.993
 5121.00    0.98086   0.96028   -1.000
 5122.00    0.97593   0.95112   -1.000
 5123.00    0.96449   0.94209   -1.000
 5124.00    0.95396   0.93460   -1.000
 5125.00    0.95756   0.92935   -1.000
 5126.00    0.96346   0.92636   -1.000
 5127.00    0.95895   0.92507   -1.000
 5128.00    0.95335   0.92522   -1.000
 5129.00    0.96017   0.92670   -1.000
 5130.00    0.96855   0.92953   -1.000
 5131.00    0.96733   0.93334   -1.000
 5132.00    0.97018   0.93749   -1.000
 5133.00    0.97101   0.94128   -1.000
 5134.00    0.97501   0.94383   -1.000
 5135.00    0.97940   0.94429   -1.000
 5136.00    0.97569   0.94203   -1.000
 5137.00    0.96706   0.93751   -1.000
 5138.00    0.95177   0.93184   -1.000
 5139.00    0.94308   0.92669  137.710
 5140.00    0.94729   0.92324   -1.000
 5141.00    0.94656   0.92173   -1.000
 5142.00    0.94883   0.92188   -1.000
 5143.00    0.95289   0.92320   -1.000
 5144.00    0.95922   0.92495   -1.000
 5145.00    0.96773   0.92627   -1.000
 5146.00    0.97050   0.92665   -1.000
 5147.00    0.96424   0.92655   -1.000
 5148.00    0.96723   0.92656   -1.000
 5149.00    0.97151   0.92616   -1.000
 5150.00    0.96097   0.92492   -1.000
 5151.00    0.95386   0.92310   -1.000
 5152.00    0.95241   0.92144   -1.000
 5153.00    0.95224   0.92134   -1.000
 5154.00    0.95895   0.92422   -1.000
 5155.00    0.97330   0.93056   -1.000
 5156.00    0.98446   0.93909   -1.000
 5157.00    0.98970   0.94796   -1.000
 5158.00    0.99071   0.95513   -1.000
 5159.00    0.99142   0.95925   -1.000
 5160.00    0.98885   0.95953   -1.000
 5161.00    0.98269   0.95561   -1.000
 5162.00    0.97907   0.94691   -1.000
 5163.00    0.97615   0.93269   -1.000
 5164.00    0.96746   0.91197   -1.000
 5165.00    0.94432   0.88535   -1.000
 5166.00    0.90655   0.85688   -1.000
 5167.00    0.87062   0.83217   -1.000
 5168.00    0.86087   0.81654   -1.000
 5169.00    0.87927   0.81005   -1.000
 5170.00    0.89997   0.80875   -1.000
 5171.00    0.89955   0.81046   -1.000
 5172.00    0.88049   0.81600   -1.000
 5173.00    0.88200   0.82914   -1.000
 5174.00    0.91408   0.85062   -1.000
 5175.00    0.95109   0.87663   -1.000
 5176.00    0.97996   0.90171   -1.000
 5177.00    0.98771   0.92035   -1.000
 5178.00    0.98952   0.92874   -1.000
 5179.00    0.99069   0.92531   -1.000
 5180.00    0.98037   0.91043   -1.000
 5181.00    0.96129   0.88709   -1.000
 5182.00    0.93218   0.86117   -1.000
 5183.00    0.89713   0.84163   -1.000
 5184.00    0.89390   0.83533   -1.000
 5185.00    0.91156   0.84350   -1.000
 5186.00    0.94410   0.86144   -1.000
 5187.00    0.96125   0.88123   -1.000
 5188.00    0.96406   0.89744   -1.000
 5189.00    0.95837   0.90732   -1.000
 5190.00    0.95298   0.91060   -1.000
 5191.00    0.94543   0.90904   -1.000
 5192.00    0.93602   0.90621   -1.000
 5193.00    0.93762   0.90433   -1.000
 5194.00    0.94146   0.90469   -1.000
 5195.00    0.94660   0.90727   -1.000
 5196.00    0.95214   0.91203   -1.000
 5197.00    0.96117   0.91876   -1.000
 5198.00    0.96102   0.92656   -1.000
 5199.00    0.96392   0.93358   -1.000
 5200.00    0.97012   0.93782   -1.000
 5201.00    0.96984   0.93738   -1.000
 5202.00    0.96492   0.93147   -1.000
 5203.00    0.95243   0.92078   -1.000
 5204.00    0.93779   0.90767   -1.000
 5205.00    0.92821   0.89503   -1.000
 5206.00    0.92410   0.88564   -1.000
 5207.00    0.92628   0.88103   -1.000
 5208.00    0.93061   0.88192   -1.000
 5209.00    0.93447   0.88844   -1.000
 5210.00    0.94271   0.89972   -1.000
 5211.00    0.96016   0.91370   -1.000
 5212.00    0.97749   0.92697   -1.000
 5213.00    0.98048   0.93650   -1.000
 5214.00    0.97079   0.94059   -1.000
 5215.00    0.95850   0.94041  125.762
 5216.00    0.95293   0.93937  124.753
 5217.00    0.95624   0.94063  124.233
 5218.00    0.96859   0.94552   -1.000
 5219.00    0.98114   0.95263   -1.000
 5220.00    0.98616   0.95937   -1.000
 5221.00    0.98800   0.96245   -1.000
 5222.00    0.99097   0.95964   -1.000
 5223.00    0.98209   0.94996   -1.000
 5224.00    0.96834   0.93436   -1.000
 5225.00    0.94183   0.91622   -1.000
 5226.00    0.91504   0.90154  126.571
 5227.00    0.90416   0.89497  126.304
 5228.00    0.92011   0.89786   -1.000
 5229.00    0.94959   0.90656   -1.000
 5230.00    0.96263   0.91612   -1.000
 5231.00    0.96299   0.92242   -1.000
 5232.00    0.96303   0.92435   -1.000
 5233.00    0.95410   0.92400   -1.000
 5234.00    0.95021   0.92503   -1.000
 5235.00    0.96124   0.92981   -1.000
 5236.00    0.97302   0.93792   -1.000
 5237.00    0.98112   0.94753   -1.000
 5238.00    0.98799   0.95617   -1.000
 5239.00    0.98843   0.96254   -1.000
 5240.00    0.98651   0.96636  122.489
 5241.00    0.98523   0.96821  124.888
 5242.00    0.98435   0.96894  128.792
 5243.00    0.98203   0.96906  131.825
 5244.00    0.98448   0.96800  132.222
 5245.00    0.98430   0.96468   -1.000
 5246.00    0.97623   0.95913  133.305
 5247.00    0.96359   0.95231  132.702
 5248.00    0.95594   0.94577  130.873
 5249.00    0.95550   0.94065  129.564
 5250.00    0.95459   0.93775  129.565
 5251.00    0.95513   0.93719  128.650
 5252.00    0.96110   0.93840   -1.000
 5253.00    0.96443   0.94053   -1.000
 5254.00    0.96096   0.94352  121.151
 5255.00    0.96346   0.94797  122.264
 5256.00    0.97316   0.95347  125.607
 5257.00    0.97966   0.95852   -1.000
 5258.00    0.98387   0.96052   -1.000
 5259.00    0.98422   0.95713   -1.000
 5260.00    0.97940   0.94707   -1.000
 5261.00    0.96331   0.93104   -1.000
 5262.00    0.94486   0.91169   -1.000
 5263.00    0.92780   0.89252   -1.000
 5264.00    0.91348   0.87677   -1.000
 5265.00    0.91272   0.86649   -1.000
 5266.00    0.91745   0.86121   -1.000
 5267.00    0.92079   0.85858   -1.000
 5268.00    0.91699   0.85706   -1.000
 5269.00    0.90007   0.85682   -1.000
 5270.00    0.89380   0.86032   -1.000
 5271.00    0.90780   0.86835   -1.000
 5272.00    0.93308   0.87909   -1.000
 5273.00    0.94649   0.89055   -1.000
 5274.00    0.94751   0.90132   -1.000
 5275.00    0.95026   0.91166   -1.000
 5276.00    0.95331   0.92213   -1.000
 5277.00    0.96681   0.93244   -1.000
 5278.00    0.97944   0.94071   -1.000
 5279.00    0.96371   0.94448  131.078
 5280.00    0.96796   0.94326   -1.000
 5281.00    0.96322   0.93851   -1.000
 5282.00    0.95251   0.93334  120.507
 5283.00    0.94707   0.93112  119.632
 5284.00    0.94928   0.93446  120.290
 5285.00    0.96035   0.94309  120.263
 5286.00    0.97867   0.95457   -1.000
 5287.00    0.98681   0.96567  119.299
 5288.00    0.98604   0.97439  120.018
 5289.00    0.98169   0.98014  121.165
 5290.00    0.97951   0.98288  122.787
 5291.00    0.98476   0.98297  126.166
 5292.00    0.98356   0.98095  131.062
 5293.00    0.98074   0.97661  134.551
 5294.00    0.97998   0.96957  133.617
 5295.00    0.97371   0.95995  130.159
 5296.00    0.96434   0.94895  127.757
 5297.00    0.95478   0.93926  126.980
 5298.00    0.95208   0.93348  125.394
 5299.00    0.95603   0.93238   -1.000
 5300.00    0.95851   0.93546   -1.000
 5301.00    0.96126   0.94109  119.484
 5302.00    0.96499   0.94818  120.697
 5303.00    0.96960   0.95566  121.742
 5304.00    0.97228   0.96202  120.889
 5305.00    0.97872   0.96653  119.602
 5306.00    0.97928   0.96923  118.855
 5307.00    0.97203   0.97094  119.002
 5308.00    0.97082   0.97283  119.693
 5309.00    0.97596   0.97513  120.204
 5310.00    0.97644   0.97727  121.093
 5311.00    0.98284   0.97804  122.307
 5312.00    0.98336   0.97642  123.389
 5313.00    0.97724   0.97208  123.387
 5314.00    0.97544   0.96561  122.433
 5315.00    0.96328   0.95852  121.929
 5316.00    0.95513   0.95320  122.418
 5317.00    0.95509   0.95137  123.299
 5318.00    0.95877   0.95302  124.779
 5319.00    0.96752   0.95589  127.006
 5320.00    0.96929   0.95725  128.134
 5321.00    0.96985   0.95533  128.027
 5322.00    0.96521   0.94930  131.735
 5323.00    0.95483   0.93996  140.512
 5324.00    0.95241   0.92857   -1.000
 5325.00    0.94890   0.91633   -1.000
 5326.00    0.94055   0.90391   -1.000
 5327.00    0.92123   0.89312   -1.000
 5328.00    0.89916   0.88786  125.046
 5329.00    0.90773   0.89020  123.848
 5330.00    0.93639   0.89981   -1.000
 5331.00    0.95382   0.91308   -1.000
 5332.00    0.96138   0.92618   -1.000
 5333.00    0.96277   0.93687   -1.000
 5334.00    0.96406   0.94390  124.954
 5335.00    0.96130   0.94691  128.234
 5336.00    0.95996   0.94650  130.423
 5337.00    0.96005   0.94344  129.145
 5338.00    0.95840   0.93854  125.502
 5339.00    0.95406   0.93306   -1.000
 5340.00    0.93878   0.92928  123.461
 5341.00    0.94140   0.92879  124.315
 5342.00    0.95308   0.93181   -1.000
 5343.00    0.96345   0.93613   -1.000
 5344.00    0.96993   0.93950   -1.000
 5345.00    0.96138   0.94074   -1.000
 5346.00    0.95960   0.93997  125.008
 5347.00    0.95918   0.93850   -1.000
 5348.00    0.95965   0.93775   -1.000
 5349.00    0.95862   0.93899  120.304
 5350.00    0.96138   0.94264  119.308
 5351.00    0.97068   0.94819   -1.000
 5352.00    0.97154   0.95446  116.903
 5353.00    0.97616   0.96068  117.080
 5354.00    0.97555   0.96663  117.261
 5355.00    0.97671   0.97187  117.711
 5356.00    0.97419   0.97593  119.173
 5357.00    0.98010   0.97820  121.224
 5358.00    0.98434   0.97827  122.979
 5359.00    0.98288   0.97585  123.768
 5360.00    0.97880   0.97071  124.479
 5361.00    0.97611   0.96337  125.231
 5362.00    0.96651   0.95503  124.748
 5363.00    0.96142   0.94712  124.787
 5364.00    0.95238   0.94071  126.175
 5365.00    0.95032   0.93600  129.492
 5366.00    0.95423   0.93234   -1.000
 5367.00    0.95453   0.92832   -1.000
 5368.00    0.95107   0.92302   -1.000
 5369.00    0.94389   0.91662   -1.000
 5370.00    0.93273   0.91109   -1.000
 5371.00    0.92376   0.90946  118.767
 5372.00    0.92950   0.91363  119.215
 5373.00    0.94927   0.92339   -1.000
 5374.00    0.97014   0.93567   -1.000
 5375.00    0.98090   0.94730   -1.000
 5376.00    0.97976   0.95561   -1.000
 5377.00    0.97656   0.95955  122.651
 5378.00    0.97571   0.95940  123.188
 5379.00    0.97172   0.95643  123.041
 5380.00    0.96781   0.95223  122.404
 5381.00    0.96505   0.94825  121.043
 5382.00    0.95864   0.94570  120.919
 5383.00    0.95490   0.94542  121.542
 5384.00    0.95936   0.94752  122.789
 5385.00    0.96650   0.95112  124.724
 5386.00    0.97251   0.95444  126.054
 5387.00    0.97233   0.95600  126.534
 5388.00    0.96701   0.95499  126.563
 5389.00    0.96533   0.95145  126.999
 5390.00    0.96589   0.94619   -1.000
 5391.00    0.96207   0.94021   -1.000
 5392.00    0.95954   0.93423   -1.000
 5393.00    0.95045   0.92878   -1.000
 5394.00    0.94818   0.92353   -1.000
 5395.00    0.95058   0.91828   -1.000
 5396.00    0.93610   0.91389   -1.000
 5397.00    0.92857   0.91164  124.214
 5398.00    0.93189   0.91276  125.356
 5399.00    0.95149   0.91640   -1.000
 5400.00    0.95675   0.92037   -1.000
 5401.00    0.96010   0.92226   -1.000
 5402.00    0.95694   0.92024   -1.000
 5403.00    0.94944   0.91415   -1.000
 5404.00    0.93268   0.90621   -1.000
 5405.00    0.91914   0.89961   -1.000
 5406.00    0.92876   0.89638   -1.000
 5407.00    0.93657   0.89688   -1.000
 5408.00    0.94299   0.89942   -1.000
 5409.00    0.94359   0.90305   -1.000
 5410.00    0.93676   0.90764   -1.000
 5411.00    0.94297   0.91308   -1.000
 5412.00    0.95504   0.91900   -1.000
 5413.00    0.96225   0.92454   -1.000
 5414.00    0.95826   0.92953   -1.000
 5415.00    0.94950   0.93434  122.857
 5416.00    0.95312   0.93875  123.483
 5417.00    0.95705   0.94243  122.873
 5418.00    0.95914   0.94484  122.498
 5419.00    0.96035   0.94565  124.400
 5420.00    0.95965   0.94495  125.339
 5421.00    0.95932   0.94284  123.737
 5422.00    0.95703   0.93974  121.709
 5423.00    0.95150   0.93676  122.488
 5424.00    0.94470   0.93485  126.188
 5425.00    0.94661   0.93467  130.073
 5426.00    0.95606   0.93505   -1.000
 5427.00    0.95970   0.93375   -1.000
 5428.00    0.94962   0.93029  127.650
 5429.00    0.93496   0.92542  129.624
 5430.00    0.92990   0.92106  130.957
 5431.00    0.93347   0.91810  130.164
 5432.00    0.93728   0.91617   -1.000
 5433.00    0.93776   0.91550   -1.000
 5434.00    0.92729   0.91666  121.326
 5435.00    0.92869   0.92067  119.743
 5436.00    0.93538   0.92793  118.857
 5437.00    0.94816   0.93737  118.737
 5438.00    0.96039   0.94725  118.825
 5439.00    0.96822   0.95539  120.330
 5440.00    0.96746   0.96069  123.844
 5441.00    0.96496   0.96226  129.079
 5442.00    0.96625   0.95965  132.872
 5443.00    0.96319   0.95297  131.178
 5444.00    0.95258   0.94299  126.714
 5445.00    0.93950   0.93223  123.410
 5446.00    0.92583   0.92392  122.526
 5447.00    0.91829   0.92085  122.714
 5448.00    0.93186   0.92368  123.990
 5449.00    0.95449   0.93027   -1.000
 5450.00    0.96645   0.93753   -1.000
 5451.00    0.96637   0.94218   -1.000
 5452.00    0.96337   0.94235   -1.000
 5453.00    0.95441   0.93817  125.894
 5454.00    0.94274   0.93196  122.776
 5455.00    0.92622   0.92712  122.495
 5456.00    0.92218   0.92665  124.194
 5457.00    0.93503   0.93045  126.560
 5458.00    0.95060   0.93637  128.119
 5459.00    0.95990   0.94130  128.537
 5460.00    0.96236   0.94310  126.732
 5461.00    0.95598   0.94149  125.357
 5462.00    0.94854   0.93801  124.776
 5463.00    0.94722   0.93515  123.372
 5464.00    0.94761   0.93457  123.093
 5465.00    0.95145   0.93653  124.422
 5466.00    0.95517   0.93998  125.647
 5467.00    0.95476   0.94375  126.026
 5468.00    0.95829   0.94673  126.760
 5469.00    0.96085   0.94804  128.167
 5470.00    0.95856   0.94732  130.123
 5471.00    0.95620   0.94458  132.937
 5472.00    0.95250   0.93989  134.622
 5473.00    0.94982   0.93350  132.802
 5474.00    0.94656   0.92585   -1.000
 5475.00    0.93974   0.91819   -1.000
 5476.00    0.92835   0.91261  128.020
 5477.00    0.92394   0.91071  129.466
 5478.00    0.93448   0.91283   -1.000
 5479.00    0.94236   0.91749   -1.000
 5480.00    0.95298   0.92269   -1.000
 5481.00    0.95473   0.92769   -1.000
 5482.00    0.94728   0.93218  124.657
 5483.00    0.94470   0.93642  126.387
 5484.00    0.95177   0.94008  126.939
 5485.00    0.95422   0.94242  126.806
 5486.00    0.95352   0.94317  125.821
 5487.00    0.94743   0.94263  124.957
 5488.00    0.94551   0.94184  124.618
 5489.00    0.94639   0.94155  124.939
 5490.00    0.94634   0.94199  124.950
 5491.00    0.94913   0.94296  125.030
 5492.00    0.94772   0.94390  126.039
 5493.00    0.95164   0.94439  126.739
 5494.00    0.95296   0.94405  125.816
 5495.00    0.94960   0.94272  124.599
 5496.00    0.94045   0.94072  125.960
 5497.00    0.93530   0.93853  127.872
 5498.00    0.93241   0.93654  127.753
 5499.00    0.93636   0.93465  126.680
 5500.00    0.93983   0.93235  126.735
 5501.00    0.93364   0.92984  128.598
 5502.00    0.93026   0.92774  129.514
 5503.00    0.93811   0.92594  127.983
 5504.00    0.94371   0.92429   -1.000
 5505.00    0.94168   0.92262  125.809
 5506.00    0.93440   0.92135  126.963
 5507.00    0.92929   0.92120  129.574
 5508.00    0.93516   0.92197  131.540
 5509.00    0.94422   0.92297   -1.000
 5510.00    0.94476   0.92323   -1.000
 5511.00    0.93998   0.92234  128.050
 5512.00    0.93654   0.92098  126.083
 5513.00    0.93290   0.92039  123.698
 5514.00    0.93321   0.92179  121.898
 5515.00    0.94053   0.92543  121.823
 5516.00    0.94884   0.93084  122.050
 5517.00    0.95341   0.93699  122.321
 5518.00    0.95372   0.94273  122.737
 5519.00    0.95478   0.94707  122.994
 5520.00    0.95302   0.94954  123.915
 5521.00    0.95372   0.94999  125.847
 5522.00    0.94958   0.94845  128.922
 5523.00    0.95101   0.94476  131.935
 5524.00    0.94563   0.93869  131.922
 5525.00    0.93833   0.93066  128.658
 5526.00    0.93253   0.92196  125.449
 5527.00    0.92234   0.91493  124.249
 5528.00    0.91646   0.91168  124.798
 5529.00    0.91822   0.91315  125.971
 5530.00    0.93460   0.91808  126.376
 5531.00    0.94218   0.92383  125.760
 5532.00    0.94467   0.92823  124.778
 5533.00    0.94371   0.93036  124.512
 5534.00    0.93896   0.93094  123.837
 5535.00    0.93508   0.93137  122.597
 5536.00    0.94088   0.93273  121.802
 5537.00    0.94328   0.93511  122.134
 5538.00    0.94366   0.93806  123.506
 5539.00    0.94379   0.94095  124.607
 5540.00    0.94683   0.94304  124.738
 5541.00    0.95100   0.94370  124.342
 5542.00    0.94925   0.94298  123.997
 5543.00    0.94338   0.94159  123.094
 5544.00    0.94188   0.94053  121.860
 5545.00    0.94242   0.94049  120.976
 5546.00    0.94400   0.94168  120.908
 5547.00    0.94753   0.94394  121.704
 5548.00    0.94963   0.94672  122.856
 5549.00    0.94682   0.94915  124.173
 5550.00    0.94610   0.95058  124.564
 5551.00    0.94536   0.95072  124.277
 5552.00    0.94591   0.94967  123.897
 5553.00    0.94498   0.94805  123.714
 5554.00    0.93910   0.94662  123.566
 5555.00    0.94110   0.94591  123.499
 5556.00    0.94291   0.94592  123.865
 5557.00    0.94026   0.94632  124.640
 5558.00    0.94337   0.94663  125.909
 5559.00    0.94592   0.94627  126.657
 5560.00    0.94550   0.94487  126.954
 5561.00    0.94218   0.94241  127.187
 5562.00    0.94012   0.93930  127.238
 5563.00    0.93607   0.93612  126.932
 5564.00    0.93185   0.93330  126.776
 5565.00    0.92943   0.93100  127.130
 5566.00    0.93248   0.92914  127.003
 5567.00    0.93501   0.92750  127.095
 5568.00    0.93928   0.92589  127.343
 5569.00    0.94153   0.92427  126.558
 5570.00    0.97276   0.92270   -1.000
 5571.00    1.05482   0.92137   -1.000
 5572.00    1.11122   0.92071   -1.000
 5573.00    1.06001   0.92115   -1.000
 5574.00    0.91100   0.92270  123.608
 5575.00    0.82002   0.92498   -1.000
 5576.00    0.84330   0.92780   -1.000
 5577.00    0.90607   0.93084  126.416
 5578.00    0.93241   0.93359  125.252
 5579.00    0.93571   0.93562  125.267
 5580.00    0.94232   0.93662  126.456
 5581.00    0.93783   0.93651  129.559
 5582.00    0.93426   0.93511  132.806
 5583.00    0.93694   0.93194  135.382
 5584.00    0.93521   0.92643  135.726
 5585.00    0.92733   0.91826  133.725
 5586.00    0.91550   0.90853  131.344
 5587.00    0.90207   0.89949  129.832
 5588.00    0.89660   0.89335  129.745
 5589.00    0.89948   0.89147  130.098
 5590.00    0.90639   0.89359  128.967
 5591.00    0.92010   0.89817   -1.000
 5592.00    0.92591   0.90327   -1.000
 5593.00    0.92161   0.90775  128.239
 5594.00    0.91886   0.91122  130.406
 5595.00    0.92068   0.91362  131.407
 5596.00    0.92267   0.91467  131.353
 5597.00    0.92301   0.91408  132.174
 5598.00    0.92140   0.91220  132.224
 5599.00    0.91649   0.90967  129.486
 5600.00    0.91494   0.90714  125.933
 5601.00    0.91303   0.90593  123.397
 5602.00    0.90971   0.90755  122.293
 5603.00    0.91536   0.91269  122.225
 5604.00    0.92241   0.92093  122.458
 5605.00    0.93027   0.93067  122.636
 5606.00    0.93918   0.94000  122.421
 5607.00    0.94320   0.94753  122.213
 5608.00    0.94281   0.95255  123.294
 5609.00    0.94192   0.95499  126.402
 5610.00    0.94558   0.95493  130.685
 5611.00    0.94357   0.95213  132.685
 5612.00    0.93985   0.94623  130.763
 5613.00    0.93082   0.93764  127.735
 5614.00    0.91792   0.92802  126.429
 5615.00    0.90924   0.92015  126.200
 5616.00    0.90930   0.91640  125.574
 5617.00    0.91914   0.91710  125.195
 5618.00    0.93175   0.92104  126.269
 5619.00    0.93584   0.92621  128.936
 5620.00    0.93891   0.93063  130.647
 5621.00    0.93735   0.93298  129.433
 5622.00    0.93034   0.93286  127.175
 5623.00    0.92769   0.93098  125.461
 5624.00    0.92240   0.92896  124.155
 5625.00    0.92354   0.92833  123.413
 5626.00    0.92946   0.92994  123.083
 5627.00    0.93647   0.93356  122.705
 5628.00    0.93948   0.93820  123.088
 5629.00    0.94220   0.94266  124.119
 5630.00    0.94321   0.94582  124.969
 5631.00    0.94091   0.94701  125.778
 5632.00    0.93951   0.94624  126.705
 5633.00    0.94165   0.94395  127.361
 5634.00    0.94034   0.94073  127.256
 5635.00    0.93899   0.93727  127.245
 5636.00    0.93284   0.93408  127.653
 5637.00    0.93103   0.93150  127.542
 5638.00    0.93270   0.92963  126.957
 5639.00    0.93324   0.92834  126.456
 5640.00    0.93225   0.92758  126.131
 5641.00    0.92659   0.92749  125.298
 5642.00    0.92529   0.92810  125.014
 5643.00    0.93113   0.92927  124.717
 5644.00    0.93454   0.93083  124.665
 5645.00    0.93691   0.93247  124.944
 5646.00    0.93772   0.93380  124.658
 5647.00    0.93610   0.93459  123.729
 5648.00    0.93608   0.93477  123.672
 5649.00    0.93864   0.93453  124.350
 5650.00    0.94073   0.93404  125.449
 5651.00    0.93822   0.93320  126.967
 5652.00    0.93796   0.93168  129.901
 5653.00    0.93631   0.92900  133.604
 5654.00    0.93256   0.92474  134.535
 5655.00    0.92887   0.91889  131.958
 5656.00    0.92206   0.91197  129.597
 5657.00    0.91333   0.90538  129.518
 5658.00    0.90516   0.90087  129.354
 5659.00    0.90763   0.89931  127.636
 5660.00    0.91818   0.90054  126.129
 5661.00    0.92077   0.90373  126.057
 5662.00    0.92024   0.90796  126.857
 5663.00    0.92190   0.91258  127.461
 5664.00    0.92921   0.91692  127.432
 5665.00    0.93325   0.92027  126.932
 5666.00    0.93147   0.92240  125.988
 5667.00    0.92789   0.92362  124.821
 5668.00    0.92456   0.92455  123.564
 5669.00    0.92710   0.92588  122.701
 5670.00    0.92919   0.92793  122.955
 5671.00    0.93287   0.93054  123.179
 5672.00    0.93790   0.93325  122.757
 5673.00    0.93989   0.93554  122.811
 5674.00    0.93985   0.93708  123.487
 5675.00    0.93890   0.93786  124.029
 5676.00    0.93447   0.93792  124.984
 5677.00    0.93103   0.93716  126.530
 5678.00    0.93418   0.93540  127.701
 5679.00    0.93628   0.93242  127.581
 5680.00    0.93282   0.92824  126.795
 5681.00    0.92820   0.92333  126.575
 5682.00    0.92525   0.91854  127.538
 5683.00    0.92199   0.91478  128.835
 5684.00    0.92310   0.91249  128.614
 5685.00    0.92229   0.91143  126.733
 5686.00    0.91652   0.91115  124.630
 5687.00    0.91694   0.91148  123.682
 5688.00    0.92094   0.91265  123.076
 5689.00    0.92504   0.91496  123.014
 5690.00    0.92920   0.91836  123.181
 5691.00    0.93153   0.92237  123.339
 5692.00    0.92953   0.92632  123.967
 5693.00    0.92942   0.92960  125.345
 5694.00    0.93376   0.93179  126.717
 5695.00    0.93592   0.93265  127.867
 5696.00    0.93437   0.93214  129.050
 5697.00    0.93110   0.93031  129.104
 5698.00    0.93053   0.92746  127.879
 5699.00    0.92834   0.92409  126.812
 5700.00    0.92483   0.92085  126.949
 5701.00    0.92060   0.91827  128.189
 5702.00    0.91667   0.91654  130.268
 5703.00    0.92220   0.91525  132.641
 5704.00    0.92661   0.91360  134.280
 5705.00    0.92692   0.91089  134.605
 5706.00    0.91956   0.90686  133.872
 5707.00    0.91425   0.90181  131.979
 5708.00    0.90657   0.89677  128.957
 5709.00    0.89979   0.89319  126.086
 5710.00    0.89904   0.89227  124.727
 5711.00    0.90290   0.89461  124.466
 5712.00    0.91297   0.89986  124.160
 5713.00    0.91860   0.90682  123.689
 5714.00    0.92502   0.91399  123.000
 5715.00    0.92904   0.92030  122.253
 5716.00    0.93024   0.92537  121.792
 5717.00    0.92883   0.92933  121.557
 5718.00    0.93034   0.93260  121.389
 5719.00    0.93256   0.93551  121.381
 5720.00    0.93365   0.93812  121.944
 5721.00    0.92955   0.94027  123.130
 5722.00    0.93038   0.94169  124.355
 5723.00    0.93310   0.94215  124.788
 5724.00    0.93298   0.94151  123.926
 5725.00    0.93131   0.93987  123.533
 5726.00    0.92877   0.93775  124.076
 5727.00    0.92784   0.93571  124.380
 5728.00    0.93077   0.93425  123.558
 5729.00    0.92990   0.93344  122.422
 5730.00    0.92742   0.93321  121.981
 5731.00    0.92677   0.93350  122.185
 5732.00    0.92953   0.93435  122.395
 5733.00    0.93121   0.93570  122.702
 5734.00    0.92945   0.93731  122.817
 5735.00    0.93249   0.93883  123.081
 5736.00    0.93541   0.93993  123.283
 5737.00    0.93517   0.94049  123.389
 5738.00    0.93207   0.94055  123.092
 5739.00    0.92752   0.94022  122.741
 5740.00    0.92770   0.93963  121.829
 5741.00    0.92987   0.93899  121.642
 5742.00    0.93237   0.93851  122.620
 5743.00    0.93384   0.93827  123.638
 5744.00    0.93261   0.93814  123.627
 5745.00    0.93100   0.93789  122.904
 5746.00    0.92888   0.93742  123.022
 5747.00    0.92736   0.93676  124.302
 5748.00    0.92623   0.93594  125.769
 5749.00    0.92844   0.93468  126.566
 5750.00    0.93183   0.93260  125.876
 5751.00    0.92695   0.92977  123.875
 5752.00    0.92129   0.92680  121.800
 5753.00    0.92065   0.92482  121.060
 5754.00    0.91979   0.92471  121.934
 5755.00    0.92105   0.92662  123.464
 5756.00    0.92409   0.92980  125.126
 5757.00    0.92725   0.93293  126.475
 5758.00    0.92966   0.93483  126.308
 5759.00    0.92863   0.93489  124.454
 5760.00    0.92796   0.93331  122.404
 5761.00    0.92504   0.93115  121.369
 5762.00    0.92247   0.92976  121.175
 5763.00    0.92410   0.93013  121.034
 5764.00    0.92517   0.93233  120.976
 5765.00    0.92528   0.93557  121.324
 5766.00    0.92929   0.93877  121.831
 5767.00    0.92787   0.94106  122.565
 5768.00    0.93129   0.94199  123.172
 5769.00    0.93116   0.94160  123.379
 5770.00    0.92980   0.94016  123.378
 5771.00    0.93208   0.93807  122.952
 5772.00    0.92814   0.93580  122.481
 5773.00    0.92597   0.93375  122.595
 5774.00    0.92560   0.93217  123.517
 5775.00    0.92511   0.93104  125.805
 5776.00    0.92879   0.92985  128.314
 5777.00    0.92896   0.92787  129.179
 5778.00    0.92702   0.92467  128.693
 5779.00    0.92686   0.92041  128.201
 5780.00    0.92380   0.91589  127.742
 5781.00    0.92530   0.91206  126.924
 5782.00    0.92739   0.90970  125.319
 5783.00    0.92512   0.90906  123.894
 5784.00    0.92344   0.90997  123.401
 5785.00    0.92466   0.91217  123.781
 5786.00    0.92493   0.91518  124.098
 5787.00    0.92806   0.91827  123.532
 5788.00    0.93197   0.92084  122.508
 5789.00    0.93220   0.92258  121.730
 5790.00    0.92975   0.92373  121.238
 5791.00    0.92698   0.92482  121.509
 5792.00    0.92657   0.92626  122.323
 5793.00    0.92983   0.92814  122.598
 5794.00    0.93108   0.93015  121.528
 5795.00    0.93165   0.93177  119.859
 5796.00    0.93446   0.93274  118.716
 5797.00    0.93373   0.93330  119.030
 5798.00    0.93441   0.93385  120.102
 5799.00    0.93600   0.93463  121.037
 5800.00    0.93544   0.93558  121.867
 5801.00    0.93676   0.93633  122.060
 5802.00    0.93732   0.93644  121.646
 5803.00    0.93718   0.93580  121.216
 5804.00    0.93728   0.93473  120.998
 5805.00    0.93411   0.93375  120.979
 5806.00    0.93333   0.93330  120.719
 5807.00    0.93760   0.93353  120.273
 5808.00    0.93907   0.93434  120.158
 5809.00    0.93624   0.93546  120.738
 5810.00    0.93959   0.93646  121.636
 5811.00    0.94241   0.93697  121.693
 5812.00    0.94070   0.93681  120.893
 5813.00    0.94290   0.93600  120.119
 5814.00    0.94279   0.93483  119.503
 5815.00    0.94201   0.93390  118.990
 5816.00    0.94208   0.93374  118.838
 5817.00    0.94044   0.93455  119.168
 5818.00    0.93936   0.93610  119.356
 5819.00    0.94103   0.93792  119.101
 5820.00    0.94462   0.93959  118.918
 5821.00    0.94467   0.94088  118.732
 5822.00    0.94135   0.94176  118.687
 5823.00    0.94196   0.94229  118.813
 5824.00    0.94161   0.94260  118.880
 5825.00    0.94224   0.94283  118.706
 5826.00    0.94091   0.94307  118.690
 5827.00    0.94309   0.94328  118.664
 5828.00    0.94520   0.94340  119.165
 5829.00    0.94565   0.94337  119.768
 5830.00    0.94131   0.94310  119.665
 5831.00    0.94170   0.94256  119.290
 5832.00    0.94445   0.94180  119.326
 5833.00    0.94563   0.94098  119.718
 5834.00    0.94376   0.94036  119.708
 5835.00    0.94275   0.94015  119.067
 5836.00    0.94443   0.94035  118.256
 5837.00    0.94217   0.94081  117.929
 5838.00    0.94145   0.94134  118.155
 5839.00    0.94193   0.94176  118.602
 5840.00    0.93940   0.94193  119.203
 5841.00    0.94158   0.94171  119.948
 5842.00    0.94675   0.94106  120.522
 5843.00    0.94501   0.93994  120.820
 5844.00    0.94098   0.93836  120.759
 5845.00    0.94289   0.93656  121.198
 5846.00    0.94568   0.93481  121.957
 5847.00    0.94307   0.93330  122.907
 5848.00    0.94058   0.93188  123.903
 5849.00    0.94182   0.93019  124.277
 5850.00    0.94058   0.92782  124.434
 5851.00    0.93793   0.92460  125.045
 5852.00    0.93553   0.92067  126.381
 5853.00    0.92698   0.91633  126.661
 5854.00    0.92182   0.91182  125.316
 5855.00    0.92450   0.90725  123.931
 5856.00    0.92444   0.90322   -1.000
 5857.00    0.92647   0.90066   -1.000
 5858.00    0.92776   0.90015   -1.000
 5859.00    0.93034   0.90183   -1.000
 5860.00    0.93445   0.90520   -1.000
 5861.00    0.93748   0.90935   -1.000
 5862.00    0.93764   0.91340   -1.000
 5863.00    0.93375   0.91651  123.080
 5864.00    0.93464   0.91836  121.890
 5865.00    0.93468   0.91916  121.100
 5866.00    0.93411   0.91948  120.828
 5867.00    0.93560   0.92007  120.994
 5868.00    0.93800   0.92133  121.209
 5869.00    0.94133   0.92317  121.109
 5870.00    0.93874   0.92503  121.150
 5871.00    0.93520   0.92627  121.627
 5872.00    0.93806   0.92650  122.008
 5873.00    0.94297   0.92571  122.499
 5874.00    0.94134   0.92420  123.458
 5875.00    0.93551   0.92241  123.883
 5876.00    0.93594   0.92060  123.671
 5877.00    0.93340   0.91881  123.454
 5878.00    0.93076   0.91695  123.731
 5879.00    0.93223   0.91487  124.115
 5880.00    0.93433   0.91239   -1.000
 5881.00    0.93074   0.90936   -1.000
 5882.00    0.93152   0.90562   -1.000
 5883.00    0.93582   0.90087   -1.000
 5884.00    0.93426   0.89442   -1.000
 5885.00    0.91123   0.88481   -1.000
 5886.00    0.87081   0.87066  149.191
 5887.00    0.84387   0.85204  143.765
 5888.00    0.84470   0.83144  139.206
 5889.00    0.85886   0.81359   -1.000
 5890.00    0.86345   0.80185   -1.000
 5891.00    0.85902   0.79709   -1.000
 5892.00    0.85606   0.79718   -1.000
 5893.00    0.85719   0.79891   -1.000
 5894.00    0.86267   0.80054   -1.000
 5895.00    0.86423   0.80273   -1.000
 5896.00    0.86624   0.80776   -1.000
 5897.00    0.88180   0.81693   -1.000
 5898.00    0.90333   0.83008   -1.000
 5899.00    0.91964   0.84561   -1.000
 5900.00    0.92803   0.86118   -1.000
 5901.00    0.93078   0.87481   -1.000
 5902.00    0.93125   0.88556   -1.000
 5903.00    0.92974   0.89329   -1.000
 5904.00    0.92818   0.89855   -1.000
 5905.00    0.92686   0.90205   -1.000
 5906.00    0.92629   0.90446   -1.000
 5907.00    0.92864   0.90619   -1.000
 5908.00    0.92935   0.90742   -1.000
 5909.00    0.92759   0.90803   -1.000
 5910.00    0.92963   0.90779   -1.000
 5911.00    0.92886   0.90644   -1.000
 5912.00    0.92145   0.90415  126.653
 5913.00    0.91503   0.90143  126.191
 5914.00    0.90979   0.89904  125.760
 5915.00    0.90980   0.89766  125.401
 5916.00    0.91793   0.89766   -1.000
 5917.00    0.92423   0.89894   -1.000
 5918.00    0.92475   0.90096   -1.000
 5919.00    0.92237   0.90312   -1.000
 5920.00    0.91740   0.90495  124.305
 5921.00    0.92077   0.90630  124.156
 5922.00    0.92483   0.90727  124.234
 5923.00    0.92516   0.90809  124.825
 5924.00    0.92453   0.90876  125.825
 5925.00    0.92460   0.90908  126.265
 5926.00    0.92811   0.90868   -1.000
 5927.00    0.92899   0.90746   -1.000
 5928.00    0.92628   0.90572   -1.000
 5929.00    0.92125   0.90409  125.749
 5930.00    0.91830   0.90317  126.261
 5931.00    0.92105   0.90308  125.904
 5932.00    0.92273   0.90365   -1.000
 5933.00    0.92472   0.90462   -1.000
 5934.00    0.92348   0.90578  124.162
 5935.00    0.91866   0.90698  125.106
 5936.00    0.91343   0.90807  126.160
 5937.00    0.91273   0.90875  126.398
 5938.00    0.91509   0.90876  125.922
 5939.00    0.91612   0.90804  125.135
 5940.00    0.91544   0.90690  124.532
 5941.00    0.91244   0.90578  124.490
 5942.00    0.91160   0.90504  125.303
 5943.00    0.91318   0.90474  126.590
 5944.00    0.91559   0.90465  127.399
 5945.00    0.91991   0.90439  127.111
 5946.00    0.91916   0.90376  126.490
 5947.00    0.91703   0.90290  126.456
 5948.00    0.91677   0.90208  126.623
 5949.00    0.91562   0.90152  126.402
 5950.00    0.91529   0.90119  126.299
 5951.00    0.91441   0.90099  126.606
 5952.00    0.91371   0.90084  126.990
 5953.00    0.91138   0.90062  126.784
 5954.00    0.91136   0.90031  125.731
 5955.00    0.91491   0.90011  124.334
 5956.00    0.91383   0.90027  123.541
 5957.00    0.91182   0.90106  123.290
 5958.00    0.91410   0.90258  123.396
 5959.00    0.91766   0.90463  123.926
 5960.00    0.92006   0.90681  124.498
 5961.00    0.92071   0.90863  124.907
 5962.00    0.92041   0.90968  124.976
 5963.00    0.91896   0.90987  124.268
 5964.00    0.91844   0.90939  123.618
 5965.00    0.91863   0.90865  123.521
 5966.00    0.91798   0.90808  123.371
 5967.00    0.91683   0.90801  123.151
 5968.00    0.91675   0.90852  123.461
 5969.00    0.91788   0.90942  124.365
 5970.00    0.91778   0.91033  125.350
 5971.00    0.91694   0.91076  126.268
 5972.00    0.91706   0.91032  126.987
 5973.00    0.91669   0.90884  126.914
 5974.00    0.91289   0.90654  125.977
 5975.00    0.90883   0.90401  125.196
 5976.00    0.91018   0.90196  125.192
 5977.00    0.91332   0.90090  125.940
 5978.00    0.91351   0.90092  127.064
 5979.00    0.91296   0.90152  127.914
 5980.00    0.91424   0.90194  127.913
 5981.00    0.91657   0.90152  126.891
 5982.00    0.91449   0.90016  125.816
 5983.00    0.91096   0.89836  125.298
 5984.00    0.90880   0.89688  124.788
 5985.00    0.90574   0.89632  124.601
 5986.00    0.90621   0.89687  124.914
 5987.00    0.91165   0.89824  124.700
 5988.00    0.91247   0.89991  123.776
 5989.00    0.91168   0.90148  123.098
 5990.00    0.91288   0.90286  123.474
 5991.00    0.91282   0.90414  124.420
 5992.00    0.91202   0.90534  125.095
 5993.00    0.91028   0.90628  125.462
 5994.00    0.91032   0.90669  125.435
 5995.00    0.91054   0.90644  125.369
 5996.00    0.91081   0.90563  125.874
 5997.00    0.90990   0.90454  126.482
 5998.00    0.90864   0.90346  126.608
 5999.00    0.91070   0.90253  126.364
 6000.00    0.91019   0.90167  126.241
 6001.00    0.90635   0.90079  126.828
 6002.00    0.90608   0.89982  128.010
 6003.00    0.90766   0.89870  128.586
 6004.00    0.90728   0.89731  127.639
 6005.00    0.90517   0.89565  126.162
 6006.00    0.90320   0.89392  125.652
 6007.00    0.90190   0.89260  126.324
 6008.00    0.90121   0.89214  127.176
 6009.00    0.90111   0.89263  127.070
 6010.00    0.90217   0.89372  126.698
 6011.00    0.90400   0.89485  127.070
 6012.00    0.90683   0.89555  127.484
 6013.00    0.90768   0.89565  127.373
 6014.00    0.90510   0.89528  127.417
 6015.00    0.90360   0.89462  128.112
 6016.00    0.90433   0.89376  128.198
 6017.00    0.90293   0.89266  127.388
 6018.00    0.90172   0.89129  126.851
 6019.00    0.90044   0.88984  126.687
 6020.00    0.89968   0.88860  126.176
 6021.00    0.89990   0.88791  125.596
 6022.00    0.89894   0.88807  125.011
 6023.00    0.89699   0.88923  124.326
 6024.00    0.89581   0.89128  124.024
 6025.00    0.89819   0.89399  123.994
 6026.00    0.90256   0.89704  124.189
 6027.00    0.90404   0.90013  124.194
 6028.00    0.90274   0.90297  123.735
 6029.00    0.90413   0.90540  123.306
 6030.00    0.90644   0.90737  123.165
 6031.00    0.90579   0.90889  123.021
 6032.00    0.90358   0.91005  122.991
 6033.00    0.90323   0.91089  123.491
 6034.00    0.90492   0.91140  123.965
 6035.00    0.90556   0.91152  124.263
 6036.00    0.90442   0.91115  124.283
 6037.00    0.90336   0.91025  124.026
 6038.00    0.90430   0.90890  123.593
 6039.00    0.90407   0.90729  122.710
 6040.00    0.90306   0.90578  122.338
 6041.00    0.90171   0.90472  122.460
 6042.00    0.90097   0.90439  122.335
 6043.00    0.90176   0.90482  122.313
 6044.00    0.90064   0.90590  122.644
 6045.00    0.90141   0.90738  122.999
 6046.00    0.90375   0.90893  123.162
 6047.00    0.90266   0.91027  123.340
 6048.00    0.90345   0.91122  123.749
 6049.00    0.90625   0.91164  124.196
 6050.00    0.90585   0.91142  124.753
 6051.00    0.90212   0.91051  125.281
 6052.00    0.90124   0.90894  125.276
 6053.00    0.90348   0.90693  124.753
 6054.00    0.89781   0.90488  124.079
 6055.00    0.88106   0.90330  123.922
 6056.00    0.88137   0.90254  124.202
 6057.00    0.90683   0.90264  125.395
 6058.00    0.84532   0.90328   -1.000
 6059.00    0.59088   0.90386   -1.000
 6060.00    0.64887   0.90373   -1.000
 6061.00    0.87707   0.90245   60.832
 6062.00    0.90136   0.90000   60.488
 6063.00    0.82558   0.89700   -1.000
 6064.00    0.43884   0.89442   -1.000
 6065.00    0.50309   0.89314   -1.000
 6066.00    0.86195   0.89371   -1.000
 6067.00    0.89669   0.89597  120.875
 6068.00    0.89315   0.89926  122.659
 6069.00    0.89706   0.90275  122.912
 6070.00    0.89864   0.90579  123.193
 6071.00    0.89824   0.90805  123.771
 6072.00    0.89716   0.90944  124.466
 6073.00    0.89691   0.90993  125.342
 6074.00    0.89758   0.90955  126.205
 6075.00    0.89577   0.90826  126.525
 6076.00    0.89186   0.90623  126.583
 6077.00    0.88946   0.90381  126.864
 6078.00    0.89116   0.90136  127.010
 6079.00    0.89225   0.89915  126.924
 6080.00    0.89072   0.89731  126.803
 6081.00    0.88945   0.89580  126.520
 6082.00    0.88663   0.89460  126.048
 6083.00    0.88493   0.89378  126.005
 6084.00    0.88685   0.89349  126.625
 6085.00    0.89054   0.89377  127.274
 6086.00    0.89172   0.89445  127.417
 6087.00    0.88939   0.89523  126.844
 6088.00    0.89002   0.89579  126.104
 6089.00    0.88987   0.89603  125.437
 6090.00    0.88683   0.89607  124.823
 6091.00    0.88555   0.89621  124.663
 6092.00    0.88643   0.89671  124.909
 6093.00    0.88946   0.89765  125.086
 6094.00    0.89132   0.89892  125.106
 6095.00    0.89023   0.90018  126.054
 6096.00    0.88937   0.90093  128.656
 6097.00    0.88763   0.90056  131.216
 6098.00    0.88773   0.89846  131.304
 6099.00    0.88807   0.89443  129.198
 6100.00    0.88200   0.88896  126.997
 6101.00    0.87443   0.88334  126.059
 6102.00    0.86913   0.87914  126.284
 6103.00    0.86792   0.87761  126.697
 6104.00    0.87282   0.87907  126.760
 6105.00    0.87757   0.88288  126.547
 6106.00    0.87946   0.88780  126.080
 6107.00    0.88233   0.89262  125.851
 6108.00    0.88410   0.89656  125.440
 6109.00    0.88390   0.89939  124.967
 6110.00    0.88527   0.90119  125.198
 6111.00    0.88651   0.90223  125.947
 6112.00    0.88674   0.90277  126.370
 6113.00    0.88754   0.90299  126.791
 6114.00    0.88653   0.90293  128.231
 6115.00    0.88438   0.90246  130.033
 6116.00    0.88383   0.90126  131.412
 6117.00    0.88253   0.89888  131.898
 6118.00    0.88261   0.89498  130.475
 6119.00    0.88274   0.88960  128.536
 6120.00    0.87619   0.88345  127.972
 6121.00    0.86709   0.87778  128.525
 6122.00    0.86236   0.87392  128.708
 6123.00    0.86523   0.87273  128.415
 6124.00    0.87098   0.87413  127.628
 6125.00    0.87648   0.87725  126.436
 6126.00    0.87921   0.88100  125.852
 6127.00    0.87805   0.88465  125.970
 6128.00    0.87804   0.88793  126.860
 6129.00    0.88045   0.89090  129.212
 6130.00    0.87987   0.89343  132.827
 6131.00    0.87828   0.89488  136.420
 6132.00    0.87679   0.89429  137.810
 6133.00    0.87525   0.89085  135.484
 6134.00    0.87113   0.88464  131.624
 6135.00    0.86069   0.87674  129.407
 6136.00    0.84650   0.86889  129.190
 6137.00    0.83801   0.86283  129.474
 6138.00    0.84200   0.85969  128.654
 6139.00    0.85212   0.85966  127.116
 6140.00    0.86018   0.86228  126.481
 6141.00    0.85849   0.86676  126.876
 6142.00    0.85647   0.87220  127.642
 6143.00    0.86359   0.87759  128.539
 6144.00    0.87103   0.88200  129.354
 6145.00    0.87454   0.88477  129.597
 6146.00    0.87522   0.88579  129.241
 6147.00    0.87289   0.88548  128.455
 6148.00    0.87236   0.88456  128.040
 6149.00    0.87157   0.88371  128.769
 6150.00    0.86895   0.88328  129.627
 6151.00    0.86888   0.88320  129.873
 6152.00    0.87098   0.88313  130.248
 6153.00    0.87307   0.88267  131.394
 6154.00    0.87357   0.88157  133.592
 6155.00    0.87102   0.87969  137.226
 6156.00    0.87066   0.87682  141.348
 6157.00    0.87183   0.87260  143.559
 6158.00    0.86998   0.86660  142.388
 6159.00    0.86721   0.85887  138.859
 6160.00    0.86015   0.85021  136.139
 6161.00    0.85002   0.84218  135.179
 6162.00    0.84233   0.83655  135.301
 6163.00    0.84266   0.83437  136.672
 6164.00    0.85491   0.83543   -1.000
 6165.00    0.86200   0.83841   -1.000
 6166.00    0.86114   0.84167   -1.000
 6167.00    0.85993   0.84418  133.461
 6168.00    0.85689   0.84588  133.030
 6169.00    0.85268   0.84756  133.229
 6170.00    0.85274   0.85011  133.015
 6171.00    0.85845   0.85389  132.722
 6172.00    0.85809   0.85860  132.400
 6173.00    0.85800   0.86351  131.824
 6174.00    0.86402   0.86792  131.282
 6175.00    0.86571   0.87145  130.856
 6176.00    0.86392   0.87409  130.302
 6177.00    0.86665   0.87609  129.883
 6178.00    0.86998   0.87771  129.988
 6179.00    0.86986   0.87919  130.416
 6180.00    0.86700   0.88057  131.297
 6181.00    0.86762   0.88178  132.655
 6182.00    0.87181   0.88257  134.066
 6183.00    0.87078   0.88265  135.368
 6184.00    0.86883   0.88182  136.430
 6185.00    0.87013   0.87998  137.984
 6186.00    0.87119   0.87714  139.171
 6187.00    0.86675   0.87344  138.246
 6188.00    0.86078   0.86925  135.218
 6189.00    0.85720   0.86516  132.624
 6190.00    0.85233   0.86201  131.497
 6191.00    0.84693   0.86062  131.182
 6192.00    0.84564   0.86143  131.771
 6193.00    0.85392   0.86418  133.171
 6194.00    0.86310   0.86801  134.409
 6195.00    0.86569   0.87182  134.589
 6196.00    0.86775   0.87472  133.502
 6197.00    0.86762   0.87636  131.861
 6198.00    0.86532   0.87691  131.140
 6199.00    0.86171   0.87698  131.109
 6200.00    0.85645   0.87726  130.954
 6201.00    0.85506   0.87823  130.880
 6202.00    0.85932   0.87998  131.267
 6203.00    0.86475   0.88225  131.413
 6204.00    0.86720   0.88456  131.812
 6205.00    0.86483   0.88649  132.893
 6206.00    0.86481   0.88769  134.002
 6207.00    0.86698   0.88793  135.236
 6208.00    0.86677   0.88702  137.130
 6209.00    0.86386   0.88487  138.729
 6210.00    0.85871   0.88149  139.322
 6211.00    0.85659   0.87719  138.009
 6212.00    0.85260   0.87249  136.967
 6213.00    0.84638   0.86808  137.644
 6214.00    0.85766   0.86447  137.589
 6215.00    0.79784   0.86190   -1.000
 6216.00    0.74167   0.86029   -1.000
 6217.00    0.81418   0.85945   -1.000
 6218.00    0.84925   0.85925  144.315
 6219.00    0.84360   0.85969  137.390
 6220.00    0.84590   0.86076  135.545
 6221.00    0.85160   0.86234  135.769
 6222.00    0.85580   0.86408  136.344
 6223.00    0.85778   0.86550  137.971
 6224.00    0.86111   0.86612  140.210
 6225.00    0.86294   0.86553  142.148
 6226.00    0.85823   0.86349  142.113
 6227.00    0.85439   0.86006  140.322
 6228.00    0.85026   0.85572  137.773
 6229.00    0.84319   0.85138  135.423
 6230.00    0.83744   0.84816  134.431
 6231.00    0.83609   0.84690  135.021
 6232.00    0.83786   0.84777  136.332
 6233.00    0.84331   0.85016  137.728
 6234.00    0.84810   0.85295  139.182
 6235.00    0.85066   0.85508  139.982
 6236.00    0.85197   0.85592  140.045
 6237.00    0.85067   0.85548  140.798
 6238.00    0.84802   0.85414  141.797
 6239.00    0.84603   0.85231  141.939
 6240.00    0.84816   0.85020  141.188
 6241.00    0.84998   0.84778  139.878
 6242.00    0.84927   0.84505  138.169
 6243.00    0.84430   0.84225  136.641
 6244.00    0.84005   0.83995  136.213
 6245.00    0.83771   0.83885  137.193
 6246.00    0.83407   0.83942  139.489
 6247.00    0.83350   0.84147  141.456
 6248.00    0.84136   0.84415  142.567
 6249.00    0.84357   0.84627  143.077
 6250.00    0.84351   0.84687  143.107
 6251.00    0.84044   0.84565  144.082
 6252.00    0.83221   0.84310  145.426
 6253.00    0.82128   0.84013  145.238
 6254.00    0.81985   0.83761  143.336
 6255.00    0.82061   0.83610  141.135
 6256.00    0.82213   0.83578  139.181
 6257.00    0.82757   0.83665  137.086
 6258.00    0.82988   0.83865  136.064
 6259.00    0.83533   0.84162  136.797
 6260.00    0.83940   0.84531  137.801
 6261.00    0.83875   0.84926  137.516
 6262.00    0.83753   0.85301  136.549
 6263.00    0.83871   0.85617  136.693
 6264.00    0.83788   0.85856  137.391
 6265.00    0.83587   0.86021  137.407
 6266.00    0.83717   0.86119  136.968
 6267.00    0.84105   0.86154  136.607
 6268.00    0.84074   0.86130  136.822
 6269.00    0.83525   0.86054  137.700
 6270.00    0.82530   0.85932   -1.000
 6271.00    0.81198   0.85758   -1.000
 6272.00    0.79602   0.85512   -1.000
 6273.00    0.78589   0.85166   -1.000
 6274.00    0.78925   0.84714   -1.000
 6275.00    0.80103   0.84190   -1.000
 6276.00    0.80758   0.83662   -1.000
 6277.00    0.81115   0.83220  143.456
 6278.00    0.81335   0.82943  141.186
 6279.00    0.81851   0.82881  139.391
 6280.00    0.82359   0.83043  138.142
 6281.00    0.82905   0.83395  136.918
 6282.00    0.83137   0.83871  135.894
 6283.00    0.83042   0.84386  135.490
 6284.00    0.82862   0.84865  136.022
 6285.00    0.82643   0.85248  137.120
 6286.00    0.82320   0.85506   -1.000
 6287.00    0.82632   0.85631   -1.000
 6288.00    0.83123   0.85640  138.758
 6289.00    0.83361   0.85564  138.985
 6290.00    0.84157   0.85445  139.896
 6291.00    0.86500   0.85314  140.878
 6292.00    0.90975   0.85186   -1.000
 6293.00    0.97815   0.85053   -1.000
 6294.00    1.05812   0.84894   -1.000
 6295.00    1.08118   0.84696   -1.000
 6296.00    0.99514   0.84462   -1.000
 6297.00    0.85747   0.84212   -1.000
 6298.00    0.78070   0.83982   -1.000
 6299.00    0.79251   0.83812   -1.000
 6300.00    0.81469   0.83741  137.766
 6301.00    0.81966   0.83806  136.502
 6302.00    0.82026   0.84019  135.284
 6303.00    0.82309   0.84360  134.860
 6304.00    0.82816   0.84768  135.321
 6305.00    0.83285   0.85168  136.200
 6306.00    0.83550   0.85494  136.811
 6307.00    0.83803   0.85712  137.356
 6308.00    0.84031   0.85817  137.572
 6309.00    0.83944   0.85824  138.611
 6310.00    0.83756   0.85749  139.296
 6311.00    0.83946   0.85603  139.292
 6312.00    0.83992   0.85396  139.153
 6313.00    0.84075   0.85142  139.285
 6314.00    0.83713   0.84869  138.918
 6315.00    0.83397   0.84620  137.436
 6316.00    0.83420   0.84442  136.002
 6317.00    0.83144   0.84380  135.336
 6318.00    0.83082   0.84457  134.889
 6319.00    0.82977   0.84669  134.208
 6320.00    0.83391   0.84981  133.722
 6321.00    0.83699   0.85344  133.593
 6322.00    0.84161   0.85710  133.038
 6323.00    0.84671   0.86040  133.002
 6324.00    0.84782   0.86307  133.123
 6325.00    0.84410   0.86495  133.213
 6326.00    0.84358   0.86604  132.833
 6327.00    0.83764   0.86647   -1.000
 6328.00    0.84211   0.86642  132.813
 6329.00    0.85134   0.86598  133.165
 6330.00    0.85014   0.86511  135.772
 6331.00    0.84645   0.86362  136.681
 6332.00    0.85034   0.86136  135.717
 6333.00    0.84884   0.85840  134.351
 6334.00    0.84274   0.85518  132.884
 6335.00    0.83863   0.85246  132.087
 6336.00    0.83698   0.85096  131.458
 6337.00    0.83711   0.85107  131.424
 6338.00    0.84523   0.85263  132.443
 6339.00    0.85154   0.85501  132.836
 6340.00    0.85378   0.85739  132.541
 6341.00    0.85338   0.85907  131.873
 6342.00    0.85183   0.85973  130.975
 6343.00    0.85148   0.85951  130.400
 6344.00    0.85324   0.85894  130.347
 6345.00    0.85335   0.85867  130.125
 6346.00    0.85106   0.85925  130.168
 6347.00    0.85276   0.86084  130.665
 6348.00    0.85776   0.86315  131.269
 6349.00    0.86110   0.86558  132.630
 6350.00    0.86106   0.86742  133.864
 6351.00    0.85829   0.86820  134.100
 6352.00    0.85864   0.86781  134.413
 6353.00    0.85901   0.86644  135.770
 6354.00    0.85903   0.86447  136.539
 6355.00    0.87059   0.86227  136.156
 6356.00    0.88701   0.86008   -1.000
 6357.00    0.91542   0.85801   -1.000
 6358.00    0.93050   0.85611   -1.000
 6359.00    0.91426   0.85440   -1.000
 6360.00    0.87886   0.85298   -1.000
 6361.00    0.84822   0.85194  132.658
 6362.00    0.84409   0.85144  131.836
 6363.00    0.85050   0.85155  130.958
 6364.00    0.85013   0.85226  130.533
 6365.00    0.84711   0.85335  130.568
 6366.00    0.84848   0.85453  130.220
 6367.00    0.85024   0.85551  129.703
 6368.00    0.84803   0.85620  129.910
 6369.00    0.84580   0.85672  130.067
 6370.00    0.84619   0.85734  130.314
 6371.00    0.84645   0.85826  130.771
 6372.00    0.84583   0.85946  131.414
 6373.00    0.84329   0.86066  132.281
 6374.00    0.83926   0.86148  132.853
 6375.00    0.83952   0.86164  132.998
 6376.00    0.83882   0.86110  133.223
 6377.00    0.83430   0.86002  133.237
 6378.00    0.83177   0.85870  132.921
 6379.00    0.82843   0.85740   -1.000
 6380.00    0.82623   0.85633   -1.000
 6381.00    0.82522   0.85564   -1.000
 6382.00    0.81942   0.85542   -1.000
 6383.00    0.81677   0.85570   -1.000
 6384.00    0.81802   0.85641   -1.000
 6385.00    0.81364   0.85735   -1.000
 6386.00    0.80792   0.85820   -1.000
 6387.00    0.80615   0.85862   -1.000
 6388.00    0.80260   0.85829   -1.000
 6389.00    0.79774   0.85706   -1.000
 6390.00    0.79379   0.85504   -1.000
 6391.00    0.78928   0.85261   -1.000
 6392.00    0.78142   0.85039   -1.000
 6393.00    0.77186   0.84892   -1.000
 6394.00    0.76785   0.84837   -1.000
 6395.00    0.76972   0.84844   -1.000
 6396.00    0.76911   0.84852   -1.000
 6397.00    0.76505   0.84815   -1.000
 6398.00    0.75689   0.84737   -1.000
 6399.00    0.74565   0.84674   -1.000
 6400.00    0.73773   0.84690   -1.000
 6401.00    0.73774   0.84814   -1.000
 6402.00    0.74211   0.85016   -1.000
 6403.00    0.74467   0.85220   -1.000
 6404.00    0.74157   0.85349   -1.000
 6405.00    0.73442   0.85364   -1.000
 6406.00    0.72870   0.85278   -1.000
 6407.00    0.72239   0.85140   -1.000
 6408.00    0.71613   0.85003   -1.000
 6409.00    0.70822   0.84905   -1.000
 6410.00    0.69990   0.84861   -1.000
 6411.00    0.69627   0.84868   -1.000
 6412.00    0.69246   0.84913   -1.000
 6413.00    0.68811   0.84978   -1.000
 6414.00    0.68535   0.85038   -1.000
 6415.00    0.67962   0.85070   -1.000
 6416.00    0.67255   0.85055   -1.000
 6417.00    0.66667   0.84989   -1.000
 6418.00    0.66161   0.84891   -1.000
 6419.00    0.65319   0.84811   -1.000
 6420.00    0.64227   0.84809   -1.000
 6421.00    0.63080   0.84928   -1.000
 6422.00    0.62458   0.85174   -1.000
 6423.00    0.62447   0.85498   -1.000
 6424.00    0.62069   0.85822   -1.000
 6425.00    0.61341   0.86061   -1.000
 6426.00    0.12457   0.86149   -1.000
 6427.00    0.00000   0.86062   -2.000
 6428.00    0.00000   0.85827   -2.000
