###################################################################
## OUTPUT of StarlightChains_v04.for    [Cid@UFSC - 01/Apr/2007] ##
###################################################################

## Some input info
NGC104_a_1.cxt                           [arq_obs]
Base.BC03.N                              [arq_base]
NGC104_a_1.msk                           [arq_masks]
StCv04.C99.config                        [arq_config]
   45                                    [N_base]
    0                                    [N_YAV_components = # of components with extra extinction!]
    0                                    [i_FitPowerLaw (1/0 = Yes/No)]
-9.99                                    [alpha_PowerLaw]
CCM                                      [red_law_option]
 1.458241                                [q_norm = A(l_norm)/A(V)]

## (Re)Sampling Parameters
 3359.00                                 [l_ini (A)]
 6428.00                                 [l_fin (A)]
    1.00                                 [dl    (A)]     (OBS: dl_cushion =    50.00 A)

## Normalization info
 4020.00                                 [l_norm (A) - for base]
 4010.00                                 [llow_norm (A) - window for f_obs]
 4060.00                                 [lupp_norm (A) - window for f_obs]
2.050577E-13                             [fobs_norm (in input units)]

## S/N
 4730.00                                 [llow_SN (A) - window for S/N]
 4780.00                                 [lupp_SN (A) - window for S/N]
  43.784                                 [S/N in S/N window]
  33.933                                 [S/N in norm. window]
1000.000                                 [S/N_err in S/N window]
 775.022                                 [S/N_err in norm. window]
  1.0000                                 [fscale_chi2]

## etc...
 -2147483648                             [idum_orig]
  3067                                   [NOl_eff]
   234                                   [Nl_eff]
  2833    NSIGMA                         [Ntot_cliped & clip_method]
 14866740                                [Nglobal_steps]
   7                                     [N_chains]
   6                                     [NEX0s_base = N_base in EX0s-fits]
 0   0   1      254   2.0   1.654E+03    [Clip-Bug, RC-Crash & Burn-In warning-flags, n_censored_weights, wei_nsig_threshold & wei_limit]
    91     90.841     90.821      0.019  [idt_all, wdt_TotTime, wdt_UsrTime & wdt_SysTime (sec)]

## Synthesis Results - Best model ##

 2.82026E+00                             [chi2/Nl_eff]
     0.34211                             [adev (%)]

   101.27538                             [sum-of-x (%)]
 1.92286E-13                             [Flux_tot (units of input spectrum!)]
 6.16423E-09                             [Mini_tot (???)]
 3.25242E-09                             [Mcor_tot (???)]

 -26.26                                  [v0_min  (km/s)]
  57.65                                  [vd_min  (km/s)]
-0.0573                                  [AV_min  (mag)]
 0.0000                                  [YAV_min (mag)]

# j     x_j(%)      Mini_j(%)     Mcor_j(%)     age_j(yr)     Z_j      (L/M)_j    YAV?  Mstars   component_j        a/Fe...       SSP_chi2r SSP_adev(%)   SSP_AV   SSP_x(%)
  1      0.0000     0.0000E+00    0.0000E+00    1.000000E+06  0.00400  1.114E-02    0   1.0000   age020_m42            0.0000     1.5993E+04    19.6475   4.0000    77.9088
  2      3.7957     2.8704E-03    5.4396E-03    3.160000E+06  0.00400  4.073E-02    0   0.9999   age045_m42            0.0000     9.4200E+03    13.0303   3.1687    88.6748
  3      0.0000     0.0000E+00    0.0000E+00    5.010000E+06  0.00400  2.534E-02    0   0.9488   age055_m42            0.0000     1.2156E+04    16.2340   3.5469    82.9767
  4      1.9705     4.7753E-03    8.0206E-03    1.000000E+07  0.00400  1.271E-02    0   0.8862   age070_m42            0.0000     1.2697E+04    16.5102   2.7502    86.6608
  5      0.0000     0.0000E+00    0.0000E+00    2.512000E+07  0.00400  5.070E-03    0   0.8174   age090_m42            0.0000     1.1855E+04    15.7584   2.6209    88.1586
  6      0.0000     0.0000E+00    0.0000E+00    4.000000E+07  0.00400  3.505E-03    0   0.7851   age104_m42            0.0000     9.4897E+03    13.5053   2.3163    91.0063
  7      0.0000     0.0000E+00    0.0000E+00    1.015200E+08  0.00400  2.268E-03    0   0.7207   age116_m42            0.0000     1.4107E+04    11.1798   2.4295    97.1038
  8      0.0000     0.0000E+00    0.0000E+00    2.861200E+08  0.00400  1.079E-03    0   0.6613   age125_m42            0.0000     1.4026E+04    10.4793   1.9386    99.3150
  9      0.0000     0.0000E+00    0.0000E+00    6.405400E+08  0.00400  5.077E-04    0   0.6197   age132_m42            0.0000     1.3954E+04    10.4570   1.5653   103.6498
 10      0.0000     0.0000E+00    0.0000E+00    9.047900E+08  0.00400  3.535E-04    0   0.6024   age135_m42            0.0000     1.0165E+04     8.8711   1.3022   103.8765
 11      0.0000     0.0000E+00    0.0000E+00    1.434000E+09  0.00400  1.910E-04    0   0.5716   age139_m42            0.0000     4.8184E+03     5.9236   0.7422   104.1443
 12      4.9318     1.5472E+00    1.6019E+00    2.500000E+09  0.00400  9.818E-05    0   0.5463   age150_m42            0.0000     1.4146E+03     3.1603   0.4285   101.0135
 13     21.5352     1.4059E+01    1.3930E+01    5.000000E+09  0.00400  4.718E-05    0   0.5228   age161_m42            0.0000     4.9558E+02     2.1920   0.2352    98.5907
 14     11.7343     1.6391E+01    1.5471E+01    1.100000E+10  0.00400  2.205E-05    0   0.4980   age185_m42            0.0000     2.0868E+02     1.4950  -0.0452    97.3392
 15      0.0000     0.0000E+00    0.0000E+00    1.300000E+10  0.00400  1.883E-05    0   0.4927   age193_m42            0.0000     2.7826E+02     1.7592  -0.0663    97.3460
 16      0.0000     0.0000E+00    0.0000E+00    1.000000E+06  0.02000  1.989E-02    0   1.0000   age020_m62            0.0000     1.5860E+04    18.8799   4.0000    77.6624
 17      0.0000     0.0000E+00    0.0000E+00    3.160000E+06  0.02000  3.772E-02    0   0.9858   age045_m62            0.0000     1.5214E+04    18.5126   3.8995    78.8044
 18      0.0000     0.0000E+00    0.0000E+00    5.010000E+06  0.02000  3.227E-02    0   0.9342   age055_m62            0.0000     1.1386E+04    15.1700   3.4249    85.2166
 19      0.0000     0.0000E+00    0.0000E+00    1.000000E+07  0.02000  1.011E-02    0   0.8751   age070_m62            0.0000     1.9890E+04    20.8340   2.7028    83.9482
 20      0.0000     0.0000E+00    0.0000E+00    2.512000E+07  0.02000  4.206E-03    0   0.8099   age090_m62            0.0000     1.5767E+04    18.6523   2.6579    84.6183
 21      0.0000     0.0000E+00    0.0000E+00    4.000000E+07  0.02000  3.373E-03    0   0.7799   age104_m62            0.0000     1.1390E+04    13.5469   2.5410    91.6776
 22      0.0000     0.0000E+00    0.0000E+00    1.015200E+08  0.02000  1.878E-03    0   0.7221   age116_m62            0.0000     1.4244E+04    11.1554   2.4419    97.4205
 23      0.0000     0.0000E+00    0.0000E+00    2.861200E+08  0.02000  8.869E-04    0   0.6700   age125_m62            0.0000     1.8636E+04    11.7912   1.9696   103.1090
 24      0.0000     0.0000E+00    0.0000E+00    6.405400E+08  0.02000  3.657E-04    0   0.6322   age132_m62            0.0000     1.1962E+04     8.9971   1.2610   107.9106
 25      0.0000     0.0000E+00    0.0000E+00    9.047900E+08  0.02000  2.312E-04    0   0.6152   age135_m62            0.0000     6.9097E+03     6.8219   0.8500   108.5092
 26      0.0000     0.0000E+00    0.0000E+00    1.434000E+09  0.02000  1.168E-04    0   0.5865   age139_m62            0.0000     1.9169E+03     3.3296   0.3791   104.7606
 27      0.0000     0.0000E+00    0.0000E+00    2.500000E+09  0.02000  5.505E-05    0   0.5610   age150_m62            0.0000     2.9538E+02     1.5031  -0.0295   103.3802
 28     57.3079     6.7995E+01    6.8983E+01    5.000000E+09  0.02000  2.596E-05    0   0.5353   age161_m62            0.0000     7.3018E+02     3.6681  -0.3799   104.4461
 29      0.0000     0.0000E+00    0.0000E+00    1.100000E+10  0.02000  1.169E-05    0   0.5103   age185_m62            0.0000     2.5277E+03     6.4205  -0.7604   106.7960
 30      0.0000     0.0000E+00    0.0000E+00    1.300000E+10  0.02000  9.691E-06    0   0.5047   age193_m62            0.0000     2.9525E+03     6.8442  -0.8101   107.2291
 31      0.0000     0.0000E+00    0.0000E+00    1.000000E+06  0.05000  2.651E-02    0   0.9998   age020_m72            0.0000     1.4935E+04    18.2367   4.0000    78.6463
 32      0.0000     0.0000E+00    0.0000E+00    3.160000E+06  0.05000  4.817E-02    0   0.9577   age045_m72            0.0000     1.2986E+04    16.8453   3.7798    81.5442
 33      0.0000     0.0000E+00    0.0000E+00    5.010000E+06  0.05000  3.101E-02    0   0.9147   age055_m72            0.0000     1.3091E+04    16.9284   3.3947    84.3501
 34      0.0000     0.0000E+00    0.0000E+00    1.000000E+07  0.05000  8.954E-03    0   0.8524   age070_m72            0.0000     1.2902E+04    16.3331   3.6375    82.7977
 35      0.0000     0.0000E+00    0.0000E+00    2.512000E+07  0.05000  4.207E-03    0   0.7902   age090_m72            0.0000     1.0883E+04    13.8268   3.2321    87.5182
 36      0.0000     0.0000E+00    0.0000E+00    4.000000E+07  0.05000  3.198E-03    0   0.7618   age104_m72            0.0000     1.1783E+04    10.7680   2.7841    93.8303
 37      0.0000     0.0000E+00    0.0000E+00    1.015200E+08  0.05000  1.716E-03    0   0.7092   age116_m72            0.0000     1.5453E+04    11.3875   2.5232    97.4810
 38      0.0000     0.0000E+00    0.0000E+00    2.861200E+08  0.05000  7.047E-04    0   0.6618   age125_m72            0.0000     1.6910E+04    10.7558   1.7503   104.0418
 39      0.0000     0.0000E+00    0.0000E+00    6.405400E+08  0.05000  2.633E-04    0   0.6253   age132_m72            0.0000     8.1410E+03     7.1330   0.8528   108.7165
 40      0.0000     0.0000E+00    0.0000E+00    9.047900E+08  0.05000  1.484E-04    0   0.6088   age135_m72            0.0000     2.5417E+03     3.9710   0.3250   105.6449
 41      0.0000     0.0000E+00    0.0000E+00    1.434000E+09  0.05000  7.827E-05    0   0.5847   age139_m72            0.0000     6.6454E+02     2.8915  -0.1107   103.9470
 42      0.0000     0.0000E+00    0.0000E+00    2.500000E+09  0.05000  3.759E-05    0   0.5583   age150_m72            0.0000     1.0142E+03     4.3574  -0.4628   104.2859
 43      0.0000     0.0000E+00    0.0000E+00    5.000000E+09  0.05000  1.548E-05    0   0.5320   age161_m72            0.0000     2.5124E+03     6.0677  -0.9091   105.0716
 44      0.0000     0.0000E+00    0.0000E+00    1.100000E+10  0.05000  6.532E-06    0   0.5070   age185_m72            0.0000     7.7793E+03    10.7379  -1.0000    96.0151
 45      0.0000     0.0000E+00    0.0000E+00    1.300000E+10  0.05000  5.316E-06    0   0.5018   age193_m72            0.0000     1.1358E+04    12.8752  -1.0000    92.4279


## Synthesis Results - Average & Chains ##

# j      x_j: min, <> & last-chain-values for 1 ...  7 chains
  1      0.0000      0.0126      0.0000      0.0068      0.0000      0.0047      0.0046      0.0526      0.0567
  2      3.7957      3.6632      3.6914      3.6408      3.6775      3.6560      3.6915      3.6304      3.5973
  3      0.0000      0.0152      0.0000      0.0000      0.0141      0.0013      0.0000      0.0000      0.0258
  4      1.9705      1.8534      1.8860      1.8470      1.8569      1.8361      1.8619      1.8498      1.8511
  5      0.0000      0.0128      0.0000      0.0000      0.0000      0.0341      0.0087      0.0050      0.0105
  6      0.0000      0.0186      0.0030      0.0278      0.0131      0.0280      0.0528      0.0130      0.0041
  7      0.0000      0.0159      0.0000      0.0681      0.0000      0.0000      0.0000      0.0056      0.0000
  8      0.0000      0.0173      0.0000      0.0000      0.0000      0.0573      0.0000      0.0530      0.0000
  9      0.0000      0.0263      0.0548      0.0608      0.0873      0.0385      0.0957      0.0000      0.0285
 10      0.0000      0.0247      0.1119      0.0895      0.0532      0.0292      0.0218      0.0941      0.0383
 11      0.0000      0.0316      0.0358      0.0000      0.0000      0.0246      0.0000      0.0364      0.0281
 12      4.9318      4.7489      4.7203      4.7576      4.6972      4.7863      4.7736      4.7427      4.8403
 13     21.5352     21.1614     21.0282     21.1412     21.0663     21.2456     21.2097     21.2225     21.1239
 14     11.7343     11.7748     11.8146     11.8325     11.7669     11.7569     11.8078     11.7830     12.0612
 15      0.0000      0.0831      0.0658      0.0748      0.1947      0.0000      0.0594      0.0633      0.0418
 16      0.0000      0.0099      0.0134      0.0001      0.0005      0.0514      0.0000      0.0444      0.0000
 17      0.0000      0.0176      0.0000      0.0856      0.0360      0.0000      0.0000      0.0283      0.0000
 18      0.0000      0.0244      0.0000      0.0000      0.0000      0.0146      0.0135      0.0323      0.0000
 19      0.0000      0.0188      0.0000      0.0565      0.0000      0.0000      0.0651      0.0000      0.0000
 20      0.0000      0.0187      0.1045      0.0055      0.0551      0.0307      0.0297      0.0045      0.0000
 21      0.0000      0.0122      0.0000      0.0173      0.0063      0.0000      0.0000      0.0248      0.0000
 22      0.0000      0.0113      0.0338      0.0109      0.0000      0.0000      0.0037      0.0131      0.0097
 23      0.0000      0.0213      0.0206      0.0130      0.0038      0.0027      0.0120      0.0000      0.0377
 24      0.0000      0.0180      0.0558      0.0000      0.0021      0.0251      0.0000      0.0000      0.0159
 25      0.0000      0.0311      0.0040      0.0630      0.0457      0.0145      0.0000      0.0036      0.2209
 26      0.0000      0.0736      0.0414      0.0115      0.2308      0.0030      0.0149      0.2349      0.0262
 27      0.0000      0.0854      0.1254      0.2497      0.1386      0.0379      0.1010      0.0823      0.0147
 28     57.3079     56.8490     56.8514     56.7079     56.8200     56.9908     57.0284     56.8182     56.2692
 29      0.0000      0.0753      0.1622      0.1119      0.0218      0.0126      0.0625      0.0318      0.1929
 30      0.0000      0.0790      0.0589      0.1177      0.0927      0.0964      0.0169      0.0989      0.3972
 31      0.0000      0.0139      0.0029      0.0211      0.0393      0.0361      0.0000      0.0157      0.0437
 32      0.0000      0.0135      0.0064      0.0000      0.0000      0.0004      0.0000      0.0000      0.0281
 33      0.0000      0.0088      0.0296      0.0000      0.0183      0.0302      0.0342      0.0000      0.0434
 34      0.0000      0.0108      0.0075      0.0003      0.0000      0.0000      0.0189      0.0000      0.0319
 35      0.0000      0.0144      0.0226      0.0029      0.0307      0.0000      0.0000      0.0000      0.0095
 36      0.0000      0.0161      0.0000      0.0000      0.0000      0.0052      0.0000      0.0000      0.0000
 37      0.0000      0.0169      0.0000      0.0000      0.0000      0.0775      0.0256      0.0000      0.0062
 38      0.0000      0.0140      0.0000      0.0113      0.0000      0.0000      0.0057      0.0000      0.0000
 39      0.0000      0.0257      0.0000      0.0241      0.0000      0.0047      0.0220      0.0283      0.0946
 40      0.0000      0.0408      0.0355      0.0000      0.0275      0.0629      0.0350      0.0252      0.0000
 41      0.0000      0.0862      0.0721      0.0247      0.0127      0.0514      0.0550      0.0650      0.0440
 42      0.0000      0.0871      0.0672      0.0860      0.1420      0.0667      0.0365      0.0120      0.0000
 43      0.0000      0.0519      0.1100      0.0362      0.0415      0.0473      0.0196      0.0744      0.0000
 44      0.0000      0.0494      0.0222      0.0000      0.0366      0.0721      0.0411      0.0432      0.0753
 45      0.0000      0.0455      0.0476      0.0947      0.0670      0.0605      0.0650      0.0596      0.0400

# j      m_j: min, <> & last-chain-values for 1 ...  7 chains
  1  0.0000E+00  6.5434E-05  0.0000E+00  3.5575E-05  0.0000E+00  2.4362E-05  2.3935E-05  2.7438E-04  2.9344E-04
  2  5.4396E-03  5.2206E-03  5.2560E-03  5.1807E-03  5.2371E-03  5.2066E-03  5.2627E-03  5.1744E-03  5.0888E-03
  3  0.0000E+00  3.3098E-05  0.0000E+00  0.0000E+00  3.0613E-05  2.8892E-06  0.0000E+00  0.0000E+00  5.5572E-05
  4  8.0206E-03  7.5021E-03  7.6270E-03  7.4646E-03  7.5103E-03  7.4265E-03  7.5387E-03  7.4882E-03  7.4372E-03
  5  0.0000E+00  1.1980E-04  0.0000E+00  0.0000E+00  0.0000E+00  3.1915E-04  8.1069E-05  4.6449E-05  9.7757E-05
  6  0.0000E+00  2.4184E-04  3.9284E-05  3.6074E-04  1.7070E-04  3.6361E-04  6.8689E-04  1.6920E-04  5.2681E-05
  7  0.0000E+00  2.9365E-04  0.0000E+00  1.2547E-03  0.0000E+00  0.0000E+00  0.0000E+00  1.0350E-04  0.0000E+00
  8  0.0000E+00  6.1645E-04  0.0000E+00  0.0000E+00  0.0000E+00  2.0355E-03  0.0000E+00  1.8870E-03  0.0000E+00
  9  0.0000E+00  1.8601E-03  3.8804E-03  4.3028E-03  6.1817E-03  2.7263E-03  6.7818E-03  0.0000E+00  2.0017E-03
 10  0.0000E+00  2.4421E-03  1.1063E-02  8.8423E-03  5.2577E-03  2.8833E-03  2.1619E-03  9.3057E-03  3.7574E-03
 11  0.0000E+00  5.4887E-03  6.2102E-03  0.0000E+00  0.0000E+00  4.2647E-03  0.0000E+00  6.3311E-03  4.8433E-03
 12  1.6019E+00  1.5340E+00  1.5233E+00  1.5344E+00  1.5161E+00  1.5449E+00  1.5424E+00  1.5321E+00  1.5520E+00
 13  1.3930E+01  1.3613E+01  1.3514E+01  1.3579E+01  1.3541E+01  1.3657E+01  1.3648E+01  1.3653E+01  1.3488E+01
 14  1.5471E+01  1.5438E+01  1.5476E+01  1.5490E+01  1.5416E+01  1.5403E+01  1.5486E+01  1.5450E+01  1.5697E+01
 15  0.0000E+00  1.2628E-01  9.9803E-02  1.1345E-01  2.9551E-01  0.0000E+00  9.0186E-02  9.6092E-02  6.3045E-02
 16  0.0000E+00  2.8920E-05  3.8946E-05  2.6622E-07  1.3711E-06  1.5002E-04  0.0000E+00  1.2971E-04  0.0000E+00
 17  0.0000E+00  2.6700E-05  0.0000E+00  1.2970E-04  5.4637E-05  0.0000E+00  0.0000E+00  4.2978E-05  0.0000E+00
 18  0.0000E+00  4.1069E-05  0.0000E+00  0.0000E+00  0.0000E+00  2.4583E-05  2.2674E-05  5.4357E-05  0.0000E+00
 19  0.0000E+00  9.4344E-05  0.0000E+00  2.8371E-04  0.0000E+00  0.0000E+00  3.2716E-04  0.0000E+00  0.0000E+00
 20  0.0000E+00  2.0936E-04  1.1674E-03  6.1600E-05  6.1593E-04  3.4287E-04  3.3252E-04  5.0567E-05  0.0000E+00
 21  0.0000E+00  1.6323E-04  0.0000E+00  2.3205E-04  8.4711E-05  0.0000E+00  0.0000E+00  3.3241E-04  0.0000E+00
 22  0.0000E+00  2.5285E-04  7.5471E-04  2.4316E-04  0.0000E+00  0.0000E+00  8.1529E-05  2.9222E-04  2.1514E-04
 23  0.0000E+00  9.3607E-04  9.0238E-04  5.6935E-04  1.6533E-04  1.1960E-04  5.2780E-04  0.0000E+00  1.6428E-03
 24  0.0000E+00  1.8107E-03  5.5980E-03  0.0000E+00  2.0820E-04  2.5176E-03  0.0000E+00  0.0000E+00  1.5883E-03
 25  0.0000E+00  4.7977E-03  6.1859E-04  9.7201E-03  7.0564E-03  2.2393E-03  0.0000E+00  5.5032E-04  3.3876E-02
 26  0.0000E+00  2.1440E-02  1.2047E-02  3.3334E-03  6.7224E-02  8.7376E-04  4.3517E-03  6.8489E-02  7.5916E-03
 27  0.0000E+00  5.0538E-02  7.4112E-02  1.4748E-01  8.1910E-02  2.2397E-02  5.9746E-02  4.8682E-02  8.6237E-03
 28  6.8983E+01  6.8052E+01  6.7991E+01  6.7777E+01  6.7965E+01  6.8170E+01  6.8287E+01  6.8021E+01  6.6859E+01
 29  0.0000E+00  1.9090E-01  4.1074E-01  2.8321E-01  5.5160E-02  3.1842E-02  1.5838E-01  8.0521E-02  4.8526E-01
 30  0.0000E+00  2.3883E-01  1.7784E-01  3.5544E-01  2.8018E-01  2.9125E-01  5.0984E-02  2.9910E-01  1.1919E+00
 31  0.0000E+00  3.0390E-05  6.4410E-06  4.6221E-05  8.5919E-05  7.8947E-05  0.0000E+00  3.4352E-05  9.5000E-05
 32  0.0000E+00  1.5576E-05  7.3736E-06  0.0000E+00  0.0000E+00  4.5361E-07  0.0000E+00  0.0000E+00  3.2207E-05
 33  0.0000E+00  1.5000E-05  5.0702E-05  0.0000E+00  3.1237E-05  5.1750E-05  5.8574E-05  0.0000E+00  7.3789E-05
 34  0.0000E+00  5.9927E-05  4.1314E-05  1.7966E-06  0.0000E+00  0.0000E+00  1.0422E-04  0.0000E+00  1.7493E-04
 35  0.0000E+00  1.5673E-04  2.4655E-04  3.1364E-05  3.3438E-04  0.0000E+00  0.0000E+00  0.0000E+00  1.0304E-04
 36  0.0000E+00  2.2214E-04  0.0000E+00  0.0000E+00  0.0000E+00  7.1322E-05  0.0000E+00  0.0000E+00  0.0000E+00
 37  0.0000E+00  4.0633E-04  0.0000E+00  0.0000E+00  0.0000E+00  1.8588E-03  6.1389E-04  0.0000E+00  1.4850E-04
 38  0.0000E+00  7.6446E-04  0.0000E+00  6.1556E-04  0.0000E+00  0.0000E+00  3.0898E-04  0.0000E+00  0.0000E+00
 39  0.0000E+00  3.5429E-03  0.0000E+00  3.3125E-03  0.0000E+00  6.4709E-04  3.0396E-03  3.8993E-03  1.2948E-02
 40  0.0000E+00  9.7074E-03  8.4449E-03  0.0000E+00  6.5348E-03  1.4964E-02  8.3484E-03  6.0025E-03  0.0000E+00
 41  0.0000E+00  3.7380E-02  3.1221E-02  1.0708E-02  5.4947E-03  2.2262E-02  2.3850E-02  2.8184E-02  1.8928E-02
 42  0.0000E+00  7.5125E-02  5.7850E-02  7.4058E-02  1.2232E-01  5.7424E-02  3.1474E-02  1.0338E-02  0.0000E+00
 43  0.0000E+00  1.0362E-01  2.1933E-01  7.2080E-02  8.2677E-02  9.4304E-02  3.9190E-02  1.4849E-01  0.0000E+00
 44  0.0000E+00  2.2260E-01  1.0012E-01  0.0000E+00  1.6473E-01  3.2478E-01  1.8537E-01  1.9477E-01  3.3698E-01
 45  0.0000E+00  2.4922E-01  2.6071E-01  5.1815E-01  3.6695E-01  3.3145E-01  3.5653E-01  3.2664E-01  2.1755E-01

# AV, chi2 & Mass for <> & i_chain = 1 ...  7 solutions
AV      -0.0573     -0.0584     -0.0589     -0.0586     -0.0589     -0.0585     -0.0583     -0.0583     -0.0587
chi2 2.8203E+00  2.7994E+00  2.7975E+00  2.7946E+00  2.7994E+00  2.7968E+00  2.7974E+00  2.7979E+00  2.7935E+00
Mass 3.2524E-09  3.2658E-09  3.2668E-09  3.2702E-09  3.2659E-09  3.2677E-09  3.2652E-09  3.2659E-09  3.2889E-09
 -26.35                                  [v0_min (km/s) before EX0s...]
  57.72                                  [vd_min (km/s) before EX0s...]


## Synthetic spectrum (Best Model) ##l_obs f_obs f_syn wei
 3070    [Nl_obs]
 3359.00    0.00000   0.42260   -2.000
 3360.00    0.19989   0.39452   -1.000
 3361.00    0.20809   0.40668   -1.000
 3362.00    0.23330   0.45206   -1.000
 3363.00    0.26553   0.50232   -1.000
 3364.00    0.28286   0.52999   -1.000
 3365.00    0.28778   0.52255   -1.000
 3366.00    0.28261   0.49121   -1.000
 3367.00    0.27537   0.45717   -1.000
 3368.00    0.26525   0.43172   -1.000
 3369.00    0.24879   0.41792   -1.000
 3370.00    0.24187   0.41143   -1.000
 3371.00    0.24291   0.41069   -1.000
 3372.00    0.25292   0.42238   -1.000
 3373.00    0.26371   0.45125   -1.000
 3374.00    0.28543   0.49164   -1.000
 3375.00    0.30499   0.53010   -1.000
 3376.00    0.32796   0.54698   -1.000
 3377.00    0.34438   0.53179   -1.000
 3378.00    0.33305   0.49547   -1.000
 3379.00    0.31552   0.46343   -1.000
 3380.00    0.31590   0.45427   -1.000
 3381.00    0.31814   0.46851   -1.000
 3382.00    0.33073   0.49266   -1.000
 3383.00    0.33280   0.51390   -1.000
 3384.00    0.33883   0.53026   -1.000
 3385.00    0.35699   0.54480   -1.000
 3386.00    0.35483   0.55208   -1.000
 3387.00    0.35190   0.54993   -1.000
 3388.00    0.35981   0.54482   -1.000
 3389.00    0.36610   0.53808   -1.000
 3390.00    0.37435   0.52526   -1.000
 3391.00    0.36974   0.50622   -1.000
 3392.00    0.36615   0.48941   -1.000
 3393.00    0.36430   0.48879   -1.000
 3394.00    0.37632   0.50850   -1.000
 3395.00    0.39374   0.53935   -1.000
 3396.00    0.41725   0.56886   -1.000
 3397.00    0.42954   0.59251   -1.000
 3398.00    0.44329   0.60671   -1.000
 3399.00    0.46064   0.60831   -1.000
 3400.00    0.46659   0.59821   -1.000
 3401.00    0.46221   0.57993   -1.000
 3402.00    0.44237   0.55770   -1.000
 3403.00    0.43813   0.53951   -1.000
 3404.00    0.43049   0.52993   -1.000
 3405.00    0.42276   0.52392   -1.000
 3406.00    0.41601   0.51598   -1.000
 3407.00    0.41421   0.50908   -1.000
 3408.00    0.40754   0.50952   -1.000
 3409.00    0.40543   0.51839   -1.000
 3410.00    0.40807   0.52774   -1.000
 3411.00    0.42108   0.52443   -1.000
 3412.00    0.42419   0.50680   -1.000
 3413.00    0.40604   0.48741   -1.000
 3414.00    0.39893   0.48038   -1.000
 3415.00    0.40001   0.49119   -1.000
 3416.00    0.41043   0.51539   -1.000
 3417.00    0.42906   0.54484   -1.000
 3418.00    0.45042   0.57138   -1.000
 3419.00    0.47444   0.58892   -1.000
 3420.00    0.47594   0.59008   -1.000
 3421.00    0.47930   0.57522   -1.000
 3422.00    0.47624   0.55570   -1.000
 3423.00    0.46240   0.54393   -1.000
 3424.00    0.45223   0.54202   -1.000
 3425.00    0.46605   0.54616   -1.000
 3426.00    0.47864   0.55387   -1.000
 3427.00    0.48103   0.57018   -1.000
 3428.00    0.49194   0.59565   -1.000
 3429.00    0.50623   0.61459   -1.000
 3430.00    0.51523   0.61030   -1.000
 3431.00    0.50856   0.58474   -1.000
 3432.00    0.49125   0.55781   -1.000
 3433.00    0.47903   0.54920   -1.000
 3434.00    0.48240   0.55772   -1.000
 3435.00    0.49363   0.56696   -1.000
 3436.00    0.49641   0.56316   -1.000
 3437.00    0.48251   0.54276   -1.000
 3438.00    0.46066   0.50731   -1.000
 3439.00    0.43439   0.46329   -1.000
 3440.00    0.40216   0.42270   -1.000
 3441.00    0.38678   0.39901   -1.000
 3442.00    0.38632   0.40042   -1.000
 3443.00    0.38800   0.41981   -1.000
 3444.00    0.40424   0.44501   -1.000
 3445.00    0.42776   0.46955   -1.000
 3446.00    0.45284   0.49560   -1.000
 3447.00    0.46903   0.52490   -1.000
 3448.00    0.49759   0.55488   -1.000
 3449.00    0.51887   0.57388   -1.000
 3450.00    0.52163   0.57052   -1.000
 3451.00    0.51696   0.54968   -1.000
 3452.00    0.49678   0.53083   -1.000
 3453.00    0.48858   0.52952   -1.000
 3454.00    0.49506   0.54191   -1.000
 3455.00    0.50981   0.54963   -1.000
 3456.00    0.51816   0.54120   -1.000
 3457.00    0.51583   0.51801   -1.000
 3458.00    0.50209   0.49248   -1.000
 3459.00    0.48108   0.47489  207.867
 3460.00    0.47459   0.46745  210.710
 3461.00    0.47789   0.47674  209.254
 3462.00    0.49516   0.50182   -1.000
 3463.00    0.51304   0.52511   -1.000
 3464.00    0.52817   0.53217   -1.000
 3465.00    0.53288   0.52879   -1.000
 3466.00    0.52659   0.52845   -1.000
 3467.00    0.53277   0.53903   -1.000
 3468.00    0.55306   0.55579   -1.000
 3469.00    0.56537   0.56903   -1.000
 3470.00    0.56924   0.57116   -1.000
 3471.00    0.56381   0.55885   -1.000
 3472.00    0.54495   0.53252   -1.000
 3473.00    0.51829   0.49727   -1.000
 3474.00    0.50257   0.46431   -1.000
 3475.00    0.47710   0.44838   -1.000
 3476.00    0.45963   0.45929  217.565
 3477.00    0.47028   0.48872   -1.000
 3478.00    0.50743   0.51941   -1.000
 3479.00    0.54362   0.53841   -1.000
 3480.00    0.56107   0.54255   -1.000
 3481.00    0.56436   0.53469   -1.000
 3482.00    0.56299   0.52176   -1.000
 3483.00    0.55534   0.51326   -1.000
 3484.00    0.54899   0.51930   -1.000
 3485.00    0.56167   0.54094   -1.000
 3486.00    0.58037   0.56181   -1.000
 3487.00    0.59299   0.56163   -1.000
 3488.00    0.57972   0.53663   -1.000
 3489.00    0.54520   0.50304   -1.000
 3490.00    0.51586   0.48187   -1.000
 3491.00    0.49939   0.48167   -1.000
 3492.00    0.51026   0.49346   -1.000
 3493.00    0.51607   0.50339   -1.000
 3494.00    0.52383   0.50238   -1.000
 3495.00    0.52626   0.49226   -1.000
 3496.00    0.51542   0.48780   -1.000
 3497.00    0.51229   0.50521   -1.000
 3498.00    0.53081   0.54051   -1.000
 3499.00    0.57291   0.57068   -1.000
 3500.00    0.60195   0.58475   -1.000
 3501.00    0.60932   0.59169   -1.000
 3502.00    0.61668   0.59803   -1.000
 3503.00    0.62116   0.59859   -1.000
 3504.00    0.60354   0.58834   -1.000
 3505.00    0.59619   0.57488   -1.000
 3506.00    0.58416   0.56697   -1.000
 3507.00    0.59214   0.56448   -1.000
 3508.00    0.59880   0.55968   -1.000
 3509.00    0.59131   0.54758   -1.000
 3510.00    0.56903   0.53260   -1.000
 3511.00    0.55762   0.51787   -1.000
 3512.00    0.55210   0.50368   -1.000
 3513.00    0.53160   0.49467   -1.000
 3514.00    0.51921   0.50200   -1.000
 3515.00    0.53317   0.53029   -1.000
 3516.00    0.56306   0.56877   -1.000
 3517.00    0.59911   0.59607   -1.000
 3518.00    0.60821   0.59854   -1.000
 3519.00    0.58943   0.57785   -1.000
 3520.00    0.56850   0.54512   -1.000
 3521.00    0.54497   0.51378   -1.000
 3522.00    0.52389   0.48827   -1.000
 3523.00    0.49774   0.46434   -1.000
 3524.00    0.48128   0.44721   -1.000
 3525.00    0.46441   0.44762   -1.000
 3526.00    0.46769   0.47159  213.817
 3527.00    0.49932   0.51118   -1.000
 3528.00    0.54001   0.54941   -1.000
 3529.00    0.57071   0.57072 1654.190
 3530.00    0.57958   0.57255   -1.000
 3531.00    0.56721   0.56590 1654.190
 3532.00    0.56370   0.56538 1654.190
 3533.00    0.57016   0.57551   -1.000
 3534.00    0.57993   0.58919   -1.000
 3535.00    0.59259   0.59811   -1.000
 3536.00    0.60183   0.60344 1654.190
 3537.00    0.59819   0.61197   -1.000
 3538.00    0.60495   0.62307   -1.000
 3539.00    0.61286   0.62664   -1.000
 3540.00    0.60737   0.61819   -1.000
 3541.00    0.59588   0.60846   -1.000
 3542.00    0.59090   0.60940   -1.000
 3543.00    0.59483   0.61945   -1.000
 3544.00    0.60409   0.62885   -1.000
 3545.00    0.60582   0.62882   -1.000
 3546.00    0.59455   0.62137   -1.000
 3547.00    0.58112   0.61541   -1.000
 3548.00    0.57901   0.61562   -1.000
 3549.00    0.58031   0.61863   -1.000
 3550.00    0.58451   0.61615   -1.000
 3551.00    0.57636   0.60398   -1.000
 3552.00    0.55871   0.58666   -1.000
 3553.00    0.54298   0.57451   -1.000
 3554.00    0.53438   0.57351   -1.000
 3555.00    0.53955   0.58022   -1.000
 3556.00    0.55242   0.58521   -1.000
 3557.00    0.54965   0.58246   -1.000
 3558.00    0.54169   0.57622   -1.000
 3559.00    0.53485   0.57657   -1.000
 3560.00    0.54040   0.58797   -1.000
 3561.00    0.55103   0.60326   -1.000
 3562.00    0.55313   0.60528   -1.000
 3563.00    0.55184   0.57699   -1.000
 3564.00    0.51898   0.52479   -1.000
 3565.00    0.47642   0.48250  209.900
 3566.00    0.45757   0.47043  218.547
 3567.00    0.46319   0.47322  215.895
 3568.00    0.46574   0.46905  214.711
 3569.00    0.45009   0.45473  222.177
 3570.00    0.44204   0.44774  226.224
 3571.00    0.45663   0.45895  218.994
 3572.00    0.47813   0.47921  209.147
 3573.00    0.49638   0.49690 1654.190
 3574.00    0.50397   0.50914   -1.000
 3575.00    0.50455   0.51619   -1.000
 3576.00    0.50581   0.51595   -1.000
 3577.00    0.50393   0.50450 1654.190
 3578.00    0.48850   0.47857   -1.000
 3579.00    0.46095   0.44230   -1.000
 3580.00    0.42671   0.41245   -1.000
 3581.00    0.40463   0.40072  247.141
 3582.00    0.40225   0.40508  248.602
 3583.00    0.40061   0.41008  249.622
 3584.00    0.39060   0.40321   -1.000
 3585.00    0.37805   0.39162   -1.000
 3586.00    0.37288   0.39033   -1.000
 3587.00    0.39307   0.40495  254.405
 3588.00    0.41524   0.43440   -1.000
 3589.00    0.43630   0.47373   -1.000
 3590.00    0.47950   0.51225   -1.000
 3591.00    0.51930   0.53844   -1.000
 3592.00    0.53937   0.54883   -1.000
 3593.00    0.54021   0.55412   -1.000
 3594.00    0.54944   0.56690   -1.000
 3595.00    0.56773   0.58837   -1.000
 3596.00    0.59695   0.60943   -1.000
 3597.00    0.61475   0.62514   -1.000
 3598.00    0.63128   0.63738   -1.000
 3599.00    0.64172   0.64218 1558.322
 3600.00    0.63380   0.62989   -1.000
 3601.00    0.60424   0.59864   -1.000
 3602.00    0.57179   0.56114   -1.000
 3603.00    0.54704   0.53262   -1.000
 3604.00    0.53793   0.52086   -1.000
 3605.00    0.53463   0.51991   -1.000
 3606.00    0.54048   0.51613   -1.000
 3607.00    0.53429   0.50244   -1.000
 3608.00    0.50726   0.48595   -1.000
 3609.00    0.49907   0.48388   -1.000
 3610.00    0.51035   0.50173   -1.000
 3611.00    0.52611   0.52478 1654.190
 3612.00    0.54562   0.54167   -1.000
 3613.00    0.55879   0.55711 1654.190
 3614.00    0.56905   0.57409   -1.000
 3615.00    0.59084   0.58174   -1.000
 3616.00    0.58915   0.56045   -1.000
 3617.00    0.54129   0.51286   -1.000
 3618.00    0.49298   0.47493   -1.000
 3619.00    0.48371   0.47655  206.737
 3620.00    0.51484   0.51144   -1.000
 3621.00    0.56506   0.55487   -1.000
 3622.00    0.59898   0.58779   -1.000
 3623.00    0.61338   0.61157 1630.324
 3624.00    0.62092   0.63834   -1.000
 3625.00    0.64514   0.67304   -1.000
 3626.00    0.67353   0.70299   -1.000
 3627.00    0.68328   0.71005   -1.000
 3628.00    0.67055   0.68086   -1.000
 3629.00    0.63110   0.61916   -1.000
 3630.00    0.56293   0.55192   -1.000
 3631.00    0.51971   0.51282   -1.000
 3632.00    0.51420   0.51195   -1.000
 3633.00    0.53102   0.53485   -1.000
 3634.00    0.55060   0.56038   -1.000
 3635.00    0.56347   0.57950   -1.000
 3636.00    0.58561   0.59636   -1.000
 3637.00    0.61475   0.62089   -1.000
 3638.00    0.64374   0.65027   -1.000
 3639.00    0.66596   0.67188   -1.000
 3640.00    0.66638   0.67415   -1.000
 3641.00    0.64965   0.65523   -1.000
 3642.00    0.62828   0.62539   -1.000
 3643.00    0.59554   0.59704 1654.190
 3644.00    0.57886   0.57543   -1.000
 3645.00    0.56924   0.55911   -1.000
 3646.00    0.56070   0.54518   -1.000
 3647.00    0.55051   0.53618   -1.000
 3648.00    0.55023   0.53932   -1.000
 3649.00    0.56594   0.55740   -1.000
 3650.00    0.58996   0.58866 1654.190
 3651.00    0.62017   0.62596   -1.000
 3652.00    0.64728   0.65809   -1.000
 3653.00    0.66339   0.67700   -1.000
 3654.00    0.67262   0.68710   -1.000
 3655.00    0.67476   0.69728   -1.000
 3656.00    0.68280   0.71311   -1.000
 3657.00    0.68991   0.72932   -1.000
 3658.00    0.70205   0.73889   -1.000
 3659.00    0.70101   0.74085   -1.000
 3660.00    0.70111   0.73361   -1.000
 3661.00    0.69321   0.71710   -1.000
 3662.00    0.68587   0.69807   -1.000
 3663.00    0.67416   0.68559   -1.000
 3664.00    0.66918   0.68262   -1.000
 3665.00    0.67773   0.68461   -1.000
 3666.00    0.67711   0.68178   -1.000
 3667.00    0.66274   0.66860   -1.000
 3668.00    0.65569   0.65156   -1.000
 3669.00    0.63956   0.64678   -1.000
 3670.00    0.64413   0.66143   -1.000
 3671.00    0.66983   0.68529   -1.000
 3672.00    0.68331   0.70264   -1.000
 3673.00    0.68549   0.70691   -1.000
 3674.00    0.68561   0.69942   -1.000
 3675.00    0.68399   0.68125   -1.000
 3676.00    0.66292   0.65514   -1.000
 3677.00    0.64288   0.62648   -1.000
 3678.00    0.62396   0.60269   -1.000
 3679.00    0.60852   0.59223   -1.000
 3680.00    0.61055   0.59931   -1.000
 3681.00    0.62732   0.61834   -1.000
 3682.00    0.64607   0.63559   -1.000
 3683.00    0.65185   0.63865   -1.000
 3684.00    0.63584   0.62152   -1.000
 3685.00    0.61043   0.59019   -1.000
 3686.00    0.58628   0.56448   -1.000
 3687.00    0.57621   0.56338   -1.000
 3688.00    0.59348   0.58995   -1.000
 3689.00    0.63620   0.63386   -1.000
 3690.00    0.68139   0.67537   -1.000
 3691.00    0.70214   0.69497   -1.000
 3692.00    0.69626   0.68918   -1.000
 3693.00    0.67705   0.67386   -1.000
 3694.00    0.66812   0.66294   -1.000
 3695.00    0.67134   0.66077   -1.000
 3696.00    0.67745   0.66975   -1.000
 3697.00    0.68590   0.69158   -1.000
 3698.00    0.70959   0.71992   -1.000
 3699.00    0.72794   0.73944   -1.000
 3700.00    0.73761   0.73812 1355.733
 3701.00    0.72319   0.71052   -1.000
 3702.00    0.69087   0.65877   -1.000
 3703.00    0.62995   0.59694   -1.000
 3704.00    0.57475   0.54507   -1.000
 3705.00    0.54592   0.51780   -1.000
 3706.00    0.55192   0.51615   -1.000
 3707.00    0.56712   0.52722   -1.000
 3708.00    0.57287   0.54344   -1.000
 3709.00    0.59233   0.56638   -1.000
 3710.00    0.62040   0.59861   -1.000
 3711.00    0.65004   0.63901   -1.000
 3712.00    0.68945   0.68327   -1.000
 3713.00    0.72406   0.71771   -1.000
 3714.00    0.74200   0.73220   -1.000
 3715.00    0.74402   0.72489   -1.000
 3716.00    0.72428   0.69532   -1.000
 3717.00    0.69266   0.64375   -1.000
 3718.00    0.63142   0.57399   -1.000
 3719.00    0.54926   0.50058   -1.000
 3720.00    0.48967   0.45254   -1.000
 3721.00    0.47408   0.45061   -1.000
 3722.00    0.50850   0.49125   -1.000
 3723.00    0.57460   0.55422   -1.000
 3724.00    0.64006   0.60963   -1.000
 3725.00    0.66717   0.63221   -1.000
 3726.00    0.66141   0.62541   -1.000
 3727.00    0.63993   0.61705   -1.000
 3728.00    0.63497   0.61977   -1.000
 3729.00    0.64606   0.62098   -1.000
 3730.00    0.63904   0.60255   -1.000
 3731.00    0.61053   0.55526   -1.000
 3732.00    0.54973   0.49027   -1.000
 3733.00    0.48293   0.42968   -1.000
 3734.00    0.43052   0.39012   -1.000
 3735.00    0.41528   0.38526   -1.000
 3736.00    0.43755   0.41726   -1.000
 3737.00    0.48334   0.47529  206.895
 3738.00    0.54712   0.54370   -1.000
 3739.00    0.60816   0.60303   -1.000
 3740.00    0.64521   0.63250   -1.000
 3741.00    0.64829   0.62686   -1.000
 3742.00    0.62309   0.59581   -1.000
 3743.00    0.58546   0.55447   -1.000
 3744.00    0.55248   0.51643   -1.000
 3745.00    0.52226   0.48727   -1.000
 3746.00    0.49793   0.45922   -1.000
 3747.00    0.47617   0.42795   -1.000
 3748.00    0.44697   0.40544   -1.000
 3749.00    0.44244   0.41349   -1.000
 3750.00    0.48997   0.45931   -1.000
 3751.00    0.56067   0.52750   -1.000
 3752.00    0.62406   0.59635   -1.000
 3753.00    0.67462   0.65508   -1.000
 3754.00    0.71185   0.69104   -1.000
 3755.00    0.72565   0.68612   -1.000
 3756.00    0.68555   0.64002   -1.000
 3757.00    0.60406   0.58062   -1.000
 3758.00    0.54256   0.54338 1654.190
 3759.00    0.54586   0.54281   -1.000
 3760.00    0.58392   0.56339   -1.000
 3761.00    0.61179   0.58067   -1.000
 3762.00    0.62445   0.58793   -1.000
 3763.00    0.62938   0.59024   -1.000
 3764.00    0.63565   0.58823   -1.000
 3765.00    0.62621   0.58031   -1.000
 3766.00    0.61101   0.56958   -1.000
 3767.00    0.60447   0.56132   -1.000
 3768.00    0.61464   0.55707   -1.000
 3769.00    0.61611   0.55755   -1.000
 3770.00    0.60820   0.56867   -1.000
 3771.00    0.63252   0.59526   -1.000
 3772.00    0.67427   0.62937   -1.000
 3773.00    0.69443   0.65572   -1.000
 3774.00    0.69656   0.66902   -1.000
 3775.00    0.69718   0.67639   -1.000
 3776.00    0.69901   0.68461   -1.000
 3777.00    0.70095   0.69821   -1.000
 3778.00    0.71108   0.71767   -1.000
 3779.00    0.73626   0.73809 1358.217
 3780.00    0.75365   0.75472 1326.871
 3781.00    0.75848   0.76522   -1.000
 3782.00    0.76312   0.76852   -1.000
 3783.00    0.76256   0.75982   -1.000
 3784.00    0.74488   0.73167   -1.000
 3785.00    0.70650   0.68744   -1.000
 3786.00    0.65645   0.64339   -1.000
 3787.00    0.62557   0.61166   -1.000
 3788.00    0.61461   0.59758   -1.000
 3789.00    0.61530   0.59979   -1.000
 3790.00    0.62678   0.60800   -1.000
 3791.00    0.63316   0.60950   -1.000
 3792.00    0.62314   0.59703   -1.000
 3793.00    0.60002   0.57400   -1.000
 3794.00    0.58011   0.54814   -1.000
 3795.00    0.56306   0.52195   -1.000
 3796.00    0.53460   0.49402   -1.000
 3797.00    0.50639   0.47039   -1.000
 3798.00    0.50815   0.47151   -1.000
 3799.00    0.53472   0.50862   -1.000
 3800.00    0.58744   0.56728   -1.000
 3801.00    0.63862   0.62663   -1.000
 3802.00    0.66734   0.67202   -1.000
 3803.00    0.68212   0.69465   -1.000
 3804.00    0.68576   0.69402   -1.000
 3805.00    0.67499   0.67607 1481.504
 3806.00    0.64971   0.65911   -1.000
 3807.00    0.63755   0.66219   -1.000
 3808.00    0.65543   0.68508   -1.000
 3809.00    0.68230   0.70981   -1.000
 3810.00    0.68953   0.71582   -1.000
 3811.00    0.67572   0.69338   -1.000
 3812.00    0.64031   0.64991   -1.000
 3813.00    0.60262   0.60161 1654.190
 3814.00    0.56852   0.56527   -1.000
 3815.00    0.54392   0.55487   -1.000
 3816.00    0.55441   0.56524   -1.000
 3817.00    0.57676   0.57189   -1.000
 3818.00    0.56632   0.55728   -1.000
 3819.00    0.52815   0.52849 1654.190
 3820.00    0.50223   0.51250   -1.000
 3821.00    0.51511   0.52049   -1.000
 3822.00    0.53984   0.53031   -1.000
 3823.00    0.53375   0.51820   -1.000
 3824.00    0.48977   0.48698   -1.000
 3825.00    0.46055   0.45897  217.131
 3826.00    0.45098   0.44819  221.738
 3827.00    0.45522   0.45168  219.674
 3828.00    0.46280   0.45972  216.078
 3829.00    0.47055   0.46210  212.519
 3830.00    0.46440   0.45151  215.329
 3831.00    0.44368   0.42804   -1.000
 3832.00    0.41021   0.39991  243.778
 3833.00    0.39850   0.37934   -1.000
 3834.00    0.40702   0.37498   -1.000
 3835.00    0.42448   0.38321   -1.000
 3836.00    0.43377   0.39311   -1.000
 3837.00    0.42421   0.39861   -1.000
 3838.00    0.41412   0.40437  241.477
 3839.00    0.42208   0.42193  236.921
 3840.00    0.44820   0.45868  223.113
 3841.00    0.49443   0.50932   -1.000
 3842.00    0.54715   0.55931   -1.000
 3843.00    0.58379   0.59622   -1.000
 3844.00    0.59422   0.61677   -1.000
 3845.00    0.59398   0.62867   -1.000
 3846.00    0.59434   0.63857   -1.000
 3847.00    0.59317   0.64127   -1.000
 3848.00    0.57867   0.63220   -1.000
 3849.00    0.55643   0.62216   -1.000
 3850.00    0.54821   0.62323   -1.000
 3851.00    0.56186   0.63496   -1.000
 3852.00    0.57732   0.64423   -1.000
 3853.00    0.57286   0.63865   -1.000
 3854.00    0.55819   0.62140   -1.000
 3855.00    0.54204   0.60165   -1.000
 3856.00    0.53440   0.58023   -1.000
 3857.00    0.51741   0.55476   -1.000
 3858.00    0.48638   0.53078   -1.000
 3859.00    0.45711   0.52626   -1.000
 3860.00    0.46845   0.55190   -1.000
 3861.00    0.52312   0.59675   -1.000
 3862.00    0.58266   0.63672   -1.000
 3863.00    0.60945   0.65280   -1.000
 3864.00    0.60458   0.64876   -1.000
 3865.00    0.59249   0.64039   -1.000
 3866.00    0.58378   0.63510   -1.000
 3867.00    0.57248   0.63088   -1.000
 3868.00    0.55009   0.62037   -1.000
 3869.00    0.52270   0.59834   -1.000
 3870.00    0.48997   0.56895   -1.000
 3871.00    0.48018   0.54924   -1.000
 3872.00    0.49549   0.55402   -1.000
 3873.00    0.54751   0.58322   -1.000
 3874.00    0.60190   0.61918   -1.000
 3875.00    0.62469   0.63357   -1.000
 3876.00    0.60455   0.61649   -1.000
 3877.00    0.55658   0.58668   -1.000
 3878.00    0.52162   0.56884   -1.000
 3879.00    0.51859   0.56837   -1.000
 3880.00    0.51880   0.57261   -1.000
 3881.00    0.50568   0.57506   -1.000
 3882.00    0.51965   0.57894   -1.000
 3883.00    0.57103   0.58087   -1.000
 3884.00    0.60693   0.56809   -1.000
 3885.00    0.59462   0.53578   -1.000
 3886.00    0.56352   0.49789   -1.000
 3887.00    0.55694   0.47497   -1.000
 3888.00    0.55913   0.48031   -1.000
 3889.00    0.57936   0.51572   -1.000
 3890.00    0.63232   0.56926   -1.000
 3891.00    0.69149   0.62068   -1.000
 3892.00    0.71577   0.65042   -1.000
 3893.00    0.71214   0.65602   -1.000
 3894.00    0.69984   0.65393   -1.000
 3895.00    0.70106   0.65907   -1.000
 3896.00    0.72175   0.67145   -1.000
 3897.00    0.74206   0.67948   -1.000
 3898.00    0.72777   0.68001   -1.000
 3899.00    0.71750   0.68211   -1.000
 3900.00    0.72852   0.68850   -1.000
 3901.00    0.73519   0.69065   -1.000
 3902.00    0.72778   0.68126   -1.000
 3903.00    0.69690   0.66199   -1.000
 3904.00    0.68079   0.64420   -1.000
 3905.00    0.66053   0.64229   -1.000
 3906.00    0.66679   0.66226   -1.000
 3907.00    0.70944   0.69840   -1.000
 3908.00    0.76107   0.73660   -1.000
 3909.00    0.77871   0.76339   -1.000
 3910.00    0.78548   0.77752   -1.000
 3911.00    0.79308   0.78428   -1.000
 3912.00    0.79772   0.78381   -1.000
 3913.00    0.78797   0.77686   -1.000
 3914.00    0.77168   0.76547   -1.000
 3915.00    0.75382   0.75172 1326.569
 3916.00    0.74461   0.73738   -1.000
 3917.00    0.73476   0.71967   -1.000
 3918.00    0.71347   0.69484   -1.000
 3919.00    0.68281   0.66647   -1.000
 3920.00    0.65145   0.64455   -1.000
 3921.00    0.63882   0.63789 1565.395
 3922.00    0.64517   0.64450 1549.984
 3923.00    0.65754   0.65024   -1.000
 3924.00    0.65189   0.64104   -1.000
 3925.00    0.61997   0.61058   -1.000
 3926.00    0.56447   0.56202   -1.000
 3927.00    0.50277   0.50347 1654.190
 3928.00    0.43502   0.44261  229.872
 3929.00    0.37095   0.38412   -1.000
 3930.00    0.31711   0.32790   -1.000
 3931.00    0.26785   0.27693   -1.000
 3932.00    0.22903   0.23887   -1.000
 3933.00    0.20989   0.22432   -1.000
 3934.00    0.21949   0.24081   -1.000
 3935.00    0.25332   0.28441   -1.000
 3936.00    0.30659   0.34419   -1.000
 3937.00    0.37344   0.41140   -1.000
 3938.00    0.44413   0.47647   -1.000
 3939.00    0.50226   0.52949   -1.000
 3940.00    0.54141   0.56514   -1.000
 3941.00    0.56236   0.58116   -1.000
 3942.00    0.56722   0.58570   -1.000
 3943.00    0.56739   0.59398   -1.000
 3944.00    0.59821   0.61626   -1.000
 3945.00    0.65933   0.64798   -1.000
 3946.00    0.69938   0.67414   -1.000
 3947.00    0.70633   0.68992   -1.000
 3948.00    0.71143   0.70506   -1.000
 3949.00    0.73919   0.72298   -1.000
 3950.00    0.76414   0.73428   -1.000
 3951.00    0.75996   0.73588   -1.000
 3952.00    0.74867   0.73788   -1.000
 3953.00    0.76278   0.74580   -1.000
 3954.00    0.78260   0.75162   -1.000
 3955.00    0.77345   0.74546   -1.000
 3956.00    0.74545   0.73376   -1.000
 3957.00    0.73387   0.72786   -1.000
 3958.00    0.74778   0.71878   -1.000
 3959.00    0.72997   0.68662   -1.000
 3960.00    0.65785   0.62956   -1.000
 3961.00    0.58171   0.56732   -1.000
 3962.00    0.52595   0.51856   -1.000
 3963.00    0.50180   0.48238   -1.000
 3964.00    0.46241   0.44071   -1.000
 3965.00    0.39364   0.38192  254.039
 3966.00    0.31866   0.31396  313.812
 3967.00    0.26051   0.25979  383.868
 3968.00    0.23621   0.23987  423.348
 3969.00    0.25506   0.25891  392.069
 3970.00    0.30996   0.30782  322.621
 3971.00    0.37733   0.37296  265.020
 3972.00    0.45095   0.44228  221.753
 3973.00    0.52249   0.51005   -1.000
 3974.00    0.59158   0.57481   -1.000
 3975.00    0.65644   0.63319   -1.000
 3976.00    0.71203   0.68544   -1.000
 3977.00    0.75626   0.73321   -1.000
 3978.00    0.79801   0.77606   -1.000
 3979.00    0.84356   0.80750   -1.000
 3980.00    0.85286   0.81933   -1.000
 3981.00    0.84651   0.81499   -1.000
 3982.00    0.83004   0.80816   -1.000
 3983.00    0.83669   0.81036   -1.000
 3984.00    0.85488   0.82201   -1.000
 3985.00    0.87207   0.83885   -1.000
 3986.00    0.88630   0.85829   -1.000
 3987.00    0.90377   0.87560   -1.000
 3988.00    0.91230   0.88593   -1.000
 3989.00    0.90856   0.89042   -1.000
 3990.00    0.91464   0.89616   -1.000
 3991.00    0.93692   0.90797   -1.000
 3992.00    0.96034   0.91907   -1.000
 3993.00    0.94784   0.91895   -1.000
 3994.00    0.92504   0.90546   -1.000
 3995.00    0.90423   0.88538   -1.000
 3996.00    0.88730   0.87125   -1.000
 3997.00    0.88018   0.87509   -1.000
 3998.00    0.90135   0.89813   -1.000
 3999.00    0.94568   0.92924   -1.000
 4000.00    0.97849   0.95608   -1.000
 4001.00    0.99384   0.96932   -1.000
 4002.00    1.00822   0.95973   -1.000
 4003.00    0.98761   0.92519   -1.000
 4004.00    0.92282   0.88022   -1.000
 4005.00    0.87779   0.85347   -1.000
 4006.00    0.88620   0.86425   -1.000
 4007.00    0.94241   0.90157   -1.000
 4008.00    0.98068   0.93937   -1.000
 4009.00    0.99296   0.96283   -1.000
 4010.00    1.00375   0.97278   -1.000
 4011.00    1.00688   0.97658   -1.000
 4012.00    0.99932   0.98058   -1.000
 4013.00    0.99396   0.98676   -1.000
 4014.00    1.00188   0.99134   -1.000
 4015.00    1.01664   0.99007   -1.000
 4016.00    1.00714   0.98566   -1.000
 4017.00    0.99464   0.98658   -1.000
 4018.00    1.00000   0.99573   -1.000
 4019.00    1.01620   1.00546   -1.000
 4020.00    1.01317   1.00743   -1.000
 4021.00    0.99801   1.00136   -1.000
 4022.00    0.99248   0.99246 1007.582
 4023.00    0.98598   0.98518 1014.214
 4024.00    0.97826   0.98549   -1.000
 4025.00    1.00426   0.99837   -1.000
 4026.00    1.04196   1.01989   -1.000
 4027.00    1.06297   1.03234   -1.000
 4028.00    1.05243   1.01415   -1.000
 4029.00    1.00943   0.96432   -1.000
 4030.00    0.94341   0.90612   -1.000
 4031.00    0.90597   0.86511   -1.000
 4032.00    0.89603   0.85176   -1.000
 4033.00    0.90828   0.86476   -1.000
 4034.00    0.93968   0.90130   -1.000
 4035.00    0.98931   0.95479   -1.000
 4036.00    1.04070   1.01071   -1.000
 4037.00    1.07819   1.04915   -1.000
 4038.00    1.08122   1.05571   -1.000
 4039.00    1.05772   1.03962   -1.000
 4040.00    1.03285   1.02341   -1.000
 4041.00    1.02214   1.00920   -1.000
 4042.00    1.01744   0.97753   -1.000
 4043.00    0.96896   0.91541   -1.000
 4044.00    0.88064   0.84336   -1.000
 4045.00    0.81766   0.81155   -1.000
 4046.00    0.85574   0.84349   -1.000
 4047.00    0.95008   0.91310   -1.000
 4048.00    1.01035   0.97919   -1.000
 4049.00    1.03907   1.01799   -1.000
 4050.00    1.05067   1.02834   -1.000
 4051.00    1.04284   1.01809   -1.000
 4052.00    1.01407   0.99560   -1.000
 4053.00    0.98846   0.97157   -1.000
 4054.00    0.97365   0.95313   -1.000
 4055.00    0.96619   0.93770   -1.000
 4056.00    0.95974   0.92452   -1.000
 4057.00    0.94961   0.92235   -1.000
 4058.00    0.96167   0.93831   -1.000
 4059.00    0.99891   0.96232   -1.000
 4060.00    1.01858   0.96529   -1.000
 4061.00    1.00010   0.93102   -1.000
 4062.00    0.92956   0.88061   -1.000
 4063.00    0.86916   0.84833   -1.000
 4064.00    0.88527   0.84902   -1.000
 4065.00    0.93252   0.87192   -1.000
 4066.00    0.95499   0.90138   -1.000
 4067.00    0.98168   0.93110   -1.000
 4068.00    1.01474   0.95109   -1.000
 4069.00    1.02720   0.94553   -1.000
 4070.00    0.98622   0.91811   -1.000
 4071.00    0.94254   0.89662   -1.000
 4072.00    0.95098   0.90153   -1.000
 4073.00    0.98857   0.91992   -1.000
 4074.00    0.99288   0.91724   -1.000
 4075.00    0.94499   0.88308   -1.000
 4076.00    0.86904   0.84400   -1.000
 4077.00    0.84495   0.83367   -1.000
 4078.00    0.87565   0.86528   -1.000
 4079.00    0.94165   0.92195   -1.000
 4080.00    1.01150   0.97219   -1.000
 4081.00    1.04187   0.99163   -1.000
 4082.00    1.02288   0.97949   -1.000
 4083.00    0.98814   0.95680   -1.000
 4084.00    0.97383   0.94830   -1.000
 4085.00    0.98958   0.96521   -1.000
 4086.00    1.02502   0.99937   -1.000
 4087.00    1.06629   1.03371   -1.000
 4088.00    1.10158   1.05216   -1.000
 4089.00    1.09522   1.04794   -1.000
 4090.00    1.07226   1.02872   -1.000
 4091.00    1.05263   1.01035   -1.000
 4092.00    1.04113   0.99788   -1.000
 4093.00    1.04059   0.98215   -1.000
 4094.00    1.02108   0.95573   -1.000
 4095.00    0.97495   0.92145   -1.000
 4096.00    0.94372   0.89033   -1.000
 4097.00    0.93778   0.86282   -1.000
 4098.00    0.92242   0.82680   -1.000
 4099.00    0.87244   0.77635   -1.000
 4100.00    0.79704   0.72545   -1.000
 4101.00    0.74558   0.70354   -1.000
 4102.00    0.76357   0.72752   -1.000
 4103.00    0.83599   0.78678   -1.000
 4104.00    0.90656   0.85467   -1.000
 4105.00    0.95735   0.90731   -1.000
 4106.00    0.98678   0.93661   -1.000
 4107.00    0.99079   0.94656   -1.000
 4108.00    0.98088   0.94423   -1.000
 4109.00    0.96161   0.93891   -1.000
 4110.00    0.94771   0.93906   -1.000
 4111.00    0.96060   0.94824   -1.000
 4112.00    0.98329   0.96553   -1.000
 4113.00    1.00028   0.98747   -1.000
 4114.00    1.01585   1.00717   -1.000
 4115.00    1.02567   1.01567   -1.000
 4116.00    1.02007   1.00760   -1.000
 4117.00    0.99807   0.98736   -1.000
 4118.00    0.96475   0.96821   -1.000
 4119.00    0.95434   0.96036   -1.000
 4120.00    0.96731   0.96310   -1.000
 4121.00    0.97737   0.96906   -1.000
 4122.00    0.97594   0.97446 1024.653
 4123.00    0.98699   0.98204   -1.000
 4124.00    1.00519   0.99096   -1.000
 4125.00    1.00806   0.99281   -1.000
 4126.00    0.99398   0.98380   -1.000
 4127.00    0.97254   0.97049 1028.235
 4128.00    0.96503   0.95966   -1.000
 4129.00    0.96030   0.94831   -1.000
 4130.00    0.94804   0.92892   -1.000
 4131.00    0.91823   0.90427   -1.000
 4132.00    0.89002   0.88956 1123.568
 4133.00    0.88858   0.89978   -1.000
 4134.00    0.92010   0.93399   -1.000
 4135.00    0.96994   0.97596   -1.000
 4136.00    1.00194   1.01102   -1.000
 4137.00    1.01777   1.03411   -1.000
 4138.00    1.03394   1.04586   -1.000
 4139.00    1.03760   1.04252   -1.000
 4140.00    1.01575   1.01315  984.496
 4141.00    0.96349   0.95907   -1.000
 4142.00    0.88686   0.90587   -1.000
 4143.00    0.84317   0.88429   -1.000
 4144.00    0.87803   0.90460   -1.000
 4145.00    0.93534   0.94612   -1.000
 4146.00    0.97080   0.97782   -1.000
 4147.00    0.98005   0.98608   -1.000
 4148.00    0.96060   0.97812   -1.000
 4149.00    0.93395   0.96933   -1.000
 4150.00    0.92299   0.96542   -1.000
 4151.00    0.93047   0.96133   -1.000
 4152.00    0.93580   0.95215   -1.000
 4153.00    0.92655   0.93921   -1.000
 4154.00    0.91118   0.92996   -1.000
 4155.00    0.93617   0.93201   -1.000
 4156.00    0.94352   0.94653 1059.859
 4157.00    0.93057   0.96960   -1.000
 4158.00    0.97516   0.99610   -1.000
 4159.00    0.96392   1.01838   -1.000
 4160.00    0.97053   1.03368   -1.000
 4161.00    1.00237   1.04549   -1.000
 4162.00    1.01280   1.05401   -1.000
 4163.00    1.00613   1.05550   -1.000
 4164.00    0.98928   1.04476   -1.000
 4165.00    0.97481   1.02284   -1.000
 4166.00    0.95290   1.00204   -1.000
 4167.00    0.93876   0.99375   -1.000
 4168.00    0.94679   0.99492   -1.000
 4169.00    0.96403   0.98821   -1.000
 4170.00    0.95298   0.96004   -1.000
 4171.00    0.89724   0.91931   -1.000
 4172.00    0.84544   0.89000   -1.000
 4173.00    0.84483   0.88919   -1.000
 4174.00    0.87782   0.91002   -1.000
 4175.00    0.91081   0.93168   -1.000
 4176.00    0.91033   0.94368   -1.000
 4177.00    0.90468   0.95242   -1.000
 4178.00    0.90900   0.96467   -1.000
 4179.00    0.92399   0.97390   -1.000
 4180.00    0.93275   0.97193   -1.000
 4181.00    0.93160   0.96524   -1.000
 4182.00    0.94219   0.96911   -1.000
 4183.00    0.96198   0.98573   -1.000
 4184.00    0.97923   0.99777   -1.000
 4185.00    0.97702   0.99034   -1.000
 4186.00    0.94355   0.97091   -1.000
 4187.00    0.91741   0.95942   -1.000
 4188.00    0.92702   0.96557   -1.000
 4189.00    0.94922   0.98209   -1.000
 4190.00    0.95431   0.99808   -1.000
 4191.00    0.96754   1.01234   -1.000
 4192.00    0.98945   1.02399   -1.000
 4193.00    1.00239   1.02213   -1.000
 4194.00    0.97205   0.99796   -1.000
 4195.00    0.92215   0.95912   -1.000
 4196.00    0.89336   0.92247   -1.000
 4197.00    0.87845   0.89922   -1.000
 4198.00    0.87712   0.89074   -1.000
 4199.00    0.88737   0.89269   -1.000
 4200.00    0.90213   0.90003 1108.490
 4201.00    0.90401   0.91010   -1.000
 4202.00    0.91006   0.92491   -1.000
 4203.00    0.92510   0.94735   -1.000
 4204.00    0.93137   0.97612   -1.000
 4205.00    0.95048   1.00482   -1.000
 4206.00    0.97519   1.02760   -1.000
 4207.00    0.99430   1.04036   -1.000
 4208.00    0.99859   1.04230   -1.000
 4209.00    0.99401   1.03964   -1.000
 4210.00    0.99643   1.04053   -1.000
 4211.00    1.00378   1.04368   -1.000
 4212.00    0.99733   1.03577   -1.000
 4213.00    0.96427   1.00863   -1.000
 4214.00    0.92120   0.97518   -1.000
 4215.00    0.89714   0.96155   -1.000
 4216.00    0.93126   0.98228   -1.000
 4217.00    0.99629   1.02536   -1.000
 4218.00    1.04154   1.06742   -1.000
 4219.00    1.07059   1.09221   -1.000
 4220.00    1.08143   1.09176   -1.000
 4221.00    1.07075   1.06410   -1.000
 4222.00    1.02661   1.00883   -1.000
 4223.00    0.95771   0.92741   -1.000
 4224.00    0.86997   0.83511   -1.000
 4225.00    0.76513   0.76595 1306.964
 4226.00    0.70906   0.75288   -1.000
 4227.00    0.76107   0.80745   -1.000
 4228.00    0.88300   0.90360   -1.000
 4229.00    0.98217   0.98839   -1.000
 4230.00    1.03393   1.03001   -1.000
 4231.00    1.04000   1.03221   -1.000
 4232.00    1.01553   1.01226   -1.000
 4233.00    0.98924   0.98731 1010.878
 4234.00    0.98037   0.96740   -1.000
 4235.00    0.95706   0.95652 1044.867
 4236.00    0.94024   0.95472   -1.000
 4237.00    0.94847   0.96404   -1.000
 4238.00    0.97209   0.98331   -1.000
 4239.00    0.98556   1.00639   -1.000
 4240.00    1.00530   1.02885   -1.000
 4241.00    1.01871   1.04867   -1.000
 4242.00    1.02269   1.06724   -1.000
 4243.00    1.04136   1.08508   -1.000
 4244.00    1.06409   1.09236   -1.000
 4245.00    1.05133   1.07723   -1.000
 4246.00    1.00277   1.04141   -1.000
 4247.00    0.96637   0.99924   -1.000
 4248.00    0.94289   0.96720   -1.000
 4249.00    0.93512   0.95617   -1.000
 4250.00    0.93665   0.96515   -1.000
 4251.00    0.96594   0.98151   -1.000
 4252.00    0.99397   0.98813   -1.000
 4253.00    0.98658   0.97963   -1.000
 4254.00    0.95906   0.97477   -1.000
 4255.00    0.97369   0.99057   -1.000
 4256.00    1.01497   1.01148   -1.000
 4257.00    1.02164   1.00796   -1.000
 4258.00    0.98129   0.97322   -1.000
 4259.00    0.92873   0.93630   -1.000
 4260.00    0.90627   0.93388   -1.000
 4261.00    0.94466   0.97469   -1.000
 4262.00    1.00917   1.03736   -1.000
 4263.00    1.05849   1.08874   -1.000
 4264.00    1.08252   1.11141   -1.000
 4265.00    1.08403   1.10888   -1.000
 4266.00    1.06547   1.08791   -1.000
 4267.00    1.03011   1.05118   -1.000
 4268.00    0.99990   1.00043 1000.101
 4269.00    0.96231   0.94060   -1.000
 4270.00    0.90111   0.88415   -1.000
 4271.00    0.84876   0.84918 1178.184
 4272.00    0.84210   0.84438 1187.504
 4273.00    0.86293   0.86471 1158.849
 4274.00    0.88528   0.90320   -1.000
 4275.00    0.92788   0.95591   -1.000
 4276.00    0.99367   1.01061   -1.000
 4277.00    1.04113   1.04646   -1.000
 4278.00    1.03931   1.04963   -1.000
 4279.00    0.99215   1.02921   -1.000
 4280.00    0.95926   1.00974   -1.000
 4281.00    0.95835   1.00523   -1.000
 4282.00    0.97302   1.00849   -1.000
 4283.00    0.98165   1.00525   -1.000
 4284.00    0.96795   0.99170   -1.000
 4285.00    0.93920   0.97424   -1.000
 4286.00    0.91633   0.95426   -1.000
 4287.00    0.90402   0.92642   -1.000
 4288.00    0.86921   0.89094   -1.000
 4289.00    0.82704   0.86356   -1.000
 4290.00    0.82743   0.86671   -1.000
 4291.00    0.87378   0.89996   -1.000
 4292.00    0.93415   0.93580 1070.488
 4293.00    0.94994   0.95083 1052.699
 4294.00    0.93982   0.94289   -1.000
 4295.00    0.92416   0.92023   -1.000
 4296.00    0.90315   0.88482   -1.000
 4297.00    0.85815   0.83455   -1.000
 4298.00    0.78769   0.77914   -1.000
 4299.00    0.73344   0.73893   -1.000
 4300.00    0.72666   0.72672 1376.166
 4301.00    0.75068   0.73663   -1.000
 4302.00    0.76160   0.75290   -1.000
 4303.00    0.77338   0.76542   -1.000
 4304.00    0.78272   0.76933   -1.000
 4305.00    0.77867   0.75648   -1.000
 4306.00    0.75115   0.72718   -1.000
 4307.00    0.71170   0.69921   -1.000
 4308.00    0.69548   0.69386 1437.864
 4309.00    0.71135   0.71942   -1.000
 4310.00    0.75343   0.76698   -1.000
 4311.00    0.80674   0.82127   -1.000
 4312.00    0.84899   0.87756   -1.000
 4313.00    0.88400   0.94265   -1.000
 4314.00    0.93935   1.01876   -1.000
 4315.00    1.03127   1.09807   -1.000
 4316.00    1.11449   1.16269   -1.000
 4317.00    1.15262   1.19304   -1.000
 4318.00    1.15048   1.18810   -1.000
 4319.00    1.13170   1.16395   -1.000
 4320.00    1.10609   1.12869   -1.000
 4321.00    1.06898   1.07666   -1.000
 4322.00    1.01770   1.00359   -1.000
 4323.00    0.94604   0.92113   -1.000
 4324.00    0.86675   0.86546 1153.736
 4325.00    0.83543   0.86900   -1.000
 4326.00    0.89821   0.93223   -1.000
 4327.00    1.00763   1.02235   -1.000
 4328.00    1.08332   1.09389   -1.000
 4329.00    1.10115   1.12618   -1.000
 4330.00    1.09495   1.13201   -1.000
 4331.00    1.10181   1.13497   -1.000
 4332.00    1.12240   1.14429   -1.000
 4333.00    1.13342   1.15069   -1.000
 4334.00    1.13533   1.13815  880.799
 4335.00    1.11476   1.09267   -1.000
 4336.00    1.04397   1.01202   -1.000
 4337.00    0.94919   0.91269   -1.000
 4338.00    0.86869   0.82803   -1.000
 4339.00    0.80269   0.78845   -1.000
 4340.00    0.78631   0.80355   -1.000
 4341.00    0.85396   0.86297   -1.000
 4342.00    0.94917   0.94002   -1.000
 4343.00    1.00899   1.00489   -1.000
 4344.00    1.03999   1.04968   -1.000
 4345.00    1.06887   1.08423   -1.000
 4346.00    1.08659   1.11402   -1.000
 4347.00    1.09771   1.13760   -1.000
 4348.00    1.11661   1.14351   -1.000
 4349.00    1.11207   1.11687   -1.000
 4350.00    1.04977   1.06261   -1.000
 4351.00    0.97487   1.01469   -1.000
 4352.00    0.96515   1.00532   -1.000
 4353.00    1.00983   1.03460   -1.000
 4354.00    1.05812   1.07931   -1.000
 4355.00    1.09068   1.11506   -1.000
 4356.00    1.11319   1.13078   -1.000
 4357.00    1.11116   1.12958   -1.000
 4358.00    1.08577   1.12319   -1.000
 4359.00    1.07331   1.12646   -1.000
 4360.00    1.09670   1.14553   -1.000
 4361.00    1.13220   1.17205   -1.000
 4362.00    1.14330   1.19360   -1.000
 4363.00    1.14749   1.20740   -1.000
 4364.00    1.16124   1.21210   -1.000
 4365.00    1.16138   1.19862   -1.000
 4366.00    1.12393   1.16722   -1.000
 4367.00    1.08372   1.13501   -1.000
 4368.00    1.07369   1.11646   -1.000
 4369.00    1.08587   1.11106   -1.000
 4370.00    1.09228   1.10703   -1.000
 4371.00    1.09286   1.09176  915.028
 4372.00    1.08122   1.06230   -1.000
 4373.00    1.03634   1.02821   -1.000
 4374.00    0.99675   1.00850   -1.000
 4375.00    0.99873   1.02034   -1.000
 4376.00    1.04475   1.06005   -1.000
 4377.00    1.10074   1.10027  908.483
 4378.00    1.11805   1.11671  894.415
 4379.00    1.10973   1.10067   -1.000
 4380.00    1.08934   1.04801   -1.000
 4381.00    1.03791   0.96336   -1.000
 4382.00    0.92987   0.87400   -1.000
 4383.00    0.83485   0.82280   -1.000
 4384.00    0.83173   0.83889   -1.000
 4385.00    0.92241   0.90628   -1.000
 4386.00    1.01873   0.97664   -1.000
 4387.00    1.04859   1.01505   -1.000
 4388.00    1.04576   1.02207   -1.000
 4389.00    1.03376   1.02036   -1.000
 4390.00    1.03107   1.02616   -1.000
 4391.00    1.05313   1.04053   -1.000
 4392.00    1.07764   1.05323   -1.000
 4393.00    1.06814   1.05813   -1.000
 4394.00    1.04370   1.06494   -1.000
 4395.00    1.04957   1.08614   -1.000
 4396.00    1.10338   1.11611   -1.000
 4397.00    1.13492   1.13015   -1.000
 4398.00    1.11584   1.11554  896.189
 4399.00    1.07413   1.08919   -1.000
 4400.00    1.04370   1.07072   -1.000
 4401.00    1.05915   1.05968  944.155
 4402.00    1.07908   1.03882   -1.000
 4403.00    1.03831   1.00040   -1.000
 4404.00    0.97900   0.96749   -1.000
 4405.00    0.97457   0.96378   -1.000
 4406.00    1.01141   0.98563   -1.000
 4407.00    1.02479   1.01824   -1.000
 4408.00    1.03366   1.05651   -1.000
 4409.00    1.07725   1.10416   -1.000
 4410.00    1.12586   1.15384   -1.000
 4411.00    1.16465   1.17959   -1.000
 4412.00    1.17672   1.16473   -1.000
 4413.00    1.14249   1.11957   -1.000
 4414.00    1.07751   1.07165   -1.000
 4415.00    1.04163   1.05043   -1.000
 4416.00    1.05063   1.07005   -1.000
 4417.00    1.09100   1.11864   -1.000
 4418.00    1.13886   1.16756   -1.000
 4419.00    1.17077   1.19164   -1.000
 4420.00    1.16116   1.18332   -1.000
 4421.00    1.12945   1.15681   -1.000
 4422.00    1.11015   1.13427   -1.000
 4423.00    1.11830   1.12828   -1.000
 4424.00    1.12369   1.13447   -1.000
 4425.00    1.11873   1.14027   -1.000
 4426.00    1.11346   1.14366   -1.000
 4427.00    1.12218   1.14748   -1.000
 4428.00    1.12649   1.14824   -1.000
 4429.00    1.11402   1.14413   -1.000
 4430.00    1.11089   1.13866   -1.000
 4431.00    1.12539   1.13344   -1.000
 4432.00    1.13392   1.12097   -1.000
 4433.00    1.09404   1.09433  914.041
 4434.00    1.04158   1.07030   -1.000
 4435.00    1.03296   1.07691   -1.000
 4436.00    1.07983   1.12091   -1.000
 4437.00    1.15266   1.17826   -1.000
 4438.00    1.20149   1.21327   -1.000
 4439.00    1.20158   1.20760   -1.000
 4440.00    1.16168   1.16856   -1.000
 4441.00    1.10691   1.12300   -1.000
 4442.00    1.06245   1.10114   -1.000
 4443.00    1.06174   1.11835   -1.000
 4444.00    1.10630   1.16256   -1.000
 4445.00    1.15591   1.20427   -1.000
 4446.00    1.17630   1.22584   -1.000
 4447.00    1.17422   1.22932   -1.000
 4448.00    1.17195   1.22539   -1.000
 4449.00    1.15821   1.21980   -1.000
 4450.00    1.14701   1.21099   -1.000
 4451.00    1.15727   1.19413   -1.000
 4452.00    1.14818   1.16285   -1.000
 4453.00    1.10472   1.11773   -1.000
 4454.00    1.05511   1.07499   -1.000
 4455.00    1.03562   1.05419   -1.000
 4456.00    1.05621   1.05639  946.786
 4457.00    1.07533   1.06533   -1.000
 4458.00    1.07321   1.06788   -1.000
 4459.00    1.06738   1.06529  936.877
 4460.00    1.05585   1.06681   -1.000
 4461.00    1.04665   1.08033   -1.000
 4462.00    1.07000   1.10756   -1.000
 4463.00    1.11555   1.13942   -1.000
 4464.00    1.14107   1.16159   -1.000
 4465.00    1.14098   1.16767   -1.000
 4466.00    1.14011   1.16123   -1.000
 4467.00    1.12633   1.14999   -1.000
 4468.00    1.10426   1.14222   -1.000
 4469.00    1.09873   1.14696   -1.000
 4470.00    1.11587   1.16992   -1.000
 4471.00    1.15364   1.20562   -1.000
 4472.00    1.19523   1.24070   -1.000
 4473.00    1.22795   1.26504   -1.000
 4474.00    1.23683   1.27769   -1.000
 4475.00    1.23366   1.28604   -1.000
 4476.00    1.24561   1.29203   -1.000
 4477.00    1.25262   1.28404   -1.000
 4478.00    1.24008   1.25211   -1.000
 4479.00    1.19320   1.20298   -1.000
 4480.00    1.14052   1.16069   -1.000
 4481.00    1.11053   1.15035   -1.000
 4482.00    1.12615   1.17718   -1.000
 4483.00    1.17852   1.22580   -1.000
 4484.00    1.22431   1.27213   -1.000
 4485.00    1.24965   1.29576   -1.000
 4486.00    1.24582   1.28720   -1.000
 4487.00    1.21617   1.25291   -1.000
 4488.00    1.16968   1.21396   -1.000
 4489.00    1.14463   1.19458   -1.000
 4490.00    1.15990   1.20186   -1.000
 4491.00    1.19322   1.22013   -1.000
 4492.00    1.21151   1.22634   -1.000
 4493.00    1.19101   1.21217   -1.000
 4494.00    1.15414   1.19259   -1.000
 4495.00    1.13055   1.18882   -1.000
 4496.00    1.14556   1.20734   -1.000
 4497.00    1.18855   1.23577   -1.000
 4498.00    1.22238   1.25728   -1.000
 4499.00    1.23335   1.26504   -1.000
 4500.00    1.21703   1.26552   -1.000
 4501.00    1.21108   1.27344   -1.000
 4502.00    1.24598   1.29511   -1.000
 4503.00    1.29124   1.32378   -1.000
 4504.00    1.31284   1.34730   -1.000
 4505.00    1.30183   1.35408   -1.000
 4506.00    1.27436   1.34483   -1.000
 4507.00    1.26299   1.33195   -1.000
 4508.00    1.26273   1.32571   -1.000
 4509.00    1.27326   1.32609   -1.000
 4510.00    1.28211   1.32537   -1.000
 4511.00    1.26990   1.31541   -1.000
 4512.00    1.24416   1.29610   -1.000
 4513.00    1.22252   1.27548   -1.000
 4514.00    1.21593   1.26116   -1.000
 4515.00    1.22291   1.25561   -1.000
 4516.00    1.22340   1.25584   -1.000
 4517.00    1.20749   1.25717   -1.000
 4518.00    1.20105   1.26090   -1.000
 4519.00    1.22374   1.27079   -1.000
 4520.00    1.24863   1.28238   -1.000
 4521.00    1.24286   1.28508   -1.000
 4522.00    1.21227   1.27276   -1.000
 4523.00    1.18849   1.24936   -1.000
 4524.00    1.17934   1.22143   -1.000
 4525.00    1.15912   1.18897   -1.000
 4526.00    1.12347   1.15149   -1.000
 4527.00    1.09280   1.11660   -1.000
 4528.00    1.08103   1.09613   -1.000
 4529.00    1.09034   1.09675   -1.000
 4530.00    1.11064   1.11399  900.386
 4531.00    1.13135   1.13346  883.903
 4532.00    1.13589   1.14075   -1.000
 4533.00    1.10235   1.13495   -1.000
 4534.00    1.06564   1.13061   -1.000
 4535.00    1.08318   1.14586   -1.000
 4536.00    1.15207   1.18563   -1.000
 4537.00    1.22447   1.23370   -1.000
 4538.00    1.25565   1.26544   -1.000
 4539.00    1.24066   1.26956   -1.000
 4540.00    1.21018   1.25662   -1.000
 4541.00    1.21351   1.24599   -1.000
 4542.00    1.22289   1.24536   -1.000
 4543.00    1.22717   1.24690   -1.000
 4544.00    0.83015   1.24152   -1.000
 4545.00   -2.72230   1.23002    0.000
 4546.00   -0.91491   1.21825    0.000
 4547.00    0.26422   1.20637   -1.000
 4548.00    0.73905   1.19330   -1.000
 4549.00    0.27131   1.18550   -1.000
 4550.00    1.04862   1.18984   -1.000
 4551.00    1.17722   1.20093   -1.000
 4552.00    1.16980   1.20490   -1.000
 4553.00    1.15106   1.19827   -1.000
 4554.00    1.14101   1.19275   -1.000
 4555.00    1.16025   1.20220   -1.000
 4556.00    1.20595   1.23034   -1.000
 4557.00    1.25691   1.26680   -1.000
 4558.00    1.27750   1.29632   -1.000
 4559.00    1.26863   1.31232   -1.000
 4560.00    1.26999   1.31635   -1.000
 4561.00    1.26937   1.30957   -1.000
 4562.00    1.23860   1.29099   -1.000
 4563.00    1.20830   1.26410   -1.000
 4564.00    1.18855   1.24173   -1.000
 4565.00    1.20387   1.23800   -1.000
 4566.00    1.23637   1.25653   -1.000
 4567.00    1.27007   1.28510   -1.000
 4568.00    1.28162   1.30359   -1.000
 4569.00    1.26600   1.30085   -1.000
 4570.00    1.23346   1.28253   -1.000
 4571.00    1.20173   1.26499   -1.000
 4572.00    1.21305   1.26363   -1.000
 4573.00    1.25270   1.27949   -1.000
 4574.00    1.26950   1.29794   -1.000
 4575.00    1.26764   1.30576   -1.000
 4576.00    1.26153   1.30113   -1.000
 4577.00    1.25416   1.28578   -1.000
 4578.00    1.23212   1.26006   -1.000
 4579.00    1.19517   1.22902   -1.000
 4580.00    1.17168   1.20439   -1.000
 4581.00    1.17660   1.19536   -1.000
 4582.00    1.19428   1.19989   -1.000
 4583.00    1.20264   1.20796   -1.000
 4584.00    1.19831   1.21195   -1.000
 4585.00    1.19056   1.21488   -1.000
 4586.00    1.20877   1.22643   -1.000
 4587.00    1.24236   1.24878   -1.000
 4588.00    1.26892   1.27234  788.071
 4589.00    1.26930   1.28424   -1.000
 4590.00    1.24974   1.27834   -1.000
 4591.00    1.22652   1.25976   -1.000
 4592.00    1.20544   1.24023   -1.000
 4593.00    1.20550   1.22853   -1.000
 4594.00    1.21654   1.22532   -1.000
 4595.00    1.22612   1.22684  815.582
 4596.00    1.22900   1.23104  813.667
 4597.00    1.23157   1.23727   -1.000
 4598.00    1.23436   1.24225   -1.000
 4599.00    1.22272   1.24275   -1.000
 4600.00    1.21182   1.24000   -1.000
 4601.00    1.20889   1.23807   -1.000
 4602.00    1.22285   1.23905   -1.000
 4603.00    1.23679   1.24123   -1.000
 4604.00    1.23375   1.24396   -1.000
 4605.00    1.23611   1.25158   -1.000
 4606.00    1.25042   1.26901   -1.000
 4607.00    1.27637   1.29550   -1.000
 4608.00    1.30446   1.32278   -1.000
 4609.00    1.31924   1.33831   -1.000
 4610.00    1.31209   1.33550   -1.000
 4611.00    1.29349   1.32102   -1.000
 4612.00    1.27951   1.30745   -1.000
 4613.00    1.27161   1.30211   -1.000
 4614.00    1.27882   1.30477   -1.000
 4615.00    1.29063   1.31084   -1.000
 4616.00    1.29542   1.31504   -1.000
 4617.00    1.28594   1.31524   -1.000
 4618.00    1.27641   1.31349   -1.000
 4619.00    1.27828   1.31395   -1.000
 4620.00    1.29131   1.31942   -1.000
 4621.00    1.31274   1.32741   -1.000
 4622.00    1.31184   1.33140   -1.000
 4623.00    1.30835   1.32861   -1.000
 4624.00    1.30583   1.32262   -1.000
 4625.00    1.29329   1.31733   -1.000
 4626.00    1.29071   1.31360   -1.000
 4627.00    1.29160   1.31145   -1.000
 4628.00    1.28270   1.31141   -1.000
 4629.00    1.28033   1.31410   -1.000
 4630.00    1.28735   1.31881   -1.000
 4631.00    1.30298   1.32172   -1.000
 4632.00    1.29585   1.31685   -1.000
 4633.00    1.27632   1.30379   -1.000
 4634.00    1.26269   1.28943   -1.000
 4635.00    1.26477   1.27830   -1.000
 4636.00    1.25383   1.26826   -1.000
 4637.00    1.23697   1.25721   -1.000
 4638.00    1.23264   1.24839   -1.000
 4639.00    1.23478   1.24715   -1.000
 4640.00    1.25736   1.25578  795.319
 4641.00    1.28961   1.26981   -1.000
 4642.00    1.30664   1.27864   -1.000
 4643.00    1.29991   1.27255   -1.000
 4644.00    1.27492   1.25074   -1.000
 4645.00    1.23913   1.22079   -1.000
 4646.00    1.20576   1.19372   -1.000
 4647.00    1.20238   1.18223   -1.000
 4648.00    1.22572   1.19340   -1.000
 4649.00    1.25555   1.22138   -1.000
 4650.00    1.27221   1.25191   -1.000
 4651.00    1.27350   1.27294  785.237
 4652.00    1.27622   1.27946  783.566
 4653.00    1.26004   1.27171   -1.000
 4654.00    1.23048   1.25604   -1.000
 4655.00    1.21741   1.24603   -1.000
 4656.00    1.22946   1.25413   -1.000
 4657.00    1.27181   1.28236   -1.000
 4658.00    1.32314   1.32034  755.778
 4659.00    1.35214   1.34969  739.567
 4660.00    1.35174   1.35599   -1.000
 4661.00    1.33400   1.33901   -1.000
 4662.00    1.30092   1.30933   -1.000
 4663.00    1.27617   1.27742  783.592
 4664.00    1.27460   1.24550   -1.000
 4665.00    1.25276   1.20951   -1.000
 4666.00    1.19889   1.17143   -1.000
 4667.00    1.15104   1.14520   -1.000
 4668.00    1.15277   1.14645   -1.000
 4669.00    1.19163   1.17605   -1.000
 4670.00    1.24470   1.21713   -1.000
 4671.00    1.27806   1.25015   -1.000
 4672.00    1.28400   1.26704   -1.000
 4673.00    1.28251   1.27353   -1.000
 4674.00    1.28403   1.28007   -1.000
 4675.00    1.30200   1.28934   -1.000
 4676.00    1.32210   1.29347   -1.000
 4677.00    1.31375   1.28337   -1.000
 4678.00    1.28437   1.26068   -1.000
 4679.00    1.25964   1.23605   -1.000
 4680.00    1.23940   1.21974   -1.000
 4681.00    1.22805   1.21669   -1.000
 4682.00    1.24530   1.22617   -1.000
 4683.00    1.27867   1.24236   -1.000
 4684.00    1.29460   1.25675   -1.000
 4685.00    1.28885   1.26389   -1.000
 4686.00    1.28866   1.26365   -1.000
 4687.00    1.28084   1.25918   -1.000
 4688.00    1.28127   1.25402   -1.000
 4689.00    1.28112   1.25024   -1.000
 4690.00    1.27132   1.24817   -1.000
 4691.00    1.26913   1.24797   -1.000
 4692.00    1.28555   1.25222   -1.000
 4693.00    1.30523   1.26239   -1.000
 4694.00    1.33571   1.27490   -1.000
 4695.00    1.35211   1.28302   -1.000
 4696.00    1.34394   1.27994   -1.000
 4697.00    1.30413   1.26291   -1.000
 4698.00    1.26574   1.23779   -1.000
 4699.00    1.25265   1.21485   -1.000
 4700.00    1.26438   1.19871   -1.000
 4701.00    1.25363   1.18831   -1.000
 4702.00    1.23095   1.18429   -1.000
 4703.00    1.22560   1.18961   -1.000
 4704.00    1.25126   1.20239   -1.000
 4705.00    1.26960   1.21277   -1.000
 4706.00    1.24978   1.21176   -1.000
 4707.00    1.22467   1.20256   -1.000
 4708.00    1.21379   1.19768   -1.000
 4709.00    1.22133   1.20542   -1.000
 4710.00    1.26042   1.22264   -1.000
 4711.00    1.29575   1.23913   -1.000
 4712.00    1.30724   1.24612   -1.000
 4713.00    1.29322   1.24285   -1.000
 4714.00    1.26836   1.23951   -1.000
 4715.00    1.26990   1.24785   -1.000
 4716.00    1.29730   1.26903   -1.000
 4717.00    1.32265   1.29440   -1.000
 4718.00    1.32975   1.31474   -1.000
 4719.00    1.33429   1.32642   -1.000
 4720.00    1.33888   1.32985   -1.000
 4721.00    1.32649   1.32757  753.871
 4722.00    1.31727   1.32473   -1.000
 4723.00    1.32615   1.32536  754.061
 4724.00    1.34113   1.32545   -1.000
 4725.00    1.33797   1.31439   -1.000
 4726.00    1.30425   1.28610   -1.000
 4727.00    1.25518   1.24726   -1.000
 4728.00    1.22892   1.21467   -1.000
 4729.00    1.23549   1.20110   -1.000
 4730.00    1.24874   1.20644   -1.000
 4731.00    1.25842   1.22267   -1.000
 4732.00    1.27417   1.24141   -1.000
 4733.00    1.28502   1.25653   -1.000
 4734.00    1.29213   1.26396   -1.000
 4735.00    1.29937   1.26485   -1.000
 4736.00    1.28412   1.26499   -1.000
 4737.00    1.28332   1.26911   -1.000
 4738.00    1.30139   1.27733   -1.000
 4739.00    1.29964   1.28515   -1.000
 4740.00    1.29167   1.28836  774.192
 4741.00    1.29037   1.28909  774.972
 4742.00    1.30159   1.29197   -1.000
 4743.00    1.31622   1.29690   -1.000
 4744.00    1.31244   1.30181   -1.000
 4745.00    1.31142   1.30715   -1.000
 4746.00    1.32202   1.31410   -1.000
 4747.00    1.33579   1.32237   -1.000
 4748.00    1.33790   1.33015   -1.000
 4749.00    1.33556   1.33561  748.752
 4750.00    1.33476   1.33699  749.198
 4751.00    1.32452   1.33100   -1.000
 4752.00    1.30927   1.31673   -1.000
 4753.00    1.29864   1.29913  770.037
 4754.00    1.28992   1.28552   -1.000
 4755.00    1.29291   1.28037   -1.000
 4756.00    1.28738   1.28324   -1.000
 4757.00    1.27759   1.29179   -1.000
 4758.00    1.27672   1.30333   -1.000
 4759.00    1.28820   1.31224   -1.000
 4760.00    1.28997   1.31032   -1.000
 4761.00    1.26868   1.29312   -1.000
 4762.00    1.23687   1.26516   -1.000
 4763.00    1.22210   1.23803   -1.000
 4764.00    1.22112   1.21993  818.919
 4765.00    1.22391   1.21169   -1.000
 4766.00    1.23297   1.21452   -1.000
 4767.00    1.25083   1.23243   -1.000
 4768.00    1.28069   1.26308   -1.000
 4769.00    1.29796   1.29214   -1.000
 4770.00    1.29454   1.30610   -1.000
 4771.00    1.28310   1.30612   -1.000
 4772.00    1.27181   1.30536   -1.000
 4773.00    1.28836   1.31464   -1.000
 4774.00    1.31739   1.33239   -1.000
 4775.00    1.32521   1.34882   -1.000
 4776.00    1.32358   1.35754   -1.000
 4777.00    1.31953   1.35901   -1.000
 4778.00    1.31065   1.35519   -1.000
 4779.00    1.29564   1.34703   -1.000
 4780.00    1.28848   1.33619   -1.000
 4781.00    1.28552   1.32403   -1.000
 4782.00    1.27905   1.31041   -1.000
 4783.00    1.26853   1.29750   -1.000
 4784.00    1.26974   1.28842   -1.000
 4785.00    1.26514   1.28230   -1.000
 4786.00    1.25211   1.27731   -1.000
 4787.00    1.24527   1.27399   -1.000
 4788.00    1.24703   1.27348   -1.000
 4789.00    1.25350   1.27647   -1.000
 4790.00    1.26137   1.28492   -1.000
 4791.00    1.27503   1.30186   -1.000
 4792.00    1.29680   1.32760   -1.000
 4793.00    1.32691   1.35732   -1.000
 4794.00    1.34963   1.38269   -1.000
 4795.00    1.35349   1.39472   -1.000
 4796.00    1.33887   1.38790   -1.000
 4797.00    1.31150   1.36533   -1.000
 4798.00    1.28751   1.33842   -1.000
 4799.00    1.27290   1.32014   -1.000
 4800.00    1.28575   1.31909   -1.000
 4801.00    1.31326   1.33489   -1.000
 4802.00    1.33189   1.35522   -1.000
 4803.00    1.32865   1.36422   -1.000
 4804.00    1.31014   1.35616   -1.000
 4805.00    1.29364   1.33846   -1.000
 4806.00    1.28226   1.32188   -1.000
 4807.00    1.28330   1.31216   -1.000
 4808.00    1.28669   1.31121   -1.000
 4809.00    1.29266   1.31876   -1.000
 4810.00    1.30488   1.33051   -1.000
 4811.00    1.31412   1.34050   -1.000
 4812.00    1.32073   1.34608   -1.000
 4813.00    1.32171   1.34953   -1.000
 4814.00    1.32508   1.35481   -1.000
 4815.00    1.32995   1.36368   -1.000
 4816.00    1.33862   1.37522   -1.000
 4817.00    1.34695   1.38672   -1.000
 4818.00    1.35227   1.39536   -1.000
 4819.00    1.35247   1.39912   -1.000
 4820.00    1.35239   1.39429   -1.000
 4821.00    1.33985   1.37644   -1.000
 4822.00    1.30386   1.34751   -1.000
 4823.00    1.28005   1.31908   -1.000
 4824.00    1.28402   1.30614   -1.000
 4825.00    1.30837   1.31387   -1.000
 4826.00    1.32871   1.32994  752.609
 4827.00    1.32168   1.33827   -1.000
 4828.00    1.30562   1.33558   -1.000
 4829.00    1.29799   1.32812   -1.000
 4830.00    1.29881   1.31930   -1.000
 4831.00    1.28610   1.30906   -1.000
 4832.00    1.28452   1.30255   -1.000
 4833.00    1.30681   1.30651  765.222
 4834.00    1.32415   1.31940   -1.000
 4835.00    1.32833   1.33260   -1.000
 4836.00    1.32576   1.33789   -1.000
 4837.00    1.31921   1.33260   -1.000
 4838.00    1.30069   1.31843   -1.000
 4839.00    1.27744   1.30080   -1.000
 4840.00    1.27795   1.28749   -1.000
 4841.00    1.28083   1.28260  780.745
 4842.00    1.28751   1.28459  776.692
 4843.00    1.29738   1.29116   -1.000
 4844.00    1.31068   1.30299   -1.000
 4845.00    1.33208   1.31801   -1.000
 4846.00    1.33816   1.32684   -1.000
 4847.00    1.30958   1.32190   -1.000
 4848.00    1.29073   1.30909   -1.000
 4849.00    1.29190   1.30182   -1.000
 4850.00    1.31133   1.30433   -1.000
 4851.00    1.31352   1.30829   -1.000
 4852.00    1.30549   1.30220  765.994
 4853.00    1.29427   1.27990   -1.000
 4854.00    1.25510   1.24542   -1.000
 4855.00    1.22055   1.21259   -1.000
 4856.00    1.22528   1.19281   -1.000
 4857.00    1.23838   1.17930   -1.000
 4858.00    1.20288   1.14760   -1.000
 4859.00    1.10374   1.08147   -1.000
 4860.00    0.98531   1.00024   -1.000
 4861.00    0.94311   0.94947   -1.000
 4862.00    1.00996   0.96031   -1.000
 4863.00    1.11030   1.02129   -1.000
 4864.00    1.17818   1.09563   -1.000
 4865.00    1.22000   1.15815   -1.000
 4866.00    1.24554   1.20188   -1.000
 4867.00    1.25627   1.22844   -1.000
 4868.00    1.26141   1.23752   -1.000
 4869.00    1.24972   1.22567   -1.000
 4870.00    1.21409   1.19571   -1.000
 4871.00    1.18524   1.16465   -1.000
 4872.00    1.19735   1.15619   -1.000
 4873.00    1.23382   1.17860   -1.000
 4874.00    1.25489   1.21494   -1.000
 4875.00    1.26412   1.24409   -1.000
 4876.00    1.27094   1.26083   -1.000
 4877.00    1.27507   1.27418  784.273
 4878.00    1.29471   1.29134  772.376
 4879.00    1.30839   1.30835  764.298
 4880.00    1.29564   1.31547   -1.000
 4881.00    1.27400   1.30898   -1.000
 4882.00    1.26708   1.29605   -1.000
 4883.00    1.27196   1.28318   -1.000
 4884.00    1.26460   1.26750  790.767
 4885.00    1.24466   1.24793  803.435
 4886.00    1.23862   1.23226   -1.000
 4887.00    1.24590   1.22529   -1.000
 4888.00    1.24737   1.21976   -1.000
 4889.00    1.22822   1.20543   -1.000
 4890.00    1.20099   1.18675   -1.000
 4891.00    1.21056   1.18502   -1.000
 4892.00    1.26313   1.21784   -1.000
 4893.00    1.32536   1.28014   -1.000
 4894.00    1.36463   1.34577   -1.000
 4895.00    1.39013   1.38926  719.357
 4896.00    1.39603   1.40530   -1.000
 4897.00    1.39262   1.40159   -1.000
 4898.00    1.36178   1.38659   -1.000
 4899.00    1.33007   1.36761   -1.000
 4900.00    1.31621   1.35131   -1.000
 4901.00    1.32358   1.33955   -1.000
 4902.00    1.32135   1.32970   -1.000
 4903.00    1.30450   1.32318   -1.000
 4904.00    1.32016   1.32786   -1.000
 4905.00    1.34982   1.34564   -1.000
 4906.00    1.35962   1.36192  735.501
 4907.00    1.34620   1.35813   -1.000
 4908.00    1.31351   1.33108   -1.000
 4909.00    1.27613   1.29419   -1.000
 4910.00    1.26090   1.26744   -1.000
 4911.00    1.27907   1.26416   -1.000
 4912.00    1.30300   1.28352   -1.000
 4913.00    1.32087   1.31358   -1.000
 4914.00    1.33828   1.34129  747.225
 4915.00    1.35002   1.35498   -1.000
 4916.00    1.34291   1.34191  744.652
 4917.00    1.29580   1.29423  771.723
 4918.00    1.22715   1.22214   -1.000
 4919.00    1.17143   1.15501   -1.000
 4920.00    1.15961   1.12355   -1.000
 4921.00    1.20063   1.13643   -1.000
 4922.00    1.24618   1.17521   -1.000
 4923.00    1.26393   1.21354   -1.000
 4924.00    1.26448   1.24032   -1.000
 4925.00    1.28140   1.26408   -1.000
 4926.00    1.31664   1.29423   -1.000
 4927.00    1.34018   1.32847   -1.000
 4928.00    1.35248   1.35900   -1.000
 4929.00    1.36168   1.37932   -1.000
 4930.00    1.36993   1.38430   -1.000
 4931.00    1.35572   1.37001   -1.000
 4932.00    1.31875   1.33931   -1.000
 4933.00    1.27175   1.30599   -1.000
 4934.00    1.27012   1.28598   -1.000
 4935.00    1.29445   1.28008   -1.000
 4936.00    1.29448   1.27198   -1.000
 4937.00    1.25583   1.24900   -1.000
 4938.00    1.22207   1.22300  818.282
 4939.00    1.23435   1.22023   -1.000
 4940.00    1.27925   1.25128   -1.000
 4941.00    1.32162   1.30064   -1.000
 4942.00    1.34585   1.34330  743.024
 4943.00    1.35785   1.36570   -1.000
 4944.00    1.35639   1.36911   -1.000
 4945.00    1.34641   1.36267   -1.000
 4946.00    1.34374   1.35813   -1.000
 4947.00    1.35654   1.36300   -1.000
 4948.00    1.37301   1.37535  728.324
 4949.00    1.37672   1.38689   -1.000
 4950.00    1.38264   1.39182   -1.000
 4951.00    1.37496   1.38946   -1.000
 4952.00    1.36549   1.38136   -1.000
 4953.00    1.34958   1.36815   -1.000
 4954.00    1.33290   1.34502   -1.000
 4955.00    1.29745   1.30281   -1.000
 4956.00    1.23234   1.24335   -1.000
 4957.00    1.18485   1.19425   -1.000
 4958.00    1.21162   1.19068   -1.000
 4959.00    1.28723   1.23606   -1.000
 4960.00    1.33215   1.29771   -1.000
 4961.00    1.34133   1.34062  745.527
 4962.00    1.33453   1.35461   -1.000
 4963.00    1.32379   1.34676   -1.000
 4964.00    1.30809   1.32500   -1.000
 4965.00    1.28035   1.29785   -1.000
 4966.00    1.26427   1.27602   -1.000
 4967.00    1.26450   1.26590  790.829
 4968.00    1.26833   1.26704  788.435
 4969.00    1.27799   1.27622  782.482
 4970.00    1.29198   1.29109  774.008
 4971.00    1.30599   1.30995  765.703
 4972.00    1.32188   1.32965   -1.000
 4973.00    1.33436   1.34506   -1.000
 4974.00    1.33959   1.35206   -1.000
 4975.00    1.32981   1.34901   -1.000
 4976.00    1.31576   1.33660   -1.000
 4977.00    1.29795   1.31734   -1.000
 4978.00    1.27695   1.29552   -1.000
 4979.00    1.26156   1.27300   -1.000
 4980.00    1.24386   1.24536  803.948
 4981.00    1.20329   1.20733   -1.000
 4982.00    1.16537   1.16582  858.098
 4983.00    1.16653   1.14008   -1.000
 4984.00    1.18963   1.14513   -1.000
 4985.00    1.22443   1.17914   -1.000
 4986.00    1.26480   1.22606   -1.000
 4987.00    1.29671   1.26641   -1.000
 4988.00    1.29453   1.28710   -1.000
 4989.00    1.27507   1.28689   -1.000
 4990.00    1.26224   1.27704   -1.000
 4991.00    1.26207   1.27088   -1.000
 4992.00    1.27385   1.27305  785.020
 4993.00    1.27906   1.27975  781.824
 4994.00    1.27950   1.28696   -1.000
 4995.00    1.28635   1.29418   -1.000
 4996.00    1.29278   1.29908   -1.000
 4997.00    1.28451   1.29415   -1.000
 4998.00    1.26719   1.27435   -1.000
 4999.00    1.24172   1.24459  805.334
 5000.00    1.22663   1.21710   -1.000
 5001.00    1.22621   1.20225   -1.000
 5002.00    1.23838   1.19977   -1.000
 5003.00    1.24650   1.19837   -1.000
 5004.00    1.22802   1.18633   -1.000
 5005.00    1.19689   1.16563   -1.000
 5006.00    1.19093   1.15409   -1.000
 5007.00    1.22204   1.16790   -1.000
 5008.00    1.26083   1.20163   -1.000
 5009.00    1.27364   1.23143   -1.000
 5010.00    1.25621   1.23648   -1.000
 5011.00    1.21879   1.21299   -1.000
 5012.00    1.17427   1.17433  851.594
 5013.00    1.14798   1.14159   -1.000
 5014.00    1.15454   1.13027   -1.000
 5015.00    1.18139   1.13847   -1.000
 5016.00    1.20664   1.15204   -1.000
 5017.00    1.21111   1.16136   -1.000
 5018.00    1.21066   1.16861   -1.000
 5019.00    1.22510   1.17908   -1.000
 5020.00    1.23508   1.18993   -1.000
 5021.00    1.22911   1.19564   -1.000
 5022.00    1.22648   1.19909   -1.000
 5023.00    1.23387   1.20870   -1.000
 5024.00    1.24730   1.22561   -1.000
 5025.00    1.25558   1.23851   -1.000
 5026.00    1.24912   1.23801   -1.000
 5027.00    1.24315   1.23074   -1.000
 5028.00    1.25521   1.23110   -1.000
 5029.00    1.27979   1.24552   -1.000
 5030.00    1.29811   1.27032   -1.000
 5031.00    1.31968   1.29758   -1.000
 5032.00    1.33487   1.31860   -1.000
 5033.00    1.33210   1.32280   -1.000
 5034.00    1.28925   1.30381   -1.000
 5035.00    1.23946   1.26956   -1.000
 5036.00    1.22016   1.23757   -1.000
 5037.00    1.21640   1.21508  822.100
 5038.00    1.20115   1.19153   -1.000
 5039.00    1.15448   1.15509  866.194
 5040.00    1.10909   1.11584   -1.000
 5041.00    1.11007   1.10304   -1.000
 5042.00    1.16851   1.13498   -1.000
 5043.00    1.24632   1.20079   -1.000
 5044.00    1.29835   1.27065   -1.000
 5045.00    1.32535   1.31758   -1.000
 5046.00    1.37921   1.33055   -1.000
 5047.00    1.33441   1.31218   -1.000
 5048.00    0.47191   1.27515   -1.000
 5049.00    0.67170   1.23736   -1.000
 5050.00    1.25996   1.21431   -1.000
 5051.00    1.23603   1.21169   -1.000
 5052.00    1.26533   1.22740   -1.000
 5053.00    1.29830   1.25547   -1.000
 5054.00    1.32206   1.28540   -1.000
 5055.00    1.33435   1.30723   -1.000
 5056.00    1.33836   1.31975   -1.000
 5057.00    1.33566   1.32737   -1.000
 5058.00    1.33318   1.33490  750.087
 5059.00    1.33382   1.34477   -1.000
 5060.00    1.34333   1.35482   -1.000
 5061.00    1.34219   1.35834   -1.000
 5062.00    1.32364   1.34579   -1.000
 5063.00    1.28526   1.31335   -1.000
 5064.00    1.24055   1.27228   -1.000
 5065.00    1.22753   1.24167   -1.000
 5066.00    1.24376   1.23095   -1.000
 5067.00    1.26308   1.23512   -1.000
 5068.00    1.26650   1.24485   -1.000
 5069.00    1.27264   1.25480   -1.000
 5070.00    1.28121   1.26083   -1.000
 5071.00    1.27014   1.25896   -1.000
 5072.00    1.26016   1.25214   -1.000
 5073.00    1.27696   1.24922   -1.000
 5074.00    1.28678   1.25404   -1.000
 5075.00    1.28816   1.26121   -1.000
 5076.00    1.28916   1.26193   -1.000
 5077.00    1.27616   1.24761   -1.000
 5078.00    1.23172   1.21507   -1.000
 5079.00    1.17485   1.17548  851.173
 5080.00    1.16312   1.15069   -1.000
 5081.00    1.18977   1.15162   -1.000
 5082.00    1.21576   1.17034   -1.000
 5083.00    1.23190   1.19478   -1.000
 5084.00    1.25598   1.21958   -1.000
 5085.00    1.27779   1.24366   -1.000
 5086.00    1.28644   1.26365   -1.000
 5087.00    1.28790   1.27635   -1.000
 5088.00    1.29465   1.28344   -1.000
 5089.00    1.30422   1.28918   -1.000
 5090.00    1.31135   1.29695   -1.000
 5091.00    1.31816   1.30861   -1.000
 5092.00    1.33397   1.32248   -1.000
 5093.00    1.34591   1.33147   -1.000
 5094.00    1.33265   1.32601   -1.000
 5095.00    1.30463   1.30201  766.500
 5096.00    1.27698   1.26475   -1.000
 5097.00    1.24655   1.22539   -1.000
 5098.00    1.22111   1.19739   -1.000
 5099.00    1.21818   1.19310   -1.000
 5100.00    1.25042   1.21440   -1.000
 5101.00    1.28806   1.24716   -1.000
 5102.00    1.29827   1.27116   -1.000
 5103.00    1.28984   1.27638   -1.000
 5104.00    1.27259   1.26714   -1.000
 5105.00    1.25672   1.25111   -1.000
 5106.00    1.24154   1.23275   -1.000
 5107.00    1.22611   1.21533   -1.000
 5108.00    1.22877   1.20346   -1.000
 5109.00    1.23697   1.20213   -1.000
 5110.00    1.24596   1.21371   -1.000
 5111.00    1.26460   1.23530   -1.000
 5112.00    1.28015   1.25938   -1.000
 5113.00    1.29595   1.27894   -1.000
 5114.00    1.30756   1.29375   -1.000
 5115.00    1.31437   1.30741   -1.000
 5116.00    1.32877   1.32089   -1.000
 5117.00    1.33984   1.33057   -1.000
 5118.00    1.33516   1.33135  748.975
 5119.00    1.31724   1.32038  759.163
 5120.00    1.29756   1.29871  770.677
 5121.00    1.27636   1.26977   -1.000
 5122.00    1.24370   1.23735   -1.000
 5123.00    1.20693   1.20720  828.546
 5124.00    1.19993   1.18694   -1.000
 5125.00    1.21161   1.18118   -1.000
 5126.00    1.21729   1.18565   -1.000
 5127.00    1.22469   1.19164   -1.000
 5128.00    1.22247   1.19578   -1.000
 5129.00    1.22372   1.20175   -1.000
 5130.00    1.24067   1.21315   -1.000
 5131.00    1.26248   1.22855   -1.000
 5132.00    1.27225   1.24371   -1.000
 5133.00    1.28461   1.25640   -1.000
 5134.00    1.29598   1.26595   -1.000
 5135.00    1.29893   1.26828   -1.000
 5136.00    1.27458   1.25724   -1.000
 5137.00    1.24382   1.23387   -1.000
 5138.00    1.22479   1.21024   -1.000
 5139.00    1.22400   1.19771   -1.000
 5140.00    1.23575   1.19575   -1.000
 5141.00    1.22556   1.19660   -1.000
 5142.00    1.20530   1.19728   -1.000
 5143.00    1.21376   1.20083   -1.000
 5144.00    1.23530   1.20666   -1.000
 5145.00    1.23871   1.20721   -1.000
 5146.00    1.22638   1.19977   -1.000
 5147.00    1.22382   1.19306   -1.000
 5148.00    1.24003   1.19518   -1.000
 5149.00    1.24658   1.20194   -1.000
 5150.00    1.23013   1.20333   -1.000
 5151.00    1.20764   1.19708   -1.000
 5152.00    1.20048   1.18914   -1.000
 5153.00    1.20733   1.18707   -1.000
 5154.00    1.23180   1.19655   -1.000
 5155.00    1.26437   1.21867   -1.000
 5156.00    1.29736   1.24789   -1.000
 5157.00    1.32164   1.27441   -1.000
 5158.00    1.33067   1.29163   -1.000
 5159.00    1.33039   1.29817   -1.000
 5160.00    1.32571   1.29454   -1.000
 5161.00    1.31795   1.28046   -1.000
 5162.00    1.30284   1.25572   -1.000
 5163.00    1.28261   1.22039   -1.000
 5164.00    1.23383   1.17128   -1.000
 5165.00    1.13671   1.10139   -1.000
 5166.00    1.02759   1.01798   -1.000
 5167.00    0.96465   0.95499   -1.000
 5168.00    0.98911   0.94252   -1.000
 5169.00    1.05181   0.96773   -1.000
 5170.00    1.06346   0.98307   -1.000
 5171.00    0.99468   0.96216   -1.000
 5172.00    0.93085   0.93343 1074.291
 5173.00    0.97664   0.94613   -1.000
 5174.00    1.09982   1.01531   -1.000
 5175.00    1.19692   1.10720   -1.000
 5176.00    1.24054   1.17812   -1.000
 5177.00    1.25317   1.21447   -1.000
 5178.00    1.25513   1.22419   -1.000
 5179.00    1.24195   1.21179   -1.000
 5180.00    1.19819   1.16974   -1.000
 5181.00    1.11480   1.09222   -1.000
 5182.00    0.99584   0.99767 1004.173
 5183.00    0.92531   0.93189   -1.000
 5184.00    0.97712   0.93645   -1.000
 5185.00    1.10483   1.00853   -1.000
 5186.00    1.20717   1.10315   -1.000
 5187.00    1.24254   1.17596   -1.000
 5188.00    1.25205   1.21267   -1.000
 5189.00    1.25698   1.22106   -1.000
 5190.00    1.24248   1.20739   -1.000
 5191.00    1.20258   1.17813   -1.000
 5192.00    1.17052   1.15074   -1.000
 5193.00    1.18194   1.14235   -1.000
 5194.00    1.20331   1.15260   -1.000
 5195.00    1.22116   1.17066   -1.000
 5196.00    1.23924   1.19125   -1.000
 5197.00    1.26518   1.21504   -1.000
 5198.00    1.28678   1.24026   -1.000
 5199.00    1.29672   1.26049   -1.000
 5200.00    1.29745   1.26935   -1.000
 5201.00    1.28634   1.26349   -1.000
 5202.00    1.26260   1.24185   -1.000
 5203.00    1.23396   1.20533   -1.000
 5204.00    1.19558   1.16010   -1.000
 5205.00    1.15991   1.11894   -1.000
 5206.00    1.15766   1.09245   -1.000
 5207.00    1.15131   1.08283   -1.000
 5208.00    1.14432   1.08843   -1.000
 5209.00    1.16280   1.11051   -1.000
 5210.00    1.20341   1.15023   -1.000
 5211.00    1.25450   1.20059   -1.000
 5212.00    1.30548   1.24529   -1.000
 5213.00    1.33156   1.26708   -1.000
 5214.00    1.31431   1.26059   -1.000
 5215.00    1.28287   1.23858   -1.000
 5216.00    1.26839   1.22363   -1.000
 5217.00    1.28066   1.23083   -1.000
 5218.00    1.31009   1.25737   -1.000
 5219.00    1.32966   1.28859   -1.000
 5220.00    1.33933   1.31052   -1.000
 5221.00    1.34444   1.31570   -1.000
 5222.00    1.32576   1.30068   -1.000
 5223.00    1.28493   1.26481   -1.000
 5224.00    1.23304   1.21130   -1.000
 5225.00    1.17731   1.15243   -1.000
 5226.00    1.14698   1.11219   -1.000
 5227.00    1.17558   1.11345   -1.000
 5228.00    1.24783   1.15624   -1.000
 5229.00    1.29963   1.21383   -1.000
 5230.00    1.32122   1.25234   -1.000
 5231.00    1.32193   1.25723   -1.000
 5232.00    1.29377   1.23930   -1.000
 5233.00    1.27135   1.22132   -1.000
 5234.00    1.27586   1.22235   -1.000
 5235.00    1.30763   1.24618   -1.000
 5236.00    1.33967   1.28126   -1.000
 5237.00    1.35374   1.31166   -1.000
 5238.00    1.35406   1.32827   -1.000
 5239.00    1.34942   1.33186   -1.000
 5240.00    1.35231   1.32822   -1.000
 5241.00    1.36074   1.32317   -1.000
 5242.00    1.35792   1.32179   -1.000
 5243.00    1.36111   1.32541   -1.000
 5244.00    1.36321   1.32713   -1.000
 5245.00    1.33429   1.31586   -1.000
 5246.00    1.29266   1.28969  773.599
 5247.00    1.26400   1.25995   -1.000
 5248.00    1.26257   1.23917   -1.000
 5249.00    1.26020   1.23039   -1.000
 5250.00    1.25172   1.23080   -1.000
 5251.00    1.25872   1.23846   -1.000
 5252.00    1.27725   1.24922   -1.000
 5253.00    1.28961   1.25629   -1.000
 5254.00    1.28850   1.25994   -1.000
 5255.00    1.29857   1.27066   -1.000
 5256.00    1.33122   1.29605   -1.000
 5257.00    1.36853   1.32781   -1.000
 5258.00    1.37890   1.34776   -1.000
 5259.00    1.36441   1.34245   -1.000
 5260.00    1.32625   1.30927   -1.000
 5261.00    1.27087   1.25499   -1.000
 5262.00    1.21262   1.19182   -1.000
 5263.00    1.17311   1.13351   -1.000
 5264.00    1.15048   1.09176   -1.000
 5265.00    1.14874   1.07395   -1.000
 5266.00    1.17077   1.07681   -1.000
 5267.00    1.19199   1.08204   -1.000
 5268.00    1.16320   1.07183   -1.000
 5269.00    1.11661   1.05367   -1.000
 5270.00    1.14008   1.05695   -1.000
 5271.00    1.21652   1.09780   -1.000
 5272.00    1.26924   1.15500   -1.000
 5273.00    1.27940   1.19474   -1.000
 5274.00    1.27789   1.21165   -1.000
 5275.00    1.28120   1.22607   -1.000
 5276.00    1.30794   1.25452   -1.000
 5277.00    1.35578   1.29279   -1.000
 5278.00    1.37986   1.32087   -1.000
 5279.00    1.36915   1.32285   -1.000
 5280.00    1.33519   1.29995   -1.000
 5281.00    1.30113   1.26641   -1.000
 5282.00    1.27849   1.23865   -1.000
 5283.00    1.27341   1.23135   -1.000
 5284.00    1.30209   1.25315   -1.000
 5285.00    1.34418   1.29734   -1.000
 5286.00    1.38796   1.34239   -1.000
 5287.00    1.39604   1.36981   -1.000
 5288.00    1.38746   1.37948   -1.000
 5289.00    1.38830   1.38250   -1.000
 5290.00    1.39706   1.38522   -1.000
 5291.00    1.39961   1.38513   -1.000
 5292.00    1.39060   1.37911   -1.000
 5293.00    1.37721   1.36734   -1.000
 5294.00    1.35876   1.34750   -1.000
 5295.00    1.32141   1.31402   -1.000
 5296.00    1.27135   1.26889  786.566
 5297.00    1.23923   1.22943   -1.000
 5298.00    1.25004   1.21561   -1.000
 5299.00    1.28435   1.22969   -1.000
 5300.00    1.30794   1.25560   -1.000
 5301.00    1.31516   1.27996   -1.000
 5302.00    1.33224   1.30387   -1.000
 5303.00    1.37073   1.33288   -1.000
 5304.00    1.39539   1.36148   -1.000
 5305.00    1.39739   1.37711   -1.000
 5306.00    1.38263   1.37717   -1.000
 5307.00    1.37089   1.37227  729.451
 5308.00    1.38150   1.37407   -1.000
 5309.00    1.39654   1.38403   -1.000
 5310.00    1.40504   1.39345   -1.000
 5311.00    1.40289   1.39461   -1.000
 5312.00    1.39454   1.38703   -1.000
 5313.00    1.38872   1.37383   -1.000
 5314.00    1.37835   1.35770   -1.000
 5315.00    1.36455   1.34108   -1.000
 5316.00    1.35266   1.32858   -1.000
 5317.00    1.35313   1.32564   -1.000
 5318.00    1.36402   1.33191   -1.000
 5319.00    1.36947   1.34004   -1.000
 5320.00    1.36363   1.34193   -1.000
 5321.00    1.35376   1.33328   -1.000
 5322.00    1.33750   1.31343   -1.000
 5323.00    1.31384   1.28668   -1.000
 5324.00    1.30265   1.25987   -1.000
 5325.00    1.30411   1.23094   -1.000
 5326.00    1.26631   1.19046   -1.000
 5327.00    1.18600   1.14242   -1.000
 5328.00    1.15228   1.11484   -1.000
 5329.00    1.20513   1.13416   -1.000
 5330.00    1.28378   1.19199   -1.000
 5331.00    1.32342   1.25231   -1.000
 5332.00    1.33543   1.29117   -1.000
 5333.00    1.34836   1.31288   -1.000
 5334.00    1.36448   1.33011   -1.000
 5335.00    1.36957   1.34413   -1.000
 5336.00    1.35968   1.34767   -1.000
 5337.00    1.35100   1.33631   -1.000
 5338.00    1.33584   1.31057   -1.000
 5339.00    1.30132   1.27702   -1.000
 5340.00    1.27973   1.25141   -1.000
 5341.00    1.29300   1.24998   -1.000
 5342.00    1.33089   1.27193   -1.000
 5343.00    1.35406   1.29820   -1.000
 5344.00    1.35227   1.31104   -1.000
 5345.00    1.34287   1.30787   -1.000
 5346.00    1.33432   1.29646   -1.000
 5347.00    1.32798   1.28435   -1.000
 5348.00    1.31559   1.27692   -1.000
 5349.00    1.31320   1.28007   -1.000
 5350.00    1.33578   1.29726   -1.000
 5351.00    1.36838   1.32356   -1.000
 5352.00    1.38434   1.34913   -1.000
 5353.00    1.38781   1.36877   -1.000
 5354.00    1.39945   1.38519   -1.000
 5355.00    1.41816   1.40034   -1.000
 5356.00    1.42822   1.41067   -1.000
 5357.00    1.42599   1.41378   -1.000
 5358.00    1.42379   1.41078   -1.000
 5359.00    1.41834   1.40240   -1.000
 5360.00    1.40091   1.38802   -1.000
 5361.00    1.37721   1.36891   -1.000
 5362.00    1.35758   1.34865   -1.000
 5363.00    1.34895   1.33001   -1.000
 5364.00    1.34124   1.31449   -1.000
 5365.00    1.33318   1.30395   -1.000
 5366.00    1.33835   1.29863   -1.000
 5367.00    1.33798   1.29263   -1.000
 5368.00    1.32334   1.27502   -1.000
 5369.00    1.28950   1.24291   -1.000
 5370.00    1.25087   1.21047   -1.000
 5371.00    1.24996   1.20064   -1.000
 5372.00    1.30177   1.22596   -1.000
 5373.00    1.36569   1.27588   -1.000
 5374.00    1.39722   1.32529   -1.000
 5375.00    1.40579   1.35498   -1.000
 5376.00    1.40046   1.36395   -1.000
 5377.00    1.40032   1.36288   -1.000
 5378.00    1.39733   1.35986   -1.000
 5379.00    1.38881   1.35537   -1.000
 5380.00    1.37469   1.34683   -1.000
 5381.00    1.36131   1.33490   -1.000
 5382.00    1.35527   1.32489   -1.000
 5383.00    1.35680   1.32253   -1.000
 5384.00    1.36372   1.32970   -1.000
 5385.00    1.37929   1.34200   -1.000
 5386.00    1.38084   1.35036   -1.000
 5387.00    1.37391   1.34714   -1.000
 5388.00    1.36010   1.33196   -1.000
 5389.00    1.33888   1.31057   -1.000
 5390.00    1.32458   1.29051   -1.000
 5391.00    1.31946   1.27705   -1.000
 5392.00    1.31925   1.27086   -1.000
 5393.00    1.31486   1.26838   -1.000
 5394.00    1.30465   1.26275   -1.000
 5395.00    1.28694   1.24838   -1.000
 5396.00    1.26051   1.22961   -1.000
 5397.00    1.26199   1.22077   -1.000
 5398.00    1.30421   1.23247   -1.000
 5399.00    1.34244   1.25928   -1.000
 5400.00    1.34769   1.28460   -1.000
 5401.00    1.34442   1.29506   -1.000
 5402.00    1.33309   1.28427   -1.000
 5403.00    1.29093   1.25175   -1.000
 5404.00    1.25009   1.20866   -1.000
 5405.00    1.23355   1.17820   -1.000
 5406.00    1.24989   1.17720   -1.000
 5407.00    1.27806   1.19736   -1.000
 5408.00    1.28753   1.21673   -1.000
 5409.00    1.27433   1.22564   -1.000
 5410.00    1.28230   1.23518   -1.000
 5411.00    1.31991   1.25781   -1.000
 5412.00    1.35068   1.28760   -1.000
 5413.00    1.36330   1.31023   -1.000
 5414.00    1.36116   1.32200   -1.000
 5415.00    1.36065   1.33107   -1.000
 5416.00    1.37203   1.34305   -1.000
 5417.00    1.38054   1.35270   -1.000
 5418.00    1.37349   1.35294   -1.000
 5419.00    1.35926   1.34467   -1.000
 5420.00    1.35176   1.33470   -1.000
 5421.00    1.35854   1.32697   -1.000
 5422.00    1.36387   1.31900   -1.000
 5423.00    1.34259   1.31000   -1.000
 5424.00    1.33126   1.30792   -1.000
 5425.00    1.34816   1.31986   -1.000
 5426.00    1.37210   1.33696   -1.000
 5427.00    1.36495   1.33722   -1.000
 5428.00    1.32511   1.31042   -1.000
 5429.00    1.28348   1.27461   -1.000
 5430.00    1.28505   1.25568   -1.000
 5431.00    1.31086   1.25770   -1.000
 5432.00    1.30897   1.26244   -1.000
 5433.00    1.28875   1.25517   -1.000
 5434.00    1.27453   1.24333   -1.000
 5435.00    1.28114   1.24476   -1.000
 5436.00    1.30916   1.26799   -1.000
 5437.00    1.34726   1.30685   -1.000
 5438.00    1.37504   1.34680   -1.000
 5439.00    1.39366   1.37597   -1.000
 5440.00    1.40459   1.39135   -1.000
 5441.00    1.40610   1.39645   -1.000
 5442.00    1.40602   1.39250   -1.000
 5443.00    1.38978   1.37483   -1.000
 5444.00    1.35147   1.33888   -1.000
 5445.00    1.29592   1.29098   -1.000
 5446.00    1.25563   1.25203  796.416
 5447.00    1.26989   1.24334   -1.000
 5448.00    1.31523   1.26774   -1.000
 5449.00    1.35218   1.30622   -1.000
 5450.00    1.36270   1.33402   -1.000
 5451.00    1.36137   1.34055   -1.000
 5452.00    1.34871   1.32720   -1.000
 5453.00    1.31598   1.29782   -1.000
 5454.00    1.27850   1.26215   -1.000
 5455.00    1.25227   1.23950   -1.000
 5456.00    1.27528   1.24744   -1.000
 5457.00    1.32364   1.28345   -1.000
 5458.00    1.35950   1.32289   -1.000
 5459.00    1.36427   1.34140   -1.000
 5460.00    1.34619   1.33329   -1.000
 5461.00    1.32042   1.30916   -1.000
 5462.00    1.30358   1.28597   -1.000
 5463.00    1.29748   1.27701   -1.000
 5464.00    1.31624   1.28472   -1.000
 5465.00    1.33143   1.30133   -1.000
 5466.00    1.33680   1.31724   -1.000
 5467.00    1.35292   1.32744   -1.000
 5468.00    1.35748   1.33104   -1.000
 5469.00    1.34295   1.32815   -1.000
 5470.00    1.32907   1.32025   -1.000
 5471.00    1.32535   1.31058   -1.000
 5472.00    1.31825   1.30055   -1.000
 5473.00    1.30419   1.28704   -1.000
 5474.00    1.28538   1.26575   -1.000
 5475.00    1.25746   1.23901   -1.000
 5476.00    1.23894   1.21961   -1.000
 5477.00    1.25356   1.22202   -1.000
 5478.00    1.29595   1.24444   -1.000
 5479.00    1.31916   1.26672   -1.000
 5480.00    1.30559   1.27267   -1.000
 5481.00    1.28917   1.26775   -1.000
 5482.00    1.29367   1.27101   -1.000
 5483.00    1.31878   1.29096   -1.000
 5484.00    1.34666   1.31623   -1.000
 5485.00    1.35671   1.32961   -1.000
 5486.00    1.34112   1.32438   -1.000
 5487.00    1.32158   1.30912   -1.000
 5488.00    1.31521   1.29836   -1.000
 5489.00    1.31564   1.29973   -1.000
 5490.00    1.32600   1.30887   -1.000
 5491.00    1.33569   1.31644   -1.000
 5492.00    1.34011   1.31867   -1.000
 5493.00    1.33631   1.31769   -1.000
 5494.00    1.33615   1.31632   -1.000
 5495.00    1.33640   1.31394   -1.000
 5496.00    1.32555   1.30962   -1.000
 5497.00    1.31642   1.30729   -1.000
 5498.00    1.32537   1.31063   -1.000
 5499.00    1.34133   1.31464   -1.000
 5500.00    1.32773   1.31001   -1.000
 5501.00    1.30565   1.29593   -1.000
 5502.00    1.30560   1.28310   -1.000
 5503.00    1.31775   1.27901   -1.000
 5504.00    1.31946   1.27793   -1.000
 5505.00    1.29956   1.27294   -1.000
 5506.00    1.28753   1.26759   -1.000
 5507.00    1.30212   1.27090   -1.000
 5508.00    1.32430   1.28353   -1.000
 5509.00    1.32817   1.29371   -1.000
 5510.00    1.31800   1.28993   -1.000
 5511.00    1.29075   1.27295   -1.000
 5512.00    1.27037   1.25391   -1.000
 5513.00    1.26018   1.24456   -1.000
 5514.00    1.27818   1.24925   -1.000
 5515.00    1.30160   1.26455   -1.000
 5516.00    1.32121   1.28549   -1.000
 5517.00    1.34713   1.30866   -1.000
 5518.00    1.36949   1.33027   -1.000
 5519.00    1.37077   1.34507   -1.000
 5520.00    1.36825   1.35021   -1.000
 5521.00    1.36549   1.34900   -1.000
 5522.00    1.36051   1.34657   -1.000
 5523.00    1.35849   1.34302   -1.000
 5524.00    1.34966   1.33334   -1.000
 5525.00    1.33046   1.31261   -1.000
 5526.00    1.29905   1.28230   -1.000
 5527.00    1.26596   1.25341   -1.000
 5528.00    1.26167   1.24230   -1.000
 5529.00    1.29324   1.25683   -1.000
 5530.00    1.32894   1.28657   -1.000
 5531.00    1.34433   1.31190   -1.000
 5532.00    1.33951   1.32112   -1.000
 5533.00    1.32607   1.31689   -1.000
 5534.00    1.32038   1.30839   -1.000
 5535.00    1.32607   1.30317   -1.000
 5536.00    1.33772   1.30454   -1.000
 5537.00    1.34007   1.31164   -1.000
 5538.00    1.34634   1.32148   -1.000
 5539.00    1.36044   1.33241   -1.000
 5540.00    1.37097   1.34207   -1.000
 5541.00    1.36905   1.34518   -1.000
 5542.00    1.35360   1.33932   -1.000
 5543.00    1.34017   1.32931   -1.000
 5544.00    1.33784   1.32248   -1.000
 5545.00    1.34232   1.32233   -1.000
 5546.00    1.34520   1.32848   -1.000
 5547.00    1.35439   1.33982   -1.000
 5548.00    1.36851   1.35394   -1.000
 5549.00    1.37976   1.36542   -1.000
 5550.00    1.38203   1.36956   -1.000
 5551.00    1.37356   1.36530   -1.000
 5552.00    1.36120   1.35447   -1.000
 5553.00    1.34531   1.34180  743.325
 5554.00    1.33992   1.33334   -1.000
 5555.00    1.34278   1.33158   -1.000
 5556.00    1.34724   1.33371   -1.000
 5557.00    1.34928   1.33575   -1.000
 5558.00    1.35094   1.33681   -1.000
 5559.00    1.35237   1.33693   -1.000
 5560.00    1.34897   1.33373   -1.000
 5561.00    1.34163   1.32558   -1.000
 5562.00    1.32729   1.31549   -1.000
 5563.00    1.31864   1.30789   -1.000
 5564.00    1.31548   1.30350   -1.000
 5565.00    1.31287   1.30009   -1.000
 5566.00    1.31167   1.29639   -1.000
 5567.00    1.31489   1.29345   -1.000
 5568.00    1.31764   1.29276   -1.000
 5569.00    1.31302   1.29431   -1.000
 5570.00    1.31463   1.29587   -1.000
 5571.00    1.31430   1.29470   -1.000
 5572.00    1.31000   1.29132   -1.000
 5573.00    1.31681   1.29114   -1.000
 5574.00    1.33199   1.29893   -1.000
 5575.00    1.34283   1.31077   -1.000
 5576.00    1.36386   1.31910   -1.000
 5577.00    1.38717   1.32403   -1.000
 5578.00    1.35843   1.32908   -1.000
 5579.00    1.31036   1.33310   -1.000
 5580.00    1.30001   1.33344   -1.000
 5581.00    1.31835   1.33021   -1.000
 5582.00    1.33270   1.32525   -1.000
 5583.00    1.33425   1.31803   -1.000
 5584.00    1.32545   1.30295   -1.000
 5585.00    1.29402   1.27508   -1.000
 5586.00    1.26169   1.23865   -1.000
 5587.00    1.23444   1.20758   -1.000
 5588.00    1.22719   1.19516   -1.000
 5589.00    1.24450   1.20334   -1.000
 5590.00    1.26818   1.22355   -1.000
 5591.00    1.28555   1.24404   -1.000
 5592.00    1.28785   1.25756   -1.000
 5593.00    1.28170   1.26604   -1.000
 5594.00    1.29108   1.27664   -1.000
 5595.00    1.31124   1.29111   -1.000
 5596.00    1.32113   1.30112   -1.000
 5597.00    1.30604   1.29715   -1.000
 5598.00    1.28244   1.27985  779.761
 5599.00    1.27010   1.25913   -1.000
 5600.00    1.27252   1.24293   -1.000
 5601.00    1.26419   1.23394   -1.000
 5602.00    1.25834   1.23735   -1.000
 5603.00    1.28259   1.25904   -1.000
 5604.00    1.32034   1.29491   -1.000
 5605.00    1.35036   1.33138   -1.000
 5606.00    1.36494   1.35662   -1.000
 5607.00    1.36644   1.36786  731.828
 5608.00    1.36389   1.36994   -1.000
 5609.00    1.36104   1.36966   -1.000
 5610.00    1.36293   1.37105   -1.000
 5611.00    1.36755   1.37127  731.234
 5612.00    1.35972   1.36021  735.443
 5613.00    1.32962   1.32914  752.095
 5614.00    1.28264   1.28422  779.641
 5615.00    1.25547   1.24763   -1.000
 5616.00    1.27043   1.23914   -1.000
 5617.00    1.30394   1.25730   -1.000
 5618.00    1.32028   1.28237   -1.000
 5619.00    1.32169   1.29996   -1.000
 5620.00    1.32825   1.31073   -1.000
 5621.00    1.33496   1.31569   -1.000
 5622.00    1.32770   1.30920   -1.000
 5623.00    1.29939   1.29022   -1.000
 5624.00    1.27614   1.26998   -1.000
 5625.00    1.28521   1.26386   -1.000
 5626.00    1.30915   1.27659   -1.000
 5627.00    1.32775   1.29978   -1.000
 5628.00    1.34290   1.32317   -1.000
 5629.00    1.35221   1.34115   -1.000
 5630.00    1.35530   1.35132   -1.000
 5631.00    1.36109   1.35267   -1.000
 5632.00    1.35875   1.34629   -1.000
 5633.00    1.34703   1.33510   -1.000
 5634.00    1.33765   1.32159   -1.000
 5635.00    1.32941   1.30782   -1.000
 5636.00    1.31946   1.29679   -1.000
 5637.00    1.31068   1.29119   -1.000
 5638.00    1.31166   1.29087   -1.000
 5639.00    1.31317   1.29186   -1.000
 5640.00    1.30792   1.28994   -1.000
 5641.00    1.30777   1.28632   -1.000
 5642.00    1.31377   1.28655   -1.000
 5643.00    1.31995   1.29225   -1.000
 5644.00    1.32150   1.30001   -1.000
 5645.00    1.33185   1.30706   -1.000
 5646.00    1.33475   1.31195   -1.000
 5647.00    1.33829   1.31329   -1.000
 5648.00    1.34008   1.31151   -1.000
 5649.00    1.33611   1.30985   -1.000
 5650.00    1.33671   1.31218   -1.000
 5651.00    1.34882   1.31783   -1.000
 5652.00    1.35134   1.32024   -1.000
 5653.00    1.34510   1.31471   -1.000
 5654.00    1.33368   1.30363   -1.000
 5655.00    1.32077   1.29002   -1.000
 5656.00    1.29415   1.27203   -1.000
 5657.00    1.25348   1.24933   -1.000
 5658.00    1.23594   1.23105   -1.000
 5659.00    1.25879   1.22930   -1.000
 5660.00    1.28787   1.24238   -1.000
 5661.00    1.28967   1.25684   -1.000
 5662.00    1.28692   1.26729   -1.000
 5663.00    1.30378   1.27876   -1.000
 5664.00    1.32292   1.29247   -1.000
 5665.00    1.32637   1.30175   -1.000
 5666.00    1.31787   1.30164   -1.000
 5667.00    1.31003   1.29599   -1.000
 5668.00    1.30926   1.29284   -1.000
 5669.00    1.31320   1.29621   -1.000
 5670.00    1.32243   1.30543   -1.000
 5671.00    1.33439   1.31871   -1.000
 5672.00    1.34816   1.33285   -1.000
 5673.00    1.36118   1.34309   -1.000
 5674.00    1.35901   1.34708   -1.000
 5675.00    1.35410   1.34690   -1.000
 5676.00    1.35964   1.34619   -1.000
 5677.00    1.36137   1.34547   -1.000
 5678.00    1.35322   1.34178   -1.000
 5679.00    1.34807   1.33306   -1.000
 5680.00    1.33974   1.31951   -1.000
 5681.00    1.32318   1.30258   -1.000
 5682.00    1.30768   1.28732   -1.000
 5683.00    1.30649   1.28075   -1.000
 5684.00    1.31542   1.28315   -1.000
 5685.00    1.32092   1.28662   -1.000
 5686.00    1.31305   1.28503   -1.000
 5687.00    1.29651   1.28112   -1.000
 5688.00    1.29395   1.28242   -1.000
 5689.00    1.31107   1.29293   -1.000
 5690.00    1.33695   1.30989   -1.000
 5691.00    1.34784   1.32683   -1.000
 5692.00    1.35613   1.33829   -1.000
 5693.00    1.35775   1.34267   -1.000
 5694.00    1.35559   1.34190   -1.000
 5695.00    1.35469   1.33852   -1.000
 5696.00    1.35040   1.33281   -1.000
 5697.00    1.33585   1.32361   -1.000
 5698.00    1.32030   1.31092   -1.000
 5699.00    1.30932   1.29691   -1.000
 5700.00    1.29491   1.28466   -1.000
 5701.00    1.29022   1.27802   -1.000
 5702.00    1.30200   1.27977   -1.000
 5703.00    1.31614   1.28648   -1.000
 5704.00    1.31778   1.28958   -1.000
 5705.00    1.30742   1.28248   -1.000
 5706.00    1.28788   1.26573   -1.000
 5707.00    1.26352   1.24554   -1.000
 5708.00    1.24476   1.22797   -1.000
 5709.00    1.23925   1.21763   -1.000
 5710.00    1.24345   1.21853   -1.000
 5711.00    1.25767   1.23189   -1.000
 5712.00    1.28598   1.25554   -1.000
 5713.00    1.31928   1.28358   -1.000
 5714.00    1.33785   1.30761   -1.000
 5715.00    1.34062   1.32301   -1.000
 5716.00    1.34352   1.33137   -1.000
 5717.00    1.34795   1.33690   -1.000
 5718.00    1.35495   1.34309   -1.000
 5719.00    1.36407   1.35146   -1.000
 5720.00    1.37006   1.36097   -1.000
 5721.00    1.37295   1.36950  728.361
 5722.00    1.37495   1.37553  727.302
 5723.00    1.37655   1.37735  726.453
 5724.00    1.37253   1.37279  728.580
 5725.00    1.35987   1.36169  735.364
 5726.00    1.34531   1.34875  743.324
 5727.00    1.33525   1.34155   -1.000
 5728.00    1.34506   1.34250  743.461
 5729.00    1.35299   1.34531   -1.000
 5730.00    1.34755   1.34372   -1.000
 5731.00    1.34042   1.34009  746.036
 5732.00    1.34729   1.34193   -1.000
 5733.00    1.36161   1.35140   -1.000
 5734.00    1.36943   1.36156   -1.000
 5735.00    1.36684   1.36514  731.616
 5736.00    1.36534   1.36211  732.416
 5737.00    1.36079   1.35747  734.869
 5738.00    1.36033   1.35540   -1.000
 5739.00    1.35697   1.35569  736.935
 5740.00    1.35517   1.35549  737.917
 5741.00    1.35190   1.35353  739.702
 5742.00    1.35611   1.35232   -1.000
 5743.00    1.35695   1.35530  736.947
 5744.00    1.36848   1.36140   -1.000
 5745.00    1.37527   1.36444   -1.000
 5746.00    1.36563   1.35943   -1.000
 5747.00    1.35144   1.35003  739.952
 5748.00    1.34766   1.34549  742.024
 5749.00    1.35746   1.34817   -1.000
 5750.00    1.36081   1.34950   -1.000
 5751.00    1.34804   1.33953   -1.000
 5752.00    1.33116   1.31990   -1.000
 5753.00    1.31848   1.30429   -1.000
 5754.00    1.32069   1.30553   -1.000
 5755.00    1.34007   1.32439   -1.000
 5756.00    1.36640   1.34882   -1.000
 5757.00    1.38120   1.36477   -1.000
 5758.00    1.37412   1.36555   -1.000
 5759.00    1.35753   1.35206   -1.000
 5760.00    1.33971   1.33057   -1.000
 5761.00    1.32151   1.31125   -1.000
 5762.00    1.31668   1.30497   -1.000
 5763.00    1.33392   1.31698   -1.000
 5764.00    1.35932   1.34146   -1.000
 5765.00    1.37482   1.36536   -1.000
 5766.00    1.37744   1.37962  725.984
 5767.00    1.37864   1.38376   -1.000
 5768.00    1.38117   1.38146  724.022
 5769.00    1.37755   1.37619  725.928
 5770.00    1.37284   1.36972  728.418
 5771.00    1.36477   1.36236  732.724
 5772.00    1.35627   1.35480  737.317
 5773.00    1.35365   1.34934   -1.000
 5774.00    1.35214   1.34804   -1.000
 5775.00    1.35562   1.35110   -1.000
 5776.00    1.36300   1.35569   -1.000
 5777.00    1.36339   1.35515   -1.000
 5778.00    1.35841   1.34294   -1.000
 5779.00    1.33671   1.31865   -1.000
 5780.00    1.30577   1.28964   -1.000
 5781.00    1.29095   1.26689   -1.000
 5782.00    1.29570   1.25702   -1.000
 5783.00    1.30085   1.25690   -1.000
 5784.00    1.30545   1.26049   -1.000
 5785.00    1.31028   1.26853   -1.000
 5786.00    1.32652   1.28448   -1.000
 5787.00    1.34463   1.30521   -1.000
 5788.00    1.35391   1.32182   -1.000
 5789.00    1.35089   1.32822   -1.000
 5790.00    1.34433   1.32703   -1.000
 5791.00    1.34755   1.32694   -1.000
 5792.00    1.35995   1.33462   -1.000
 5793.00    1.36888   1.34842   -1.000
 5794.00    1.37711   1.36055   -1.000
 5795.00    1.37704   1.36395   -1.000
 5796.00    1.36767   1.35797   -1.000
 5797.00    1.35902   1.35030   -1.000
 5798.00    1.36763   1.35142   -1.000
 5799.00    1.38662   1.36455   -1.000
 5800.00    1.40600   1.38152   -1.000
 5801.00    1.40706   1.39085   -1.000
 5802.00    1.39354   1.38758   -1.000
 5803.00    1.38311   1.37463   -1.000
 5804.00    1.37174   1.35969   -1.000
 5805.00    1.36639   1.35056   -1.000
 5806.00    1.37070   1.34994   -1.000
 5807.00    1.37603   1.35482   -1.000
 5808.00    1.37997   1.36120   -1.000
 5809.00    1.37951   1.36751   -1.000
 5810.00    1.38109   1.37290   -1.000
 5811.00    1.38685   1.37531   -1.000
 5812.00    1.39070   1.37253   -1.000
 5813.00    1.38703   1.36391   -1.000
 5814.00    1.37442   1.35153   -1.000
 5815.00    1.36898   1.34135   -1.000
 5816.00    1.37774   1.34099   -1.000
 5817.00    1.38744   1.35278   -1.000
 5818.00    1.39475   1.37022   -1.000
 5819.00    1.40162   1.38335   -1.000
 5820.00    1.40599   1.38734   -1.000
 5821.00    1.40280   1.38468   -1.000
 5822.00    1.39756   1.38053   -1.000
 5823.00    1.40117   1.37849   -1.000
 5824.00    1.40301   1.37895   -1.000
 5825.00    1.40577   1.38059   -1.000
 5826.00    1.40690   1.38238   -1.000
 5827.00    1.40631   1.38425   -1.000
 5828.00    1.40312   1.38642   -1.000
 5829.00    1.40680   1.38806   -1.000
 5830.00    1.40582   1.38786   -1.000
 5831.00    1.40822   1.38532   -1.000
 5832.00    1.40463   1.38072   -1.000
 5833.00    1.39439   1.37496   -1.000
 5834.00    1.39327   1.37005   -1.000
 5835.00    1.39874   1.36818   -1.000
 5836.00    1.40110   1.36909   -1.000
 5837.00    1.39558   1.37071   -1.000
 5838.00    1.39274   1.37304   -1.000
 5839.00    1.39824   1.37803   -1.000
 5840.00    1.40938   1.38562   -1.000
 5841.00    1.41621   1.39210   -1.000
 5842.00    1.41488   1.39356   -1.000
 5843.00    1.40967   1.38909   -1.000
 5844.00    1.40417   1.37998   -1.000
 5845.00    1.39422   1.36835   -1.000
 5846.00    1.38776   1.35747   -1.000
 5847.00    1.38084   1.35093   -1.000
 5848.00    1.38363   1.34955   -1.000
 5849.00    1.38065   1.34949   -1.000
 5850.00    1.37209   1.34519   -1.000
 5851.00    1.36353   1.33501   -1.000
 5852.00    1.34941   1.32302   -1.000
 5853.00    1.34411   1.31439   -1.000
 5854.00    1.34222   1.30885   -1.000
 5855.00    1.34087   1.30022   -1.000
 5856.00    1.32535   1.28533   -1.000
 5857.00    1.31366   1.27140   -1.000
 5858.00    1.32577   1.27011   -1.000
 5859.00    1.34339   1.28372   -1.000
 5860.00    1.35360   1.30250   -1.000
 5861.00    1.35723   1.31638   -1.000
 5862.00    1.36339   1.32338   -1.000
 5863.00    1.36461   1.32665   -1.000
 5864.00    1.36015   1.32748   -1.000
 5865.00    1.35536   1.32469   -1.000
 5866.00    1.34844   1.32083   -1.000
 5867.00    1.35102   1.32230   -1.000
 5868.00    1.36553   1.33140   -1.000
 5869.00    1.37666   1.34321   -1.000
 5870.00    1.38194   1.35111   -1.000
 5871.00    1.38146   1.35234   -1.000
 5872.00    1.37726   1.34924   -1.000
 5873.00    1.37767   1.34604   -1.000
 5874.00    1.37999   1.34464   -1.000
 5875.00    1.37501   1.34301   -1.000
 5876.00    1.36893   1.33802   -1.000
 5877.00    1.36755   1.32894   -1.000
 5878.00    1.35548   1.31783   -1.000
 5879.00    1.34729   1.30816   -1.000
 5880.00    1.34832   1.30283   -1.000
 5881.00    1.35268   1.30167   -1.000
 5882.00    1.35188   1.30109   -1.000
 5883.00    1.34535   1.29837   -1.000
 5884.00    1.34488   1.29339   -1.000
 5885.00    1.33960   1.28201   -1.000
 5886.00    1.32194   1.25178   -1.000
 5887.00    1.27186   1.19064   -1.000
 5888.00    1.18858   1.10458   -1.000
 5889.00    1.11872   1.02460   -1.000
 5890.00    1.10454   0.98987   -1.000
 5891.00    1.14146   1.01149   -1.000
 5892.00    1.19176   1.05748   -1.000
 5893.00    1.21097   1.08548   -1.000
 5894.00    1.19219   1.08007   -1.000
 5895.00    1.15637   1.06161   -1.000
 5896.00    1.16632   1.06536   -1.000
 5897.00    1.20458   1.10447   -1.000
 5898.00    1.25073   1.16123   -1.000
 5899.00    1.28541   1.21277   -1.000
 5900.00    1.31371   1.25032   -1.000
 5901.00    1.33705   1.27511   -1.000
 5902.00    1.34165   1.28967   -1.000
 5903.00    1.34261   1.29633   -1.000
 5904.00    1.34275   1.29802   -1.000
 5905.00    1.34026   1.29837   -1.000
 5906.00    1.34144   1.30064   -1.000
 5907.00    1.34421   1.30546   -1.000
 5908.00    1.34750   1.31118   -1.000
 5909.00    1.34156   1.31620   -1.000
 5910.00    1.34025   1.31877   -1.000
 5911.00    1.33884   1.31602   -1.000
 5912.00    1.33322   1.30549   -1.000
 5913.00    1.31186   1.28930   -1.000
 5914.00    1.30395   1.27559   -1.000
 5915.00    1.30811   1.27196   -1.000
 5916.00    1.31652   1.27890   -1.000
 5917.00    1.32061   1.29177   -1.000
 5918.00    1.32648   1.30489   -1.000
 5919.00    1.32913   1.31368   -1.000
 5920.00    1.33455   1.31634   -1.000
 5921.00    1.33308   1.31454   -1.000
 5922.00    1.33184   1.31239   -1.000
 5923.00    1.33836   1.31385   -1.000
 5924.00    1.34218   1.31921   -1.000
 5925.00    1.34440   1.32451   -1.000
 5926.00    1.34519   1.32448   -1.000
 5927.00    1.34208   1.31676   -1.000
 5928.00    1.33124   1.30478   -1.000
 5929.00    1.32094   1.29605   -1.000
 5930.00    1.32408   1.29618   -1.000
 5931.00    1.33899   1.30300   -1.000
 5932.00    1.34373   1.30850   -1.000
 5933.00    1.33140   1.30815   -1.000
 5934.00    1.32269   1.30603   -1.000
 5935.00    1.32178   1.30925   -1.000
 5936.00    1.33181   1.31811   -1.000
 5937.00    1.34348   1.32616   -1.000
 5938.00    1.34741   1.32797   -1.000
 5939.00    1.34101   1.32257   -1.000
 5940.00    1.32591   1.31289   -1.000
 5941.00    1.31999   1.30491   -1.000
 5942.00    1.32204   1.30395   -1.000
 5943.00    1.33088   1.31002   -1.000
 5944.00    1.33855   1.31818   -1.000
 5945.00    1.34341   1.32233   -1.000
 5946.00    1.33813   1.31884   -1.000
 5947.00    1.32502   1.30924   -1.000
 5948.00    1.31092   1.30052   -1.000
 5949.00    1.30995   1.29864   -1.000
 5950.00    1.31799   1.30150   -1.000
 5951.00    1.32237   1.30264   -1.000
 5952.00    1.31759   1.30024   -1.000
 5953.00    1.31973   1.29860   -1.000
 5954.00    1.32224   1.29998   -1.000
 5955.00    1.32148   1.30020   -1.000
 5956.00    1.31520   1.29719   -1.000
 5957.00    1.31411   1.29605   -1.000
 5958.00    1.32031   1.30169   -1.000
 5959.00    1.33735   1.31311   -1.000
 5960.00    1.34958   1.32510   -1.000
 5961.00    1.35371   1.33278   -1.000
 5962.00    1.35475   1.33453   -1.000
 5963.00    1.35086   1.33129   -1.000
 5964.00    1.34275   1.32544   -1.000
 5965.00    1.33891   1.32082   -1.000
 5966.00    1.33386   1.32087   -1.000
 5967.00    1.33840   1.32545   -1.000
 5968.00    1.34974   1.33182   -1.000
 5969.00    1.35159   1.33802   -1.000
 5970.00    1.35169   1.34291   -1.000
 5971.00    1.35519   1.34502   -1.000
 5972.00    1.35632   1.34299   -1.000
 5973.00    1.34746   1.33581   -1.000
 5974.00    1.33648   1.32344   -1.000
 5975.00    1.32648   1.30882   -1.000
 5976.00    1.31718   1.29763   -1.000
 5977.00    1.31188   1.29454   -1.000
 5978.00    1.31978   1.30019   -1.000
 5979.00    1.33178   1.31056   -1.000
 5980.00    1.33564   1.31814   -1.000
 5981.00    1.33120   1.31577   -1.000
 5982.00    1.31924   1.30264   -1.000
 5983.00    1.30779   1.28626   -1.000
 5984.00    1.30223   1.27771   -1.000
 5985.00    1.30869   1.28165   -1.000
 5986.00    1.32387   1.29287   -1.000
 5987.00    1.33057   1.30424   -1.000
 5988.00    1.33465   1.31270   -1.000
 5989.00    1.34165   1.31756   -1.000
 5990.00    1.33796   1.31960   -1.000
 5991.00    1.33496   1.32196   -1.000
 5992.00    1.34327   1.32779   -1.000
 5993.00    1.35515   1.33544   -1.000
 5994.00    1.35755   1.33827   -1.000
 5995.00    1.34611   1.33186   -1.000
 5996.00    1.33714   1.31952   -1.000
 5997.00    1.33183   1.30921   -1.000
 5998.00    1.32949   1.30667   -1.000
 5999.00    1.33270   1.31036   -1.000
 6000.00    1.33063   1.31399   -1.000
 6001.00    1.32169   1.31341   -1.000
 6002.00    1.31813   1.31002   -1.000
 6003.00    1.31929   1.30799   -1.000
 6004.00    1.32336   1.30686   -1.000
 6005.00    1.32159   1.30111   -1.000
 6006.00    1.31075   1.28933   -1.000
 6007.00    1.29719   1.27894   -1.000
 6008.00    1.29970   1.27979   -1.000
 6009.00    1.31700   1.29195   -1.000
 6010.00    1.33015   1.30439   -1.000
 6011.00    1.32718   1.30727   -1.000
 6012.00    1.31575   1.30147   -1.000
 6013.00    1.30964   1.29491   -1.000
 6014.00    1.31839   1.29231   -1.000
 6015.00    1.31706   1.29196   -1.000
 6016.00    1.31054   1.29139   -1.000
 6017.00    1.30865   1.29011   -1.000
 6018.00    1.31299   1.28678   -1.000
 6019.00    1.30751   1.28091   -1.000
 6020.00    1.29870   1.27611   -1.000
 6021.00    1.30608   1.27651   -1.000
 6022.00    1.31530   1.28240   -1.000
 6023.00    1.31703   1.29130   -1.000
 6024.00    1.31872   1.30129   -1.000
 6025.00    1.32780   1.31106   -1.000
 6026.00    1.33084   1.31945   -1.000
 6027.00    1.34031   1.32680   -1.000
 6028.00    1.34552   1.33388   -1.000
 6029.00    1.34681   1.34004   -1.000
 6030.00    1.34616   1.34456  742.854
 6031.00    1.34257   1.34846   -1.000
 6032.00    1.34606   1.35382   -1.000
 6033.00    1.35255   1.36160   -1.000
 6034.00    1.35545   1.36906   -1.000
 6035.00    1.35564   1.37183   -1.000
 6036.00    1.35861   1.36871   -1.000
 6037.00    1.35634   1.36159   -1.000
 6038.00    1.34764   1.35320   -1.000
 6039.00    1.34596   1.34613  742.965
 6040.00    1.34122   1.34306  745.591
 6041.00    1.34544   1.34518  743.251
 6042.00    1.34682   1.35102  742.489
 6043.00    1.35478   1.35721  738.127
 6044.00    1.36618   1.36106   -1.000
 6045.00    1.36329   1.36293  733.519
 6046.00    1.36341   1.36432  733.453
 6047.00    1.36603   1.36588  732.049
 6048.00    1.36400   1.36738  733.139
 6049.00    1.35873   1.36791   -1.000
 6050.00    1.35608   1.36599   -1.000
 6051.00    1.35510   1.36052   -1.000
 6052.00    1.35223   1.35183  739.521
 6053.00    1.34624   1.34169   -1.000
 6054.00    1.34246   1.33222   -1.000
 6055.00    1.33437   1.32587   -1.000
 6056.00    1.33104   1.32515   -1.000
 6057.00    1.33425   1.33029   -1.000
 6058.00    1.34205   1.33821   -1.000
 6059.00    1.34882   1.34432   -1.000
 6060.00    1.34582   1.34507  743.043
 6061.00    1.34276   1.33914   -1.000
 6062.00    1.32103   1.32745   -1.000
 6063.00    1.29489   1.31346   -1.000
 6064.00    1.35125   1.30360   -1.000
 6065.00    0.76919   1.30517   -1.000
 6066.00    0.45395   1.31938   -1.000
 6067.00    1.14962   1.33854   -1.000
 6068.00    1.34559   1.35376   -1.000
 6069.00    1.34329   1.36243   -1.000
 6070.00    1.38572   1.36686   -1.000
 6071.00    1.40070   1.36915   -1.000
 6072.00    1.36384   1.36963   -1.000
 6073.00    1.35874   1.36794   -1.000
 6074.00    1.35799   1.36349   -1.000
 6075.00    1.35280   1.35567  739.209
 6076.00    1.34549   1.34499  743.226
 6077.00    1.33776   1.33346   -1.000
 6078.00    1.32697   1.32379  753.597
 6079.00    1.31934   1.31742  757.954
 6080.00    1.31972   1.31342   -1.000
 6081.00    1.31826   1.31046   -1.000
 6082.00    1.31409   1.30894   -1.000
 6083.00    1.31487   1.30924   -1.000
 6084.00    1.31586   1.31103   -1.000
 6085.00    1.31732   1.31427  759.114
 6086.00    1.32155   1.31821  756.688
 6087.00    1.32709   1.32011   -1.000
 6088.00    1.32320   1.31757   -1.000
 6089.00    1.31453   1.31164  760.730
 6090.00    1.30946   1.30651  763.673
 6091.00    1.31102   1.30599   -1.000
 6092.00    1.32061   1.31110   -1.000
 6093.00    1.32675   1.31990   -1.000
 6094.00    1.33454   1.32854   -1.000
 6095.00    1.34003   1.33395   -1.000
 6096.00    1.33862   1.33650  747.040
 6097.00    1.33496   1.33826  749.088
 6098.00    1.33454   1.33756  749.322
 6099.00    1.33449   1.32830   -1.000
 6100.00    1.31627   1.30689   -1.000
 6101.00    1.28247   1.27965  779.744
 6102.00    1.26414   1.26193  791.050
 6103.00    1.27751   1.26495   -1.000
 6104.00    1.30420   1.28432   -1.000
 6105.00    1.32308   1.30581   -1.000
 6106.00    1.32551   1.32037   -1.000
 6107.00    1.31931   1.32854   -1.000
 6108.00    1.31651   1.33383   -1.000
 6109.00    1.31756   1.33687   -1.000
 6110.00    1.32071   1.33754   -1.000
 6111.00    1.32698   1.33827   -1.000
 6112.00    1.32632   1.34115   -1.000
 6113.00    1.33462   1.34468   -1.000
 6114.00    1.33707   1.34547   -1.000
 6115.00    1.33075   1.34248   -1.000
 6116.00    1.32158   1.33748   -1.000
 6117.00    1.32085   1.33083   -1.000
 6118.00    1.31361   1.31965   -1.000
 6119.00    1.29299   1.30163   -1.000
 6120.00    1.27697   1.28029  783.103
 6121.00    1.26548   1.26515  790.214
 6122.00    1.26603   1.26460  789.872
 6123.00    1.28999   1.27736   -1.000
 6124.00    1.30569   1.29332   -1.000
 6125.00    1.30382   1.30362  766.974
 6126.00    1.29536   1.30718   -1.000
 6127.00    1.29853   1.30869   -1.000
 6128.00    1.30133   1.31346   -1.000
 6129.00    1.31326   1.32291   -1.000
 6130.00    1.32587   1.33369   -1.000
 6131.00    1.32715   1.34013   -1.000
 6132.00    1.32403   1.33635   -1.000
 6133.00    1.31016   1.31744   -1.000
 6134.00    1.27875   1.28367   -1.000
 6135.00    1.24084   1.24546   -1.000
 6136.00    1.21133   1.22088   -1.000
 6137.00    1.21161   1.22246   -1.000
 6138.00    1.24741   1.24487  801.660
 6139.00    1.28376   1.26992   -1.000
 6140.00    1.29481   1.28595   -1.000
 6141.00    1.29054   1.29596   -1.000
 6142.00    1.28874   1.30745   -1.000
 6143.00    1.30416   1.32109   -1.000
 6144.00    1.32006   1.33114   -1.000
 6145.00    1.31997   1.33310   -1.000
 6146.00    1.31299   1.32732   -1.000
 6147.00    1.30445   1.31734   -1.000
 6148.00    1.29492   1.30740   -1.000
 6149.00    1.28770   1.30117   -1.000
 6150.00    1.28868   1.30072   -1.000
 6151.00    1.29402   1.30436   -1.000
 6152.00    1.30373   1.30680  767.032
 6153.00    1.30408   1.30388  766.824
 6154.00    1.29132   1.29719   -1.000
 6155.00    1.28564   1.29121   -1.000
 6156.00    1.28546   1.28693  777.934
 6157.00    1.27932   1.27979  781.664
 6158.00    1.26470   1.26267  790.702
 6159.00    1.23951   1.23180   -1.000
 6160.00    1.20103   1.19289   -1.000
 6161.00    1.16764   1.16135   -1.000
 6162.00    1.15981   1.15179   -1.000
 6163.00    1.18114   1.16602   -1.000
 6164.00    1.21664   1.19265   -1.000
 6165.00    1.23290   1.21676   -1.000
 6166.00    1.23653   1.22802   -1.000
 6167.00    1.23223   1.22396   -1.000
 6168.00    1.21448   1.21215  823.399
 6169.00    1.20315   1.20669  831.150
 6170.00    1.21523   1.21590  822.892
 6171.00    1.24121   1.23472   -1.000
 6172.00    1.25740   1.25244   -1.000
 6173.00    1.25346   1.26337   -1.000
 6174.00    1.25294   1.26810   -1.000
 6175.00    1.25661   1.26997   -1.000
 6176.00    1.25880   1.27245   -1.000
 6177.00    1.26242   1.27694   -1.000
 6178.00    1.26914   1.28221   -1.000
 6179.00    1.27340   1.28724   -1.000
 6180.00    1.27745   1.29257   -1.000
 6181.00    1.28376   1.29773   -1.000
 6182.00    1.28651   1.30012   -1.000
 6183.00    1.28306   1.29745   -1.000
 6184.00    1.27836   1.28955   -1.000
 6185.00    1.26730   1.27820   -1.000
 6186.00    1.25307   1.26614   -1.000
 6187.00    1.24046   1.25498   -1.000
 6188.00    1.22890   1.24335   -1.000
 6189.00    1.22053   1.22966   -1.000
 6190.00    1.20339   1.21812   -1.000
 6191.00    1.19733   1.21753   -1.000
 6192.00    1.21406   1.23120   -1.000
 6193.00    1.24745   1.25233   -1.000
 6194.00    1.26588   1.27125   -1.000
 6195.00    1.27197   1.28256   -1.000
 6196.00    1.27315   1.28486   -1.000
 6197.00    1.26328   1.27928   -1.000
 6198.00    1.24788   1.27044   -1.000
 6199.00    1.23868   1.26590   -1.000
 6200.00    1.24158   1.27046   -1.000
 6201.00    1.25599   1.28161   -1.000
 6202.00    1.27224   1.29308   -1.000
 6203.00    1.27364   1.30088   -1.000
 6204.00    1.27327   1.30506   -1.000
 6205.00    1.27589   1.30733   -1.000
 6206.00    1.27549   1.30866   -1.000
 6207.00    1.26975   1.30857   -1.000
 6208.00    1.27089   1.30560   -1.000
 6209.00    1.26412   1.29832   -1.000
 6210.00    1.25175   1.28560   -1.000
 6211.00    1.24252   1.26714   -1.000
 6212.00    1.22992   1.24552   -1.000
 6213.00    1.21032   1.22673   -1.000
 6214.00    1.19952   1.21680   -1.000
 6215.00    1.19766   1.21687   -1.000
 6216.00    1.21666   1.22206   -1.000
 6217.00    1.22025   1.22533   -1.000
 6218.00    1.20881   1.22399   -1.000
 6219.00    1.21606   1.22196   -1.000
 6220.00    1.22544   1.22439  816.032
 6221.00    1.21498   1.23143   -1.000
 6222.00    1.11763   1.23893   -1.000
 6223.00    1.17885   1.24395   -1.000
 6224.00    1.23550   1.24682   -1.000
 6225.00    1.22964   1.24807   -1.000
 6226.00    1.22974   1.24547   -1.000
 6227.00    1.22163   1.23537   -1.000
 6228.00    1.20371   1.21689   -1.000
 6229.00    1.18364   1.19580   -1.000
 6230.00    1.16954   1.18263   -1.000
 6231.00    1.17769   1.18515   -1.000
 6232.00    1.19638   1.20277   -1.000
 6233.00    1.22019   1.22730   -1.000
 6234.00    1.23968   1.24769   -1.000
 6235.00    1.24316   1.25613   -1.000
 6236.00    1.23294   1.25179   -1.000
 6237.00    1.22018   1.23979   -1.000
 6238.00    1.20797   1.22680   -1.000
 6239.00    1.19508   1.21699   -1.000
 6240.00    1.19144   1.21040   -1.000
 6241.00    1.19254   1.20443   -1.000
 6242.00    1.18223   1.19756   -1.000
 6243.00    1.17491   1.19153   -1.000
 6244.00    1.17695   1.18966   -1.000
 6245.00    1.18540   1.19458   -1.000
 6246.00    1.19783   1.20681   -1.000
 6247.00    1.21378   1.22297   -1.000
 6248.00    1.22602   1.23599   -1.000
 6249.00    1.22553   1.23895   -1.000
 6250.00    1.21254   1.22974   -1.000
 6251.00    1.18894   1.21280   -1.000
 6252.00    1.17586   1.19595   -1.000
 6253.00    1.16864   1.18457   -1.000
 6254.00    1.16602   1.17825   -1.000
 6255.00    1.16697   1.17337   -1.000
 6256.00    1.15464   1.16891   -1.000
 6257.00    1.14475   1.16858   -1.000
 6258.00    1.15192   1.17671   -1.000
 6259.00    1.17117   1.19341   -1.000
 6260.00    1.18878   1.21437   -1.000
 6261.00    1.20488   1.23366   -1.000
 6262.00    1.22430   1.24631   -1.000
 6263.00    1.22838   1.25036   -1.000
 6264.00    1.21660   1.24881   -1.000
 6265.00    1.20912   1.24750   -1.000
 6266.00    1.21650   1.24902   -1.000
 6267.00    1.22567   1.25087   -1.000
 6268.00    1.21933   1.25055   -1.000
 6269.00    1.21319   1.24951   -1.000
 6270.00    1.21593   1.25064   -1.000
 6271.00    1.22037   1.25399   -1.000
 6272.00    1.22302   1.25624   -1.000
 6273.00    1.21893   1.25369   -1.000
 6274.00    1.20940   1.24534   -1.000
 6275.00    1.19967   1.23315   -1.000
 6276.00    1.17931   1.21998   -1.000
 6277.00    1.14869   1.20772   -1.000
 6278.00    1.12967   1.19780   -1.000
 6279.00    1.12433   1.19259   -1.000
 6280.00    1.13006   1.19518   -1.000
 6281.00    1.14996   1.20648   -1.000
 6282.00    1.17017   1.22326   -1.000
 6283.00    1.18818   1.24006   -1.000
 6284.00    1.20212   1.25328   -1.000
 6285.00    1.21152   1.26293   -1.000
 6286.00    1.22294   1.27032   -1.000
 6287.00    1.23112   1.27479   -1.000
 6288.00    1.23274   1.27386   -1.000
 6289.00    1.22503   1.26690   -1.000
 6290.00    1.21428   1.25720   -1.000
 6291.00    1.20554   1.24946   -1.000
 6292.00    1.20410   1.24567   -1.000
 6293.00    1.20283   1.24377   -1.000
 6294.00    1.20056   1.23975   -1.000
 6295.00    1.19030   1.23175   -1.000
 6296.00    1.18284   1.22254   -1.000
 6297.00    1.18184   1.21655   -1.000
 6298.00    1.18400   1.21437   -1.000
 6299.00    1.18942   1.21241   -1.000
 6300.00    1.19474   1.20899   -1.000
 6301.00    1.18251   1.20774   -1.000
 6302.00    1.16892   1.21296   -1.000
 6303.00    1.18200   1.22440   -1.000
 6304.00    1.20190   1.23830   -1.000
 6305.00    1.21611   1.25150   -1.000
 6306.00    1.22605   1.26242   -1.000
 6307.00    1.23750   1.26935   -1.000
 6308.00    1.23820   1.27058   -1.000
 6309.00    1.23192   1.26668   -1.000
 6310.00    1.22327   1.26044   -1.000
 6311.00    1.21913   1.25397   -1.000
 6312.00    1.21400   1.24695   -1.000
 6313.00    1.21342   1.23822   -1.000
 6314.00    1.20082   1.22837   -1.000
 6315.00    1.19765   1.21923   -1.000
 6316.00    1.19900   1.21221   -1.000
 6317.00    1.20013   1.20944   -1.000
 6318.00    1.19806   1.21390   -1.000
 6319.00    1.20335   1.22544   -1.000
 6320.00    1.21938   1.23936   -1.000
 6321.00    1.23089   1.25140   -1.000
 6322.00    1.23473   1.26131   -1.000
 6323.00    1.23891   1.27029   -1.000
 6324.00    1.24602   1.27762   -1.000
 6325.00    1.24952   1.28180   -1.000
 6326.00    1.24982   1.28312   -1.000
 6327.00    1.25695   1.28313   -1.000
 6328.00    1.25465   1.28290   -1.000
 6329.00    1.25395   1.28312   -1.000
 6330.00    1.25305   1.28451   -1.000
 6331.00    1.25836   1.28555   -1.000
 6332.00    1.26002   1.28170   -1.000
 6333.00    1.25594   1.26963   -1.000
 6334.00    1.25291   1.25225  798.140
 6335.00    1.22084   1.23795   -1.000
 6336.00    1.22175   1.23378   -1.000
 6337.00    1.23336   1.24009   -1.000
 6338.00    1.24619   1.25208   -1.000
 6339.00    1.26022   1.26379  793.511
 6340.00    1.26538   1.27018   -1.000
 6341.00    1.27176   1.26886  786.313
 6342.00    1.26984   1.26216   -1.000
 6343.00    1.25717   1.25624  795.436
 6344.00    1.25674   1.25630  795.711
 6345.00    1.26072   1.26289  793.199
 6346.00    1.26797   1.27316   -1.000
 6347.00    1.27717   1.28403   -1.000
 6348.00    1.28149   1.29316   -1.000
 6349.00    1.28063   1.29904   -1.000
 6350.00    1.28390   1.30071   -1.000
 6351.00    1.28216   1.29736   -1.000
 6352.00    1.27616   1.28895   -1.000
 6353.00    1.27034   1.27770   -1.000
 6354.00    1.25474   1.26735   -1.000
 6355.00    1.24455   1.25947   -1.000
 6356.00    1.24517   1.25195   -1.000
 6357.00    1.24104   1.24243  805.774
 6358.00    1.22574   1.23171   -1.000
 6359.00    1.22174   1.22208  818.506
 6360.00    1.22776   1.21498   -1.000
 6361.00    1.23147   1.21162   -1.000
 6362.00    1.23231   1.21386   -1.000
 6363.00    1.23701   1.22241   -1.000
 6364.00    1.24568   1.23557   -1.000
 6365.00    1.25360   1.25045   -1.000
 6366.00    1.26021   1.26432  793.521
 6367.00    1.26847   1.27474   -1.000
 6368.00    1.27702   1.28047  783.071
 6369.00    1.27970   1.28312  781.432
 6370.00    1.27835   1.28623   -1.000
 6371.00    1.28335   1.29170   -1.000
 6372.00    1.28848   1.29784   -1.000
 6373.00    1.28408   1.30164   -1.000
 6374.00    1.28346   1.30199   -1.000
 6375.00    1.28044   1.29943   -1.000
 6376.00    1.27549   1.29454   -1.000
 6377.00    1.26884   1.28822   -1.000
 6378.00    1.25998   1.28224   -1.000
 6379.00    1.25565   1.27834   -1.000
 6380.00    1.25522   1.27726   -1.000
 6381.00    1.25257   1.27836   -1.000
 6382.00    1.25323   1.28016   -1.000
 6383.00    1.25694   1.28199   -1.000
 6384.00    1.24999   1.28464   -1.000
 6385.00    1.24759   1.28855   -1.000
 6386.00    1.24904   1.29244   -1.000
 6387.00    1.24465   1.29464   -1.000
 6388.00    1.24071   1.29418   -1.000
 6389.00    1.22977   1.28963   -1.000
 6390.00    1.22032   1.27921   -1.000
 6391.00    1.20599   1.26425   -1.000
 6392.00    1.18734   1.25132   -1.000
 6393.00    1.17824   1.24836   -1.000
 6394.00    1.18328   1.25711   -1.000
 6395.00    1.20271   1.27040   -1.000
 6396.00    1.20293   1.27727   -1.000
 6397.00    1.19466   1.27124   -1.000
 6398.00    1.17570   1.25612   -1.000
 6399.00    1.14831   1.24431   -1.000
 6400.00    1.14175   1.24653   -1.000
 6401.00    1.15567   1.26212   -1.000
 6402.00    1.17508   1.28117   -1.000
 6403.00    1.17953   1.29365   -1.000
 6404.00    1.17542   1.29501   -1.000
 6405.00    1.16878   1.28679   -1.000
 6406.00    1.15098   1.27527   -1.000
 6407.00    1.13332   1.26732   -1.000
 6408.00    1.12255   1.26514   -1.000
 6409.00    1.11832   1.26545   -1.000
 6410.00    1.11245   1.26481   -1.000
 6411.00    1.10305   1.26391   -1.000
 6412.00    1.09738   1.26534   -1.000
 6413.00    1.09616   1.26951   -1.000
 6414.00    1.09521   1.27464   -1.000
 6415.00    1.08878   1.27844   -1.000
 6416.00    1.08104   1.27837   -1.000
 6417.00    1.07191   1.27230   -1.000
 6418.00    1.05890   1.26106   -1.000
 6419.00    1.03678   1.24999   -1.000
 6420.00    1.01763   1.24646   -1.000
 6421.00    1.01393   1.25404   -1.000
 6422.00    1.01763   1.26896   -1.000
 6423.00    1.02375   1.28404   -1.000
 6424.00    1.02626   1.29511   -1.000
 6425.00    1.01834   1.30171   -1.000
 6426.00    1.00590   1.30302   -1.000
 6427.00    0.99736   1.29653   -1.000
 6428.00    0.98464   1.28199   -1.000
