###################################################################
## OUTPUT of StarlightChains_v04.for    [Cid@UFSC - 01/Apr/2007] ##
###################################################################

## Some input info
NGC1851_a_1.cxt                          [arq_obs]
Base.BC03.N                              [arq_base]
NGC1851_a_1.msk                          [arq_masks]
StCv04.C99.config                        [arq_config]
   45                                    [N_base]
    0                                    [N_YAV_components = # of components with extra extinction!]
    0                                    [i_FitPowerLaw (1/0 = Yes/No)]
-9.99                                    [alpha_PowerLaw]
CCM                                      [red_law_option]
 1.458241                                [q_norm = A(l_norm)/A(V)]

## (Re)Sampling Parameters
 3359.00                                 [l_ini (A)]
 6428.00                                 [l_fin (A)]
    1.00                                 [dl    (A)]     (OBS: dl_cushion =    50.00 A)

## Normalization info
 4020.00                                 [l_norm (A) - for base]
 4010.00                                 [llow_norm (A) - window for f_obs]
 4060.00                                 [lupp_norm (A) - window for f_obs]
8.317932E-14                             [fobs_norm (in input units)]

## S/N
 4730.00                                 [llow_SN (A) - window for S/N]
 4780.00                                 [lupp_SN (A) - window for S/N]
  72.129                                 [S/N in S/N window]
  63.854                                 [S/N in norm. window]
 355.079                                 [S/N_err in S/N window]
 314.342                                 [S/N_err in norm. window]
  1.0000                                 [fscale_chi2]

## etc...
  2147483647                             [idum_orig]
  3064                                   [NOl_eff]
   624                                   [Nl_eff]
  2440    NSIGMA                         [Ntot_cliped & clip_method]
  4570720                                [Nglobal_steps]
   7                                     [N_chains]
   5                                     [NEX0s_base = N_base in EX0s-fits]
 0   0   1      243   2.0   6.677E+02    [Clip-Bug, RC-Crash & Burn-In warning-flags, n_censored_weights, wei_nsig_threshold & wei_limit]
    40     39.950     39.950      0.000  [idt_all, wdt_TotTime, wdt_UsrTime & wdt_SysTime (sec)]

## Synthesis Results - Best model ##

 2.53390E+00                             [chi2/Nl_eff]
     0.57167                             [adev (%)]

   102.80819                             [sum-of-x (%)]
 1.09148E-13                             [Flux_tot (units of input spectrum!)]
 9.58067E-10                             [Mini_tot (???)]
 5.23655E-10                             [Mcor_tot (???)]

  -0.38                                  [v0_min  (km/s)]
  81.91                                  [vd_min  (km/s)]
 0.1817                                  [AV_min  (mag)]
 0.0000                                  [YAV_min (mag)]

# j     x_j(%)      Mini_j(%)     Mcor_j(%)     age_j(yr)     Z_j      (L/M)_j    YAV?  Mstars   component_j        a/Fe...       SSP_chi2r SSP_adev(%)   SSP_AV   SSP_x(%)
  1      0.0000     0.0000E+00    0.0000E+00    1.000000E+06  0.00400  1.114E-02    0   1.0000   age020_m42            0.0000     2.7690E+03    15.1011   3.7214    78.2083
  2      9.1799     2.4975E-02    4.5690E-02    3.160000E+06  0.00400  4.073E-02    0   0.9999   age045_m42            0.0000     8.6599E+02     8.6019   2.7480    91.9992
  3      0.0000     0.0000E+00    0.0000E+00    5.010000E+06  0.00400  2.534E-02    0   0.9488   age055_m42            0.0000     1.6207E+03    11.9527   3.1580    85.6952
  4      0.3235     2.8203E-03    4.5727E-03    1.000000E+07  0.00400  1.271E-02    0   0.8862   age070_m42            0.0000     1.5281E+03    11.9232   2.3643    89.1329
  5      0.0000     0.0000E+00    0.0000E+00    2.512000E+07  0.00400  5.070E-03    0   0.8174   age090_m42            0.0000     1.3698E+03    11.2223   2.2336    90.6027
  6      0.0000     0.0000E+00    0.0000E+00    4.000000E+07  0.00400  3.505E-03    0   0.7851   age104_m42            0.0000     9.3387E+02     9.1073   1.9084    93.5583
  7      5.6108     2.7414E-01    3.6148E-01    1.015200E+08  0.00400  2.268E-03    0   0.7207   age116_m42            0.0000     1.5783E+03     8.3560   1.8928   102.7402
  8      0.0000     0.0000E+00    0.0000E+00    2.861200E+08  0.00400  1.079E-03    0   0.6613   age125_m42            0.0000     1.5659E+03     8.2235   1.3923   105.1341
  9      0.0000     0.0000E+00    0.0000E+00    6.405400E+08  0.00400  5.077E-04    0   0.6197   age132_m42            0.0000     1.6869E+03     8.5401   1.0217   109.2843
 10      0.0000     0.0000E+00    0.0000E+00    9.047900E+08  0.00400  3.535E-04    0   0.6024   age135_m42            0.0000     1.0080E+03     6.6801   0.7687   108.9225
 11      0.0000     0.0000E+00    0.0000E+00    1.434000E+09  0.00400  1.910E-04    0   0.5716   age139_m42            0.0000     3.1522E+02     3.8819   0.2117   108.2003
 12     87.1039     9.8312E+01    9.8262E+01    2.500000E+09  0.00400  9.818E-05    0   0.5463   age150_m42            0.0000     5.4737E+01     2.1599  -0.0821   104.1160
 13      0.5902     1.3861E+00    1.3258E+00    5.000000E+09  0.00400  4.718E-05    0   0.5228   age161_m42            0.0000     1.6387E+02     2.9796  -0.2514   100.8549
 14      0.0000     0.0000E+00    0.0000E+00    1.100000E+10  0.00400  2.205E-05    0   0.4980   age185_m42            0.0000     5.6661E+02     5.2637  -0.5326    98.9990
 15      0.0000     0.0000E+00    0.0000E+00    1.300000E+10  0.00400  1.883E-05    0   0.4927   age193_m42            0.0000     6.3400E+02     5.5407  -0.5503    98.8391
 16      0.0000     0.0000E+00    0.0000E+00    1.000000E+06  0.02000  1.989E-02    0   1.0000   age020_m62            0.0000     2.7935E+03    15.0781   3.6825    78.8591
 17      0.0000     0.0000E+00    0.0000E+00    3.160000E+06  0.02000  3.772E-02    0   0.9858   age045_m62            0.0000     2.5631E+03    14.5777   3.5373    81.0036
 18      0.0000     0.0000E+00    0.0000E+00    5.010000E+06  0.02000  3.227E-02    0   0.9342   age055_m62            0.0000     1.2815E+03    10.5380   3.0074    88.4941
 19      0.0000     0.0000E+00    0.0000E+00    1.000000E+07  0.02000  1.011E-02    0   0.8751   age070_m62            0.0000     2.9245E+03    16.1130   2.4145    85.2082
 20      0.0000     0.0000E+00    0.0000E+00    2.512000E+07  0.02000  4.206E-03    0   0.8099   age090_m62            0.0000     2.2293E+03    13.9269   2.3378    86.2108
 21      0.0000     0.0000E+00    0.0000E+00    4.000000E+07  0.02000  3.373E-03    0   0.7799   age104_m62            0.0000     1.0284E+03     8.9716   2.1368    94.7362
 22      0.0000     0.0000E+00    0.0000E+00    1.015200E+08  0.02000  1.878E-03    0   0.7221   age116_m62            0.0000     1.5004E+03     8.5634   1.9349   102.6178
 23      0.0000     0.0000E+00    0.0000E+00    2.861200E+08  0.02000  8.869E-04    0   0.6700   age125_m62            0.0000     2.6601E+03    10.2601   1.4005   109.7463
 24      0.0000     0.0000E+00    0.0000E+00    6.405400E+08  0.02000  3.657E-04    0   0.6322   age132_m62            0.0000     1.4839E+03     8.2247   0.6608   114.7269
 25      0.0000     0.0000E+00    0.0000E+00    9.047900E+08  0.02000  2.312E-04    0   0.6152   age135_m62            0.0000     7.0727E+02     5.9770   0.2672   114.2120
 26      0.0000     0.0000E+00    0.0000E+00    1.434000E+09  0.02000  1.168E-04    0   0.5865   age139_m62            0.0000     1.7282E+02     3.5885  -0.1461   108.3234
 27      0.0000     0.0000E+00    0.0000E+00    2.500000E+09  0.02000  5.505E-05    0   0.5610   age150_m62            0.0000     4.2709E+02     5.0826  -0.5363   105.6473
 28      0.0000     0.0000E+00    0.0000E+00    5.000000E+09  0.02000  2.596E-05    0   0.5353   age161_m62            0.0000     1.1085E+03     7.9701  -0.8948   105.9254
 29      0.0000     0.0000E+00    0.0000E+00    1.100000E+10  0.02000  1.169E-05    0   0.5103   age185_m62            0.0000     2.3303E+03    10.9817  -1.0000   101.5248
 30      0.0000     0.0000E+00    0.0000E+00    1.300000E+10  0.02000  9.691E-06    0   0.5047   age193_m62            0.0000     2.6334E+03    11.6822  -1.0000   100.6618
 31      0.0000     0.0000E+00    0.0000E+00    1.000000E+06  0.05000  2.651E-02    0   0.9998   age020_m72            0.0000     2.6067E+03    14.4597   3.6843    79.7175
 32      0.0000     0.0000E+00    0.0000E+00    3.160000E+06  0.05000  4.817E-02    0   0.9577   age045_m72            0.0000     1.9359E+03    12.6638   3.3925    84.1508
 33      0.0000     0.0000E+00    0.0000E+00    5.010000E+06  0.05000  3.101E-02    0   0.9147   age055_m72            0.0000     1.7889E+03    12.3833   3.0444    86.6286
 34      0.0000     0.0000E+00    0.0000E+00    1.000000E+07  0.05000  8.954E-03    0   0.8524   age070_m72            0.0000     1.8205E+03    12.2368   3.2838    85.2644
 35      0.0000     0.0000E+00    0.0000E+00    2.512000E+07  0.05000  4.207E-03    0   0.7902   age090_m72            0.0000     1.1224E+03     9.5168   2.8448    90.6235
 36      0.0000     0.0000E+00    0.0000E+00    4.000000E+07  0.05000  3.198E-03    0   0.7618   age104_m72            0.0000     1.0541E+03     7.1652   2.3222    98.4217
 37      0.0000     0.0000E+00    0.0000E+00    1.015200E+08  0.05000  1.716E-03    0   0.7092   age116_m72            0.0000     1.7330E+03     8.8891   2.0349   102.7813
 38      0.0000     0.0000E+00    0.0000E+00    2.861200E+08  0.05000  7.047E-04    0   0.6618   age125_m72            0.0000     2.4494E+03     9.7944   1.1775   110.7530
 39      0.0000     0.0000E+00    0.0000E+00    6.405400E+08  0.05000  2.633E-04    0   0.6253   age132_m72            0.0000     1.0278E+03     7.1943   0.2630   114.6628
 40      0.0000     0.0000E+00    0.0000E+00    9.047900E+08  0.05000  1.484E-04    0   0.6088   age135_m72            0.0000     4.0881E+02     5.4762  -0.2377   109.9029
 41      0.0000     0.0000E+00    0.0000E+00    1.434000E+09  0.05000  7.827E-05    0   0.5847   age139_m72            0.0000     6.8108E+02     6.7767  -0.6424   106.4652
 42      0.0000     0.0000E+00    0.0000E+00    2.500000E+09  0.05000  3.759E-05    0   0.5583   age150_m72            0.0000     1.2533E+03     8.6176  -0.9787   105.8137
 43      0.0000     0.0000E+00    0.0000E+00    5.000000E+09  0.05000  1.548E-05    0   0.5320   age161_m72            0.0000     2.7568E+03    12.4316  -1.0000    97.0349
 44      0.0000     0.0000E+00    0.0000E+00    1.100000E+10  0.05000  6.532E-06    0   0.5070   age185_m72            0.0000     5.6347E+03    18.3792  -1.0000    87.5086
 45      0.0000     0.0000E+00    0.0000E+00    1.300000E+10  0.05000  5.316E-06    0   0.5018   age193_m72            0.0000     6.8386E+03    20.3196  -1.0000    84.5705


## Synthesis Results - Average & Chains ##

# j      x_j: min, <> & last-chain-values for 1 ...  7 chains
  1      0.0000      0.0097      0.0461      0.0000      0.0000      0.0000      0.0000      0.0000      0.0000
  2      9.1799      8.5773      8.7553      8.5916      8.7211      8.6863      8.6498      8.6516      8.7570
  3      0.0000      0.0324      0.0418      0.0589      0.0615      0.0110      0.0000      0.0000      0.0000
  4      0.3235      0.5489      0.5745      0.5605      0.6236      0.6665      0.5933      0.5189      0.5223
  5      0.0000      0.0374      0.0000      0.0000      0.0000      0.0000      0.0420      0.0890      0.0000
  6      0.0000      0.0456      0.0000      0.0307      0.0000      0.0154      0.0468      0.0619      0.0000
  7      5.6108      5.5442      5.5270      5.6536      5.6924      5.5956      5.5897      5.6252      5.6255
  8      0.0000      0.0380      0.0060      0.0000      0.0000      0.0023      0.0000      0.0446      0.0000
  9      0.0000      0.0664      0.0000      0.0763      0.0052      0.0365      0.0000      0.0000      0.0000
 10      0.0000      0.0744      0.3930      0.2136      0.0000      0.0000      0.0000      0.0265      0.0656
 11      0.0000      0.0904      0.0029      0.0000      0.1205      0.0000      0.0251      0.0000      0.0070
 12     87.1039     86.0680     86.6009     86.6104     86.3210     86.5491     86.6706     86.4425     86.9675
 13      0.5902      0.1815      0.0000      0.0000      0.2489      0.0000      0.2344      0.0242      0.0000
 14      0.0000      0.0636      0.0000      0.0000      0.0000      0.0000      0.0589      0.0000      0.0000
 15      0.0000      0.0730      0.0461      0.0268      0.0000      0.0215      0.1279      0.0734      0.0230
 16      0.0000      0.0093      0.0000      0.0000      0.0000      0.0000      0.0000      0.0000      0.0000
 17      0.0000      0.0135      0.0000      0.0000      0.0000      0.0000      0.0052      0.0000      0.0000
 18      0.0000      0.0387      0.0518      0.0535      0.0000      0.0000      0.0000      0.0121      0.0735
 19      0.0000      0.0280      0.0000      0.0000      0.0000      0.0000      0.0018      0.0000      0.0000
 20      0.0000      0.0161      0.0295      0.0000      0.0000      0.0249      0.0034      0.0000      0.0063
 21      0.0000      0.0351      0.0497      0.0191      0.0299      0.0000      0.0000      0.0223      0.0064
 22      0.0000      0.0263      0.0000      0.0017      0.0000      0.0315      0.0475      0.0000      0.0000
 23      0.0000      0.0272      0.0044      0.0196      0.0000      0.0000      0.0000      0.1301      0.0000
 24      0.0000      0.0218      0.0000      0.0380      0.0000      0.0060      0.0000      0.0000      0.0000
 25      0.0000      0.0738      0.0000      0.0000      0.0000      0.0544      0.0745      0.0000      0.0648
 26      0.0000      0.1068      0.0568      0.0000      0.0000      0.0000      0.0000      0.0655      0.0000
 27      0.0000      0.0932      0.2021      0.0000      0.0666      0.1213      0.0000      0.0000      0.0130
 28      0.0000      0.0422      0.0000      0.0000      0.0000      0.0345      0.0000      0.0289      0.0000
 29      0.0000      0.0173      0.0000      0.0000      0.0000      0.0000      0.0000      0.0000      0.0016
 30      0.0000      0.0181      0.0000      0.0000      0.0000      0.0066      0.0000      0.0000      0.0000
 31      0.0000      0.0090      0.0000      0.0000      0.0364      0.0000      0.0045      0.0000      0.0000
 32      0.0000      0.0214      0.0000      0.0000      0.0012      0.0000      0.0453      0.0213      0.1318
 33      0.0000      0.0575      0.0000      0.1785      0.0834      0.1692      0.0173      0.1847      0.0000
 34      0.0000      0.0177      0.0000      0.0000      0.0000      0.0000      0.0000      0.0000      0.0000
 35      0.0000      0.0191      0.0000      0.0000      0.0000      0.0000      0.0000      0.0000      0.0000
 36      0.0000      0.0225      0.0000      0.0322      0.0000      0.0264      0.0101      0.0150      0.0000
 37      0.0000      0.0286      0.0287      0.0409      0.0000      0.0000      0.1965      0.0665      0.0122
 38      0.0000      0.0351      0.0000      0.0000      0.0684      0.0000      0.0000      0.0000      0.0895
 39      0.0000      0.0694      0.0000      0.0066      0.1274      0.0944      0.0000      0.0184      0.0539
 40      0.0000      0.1560      0.1060      0.0076      0.1380      0.2044      0.0000      0.1704      0.0000
 41      0.0000      0.1258      0.0000      0.2012      0.2089      0.1325      0.1049      0.1772      0.1204
 42      0.0000      0.0377      0.0000      0.0000      0.0000      0.0117      0.0000      0.0000      0.0000
 43      0.0000      0.0828      0.1562      0.3016      0.1302      0.1164      0.1713      0.1574      0.1128
 44      0.0000      0.0753      0.0564      0.0489      0.0411      0.1150      0.0259      0.0780      0.0842
 45      0.0000      0.0751      0.1175      0.0837      0.1187      0.0853      0.0804      0.1356      0.0936

# j      m_j: min, <> & last-chain-values for 1 ...  7 chains
  1  0.0000E+00  1.7035E-04  8.1262E-04  0.0000E+00  0.0000E+00  0.0000E+00  0.0000E+00  0.0000E+00  0.0000E+00
  2  4.5690E-02  4.1347E-02  4.2192E-02  4.1449E-02  4.2182E-02  4.1820E-02  4.1782E-02  4.1426E-02  4.2366E-02
  3  0.0000E+00  2.3786E-04  3.0694E-04  4.3365E-04  4.5368E-04  8.0970E-05  0.0000E+00  0.0000E+00  0.0000E+00
  4  4.5727E-03  7.5149E-03  7.8630E-03  7.6807E-03  8.5669E-03  9.1133E-03  8.1392E-03  7.0567E-03  7.1773E-03
  5  0.0000E+00  1.1831E-03  0.0000E+00  0.0000E+00  0.0000E+00  0.0000E+00  1.3315E-03  2.7980E-03  0.0000E+00
  6  0.0000E+00  2.0046E-03  0.0000E+00  1.3527E-03  0.0000E+00  6.7807E-04  2.0614E-03  2.7049E-03  0.0000E+00
  7  3.6148E-01  3.4595E-01  3.4476E-01  3.5305E-01  3.5638E-01  3.4871E-01  3.4949E-01  3.4864E-01  3.5228E-01
  8  0.0000E+00  4.5765E-03  7.2524E-04  0.0000E+00  0.0000E+00  2.7947E-04  0.0000E+00  5.3303E-03  0.0000E+00
  9  0.0000E+00  1.5909E-02  0.0000E+00  1.8298E-02  1.2520E-03  8.7308E-03  0.0000E+00  0.0000E+00  0.0000E+00
 10  0.0000E+00  2.4894E-02  1.3145E-01  7.1538E-02  0.0000E+00  0.0000E+00  0.0000E+00  8.8067E-03  2.2015E-02
 11  0.0000E+00  5.3144E-02  1.7023E-03  0.0000E+00  7.1057E-02  0.0000E+00  1.4806E-02  0.0000E+00  4.1573E-03
 12  9.8262E+01  9.4039E+01  9.4590E+01  9.4706E+01  9.4632E+01  9.4444E+01  9.4889E+01  9.3813E+01  9.5364E+01
 13  1.3258E+00  3.9489E-01  0.0000E+00  0.0000E+00  5.4329E-01  0.0000E+00  5.1116E-01  5.2216E-02  0.0000E+00
 14  0.0000E+00  2.8188E-01  0.0000E+00  0.0000E+00  0.0000E+00  0.0000E+00  2.6178E-01  0.0000E+00  0.0000E+00
 15  0.0000E+00  3.7518E-01  2.3691E-01  1.3777E-01  0.0000E+00  1.1028E-01  6.5869E-01  3.7456E-01  1.1841E-01
 16  0.0000E+00  9.2263E-05  0.0000E+00  0.0000E+00  0.0000E+00  0.0000E+00  0.0000E+00  0.0000E+00  0.0000E+00
 17  0.0000E+00  6.9478E-05  0.0000E+00  0.0000E+00  0.0000E+00  0.0000E+00  2.6694E-05  0.0000E+00  0.0000E+00
 18  0.0000E+00  2.1974E-04  2.9411E-04  3.0452E-04  0.0000E+00  0.0000E+00  0.0000E+00  6.8468E-05  4.1906E-04
 19  0.0000E+00  4.7547E-04  0.0000E+00  0.0000E+00  0.0000E+00  0.0000E+00  3.1383E-05  0.0000E+00  0.0000E+00
 20  0.0000E+00  6.0702E-04  1.1133E-03  0.0000E+00  0.0000E+00  9.3859E-04  1.2996E-04  0.0000E+00  2.3971E-04
 21  0.0000E+00  1.5945E-03  2.2542E-03  8.6810E-04  1.3627E-03  0.0000E+00  0.0000E+00  1.0056E-03  2.9390E-04
 22  0.0000E+00  1.9823E-03  0.0000E+00  1.2984E-04  0.0000E+00  2.3732E-03  3.5905E-03  0.0000E+00  0.0000E+00
 23  0.0000E+00  4.0343E-03  6.5815E-04  2.9126E-03  0.0000E+00  0.0000E+00  0.0000E+00  1.9165E-02  0.0000E+00
 24  0.0000E+00  7.4144E-03  0.0000E+00  1.2924E-02  0.0000E+00  2.0408E-03  0.0000E+00  0.0000E+00  0.0000E+00
 25  0.0000E+00  3.8579E-02  0.0000E+00  0.0000E+00  0.0000E+00  2.8377E-02  3.9005E-02  0.0000E+00  3.3981E-02
 26  0.0000E+00  1.0526E-01  5.5972E-02  0.0000E+00  0.0000E+00  0.0000E+00  0.0000E+00  6.4121E-02  0.0000E+00
 27  0.0000E+00  1.8646E-01  4.0430E-01  0.0000E+00  1.3366E-01  2.4233E-01  0.0000E+00  0.0000E+00  2.6087E-02
 28  0.0000E+00  1.7078E-01  0.0000E+00  0.0000E+00  0.0000E+00  1.3966E-01  0.0000E+00  1.1638E-01  0.0000E+00
 29  0.0000E+00  1.4821E-01  0.0000E+00  0.0000E+00  0.0000E+00  0.0000E+00  0.0000E+00  0.0000E+00  1.3954E-02
 30  0.0000E+00  1.8546E-01  0.0000E+00  0.0000E+00  0.0000E+00  6.7608E-02  0.0000E+00  0.0000E+00  0.0000E+00
 31  0.0000E+00  6.6385E-05  0.0000E+00  0.0000E+00  2.7059E-04  0.0000E+00  3.3402E-05  0.0000E+00  0.0000E+00
 32  0.0000E+00  8.3735E-05  0.0000E+00  0.0000E+00  4.8483E-06  0.0000E+00  1.7706E-04  8.2562E-05  5.1627E-04
 33  0.0000E+00  3.3319E-04  0.0000E+00  1.0344E-03  4.8448E-04  9.7895E-04  1.0043E-04  1.0624E-03  0.0000E+00
 34  0.0000E+00  3.3125E-04  0.0000E+00  0.0000E+00  0.0000E+00  0.0000E+00  0.0000E+00  0.0000E+00  0.0000E+00
 35  0.0000E+00  7.0437E-04  0.0000E+00  0.0000E+00  0.0000E+00  0.0000E+00  0.0000E+00  0.0000E+00  0.0000E+00
 36  0.0000E+00  1.0545E-03  0.0000E+00  1.5073E-03  0.0000E+00  1.2346E-03  4.7399E-04  6.9467E-04  0.0000E+00
 37  0.0000E+00  2.3215E-03  2.3269E-03  3.3232E-03  0.0000E+00  0.0000E+00  1.5981E-02  5.3582E-03  9.9483E-04
 38  0.0000E+00  6.4703E-03  0.0000E+00  0.0000E+00  1.2647E-02  0.0000E+00  0.0000E+00  0.0000E+00  1.6557E-02
 39  0.0000E+00  3.2378E-02  0.0000E+00  3.0889E-03  5.9591E-02  4.3953E-02  0.0000E+00  8.5103E-03  2.5211E-02
 40  0.0000E+00  1.2570E-01  8.5338E-02  6.1492E-03  1.1153E-01  1.6447E-01  0.0000E+00  1.3635E-01  0.0000E+00
 41  0.0000E+00  1.8454E-01  0.0000E+00  2.9532E-01  3.0752E-01  1.9406E-01  1.5416E-01  2.5812E-01  1.7730E-01
 42  0.0000E+00  1.1001E-01  0.0000E+00  0.0000E+00  0.0000E+00  3.4086E-02  0.0000E+00  0.0000E+00  0.0000E+00
 43  0.0000E+00  5.5883E-01  1.0535E+00  2.0372E+00  8.8175E-01  7.8464E-01  1.1582E+00  1.0551E+00  7.6396E-01
 44  0.0000E+00  1.1473E+00  8.5911E-01  7.4519E-01  6.2903E-01  1.7504E+00  3.9608E-01  1.1808E+00  1.2885E+00
 45  0.0000E+00  1.3911E+00  2.1781E+00  1.5521E+00  2.2070E+00  1.5791E+00  1.4938E+00  2.4965E+00  1.7411E+00

# AV, chi2 & Mass for <> & i_chain = 1 ...  7 solutions
AV       0.1817      0.1767      0.1769      0.1763      0.1776      0.1765      0.1763      0.1768      0.1775
chi2 2.5339E+00  2.5482E+00  2.5349E+00  2.5368E+00  2.5346E+00  2.5380E+00  2.5386E+00  2.5388E+00  2.5340E+00
Mass 5.2366E-10  5.3706E-10  5.3737E-10  5.3634E-10  5.3589E-10  5.3764E-10  5.3571E-10  5.4077E-10  5.3569E-10
   0.02                                  [v0_min (km/s) before EX0s...]
  82.31                                  [vd_min (km/s) before EX0s...]


## Synthetic spectrum (Best Model) ##l_obs f_obs f_syn wei
 3070    [Nl_obs]
 3359.00    0.23931   0.49105   -1.000
 3360.00    0.22817   0.46594   -1.000
 3361.00    0.23060   0.46281   -1.000
 3362.00    0.24838   0.48465   -1.000
 3363.00    0.26918   0.51864   -1.000
 3364.00    0.29386   0.54518   -1.000
 3365.00    0.30567   0.55130   -1.000
 3366.00    0.30446   0.53694   -1.000
 3367.00    0.29837   0.51276   -1.000
 3368.00    0.29442   0.49238   -1.000
 3369.00    0.29261   0.48110   -1.000
 3370.00    0.28547   0.47603   -1.000
 3371.00    0.28022   0.47220   -1.000
 3372.00    0.28499   0.47216   -1.000
 3373.00    0.29941   0.48450   -1.000
 3374.00    0.31899   0.51044   -1.000
 3375.00    0.34321   0.54155   -1.000
 3376.00    0.36267   0.56185   -1.000
 3377.00    0.36830   0.55963   -1.000
 3378.00    0.36187   0.53829   -1.000
 3379.00    0.35627   0.51252   -1.000
 3380.00    0.35206   0.49906   -1.000
 3381.00    0.35165   0.50369   -1.000
 3382.00    0.36364   0.52032   -1.000
 3383.00    0.37863   0.53795   -1.000
 3384.00    0.38835   0.55221   -1.000
 3385.00    0.38920   0.56453   -1.000
 3386.00    0.39087   0.57289   -1.000
 3387.00    0.39588   0.57435   -1.000
 3388.00    0.39466   0.57106   -1.000
 3389.00    0.40048   0.56619   -1.000
 3390.00    0.40832   0.55905   -1.000
 3391.00    0.40975   0.54760   -1.000
 3392.00    0.40384   0.53458   -1.000
 3393.00    0.40334   0.52901   -1.000
 3394.00    0.41609   0.53786   -1.000
 3395.00    0.42872   0.55869   -1.000
 3396.00    0.43962   0.58347   -1.000
 3397.00    0.45305   0.60446   -1.000
 3398.00    0.46948   0.61709   -1.000
 3399.00    0.47953   0.61852   -1.000
 3400.00    0.48130   0.60844   -1.000
 3401.00    0.47571   0.59036   -1.000
 3402.00    0.46102   0.57036   -1.000
 3403.00    0.45385   0.55541   -1.000
 3404.00    0.44999   0.54891   -1.000
 3405.00    0.45063   0.54612   -1.000
 3406.00    0.44772   0.54051   -1.000
 3407.00    0.43483   0.53164   -1.000
 3408.00    0.42927   0.52645   -1.000
 3409.00    0.43015   0.53114   -1.000
 3410.00    0.43542   0.54203   -1.000
 3411.00    0.44237   0.54904   -1.000
 3412.00    0.44062   0.54612   -1.000
 3413.00    0.43880   0.53729   -1.000
 3414.00    0.43607   0.53197   -1.000
 3415.00    0.44078   0.53548   -1.000
 3416.00    0.44953   0.54777   -1.000
 3417.00    0.46087   0.56533   -1.000
 3418.00    0.47690   0.58394   -1.000
 3419.00    0.49133   0.59824   -1.000
 3420.00    0.49593   0.60328   -1.000
 3421.00    0.49404   0.59820   -1.000
 3422.00    0.49214   0.58851   -1.000
 3423.00    0.48536   0.57953   -1.000
 3424.00    0.47636   0.57406   -1.000
 3425.00    0.47888   0.57316   -1.000
 3426.00    0.47946   0.57802   -1.000
 3427.00    0.48338   0.59079   -1.000
 3428.00    0.49671   0.61020   -1.000
 3429.00    0.51497   0.62563   -1.000
 3430.00    0.52510   0.62689   -1.000
 3431.00    0.52416   0.61340   -1.000
 3432.00    0.51339   0.59549   -1.000
 3433.00    0.50175   0.58503   -1.000
 3434.00    0.50330   0.58527   -1.000
 3435.00    0.51710   0.59100   -1.000
 3436.00    0.51992   0.59278   -1.000
 3437.00    0.51212   0.58536   -1.000
 3438.00    0.49882   0.56745   -1.000
 3439.00    0.47971   0.54125   -1.000
 3440.00    0.45916   0.51215   -1.000
 3441.00    0.44339   0.48994   -1.000
 3442.00    0.44203   0.48180   -1.000
 3443.00    0.44547   0.48707   -1.000
 3444.00    0.45543   0.50029   -1.000
 3445.00    0.47640   0.51820   -1.000
 3446.00    0.49262   0.54107   -1.000
 3447.00    0.51282   0.56781   -1.000
 3448.00    0.52901   0.59239   -1.000
 3449.00    0.53570   0.60676   -1.000
 3450.00    0.54149   0.60498   -1.000
 3451.00    0.53833   0.58891   -1.000
 3452.00    0.53710   0.56801   -1.000
 3453.00    0.53186   0.55535   -1.000
 3454.00    0.53497   0.55557   -1.000
 3455.00    0.53801   0.56298   -1.000
 3456.00    0.53750   0.56699   85.064
 3457.00    0.53749   0.56079   85.087
 3458.00    0.53034   0.54722   -1.000
 3459.00    0.52199   0.53237   -1.000
 3460.00    0.51458   0.52195   -1.000
 3461.00    0.52005   0.52242  667.687
 3462.00    0.53027   0.53572   -1.000
 3463.00    0.53889   0.55267   -1.000
 3464.00    0.55057   0.56282   -1.000
 3465.00    0.55472   0.56538   -1.000
 3466.00    0.55173   0.56669   -1.000
 3467.00    0.55537   0.57254   -1.000
 3468.00    0.57413   0.58165   -1.000
 3469.00    0.58882   0.58943  667.687
 3470.00    0.58810   0.59200  667.687
 3471.00    0.58153   0.58732  121.403
 3472.00    0.57329   0.57481   87.147
 3473.00    0.55215   0.55539   86.909
 3474.00    0.52757   0.53230  213.677
 3475.00    0.50762   0.51456   -1.000
 3476.00    0.49779   0.51149   -1.000
 3477.00    0.51379   0.52447   -1.000
 3478.00    0.54350   0.54530  667.687
 3479.00    0.56456   0.56404  667.687
 3480.00    0.58678   0.57415   -1.000
 3481.00    0.58714   0.57452   -1.000
 3482.00    0.57499   0.56828   -1.000
 3483.00    0.57125   0.56157   -1.000
 3484.00    0.57112   0.56198   -1.000
 3485.00    0.58250   0.57284   -1.000
 3486.00    0.59595   0.58765   -1.000
 3487.00    0.59946   0.59216   -1.000
 3488.00    0.59489   0.58056   -1.000
 3489.00    0.57466   0.56013   -1.000
 3490.00    0.55047   0.54469   -1.000
 3491.00    0.54223   0.54210  667.687
 3492.00    0.54594   0.54703  667.687
 3493.00    0.55556   0.54952   -1.000
 3494.00    0.56078   0.54360   -1.000
 3495.00    0.55200   0.53276   -1.000
 3496.00    0.53812   0.52745   -1.000
 3497.00    0.53815   0.53695  667.687
 3498.00    0.55821   0.55855  660.188
 3499.00    0.57969   0.57757  654.471
 3500.00    0.59740   0.58626   -1.000
 3501.00    0.59934   0.58864   -1.000
 3502.00    0.60645   0.59129   -1.000
 3503.00    0.61523   0.59370   -1.000
 3504.00    0.61067   0.58997   -1.000
 3505.00    0.60322   0.58141   -1.000
 3506.00    0.59127   0.57555   -1.000
 3507.00    0.58884   0.57486   -1.000
 3508.00    0.58994   0.57509   -1.000
 3509.00    0.58772   0.57096   -1.000
 3510.00    0.58061   0.56253   -1.000
 3511.00    0.57255   0.55351   -1.000
 3512.00    0.56402   0.54550   -1.000
 3513.00    0.56185   0.53953   -1.000
 3514.00    0.55703   0.54161   -1.000
 3515.00    0.56556   0.55579   -1.000
 3516.00    0.57996   0.57791  667.687
 3517.00    0.60227   0.59736   -1.000
 3518.00    0.60583   0.60367  667.687
 3519.00    0.59324   0.59499  667.687
 3520.00    0.57630   0.57680  112.966
 3521.00    0.56383   0.55789   86.459
 3522.00    0.55431   0.54129   86.904
 3523.00    0.53868   0.52467   -1.000
 3524.00    0.52480   0.50975   -1.000
 3525.00    0.51611   0.50340   -1.000
 3526.00    0.51349   0.51283  667.687
 3527.00    0.52813   0.53677   -1.000
 3528.00    0.55792   0.56409   -1.000
 3529.00    0.58483   0.58331  667.687
 3530.00    0.59101   0.58983  667.687
 3531.00    0.58732   0.58859  667.687
 3532.00    0.58737   0.58748  667.687
 3533.00    0.59041   0.59093  667.687
 3534.00    0.58881   0.59718   -1.000
 3535.00    0.59059   0.60265   -1.000
 3536.00    0.59556   0.60709   -1.000
 3537.00    0.59534   0.61267   -1.000
 3538.00    0.60375   0.61974   -1.000
 3539.00    0.60936   0.62450   -1.000
 3540.00    0.60251   0.62326   -1.000
 3541.00    0.60218   0.61956   -1.000
 3542.00    0.59538   0.61989   -1.000
 3543.00    0.60260   0.62479   -1.000
 3544.00    0.60579   0.63007   -1.000
 3545.00    0.60566   0.63075   -1.000
 3546.00    0.60428   0.62756   -1.000
 3547.00    0.59835   0.62524   -1.000
 3548.00    0.59771   0.62659   -1.000
 3549.00    0.59934   0.63015   -1.000
 3550.00    0.60037   0.63131   -1.000
 3551.00    0.59300   0.62767   -1.000
 3552.00    0.57752   0.61989   -1.000
 3553.00    0.57293   0.61241   -1.000
 3554.00    0.56874   0.60898   -1.000
 3555.00    0.57600   0.60918   -1.000
 3556.00    0.57950   0.61030   -1.000
 3557.00    0.57531   0.60899   -1.000
 3558.00    0.57993   0.60510   -1.000
 3559.00    0.57734   0.60281   -1.000
 3560.00    0.57706   0.60702   -1.000
 3561.00    0.58374   0.61692   -1.000
 3562.00    0.58898   0.62273   87.788
 3563.00    0.58389   0.61231   87.829
 3564.00    0.56633   0.58328   87.208
 3565.00    0.53502   0.55229   89.391
 3566.00    0.51851   0.53472   91.375
 3567.00    0.51925   0.52941   89.501
 3568.00    0.51407   0.52568   85.734
 3569.00    0.50721   0.51667  272.587
 3570.00    0.49733   0.50871   -1.000
 3571.00    0.50111   0.51071   -1.000
 3572.00    0.51300   0.52056   -1.000
 3573.00    0.52773   0.53047  667.687
 3574.00    0.53536   0.53581  667.687
 3575.00    0.53790   0.53834  110.172
 3576.00    0.54438   0.54096   93.383
 3577.00    0.55577   0.54165   99.044
 3578.00    0.54919   0.53480  100.710
 3579.00    0.53287   0.51796  101.165
 3580.00    0.51367   0.49810  103.269
 3581.00    0.49016   0.48487  106.523
 3582.00    0.48199   0.48070  108.458
 3583.00    0.48371   0.47989  104.359
 3584.00    0.47538   0.47386   98.825
 3585.00    0.46057   0.46301   93.946
 3586.00    0.45198   0.45655   86.254
 3587.00    0.46146   0.46085  284.165
 3588.00    0.48240   0.47716   -1.000
 3589.00    0.49971   0.50225  667.687
 3590.00    0.52099   0.53065   -1.000
 3591.00    0.55192   0.55469  667.687
 3592.00    0.56717   0.56907  667.687
 3593.00    0.56509   0.57487   -1.000
 3594.00    0.57009   0.57925   -1.000
 3595.00    0.58237   0.58857   -1.000
 3596.00    0.58843   0.60221   -1.000
 3597.00    0.60229   0.61602   -1.000
 3598.00    0.61676   0.62667   -1.000
 3599.00    0.62085   0.63053   -1.000
 3600.00    0.61701   0.62390   -1.000
 3601.00    0.59935   0.60578   -1.000
 3602.00    0.58224   0.58155  667.687
 3603.00    0.56880   0.56102   -1.000
 3604.00    0.55829   0.55153   -1.000
 3605.00    0.55510   0.55277  667.687
 3606.00    0.55993   0.55574   -1.000
 3607.00    0.55728   0.55223   -1.000
 3608.00    0.54385   0.54224  667.687
 3609.00    0.53816   0.53487  667.687
 3610.00    0.54530   0.53797   -1.000
 3611.00    0.55538   0.54754   -1.000
 3612.00    0.56064   0.55729  667.687
 3613.00    0.56022   0.56682   -1.000
 3614.00    0.56556   0.57793   -1.000
 3615.00    0.58540   0.58702  100.338
 3616.00    0.58961   0.58316  311.793
 3617.00    0.57346   0.56231   -1.000
 3618.00    0.54272   0.54050  667.687
 3619.00    0.52677   0.53522   -1.000
 3620.00    0.54374   0.54936   -1.000
 3621.00    0.57304   0.57123  632.964
 3622.00    0.59495   0.58918   -1.000
 3623.00    0.60761   0.60159   -1.000
 3624.00    0.61392   0.61490  602.948
 3625.00    0.62068   0.63463   -1.000
 3626.00    0.63976   0.65654   -1.000
 3627.00    0.65015   0.66982   -1.000
 3628.00    0.64299   0.66324   -1.000
 3629.00    0.62094   0.63327   -1.000
 3630.00    0.58433   0.59215   -1.000
 3631.00    0.54972   0.55932   -1.000
 3632.00    0.53855   0.54848   -1.000
 3633.00    0.55355   0.55709  665.012
 3634.00    0.56769   0.57309   -1.000
 3635.00    0.58208   0.58619  612.410
 3636.00    0.59461   0.59571  608.782
 3637.00    0.60355   0.60747  621.841
 3638.00    0.62443   0.62365  642.168
 3639.00    0.63415   0.63974   -1.000
 3640.00    0.63545   0.64619   -1.000
 3641.00    0.62203   0.63810   -1.000
 3642.00    0.60508   0.61900   -1.000
 3643.00    0.59210   0.59792   -1.000
 3644.00    0.58849   0.58295   -1.000
 3645.00    0.57005   0.57514   -1.000
 3646.00    0.57098   0.57067  667.687
 3647.00    0.58001   0.56807   -1.000
 3648.00    0.57181   0.56901  630.594
 3649.00    0.57697   0.57570  613.653
 3650.00    0.58617   0.58893  604.282
 3651.00    0.59923   0.60727   -1.000
 3652.00    0.61472   0.62614   -1.000
 3653.00    0.62705   0.64147   -1.000
 3654.00    0.63544   0.65167   -1.000
 3655.00    0.64307   0.65941   -1.000
 3656.00    0.64844   0.66801   -1.000
 3657.00    0.65633   0.67609   -1.000
 3658.00    0.66019   0.68063   -1.000
 3659.00    0.66060   0.68016   -1.000
 3660.00    0.65270   0.67507   -1.000
 3661.00    0.64458   0.66672   -1.000
 3662.00    0.64484   0.65745   -1.000
 3663.00    0.63842   0.64994   -1.000
 3664.00    0.63156   0.64679   -1.000
 3665.00    0.64054   0.64701   -1.000
 3666.00    0.64547   0.64602  630.322
 3667.00    0.63902   0.64025  608.573
 3668.00    0.62674   0.63126   -1.000
 3669.00    0.62233   0.62779   -1.000
 3670.00    0.61789   0.63475   -1.000
 3671.00    0.62654   0.64835   -1.000
 3672.00    0.63847   0.66006   -1.000
 3673.00    0.64525   0.66362   -1.000
 3674.00    0.64498   0.65922   -1.000
 3675.00    0.64959   0.64861  664.582
 3676.00    0.64001   0.63377   -1.000
 3677.00    0.62191   0.61773  648.659
 3678.00    0.60434   0.60409  629.981
 3679.00    0.59400   0.59658  622.922
 3680.00    0.59854   0.59653  636.131
 3681.00    0.60903   0.60258   -1.000
 3682.00    0.62151   0.61059   -1.000
 3683.00    0.63298   0.61418   -1.000
 3684.00    0.61946   0.60838   -1.000
 3685.00    0.60409   0.59366   -1.000
 3686.00    0.58711   0.57953   -1.000
 3687.00    0.58364   0.57650   -1.000
 3688.00    0.60108   0.58914   -1.000
 3689.00    0.62576   0.61264   -1.000
 3690.00    0.64615   0.63676   -1.000
 3691.00    0.65133   0.65131  604.521
 3692.00    0.65147   0.65435  599.322
 3693.00    0.64959   0.65148  592.129
 3694.00    0.64963   0.64707  573.560
 3695.00    0.65475   0.64281   -1.000
 3696.00    0.65007   0.64168   -1.000
 3697.00    0.64180   0.64928   -1.000
 3698.00    0.65935   0.66744   -1.000
 3699.00    0.68611   0.68844  638.107
 3700.00    0.70232   0.69771   -1.000
 3701.00    0.68815   0.68491  667.687
 3702.00    0.65660   0.64984   -1.000
 3703.00    0.62323   0.60543   -1.000
 3704.00    0.58404   0.56788   -1.000
 3705.00    0.55825   0.54985   -1.000
 3706.00    0.56970   0.55169   -1.000
 3707.00    0.58771   0.56335   -1.000
 3708.00    0.59656   0.57465   -1.000
 3709.00    0.60358   0.58135   -1.000
 3710.00    0.60677   0.58670   -1.000
 3711.00    0.61372   0.59890   -1.000
 3712.00    0.62846   0.62362  558.831
 3713.00    0.66155   0.65569   -1.000
 3714.00    0.69856   0.68512   -1.000
 3715.00    0.71235   0.70285   -1.000
 3716.00    0.71385   0.70353   -1.000
 3717.00    0.71005   0.68408   91.749
 3718.00    0.66465   0.64344   -1.000
 3719.00    0.59419   0.58681   -1.000
 3720.00    0.54429   0.53395   -1.000
 3721.00    0.51285   0.50637   -1.000
 3722.00    0.52477   0.51510   -1.000
 3723.00    0.57388   0.55442   -1.000
 3724.00    0.63322   0.60462   -1.000
 3725.00    0.67616   0.64189   -1.000
 3726.00    0.68751   0.65780   -1.000
 3727.00    0.67194   0.66342   -1.000
 3728.00    0.67669   0.66846   -1.000
 3729.00    0.68702   0.66972   88.941
 3730.00    0.67642   0.65554   93.519
 3731.00    0.64432   0.61726   97.462
 3732.00    0.60024   0.56059   -1.000
 3733.00    0.53186   0.50213   84.393
 3734.00    0.48016   0.46154   -1.000
 3735.00    0.46807   0.45172   -1.000
 3736.00    0.49275   0.47521   -1.000
 3737.00    0.54045   0.52375   -1.000
 3738.00    0.61144   0.58444   -1.000
 3739.00    0.65875   0.64039   -1.000
 3740.00    0.69152   0.67724   -1.000
 3741.00    0.70234   0.68891   -1.000
 3742.00    0.69466   0.67865   -1.000
 3743.00    0.66680   0.65382   89.002
 3744.00    0.63749   0.62297   90.476
 3745.00    0.60958   0.59076   91.639
 3746.00    0.58279   0.55646   -1.000
 3747.00    0.55032   0.51798   -1.000
 3748.00    0.50930   0.48046   -1.000
 3749.00    0.47462   0.46167   -1.000
 3750.00    0.48872   0.47622   -1.000
 3751.00    0.55110   0.52268   -1.000
 3752.00    0.62641   0.58585   -1.000
 3753.00    0.68193   0.64818   -1.000
 3754.00    0.72152   0.69536   -1.000
 3755.00    0.75047   0.71665   -1.000
 3756.00    0.73424   0.70723   -1.000
 3757.00    0.68931   0.67748   -1.000
 3758.00    0.65014   0.64853  650.022
 3759.00    0.64616   0.63667   -1.000
 3760.00    0.66122   0.64290   -1.000
 3761.00    0.68760   0.65625   -1.000
 3762.00    0.69653   0.66825   -1.000
 3763.00    0.70174   0.67518   -1.000
 3764.00    0.69953   0.67372   -1.000
 3765.00    0.69859   0.66138   -1.000
 3766.00    0.68214   0.63959   -1.000
 3767.00    0.64926   0.61224   -1.000
 3768.00    0.63268   0.58370   -1.000
 3769.00    0.61451   0.55991   -1.000
 3770.00    0.59301   0.55028   -1.000
 3771.00    0.60324   0.56291   -1.000
 3772.00    0.64593   0.59566   -1.000
 3773.00    0.68851   0.63419   -1.000
 3774.00    0.71114   0.66659   -1.000
 3775.00    0.72363   0.69109   -1.000
 3776.00    0.73306   0.71218   -1.000
 3777.00    0.74989   0.73457   -1.000
 3778.00    0.75870   0.75936  531.589
 3779.00    0.79311   0.78364   -1.000
 3780.00    0.81459   0.80302   -1.000
 3781.00    0.82730   0.81530   -1.000
 3782.00    0.82683   0.82071   -1.000
 3783.00    0.82462   0.81841   -1.000
 3784.00    0.81407   0.80506   -1.000
 3785.00    0.79220   0.77934   -1.000
 3786.00    0.75709   0.74788   -1.000
 3787.00    0.73177   0.72114   -1.000
 3788.00    0.71720   0.70546   -1.000
 3789.00    0.71487   0.69999   -1.000
 3790.00    0.72845   0.69887   -1.000
 3791.00    0.72947   0.69399   -1.000
 3792.00    0.71117   0.67836   -1.000
 3793.00    0.68284   0.65063   -1.000
 3794.00    0.64948   0.61384   -1.000
 3795.00    0.61884   0.57253   -1.000
 3796.00    0.58109   0.53160   -1.000
 3797.00    0.53106   0.50008   -1.000
 3798.00    0.51602   0.49311   -1.000
 3799.00    0.55225   0.52081   -1.000
 3800.00    0.61339   0.57492   -1.000
 3801.00    0.67216   0.63795   -1.000
 3802.00    0.71897   0.69259   -1.000
 3803.00    0.75124   0.72946   -1.000
 3804.00    0.76532   0.74656   -1.000
 3805.00    0.76795   0.74770   -1.000
 3806.00    0.76005   0.74360   -1.000
 3807.00    0.75702   0.74919   -1.000
 3808.00    0.77111   0.76946  634.310
 3809.00    0.79468   0.79499  667.687
 3810.00    0.81280   0.80981  667.687
 3811.00    0.80597   0.80270  667.687
 3812.00    0.77533   0.77504  667.687
 3813.00    0.74319   0.73865  667.687
 3814.00    0.71841   0.71027   -1.000
 3815.00    0.70435   0.70111  667.687
 3816.00    0.72017   0.70946   -1.000
 3817.00    0.74629   0.71978   -1.000
 3818.00    0.74875   0.71759   -1.000
 3819.00    0.72126   0.70167   -1.000
 3820.00    0.68137   0.68433  642.392
 3821.00    0.68985   0.67787   88.142
 3822.00    0.71609   0.67719   -1.000
 3823.00    0.71304   0.66855   -1.000
 3824.00    0.67454   0.64744   87.593
 3825.00    0.64702   0.62225   86.250
 3826.00    0.63174   0.60434   87.505
 3827.00    0.63359   0.59605   -1.000
 3828.00    0.63432   0.59189   -1.000
 3829.00    0.63825   0.58372   -1.000
 3830.00    0.62636   0.56567   -1.000
 3831.00    0.59572   0.53558   -1.000
 3832.00    0.54565   0.49682   -1.000
 3833.00    0.50769   0.45812   -1.000
 3834.00    0.48190   0.43122   -1.000
 3835.00    0.47270   0.42333   -1.000
 3836.00    0.49065   0.43285   -1.000
 3837.00    0.50774   0.45300   -1.000
 3838.00    0.53248   0.47841   -1.000
 3839.00    0.55846   0.51014   -1.000
 3840.00    0.59862   0.55133   -1.000
 3841.00    0.63575   0.59990   -1.000
 3842.00    0.67927   0.64856   -1.000
 3843.00    0.72214   0.68872   -1.000
 3844.00    0.74395   0.71657   -1.000
 3845.00    0.75328   0.73553   -1.000
 3846.00    0.75470   0.75046  667.687
 3847.00    0.75905   0.76146  667.687
 3848.00    0.75660   0.76533   -1.000
 3849.00    0.74193   0.76494   -1.000
 3850.00    0.73680   0.76714   -1.000
 3851.00    0.74913   0.77505   -1.000
 3852.00    0.76377   0.78469   -1.000
 3853.00    0.77267   0.78767   -1.000
 3854.00    0.77101   0.78087   83.754
 3855.00    0.75802   0.76837   88.583
 3856.00    0.75569   0.75317   92.532
 3857.00    0.74804   0.73644   -1.000
 3858.00    0.72116   0.72164  667.687
 3859.00    0.69929   0.71633   -1.000
 3860.00    0.70068   0.72787   -1.000
 3861.00    0.73311   0.75316   -1.000
 3862.00    0.77334   0.78023   -1.000
 3863.00    0.80354   0.79599   -1.000
 3864.00    0.80060   0.79833  667.687
 3865.00    0.79491   0.79465  667.687
 3866.00    0.79225   0.79122  478.415
 3867.00    0.78590   0.78947   91.358
 3868.00    0.77791   0.78571   -1.000
 3869.00    0.76838   0.77369   -1.000
 3870.00    0.74298   0.75186   -1.000
 3871.00    0.71743   0.72697   -1.000
 3872.00    0.70167   0.71261   -1.000
 3873.00    0.70726   0.71666   -1.000
 3874.00    0.74178   0.73506   -1.000
 3875.00    0.76802   0.74995   -1.000
 3876.00    0.76250   0.74687   -1.000
 3877.00    0.72433   0.72855  667.687
 3878.00    0.69257   0.70955   -1.000
 3879.00    0.69376   0.69999   -1.000
 3880.00    0.69931   0.69694  667.687
 3881.00    0.68870   0.69266  667.687
 3882.00    0.67963   0.68351  667.687
 3883.00    0.68466   0.66849   -1.000
 3884.00    0.68588   0.64503   -1.000
 3885.00    0.66178   0.60936   -1.000
 3886.00    0.61503   0.56423   -1.000
 3887.00    0.57267   0.52303   -1.000
 3888.00    0.54418   0.50046   -1.000
 3889.00    0.54618   0.50705   -1.000
 3890.00    0.58967   0.54143   -1.000
 3891.00    0.65362   0.59048   -1.000
 3892.00    0.70216   0.63500   -1.000
 3893.00    0.71820   0.66477   -1.000
 3894.00    0.72158   0.68347   -1.000
 3895.00    0.73560   0.70020   -1.000
 3896.00    0.74822   0.71840   -1.000
 3897.00    0.76257   0.73367   -1.000
 3898.00    0.77040   0.74363   -1.000
 3899.00    0.76652   0.75238   -1.000
 3900.00    0.77647   0.76355   -1.000
 3901.00    0.79749   0.77409   -1.000
 3902.00    0.80366   0.77767   -1.000
 3903.00    0.79842   0.77139   -1.000
 3904.00    0.78588   0.76075   -1.000
 3905.00    0.77070   0.75642   -1.000
 3906.00    0.76450   0.76641  515.799
 3907.00    0.79475   0.79106  511.094
 3908.00    0.83419   0.82262   -1.000
 3909.00    0.85232   0.84937  516.156
 3910.00    0.86490   0.86570  527.235
 3911.00    0.87038   0.87181  538.966
 3912.00    0.86577   0.86925  545.713
 3913.00    0.85511   0.86070   -1.000
 3914.00    0.84159   0.85013   -1.000
 3915.00    0.83524   0.84051   -1.000
 3916.00    0.82525   0.83251   -1.000
 3917.00    0.81687   0.82388   -1.000
 3918.00    0.80855   0.81236  627.077
 3919.00    0.79484   0.79903  617.638
 3920.00    0.78217   0.78830   -1.000
 3921.00    0.77894   0.78532   -1.000
 3922.00    0.78013   0.78969   -1.000
 3923.00    0.79020   0.79406  385.145
 3924.00    0.79162   0.78871   95.266
 3925.00    0.77413   0.76797  111.702
 3926.00    0.72924   0.73203  130.892
 3927.00    0.67256   0.68345  154.747
 3928.00    0.60752   0.62592   -1.000
 3929.00    0.53202   0.56109   -1.000
 3930.00    0.46099   0.48986   -1.000
 3931.00    0.40423   0.41757  155.189
 3932.00    0.34357   0.35510  128.047
 3933.00    0.30165   0.31981  105.555
 3934.00    0.30661   0.32494  105.840
 3935.00    0.35632   0.36993   -1.000
 3936.00    0.43034   0.44039   -1.000
 3937.00    0.51683   0.51946  667.687
 3938.00    0.59546   0.59355  667.687
 3939.00    0.65781   0.65474  667.687
 3940.00    0.69668   0.69845  667.117
 3941.00    0.71838   0.72386  609.227
 3942.00    0.73261   0.73584  579.060
 3943.00    0.73635   0.74297   -1.000
 3944.00    0.75376   0.75297  566.527
 3945.00    0.78967   0.76806   -1.000
 3946.00    0.81422   0.78322   -1.000
 3947.00    0.81245   0.79315   -1.000
 3948.00    0.79990   0.79939  540.090
 3949.00    0.81229   0.80532   -1.000
 3950.00    0.82839   0.81014   -1.000
 3951.00    0.83269   0.81274   -1.000
 3952.00    0.82514   0.81524   -1.000
 3953.00    0.83206   0.81890   -1.000
 3954.00    0.84398   0.82000   -1.000
 3955.00    0.83938   0.81373   -1.000
 3956.00    0.81532   0.80301   -1.000
 3957.00    0.80311   0.79512   -1.000
 3958.00    0.81099   0.78868   -1.000
 3959.00    0.81053   0.77311   -1.000
 3960.00    0.77876   0.74116   -1.000
 3961.00    0.72026   0.69651  106.772
 3962.00    0.66767   0.65010  131.719
 3963.00    0.62181   0.60550  158.446
 3964.00    0.56560   0.55579  169.212
 3965.00    0.49338   0.49216  152.876
 3966.00    0.40979   0.41518  125.718
 3967.00    0.33032   0.34275  103.670
 3968.00    0.27877   0.29747  108.163
 3969.00    0.27595   0.29363   -1.000
 3970.00    0.32538   0.32904   -1.000
 3971.00    0.40517   0.39063   -1.000
 3972.00    0.49252   0.46261   -1.000
 3973.00    0.57287   0.53482   -1.000
 3974.00    0.64261   0.60159   -1.000
 3975.00    0.70191   0.66049   -1.000
 3976.00    0.74685   0.71164   -1.000
 3977.00    0.78310   0.75609   -1.000
 3978.00    0.82271   0.79542   -1.000
 3979.00    0.85533   0.82599   -1.000
 3980.00    0.86911   0.84311   -1.000
 3981.00    0.86663   0.84750   -1.000
 3982.00    0.86227   0.84761   -1.000
 3983.00    0.86814   0.85228   -1.000
 3984.00    0.88373   0.86295   -1.000
 3985.00    0.90020   0.87583   -1.000
 3986.00    0.91150   0.88849   -1.000
 3987.00    0.92218   0.90095   -1.000
 3988.00    0.93294   0.91316   -1.000
 3989.00    0.93380   0.92413   -1.000
 3990.00    0.93705   0.93427  440.627
 3991.00    0.95043   0.94494  450.413
 3992.00    0.96383   0.95411   -1.000
 3993.00    0.96862   0.95644   -1.000
 3994.00    0.96038   0.94924   -1.000
 3995.00    0.94116   0.93510  425.704
 3996.00    0.91965   0.92135  413.129
 3997.00    0.90945   0.91649   -1.000
 3998.00    0.92036   0.92471  404.167
 3999.00    0.94494   0.94257  416.829
 4000.00    0.97165   0.96255   -1.000
 4001.00    0.98859   0.97555   -1.000
 4002.00    0.99859   0.97475   -1.000
 4003.00    0.98509   0.95851   -1.000
 4004.00    0.95140   0.93308   -1.000
 4005.00    0.92566   0.91244   -1.000
 4006.00    0.92533   0.91185   -1.000
 4007.00    0.95347   0.93193   -1.000
 4008.00    0.98412   0.95925   -1.000
 4009.00    0.99132   0.98057   -1.000
 4010.00    0.99027   0.99115  403.483
 4011.00    0.99778   0.99433  399.882
 4012.00    0.99777   0.99547  403.951
 4013.00    0.99325   0.99789  407.303
 4014.00    1.00100   1.00103  404.074
 4015.00    1.00504   1.00282  399.458
 4016.00    1.00595   1.00371  401.816
 4017.00    1.00507   1.00620  406.995
 4018.00    1.00033   1.01205   -1.000
 4019.00    1.00955   1.01895   -1.000
 4020.00    1.01382   1.02271   -1.000
 4021.00    1.00627   1.02091   -1.000
 4022.00    1.00040   1.01469   -1.000
 4023.00    0.99188   1.00738   -1.000
 4024.00    0.99200   1.00369   -1.000
 4025.00    1.00031   1.00821   -1.000
 4026.00    1.01681   1.01978  434.309
 4027.00    1.02922   1.02859  448.985
 4028.00    1.02617   1.02208  451.140
 4029.00    0.99748   0.99773  442.699
 4030.00    0.95988   0.96547  425.921
 4031.00    0.94060   0.93889  404.625
 4032.00    0.93410   0.92789  386.184
 4033.00    0.93719   0.93390  375.948
 4034.00    0.95576   0.95407  377.302
 4035.00    0.98445   0.98405  385.873
 4036.00    1.01712   1.01803  393.808
 4037.00    1.03791   1.04618   -1.000
 4038.00    1.04238   1.05887   -1.000
 4039.00    1.03498   1.05517   -1.000
 4040.00    1.01937   1.04412   -1.000
 4041.00    1.00736   1.03217   -1.000
 4042.00    1.00301   1.01553   -1.000
 4043.00    0.98706   0.98652  419.776
 4044.00    0.93817   0.94893   -1.000
 4045.00    0.89486   0.92452   -1.000
 4046.00    0.90481   0.92978   -1.000
 4047.00    0.95501   0.96079  391.938
 4048.00    1.00000   0.99951  402.807
 4049.00    1.01645   1.02794   -1.000
 4050.00    1.01706   1.03927   -1.000
 4051.00    1.01965   1.03542   -1.000
 4052.00    1.01476   1.02141   -1.000
 4053.00    0.99896   1.00439  425.648
 4054.00    0.98950   0.99162  417.261
 4055.00    0.98717   0.98411  403.837
 4056.00    0.98426   0.97971  400.297
 4057.00    0.97864   0.98020  413.902
 4058.00    0.98449   0.98878  444.621
 4059.00    0.99751   1.00277  464.234
 4060.00    1.01893   1.00964   -1.000
 4061.00    1.00853   0.99751   -1.000
 4062.00    0.96145   0.96997   -1.000
 4063.00    0.92465   0.94210   -1.000
 4064.00    0.92564   0.92838  398.320
 4065.00    0.95352   0.93082   -1.000
 4066.00    0.96151   0.94278   -1.000
 4067.00    0.96874   0.95827   -1.000
 4068.00    0.99419   0.97164   -1.000
 4069.00    1.00732   0.97432   -1.000
 4070.00    0.99105   0.96341   -1.000
 4071.00    0.96833   0.94821   -1.000
 4072.00    0.96123   0.94123   -1.000
 4073.00    0.97338   0.94345   -1.000
 4074.00    0.97658   0.94149   -1.000
 4075.00    0.95360   0.92498   -1.000
 4076.00    0.91414   0.90014   -1.000
 4077.00    0.88218   0.88349  391.516
 4078.00    0.88798   0.88881  400.739
 4079.00    0.92858   0.91501   -1.000
 4080.00    0.96800   0.94774   -1.000
 4081.00    0.99390   0.96828   -1.000
 4082.00    0.99455   0.96909   -1.000
 4083.00    0.97034   0.95716   -1.000
 4084.00    0.95412   0.94697  368.901
 4085.00    0.95287   0.94949  372.825
 4086.00    0.97212   0.96522  380.496
 4087.00    0.99924   0.98586   -1.000
 4088.00    1.01745   0.99967   -1.000
 4089.00    1.01915   1.00014   -1.000
 4090.00    1.00518   0.98919   -1.000
 4091.00    0.99207   0.97438   -1.000
 4092.00    0.98345   0.96049   -1.000
 4093.00    0.96946   0.94550   -1.000
 4094.00    0.95998   0.92499   -1.000
 4095.00    0.93534   0.89752   -1.000
 4096.00    0.90223   0.86602   -1.000
 4097.00    0.87683   0.83118   -1.000
 4098.00    0.85536   0.78898   -1.000
 4099.00    0.80670   0.73657   -1.000
 4100.00    0.72948   0.68168   -1.000
 4101.00    0.66800   0.64497   -1.000
 4102.00    0.66057   0.64549   -1.000
 4103.00    0.72029   0.68429   -1.000
 4104.00    0.79650   0.74457   -1.000
 4105.00    0.85760   0.80264   -1.000
 4106.00    0.89177   0.84511   -1.000
 4107.00    0.90716   0.87150   -1.000
 4108.00    0.91696   0.88669   -1.000
 4109.00    0.92111   0.89667   -1.000
 4110.00    0.92743   0.90687   -1.000
 4111.00    0.93752   0.92012   -1.000
 4112.00    0.95090   0.93689   -1.000
 4113.00    0.96543   0.95617   -1.000
 4114.00    0.98113   0.97545  422.029
 4115.00    0.99035   0.98907  423.060
 4116.00    0.99792   0.99241  417.840
 4117.00    0.98265   0.98583  415.242
 4118.00    0.95530   0.97535   -1.000
 4119.00    0.94622   0.96767   -1.000
 4120.00    0.95685   0.96582   -1.000
 4121.00    0.96521   0.96857  404.384
 4122.00    0.96381   0.97380   -1.000
 4123.00    0.96899   0.98110   -1.000
 4124.00    0.99070   0.98899  421.071
 4125.00    0.99827   0.99285  424.335
 4126.00    0.99168   0.98926  432.733
 4127.00    0.97914   0.98112  446.680
 4128.00    0.97125   0.97383  456.027
 4129.00    0.96660   0.96852  450.740
 4130.00    0.96406   0.96067  432.400
 4131.00    0.95232   0.94811  413.269
 4132.00    0.93349   0.93749  402.543
 4133.00    0.92549   0.93865   -1.000
 4134.00    0.94440   0.95568   -1.000
 4135.00    0.96783   0.98311   -1.000
 4136.00    0.99360   1.01179   -1.000
 4137.00    1.01537   1.03483   -1.000
 4138.00    1.02261   1.05016   -1.000
 4139.00    1.02610   1.05495   -1.000
 4140.00    1.02720   1.04381   -1.000
 4141.00    0.99789   1.01635   -1.000
 4142.00    0.95106   0.98339   -1.000
 4143.00    0.91880   0.96093   -1.000
 4144.00    0.92323   0.96098   -1.000
 4145.00    0.95748   0.97986   -1.000
 4146.00    0.99022   1.00143   -1.000
 4147.00    1.00242   1.01326   -1.000
 4148.00    0.99450   1.01450   -1.000
 4149.00    0.98039   1.01245   -1.000
 4150.00    0.97600   1.01210   -1.000
 4151.00    0.97629   1.01140   -1.000
 4152.00    0.97661   1.00595   -1.000
 4153.00    0.97201   0.99543   -1.000
 4154.00    0.96282   0.98534   -1.000
 4155.00    0.96779   0.98249   -1.000
 4156.00    0.97536   0.98941   -1.000
 4157.00    0.96587   1.00312   -1.000
 4158.00    0.96770   1.01856   -1.000
 4159.00    0.98900   1.03128   -1.000
 4160.00    1.00920   1.03981   -1.000
 4161.00    1.01523   1.04625   -1.000
 4162.00    1.01815   1.05268   -1.000
 4163.00    1.01982   1.05813   -1.000
 4164.00    1.01340   1.05948   -1.000
 4165.00    1.01026   1.05448   -1.000
 4166.00    1.00196   1.04527   -1.000
 4167.00    0.99011   1.03638   -1.000
 4168.00    0.98716   1.02919   -1.000
 4169.00    0.99345   1.01807   -1.000
 4170.00    0.98513   0.99605   -1.000
 4171.00    0.95036   0.96528   -1.000
 4172.00    0.91568   0.93802   -1.000
 4173.00    0.90520   0.92873   -1.000
 4174.00    0.91814   0.93937   -1.000
 4175.00    0.93473   0.95813   -1.000
 4176.00    0.93984   0.97232   -1.000
 4177.00    0.94200   0.98016   -1.000
 4178.00    0.94353   0.98752   -1.000
 4179.00    0.95736   0.99672   -1.000
 4180.00    0.97094   1.00322   -1.000
 4181.00    0.97594   1.00363   -1.000
 4182.00    0.97321   1.00164   -1.000
 4183.00    0.97301   1.00335   -1.000
 4184.00    0.98529   1.00795   -1.000
 4185.00    0.98699   1.00870   -1.000
 4186.00    0.97064   1.00318   -1.000
 4187.00    0.95513   0.99642   -1.000
 4188.00    0.95428   0.99545   -1.000
 4189.00    0.96423   1.00170   -1.000
 4190.00    0.97187   1.01149   -1.000
 4191.00    0.97762   1.02236   -1.000
 4192.00    0.98907   1.03230   -1.000
 4193.00    1.00101   1.03576   -1.000
 4194.00    0.99975   1.02743   -1.000
 4195.00    0.97795   1.00759   -1.000
 4196.00    0.94982   0.98225   -1.000
 4197.00    0.93313   0.95957   -1.000
 4198.00    0.92698   0.94481   -1.000
 4199.00    0.92872   0.93942   -1.000
 4200.00    0.93518   0.94170   -1.000
 4201.00    0.93865   0.94796   -1.000
 4202.00    0.94704   0.95577   -1.000
 4203.00    0.95188   0.96634   -1.000
 4204.00    0.95472   0.98115   -1.000
 4205.00    0.96339   0.99894   -1.000
 4206.00    0.97499   1.01670   -1.000
 4207.00    0.98785   1.03053   -1.000
 4208.00    0.99649   1.03795   -1.000
 4209.00    0.99721   1.04029   -1.000
 4210.00    0.99843   1.04191   -1.000
 4211.00    0.99775   1.04482   -1.000
 4212.00    0.99492   1.04465   -1.000
 4213.00    0.98763   1.03502   -1.000
 4214.00    0.96770   1.01651   -1.000
 4215.00    0.94394   0.99900   -1.000
 4216.00    0.94381   0.99363   -1.000
 4217.00    0.97045   1.00423   -1.000
 4218.00    0.99859   1.02483   -1.000
 4219.00    1.01497   1.04384   -1.000
 4220.00    1.02353   1.05216   -1.000
 4221.00    1.02351   1.04494   -1.000
 4222.00    1.00469   1.01971   -1.000
 4223.00    0.97520   0.97697  496.439
 4224.00    0.93518   0.92453   -1.000
 4225.00    0.87599   0.87803  403.197
 4226.00    0.82402   0.85719   -1.000
 4227.00    0.82896   0.87370   -1.000
 4228.00    0.89596   0.92043   -1.000
 4229.00    0.96954   0.97175  411.770
 4230.00    1.00543   1.00534  418.403
 4231.00    1.00801   1.01448  427.351
 4232.00    0.99658   1.00598   -1.000
 4233.00    0.98093   0.99117   -1.000
 4234.00    0.96996   0.97822   -1.000
 4235.00    0.96026   0.96988   -1.000
 4236.00    0.95248   0.96657   -1.000
 4237.00    0.95526   0.96932   -1.000
 4238.00    0.96043   0.97867   -1.000
 4239.00    0.96907   0.99206   -1.000
 4240.00    0.98518   1.00569   -1.000
 4241.00    0.99822   1.01683   -1.000
 4242.00    1.00311   1.02516   -1.000
 4243.00    1.00651   1.03081   -1.000
 4244.00    1.01079   1.03168   -1.000
 4245.00    1.00359   1.02409   -1.000
 4246.00    0.97652   1.00738   -1.000
 4247.00    0.95183   0.98747   -1.000
 4248.00    0.94242   0.97315   -1.000
 4249.00    0.94005   0.96958   -1.000
 4250.00    0.94250   0.97609   -1.000
 4251.00    0.95544   0.98687   -1.000
 4252.00    0.97199   0.99450   -1.000
 4253.00    0.97177   0.99428   -1.000
 4254.00    0.96276   0.99066   -1.000
 4255.00    0.96693   0.99208   -1.000
 4256.00    0.98465   0.99778   -1.000
 4257.00    0.99727   0.99770  415.358
 4258.00    0.98358   0.98500  392.428
 4259.00    0.95425   0.96653   -1.000
 4260.00    0.93734   0.95844   -1.000
 4261.00    0.94297   0.97047   -1.000
 4262.00    0.96993   0.99814   -1.000
 4263.00    1.00608   1.02723   -1.000
 4264.00    1.02876   1.04637   -1.000
 4265.00    1.03317   1.05181   -1.000
 4266.00    1.02709   1.04582   -1.000
 4267.00    1.01121   1.03126   -1.000
 4268.00    0.99120   1.00897   -1.000
 4269.00    0.97097   0.97955   -1.000
 4270.00    0.94000   0.94727   -1.000
 4271.00    0.90411   0.92020   -1.000
 4272.00    0.88936   0.90673   -1.000
 4273.00    0.89827   0.90944   -1.000
 4274.00    0.91527   0.92568   -1.000
 4275.00    0.93811   0.95206   -1.000
 4276.00    0.97413   0.98321   -1.000
 4277.00    1.00859   1.00871  419.948
 4278.00    1.01322   1.01899  414.982
 4279.00    0.99040   1.01350   -1.000
 4280.00    0.96996   1.00171   -1.000
 4281.00    0.96473   0.99317   -1.000
 4282.00    0.96606   0.99006   -1.000
 4283.00    0.96911   0.98730   -1.000
 4284.00    0.96508   0.98038   -1.000
 4285.00    0.94910   0.96892   -1.000
 4286.00    0.93694   0.95307   -1.000
 4287.00    0.93049   0.93296  447.928
 4288.00    0.90528   0.91037  430.389
 4289.00    0.87417   0.89243   -1.000
 4290.00    0.86877   0.88919   -1.000
 4291.00    0.89180   0.90271   -1.000
 4292.00    0.92539   0.92263  461.372
 4293.00    0.94269   0.93569   -1.000
 4294.00    0.93965   0.93540  534.642
 4295.00    0.93204   0.92343   -1.000
 4296.00    0.92076   0.90253   -1.000
 4297.00    0.89387   0.87346   -1.000
 4298.00    0.85282   0.83880   -1.000
 4299.00    0.81351   0.80741  521.104
 4300.00    0.79332   0.78833  519.694
 4301.00    0.79899   0.78426   -1.000
 4302.00    0.81112   0.79117   -1.000
 4303.00    0.82210   0.80342   -1.000
 4304.00    0.83439   0.81496   -1.000
 4305.00    0.84031   0.81847   -1.000
 4306.00    0.83177   0.81032   -1.000
 4307.00    0.80476   0.79609   -1.000
 4308.00    0.78356   0.78743  467.206
 4309.00    0.79182   0.79335  443.584
 4310.00    0.81837   0.81267  409.727
 4311.00    0.84377   0.83715  376.559
 4312.00    0.86117   0.86250  357.207
 4313.00    0.87492   0.89243   -1.000
 4314.00    0.89932   0.93170   -1.000
 4315.00    0.94691   0.97932   -1.000
 4316.00    1.00118   1.02493   -1.000
 4317.00    1.03641   1.05613   -1.000
 4318.00    1.04821   1.06681   -1.000
 4319.00    1.04208   1.05995   -1.000
 4320.00    1.02604   1.04140   -1.000
 4321.00    1.01031   1.01332  465.838
 4322.00    0.98416   0.97543   -1.000
 4323.00    0.94361   0.93210   -1.000
 4324.00    0.89926   0.89603  370.985
 4325.00    0.87456   0.88256   -1.000
 4326.00    0.88781   0.89853   -1.000
 4327.00    0.93539   0.93516  364.280
 4328.00    0.98330   0.97192   -1.000
 4329.00    1.00084   0.99388  357.545
 4330.00    0.99539   1.00031  361.031
 4331.00    0.99513   0.99949  377.627
 4332.00    0.99694   0.99732  409.925
 4333.00    0.98970   0.99172  449.290
 4334.00    0.97904   0.97573  488.352
 4335.00    0.96674   0.94177   -1.000
 4336.00    0.92790   0.88624   -1.000
 4337.00    0.85962   0.81474   -1.000
 4338.00    0.78576   0.74385   -1.000
 4339.00    0.71639   0.69362   -1.000
 4340.00    0.67699   0.68008  383.827
 4341.00    0.70380   0.70665  375.863
 4342.00    0.77869   0.76061   -1.000
 4343.00    0.84918   0.82045   -1.000
 4344.00    0.89735   0.87234   -1.000
 4345.00    0.93431   0.91420   -1.000
 4346.00    0.95998   0.94834   -1.000
 4347.00    0.97669   0.97467  418.558
 4348.00    0.99292   0.98870  409.087
 4349.00    0.99646   0.98509   -1.000
 4350.00    0.96831   0.96553  376.486
 4351.00    0.92956   0.94358   -1.000
 4352.00    0.91855   0.93637   -1.000
 4353.00    0.94972   0.94999  370.105
 4354.00    0.98796   0.97665   -1.000
 4355.00    1.01042   1.00293  373.066
 4356.00    1.02435   1.02056  362.830
 4357.00    1.03005   1.02881  356.177
 4358.00    1.01831   1.03172   -1.000
 4359.00    1.00883   1.03538   -1.000
 4360.00    1.01602   1.04445   -1.000
 4361.00    1.03371   1.05823   -1.000
 4362.00    1.04596   1.07186   -1.000
 4363.00    1.05200   1.08207   -1.000
 4364.00    1.05628   1.08681   -1.000
 4365.00    1.05372   1.08302   -1.000
 4366.00    1.04010   1.07023   -1.000
 4367.00    1.02055   1.05350   -1.000
 4368.00    1.01095   1.03908   -1.000
 4369.00    1.01699   1.02953   -1.000
 4370.00    1.02242   1.02267  406.465
 4371.00    1.02826   1.01386   -1.000
 4372.00    1.02308   0.99953   -1.000
 4373.00    0.99685   0.98121   -1.000
 4374.00    0.97234   0.96719  364.487
 4375.00    0.96393   0.96766  369.739
 4376.00    0.98430   0.98516  383.621
 4377.00    1.02138   1.01027   -1.000
 4378.00    1.04281   1.02990   -1.000
 4379.00    1.04748   1.03437   -1.000
 4380.00    1.04080   1.01806   -1.000
 4381.00    1.01684   0.98021   -1.000
 4382.00    0.96607   0.92994   -1.000
 4383.00    0.90234   0.88716   -1.000
 4384.00    0.87806   0.87340  390.711
 4385.00    0.91144   0.89268   -1.000
 4386.00    0.96665   0.92785   -1.000
 4387.00    0.99985   0.95792   -1.000
 4388.00    1.00784   0.97398   -1.000
 4389.00    1.00420   0.98034   -1.000
 4390.00    1.00118   0.98493   -1.000
 4391.00    1.00870   0.99149   -1.000
 4392.00    1.02085   0.99767   -1.000
 4393.00    1.02158   0.99966   -1.000
 4394.00    1.00344   0.99974  372.433
 4395.00    0.99537   1.00468   -1.000
 4396.00    1.01532   1.01557  384.995
 4397.00    1.03892   1.02394   -1.000
 4398.00    1.03731   1.02157   -1.000
 4399.00    1.01041   1.01112  405.616
 4400.00    0.99278   1.00204   -1.000
 4401.00    1.00259   0.99912  406.280
 4402.00    1.02122   0.99729   -1.000
 4403.00    1.01546   0.98949   -1.000
 4404.00    0.98458   0.97777  381.954
 4405.00    0.97103   0.97065  365.799
 4406.00    0.98558   0.97263   -1.000
 4407.00    0.99796   0.98208   -1.000
 4408.00    0.99404   0.99716  351.413
 4409.00    1.00225   1.01877   -1.000
 4410.00    1.03444   1.04424   -1.000
 4411.00    1.06352   1.06330  387.226
 4412.00    1.07908   1.06574   -1.000
 4413.00    1.06850   1.04931   -1.000
 4414.00    1.03101   1.02161  349.701
 4415.00    0.99658   0.99774  348.364
 4416.00    0.98974   0.99194  355.781
 4417.00    1.00399   1.00785  363.269
 4418.00    1.02428   1.03645   -1.000
 4419.00    1.04971   1.06315   -1.000
 4420.00    1.06647   1.07612   -1.000
 4421.00    1.05380   1.07419   -1.000
 4422.00    1.04172   1.06585   -1.000
 4423.00    1.04273   1.05972   -1.000
 4424.00    1.04898   1.05767   -1.000
 4425.00    1.04626   1.05682   -1.000
 4426.00    1.03443   1.05588   -1.000
 4427.00    1.03475   1.05642   -1.000
 4428.00    1.04172   1.05878   -1.000
 4429.00    1.04262   1.06141   -1.000
 4430.00    1.04078   1.06273   -1.000
 4431.00    1.04907   1.06095   -1.000
 4432.00    1.05632   1.05369  359.185
 4433.00    1.03787   1.04026  342.045
 4434.00    1.00552   1.02638   -1.000
 4435.00    0.99194   1.02344   -1.000
 4436.00    1.01452   1.03818   -1.000
 4437.00    1.05547   1.06467   -1.000
 4438.00    1.08320   1.08801  381.971
 4439.00    1.09544   1.09497  371.336
 4440.00    1.08095   1.08169  355.681
 4441.00    1.04398   1.05578   -1.000
 4442.00    1.00913   1.03302   -1.000
 4443.00    0.99061   1.02741   -1.000
 4444.00    1.00021   1.04172   -1.000
 4445.00    1.03383   1.06607   -1.000
 4446.00    1.05878   1.08702   -1.000
 4447.00    1.06473   1.09765   -1.000
 4448.00    1.06905   1.09933   -1.000
 4449.00    1.06537   1.09661   -1.000
 4450.00    1.06008   1.09221   -1.000
 4451.00    1.05565   1.08496   -1.000
 4452.00    1.05283   1.07088   -1.000
 4453.00    1.04288   1.04824  377.744
 4454.00    1.01503   1.02295   -1.000
 4455.00    0.99656   1.00556   -1.000
 4456.00    1.00627   1.00172  386.557
 4457.00    1.02055   1.00716   -1.000
 4458.00    1.02221   1.01376   -1.000
 4459.00    1.01855   1.01769  357.822
 4460.00    1.01458   1.02057  355.509
 4461.00    1.00908   1.02602   -1.000
 4462.00    1.01259   1.03636   -1.000
 4463.00    1.02992   1.05026   -1.000
 4464.00    1.04978   1.06256   -1.000
 4465.00    1.05545   1.06830   -1.000
 4466.00    1.05069   1.06601   -1.000
 4467.00    1.04079   1.05828   -1.000
 4468.00    1.02608   1.05091   -1.000
 4469.00    1.01456   1.05073   -1.000
 4470.00    1.02603   1.06121   -1.000
 4471.00    1.05001   1.07996   -1.000
 4472.00    1.07388   1.10100   -1.000
 4473.00    1.09628   1.11850   -1.000
 4474.00    1.10832   1.12945   -1.000
 4475.00    1.10568   1.13440   -1.000
 4476.00    1.10915   1.13513   -1.000
 4477.00    1.11572   1.13112   -1.000
 4478.00    1.11322   1.11935  348.397
 4479.00    1.09464   1.09842  334.706
 4480.00    1.06422   1.07347   -1.000
 4481.00    1.04029   1.05602   -1.000
 4482.00    1.04160   1.05573   -1.000
 4483.00    1.06327   1.07286   -1.000
 4484.00    1.08851   1.09864   -1.000
 4485.00    1.10495   1.12054   -1.000
 4486.00    1.11334   1.12917   -1.000
 4487.00    1.11014   1.12279   -1.000
 4488.00    1.08753   1.10765   -1.000
 4489.00    1.06256   1.09394   -1.000
 4490.00    1.06138   1.08971   -1.000
 4491.00    1.08023   1.09535   -1.000
 4492.00    1.09293   1.10406   -1.000
 4493.00    1.08570   1.10828   -1.000
 4494.00    1.06753   1.10675   -1.000
 4495.00    1.05793   1.10490   -1.000
 4496.00    1.06054   1.10760   -1.000
 4497.00    1.07452   1.11431   -1.000
 4498.00    1.09348   1.12082   -1.000
 4499.00    1.10567   1.12369   -1.000
 4500.00    1.10319   1.12389   -1.000
 4501.00    1.09340   1.12713   -1.000
 4502.00    1.10401   1.13829   -1.000
 4503.00    1.12523   1.15552   -1.000
 4504.00    1.14197   1.17177   -1.000
 4505.00    1.14825   1.18042   -1.000
 4506.00    1.13833   1.17986   -1.000
 4507.00    1.13012   1.17398   -1.000
 4508.00    1.12424   1.16886   -1.000
 4509.00    1.12923   1.16770   -1.000
 4510.00    1.13223   1.16829   -1.000
 4511.00    1.12975   1.16602   -1.000
 4512.00    1.12481   1.15868   -1.000
 4513.00    1.11353   1.14808   -1.000
 4514.00    1.10094   1.13778   -1.000
 4515.00    1.09725   1.13057   -1.000
 4516.00    1.09273   1.12684   -1.000
 4517.00    1.08817   1.12440   -1.000
 4518.00    1.08375   1.12183   -1.000
 4519.00    1.09182   1.12050   -1.000
 4520.00    1.10147   1.12125   -1.000
 4521.00    1.10107   1.12152   -1.000
 4522.00    1.08606   1.11761   -1.000
 4523.00    1.07295   1.10888   -1.000
 4524.00    1.07676   1.09745   -1.000
 4525.00    1.06920   1.08421   -1.000
 4526.00    1.05479   1.06810   -1.000
 4527.00    1.03994   1.04999   -1.000
 4528.00    1.02337   1.03493   -1.000
 4529.00    1.02202   1.02862  377.817
 4530.00    1.03361   1.03144  375.809
 4531.00    1.04516   1.03726  356.699
 4532.00    1.04454   1.03835  335.540
 4533.00    1.03134   1.03320  324.772
 4534.00    1.01083   1.02910   -1.000
 4535.00    1.00951   1.03622   -1.000
 4536.00    1.04201   1.05851   -1.000
 4537.00    1.08750   1.08951  332.238
 4538.00    1.11704   1.11660  330.788
 4539.00    1.11412   1.13039   -1.000
 4540.00    1.10350   1.13131   -1.000
 4541.00    1.09709   1.12690   -1.000
 4542.00    1.10956   1.12345  177.161
 4543.00    0.44825   1.12127   -1.000
 4544.00   -0.33642   1.11727    0.000
 4545.00   -0.24491   1.11013    0.000
 4546.00    0.61323   1.10069   -1.000
 4547.00    0.43557   1.08896   -1.000
 4548.00    0.59340   1.07545   -1.000
 4549.00    1.00354   1.06457   -1.000
 4550.00    1.04439   1.06201   -1.000
 4551.00    1.06232   1.06745  338.860
 4552.00    1.06246   1.07347   -1.000
 4553.00    1.04409   1.07383   -1.000
 4554.00    1.03056   1.07056   -1.000
 4555.00    1.03759   1.07145   -1.000
 4556.00    1.06492   1.08215   -1.000
 4557.00    1.08991   1.10124   -1.000
 4558.00    1.11129   1.12211   -1.000
 4559.00    1.11953   1.13884   -1.000
 4560.00    1.11532   1.14868   -1.000
 4561.00    1.11794   1.15039   -1.000
 4562.00    1.11127   1.14358   -1.000
 4563.00    1.08721   1.13059   -1.000
 4564.00    1.06743   1.11786   -1.000
 4565.00    1.06929   1.11281   -1.000
 4566.00    1.08910   1.11845   -1.000
 4567.00    1.11090   1.13064   -1.000
 4568.00    1.12351   1.14074   -1.000
 4569.00    1.12452   1.14175   -1.000
 4570.00    1.10782   1.13311   -1.000
 4571.00    1.08007   1.12131   -1.000
 4572.00    1.07798   1.11560   -1.000
 4573.00    1.09667   1.12058   -1.000
 4574.00    1.11122   1.13206   -1.000
 4575.00    1.11610   1.14172   -1.000
 4576.00    1.11964   1.14456   -1.000
 4577.00    1.11205   1.14005   -1.000
 4578.00    1.10376   1.12892   -1.000
 4579.00    1.09200   1.11255   -1.000
 4580.00    1.07183   1.09439   -1.000
 4581.00    1.06494   1.07943   -1.000
 4582.00    1.06610   1.07143  327.940
 4583.00    1.07166   1.07069  320.751
 4584.00    1.07316   1.07476  319.591
 4585.00    1.07648   1.08116  323.774
 4586.00    1.08896   1.08924  329.739
 4587.00    1.10385   1.09914  335.586
 4588.00    1.10944   1.10944  336.492
 4589.00    1.11625   1.11669  333.904
 4590.00    1.10842   1.11772   -1.000
 4591.00    1.09272   1.11281   -1.000
 4592.00    1.08732   1.10623   -1.000
 4593.00    1.08595   1.10286   -1.000
 4594.00    1.08721   1.10458   -1.000
 4595.00    1.09687   1.10985   -1.000
 4596.00    1.10702   1.11600   -1.000
 4597.00    1.11003   1.12086   -1.000
 4598.00    1.11030   1.12284   -1.000
 4599.00    1.10623   1.12102   -1.000
 4600.00    1.09920   1.11615   -1.000
 4601.00    1.09149   1.11087   -1.000
 4602.00    1.08661   1.10808   -1.000
 4603.00    1.09567   1.10894   -1.000
 4604.00    1.10159   1.11273   -1.000
 4605.00    1.10924   1.11834  308.923
 4606.00    1.11429   1.12540   -1.000
 4607.00    1.12420   1.13414   -1.000
 4608.00    1.14099   1.14378  318.730
 4609.00    1.15047   1.15158  317.437
 4610.00    1.14649   1.15421  314.676
 4611.00    1.13491   1.15104   -1.000
 4612.00    1.12535   1.14524   -1.000
 4613.00    1.12044   1.14046   -1.000
 4614.00    1.12262   1.13778   -1.000
 4615.00    1.12669   1.13598  314.533
 4616.00    1.12501   1.13333  309.639
 4617.00    1.11760   1.12930   -1.000
 4618.00    1.11523   1.12567   -1.000
 4619.00    1.11565   1.12573   -1.000
 4620.00    1.12274   1.13138  313.280
 4621.00    1.13450   1.14080  314.201
 4622.00    1.14613   1.14933  314.085
 4623.00    1.14432   1.15318  315.978
 4624.00    1.13747   1.15252   -1.000
 4625.00    1.13613   1.14966   -1.000
 4626.00    1.13080   1.14618   -1.000
 4627.00    1.13235   1.14268   -1.000
 4628.00    1.12335   1.13968   -1.000
 4629.00    1.11183   1.13822   -1.000
 4630.00    1.12230   1.13936   -1.000
 4631.00    1.13110   1.14243   -1.000
 4632.00    1.13795   1.14429  327.443
 4633.00    1.13511   1.14200  328.956
 4634.00    1.12221   1.13608   -1.000
 4635.00    1.12523   1.12961  323.227
 4636.00    1.12548   1.12478  315.372
 4637.00    1.11166   1.12214   -1.000
 4638.00    1.11168   1.12224   -1.000
 4639.00    1.11698   1.12596  317.536
 4640.00    1.12330   1.13331   -1.000
 4641.00    1.13790   1.14241  335.493
 4642.00    1.15125   1.14932  337.271
 4643.00    1.14603   1.14971  331.555
 4644.00    1.13686   1.14186  323.820
 4645.00    1.11825   1.12764  319.243
 4646.00    1.09632   1.11135   -1.000
 4647.00    1.08739   1.09920   -1.000
 4648.00    1.09674   1.09694  321.543
 4649.00    1.11514   1.10501   -1.000
 4650.00    1.12566   1.11775  332.876
 4651.00    1.12294   1.12798  330.220
 4652.00    1.12010   1.13160   -1.000
 4653.00    1.11657   1.12859   -1.000
 4654.00    1.10479   1.12161   -1.000
 4655.00    1.08886   1.11522   -1.000
 4656.00    1.08883   1.11492   -1.000
 4657.00    1.10224   1.12434   -1.000
 4658.00    1.12863   1.14190   -1.000
 4659.00    1.15690   1.16041  318.215
 4660.00    1.16477   1.17128  323.346
 4661.00    1.15146   1.17076   -1.000
 4662.00    1.13488   1.16101   -1.000
 4663.00    1.12827   1.14637   -1.000
 4664.00    1.12633   1.12929  341.243
 4665.00    1.12729   1.10973   -1.000
 4666.00    1.10114   1.08817   -1.000
 4667.00    1.06690   1.06918  316.023
 4668.00    1.05537   1.06024  316.258
 4669.00    1.06312   1.06571  315.937
 4670.00    1.08924   1.08256  311.847
 4671.00    1.11449   1.10285   -1.000
 4672.00    1.12583   1.11954  308.632
 4673.00    1.13247   1.13064  315.351
 4674.00    1.13350   1.13825  321.617
 4675.00    1.13714   1.14430  326.948
 4676.00    1.14701   1.14710  330.121
 4677.00    1.15190   1.14305   -1.000
 4678.00    1.13794   1.13166  317.736
 4679.00    1.12084   1.11731  313.560
 4680.00    1.10654   1.10587  314.646
 4681.00    1.09876   1.10062  314.774
 4682.00    1.10052   1.10171  316.589
 4683.00    1.11859   1.10749   -1.000
 4684.00    1.13442   1.11514   -1.000
 4685.00    1.13878   1.12163   -1.000
 4686.00    1.13782   1.12544   -1.000
 4687.00    1.13434   1.12697  315.743
 4688.00    1.13296   1.12714  311.013
 4689.00    1.12983   1.12640  304.027
 4690.00    1.12462   1.12496  300.179
 4691.00    1.12046   1.12367  301.743
 4692.00    1.12922   1.12436  310.607
 4693.00    1.14558   1.12797   -1.000
 4694.00    1.15199   1.13303   -1.000
 4695.00    1.15609   1.13663   -1.000
 4696.00    1.15742   1.13613   -1.000
 4697.00    1.15076   1.12983   -1.000
 4698.00    1.13681   1.11832   -1.000
 4699.00    1.12504   1.10471   -1.000
 4700.00    1.12488   1.09210   -1.000
 4701.00    1.12314   1.08191   -1.000
 4702.00    1.10589   1.07487   -1.000
 4703.00    1.09556   1.07269   -1.000
 4704.00    1.10189   1.07616   -1.000
 4705.00    1.10848   1.08199   -1.000
 4706.00    1.10788   1.08459   -1.000
 4707.00    1.09654   1.08210   -1.000
 4708.00    1.08676   1.07858  313.567
 4709.00    1.08454   1.07966  319.639
 4710.00    1.09824   1.08712   -1.000
 4711.00    1.12077   1.09796   -1.000
 4712.00    1.13904   1.10723   -1.000
 4713.00    1.13207   1.11137   -1.000
 4714.00    1.11633   1.11148  304.034
 4715.00    1.11791   1.11259  302.992
 4716.00    1.12998   1.11863   -1.000
 4717.00    1.14277   1.12866   -1.000
 4718.00    1.15128   1.13821   -1.000
 4719.00    1.15083   1.14395  302.519
 4720.00    1.14809   1.14563  303.164
 4721.00    1.14497   1.14519  310.892
 4722.00    1.14758   1.14476  322.993
 4723.00    1.14647   1.14526  329.984
 4724.00    1.14720   1.14550  328.343
 4725.00    1.16018   1.14259   -1.000
 4726.00    1.14255   1.13408  322.363
 4727.00    1.12248   1.12048  318.390
 4728.00    1.10362   1.10601  315.687
 4729.00    1.10540   1.09564  313.943
 4730.00    1.11223   1.09148   -1.000
 4731.00    1.11617   1.09256   -1.000
 4732.00    1.11494   1.09710   -1.000
 4733.00    1.11755   1.10278   -1.000
 4734.00    1.13150   1.10688   -1.000
 4735.00    1.13118   1.10813   -1.000
 4736.00    1.11788   1.10765   -1.000
 4737.00    1.11653   1.10778  311.638
 4738.00    1.12307   1.11014   -1.000
 4739.00    1.12971   1.11431   -1.000
 4740.00    1.13179   1.11838   -1.000
 4741.00    1.12632   1.12144  306.810
 4742.00    1.12860   1.12442  303.666
 4743.00    1.13669   1.12796  303.195
 4744.00    1.14088   1.13131  303.724
 4745.00    1.14171   1.13367  303.930
 4746.00    1.14054   1.13571  306.297
 4747.00    1.14220   1.13893  309.853
 4748.00    1.14898   1.14385  312.386
 4749.00    1.15452   1.14935  314.458
 4750.00    1.15292   1.15358  313.764
 4751.00    1.15094   1.15416  315.131
 4752.00    1.14835   1.14943  317.508
 4753.00    1.13590   1.14034  317.664
 4754.00    1.12758   1.13065  314.880
 4755.00    1.13142   1.12451  314.567
 4756.00    1.11889   1.12364  319.917
 4757.00    1.11455   1.12709   -1.000
 4758.00    1.12276   1.13250   -1.000
 4759.00    1.12369   1.13695   -1.000
 4760.00    1.13555   1.13670  331.362
 4761.00    1.12939   1.12875  328.858
 4762.00    1.10998   1.11366  324.068
 4763.00    1.09572   1.09664  316.605
 4764.00    1.08822   1.08443  312.546
 4765.00    1.09584   1.08045   -1.000
 4766.00    1.10676   1.08480   -1.000
 4767.00    1.11655   1.09601   -1.000
 4768.00    1.12780   1.11117   -1.000
 4769.00    1.13428   1.12531  307.843
 4770.00    1.13999   1.13379  306.107
 4771.00    1.12566   1.13603   -1.000
 4772.00    1.12377   1.13605   -1.000
 4773.00    1.12993   1.13846  309.637
 4774.00    1.14623   1.14465  313.153
 4775.00    1.15843   1.15205  314.850
 4776.00    1.15393   1.15681  315.614
 4777.00    1.14987   1.15691  317.258
 4778.00    1.14259   1.15293   -1.000
 4779.00    1.13601   1.14731   -1.000
 4780.00    1.13288   1.14231   -1.000
 4781.00    1.13409   1.13848  324.052
 4782.00    1.13038   1.13476  325.719
 4783.00    1.12164   1.13047  325.196
 4784.00    1.12347   1.12580  323.499
 4785.00    1.12089   1.12107  321.400
 4786.00    1.10481   1.11691   -1.000
 4787.00    1.10454   1.11447   -1.000
 4788.00    1.10720   1.11484  305.405
 4789.00    1.11077   1.11815  300.506
 4790.00    1.12004   1.12427  299.888
 4791.00    1.12590   1.13317  303.340
 4792.00    1.13367   1.14454   -1.000
 4793.00    1.14086   1.15703   -1.000
 4794.00    1.15341   1.16807   -1.000
 4795.00    1.16036   1.17454   -1.000
 4796.00    1.15628   1.17412   -1.000
 4797.00    1.14399   1.16737   -1.000
 4798.00    1.12525   1.15783   -1.000
 4799.00    1.11704   1.15005   -1.000
 4800.00    1.12149   1.14760   -1.000
 4801.00    1.13702   1.15083   -1.000
 4802.00    1.14572   1.15638   -1.000
 4803.00    1.14296   1.15953   -1.000
 4804.00    1.13251   1.15800   -1.000
 4805.00    1.12248   1.15298   -1.000
 4806.00    1.12148   1.14776   -1.000
 4807.00    1.11969   1.14491   -1.000
 4808.00    1.12730   1.14515   -1.000
 4809.00    1.13062   1.14788   -1.000
 4810.00    1.13400   1.15153   -1.000
 4811.00    1.13704   1.15470   -1.000
 4812.00    1.14260   1.15757   -1.000
 4813.00    1.14368   1.16117   -1.000
 4814.00    1.15237   1.16574   -1.000
 4815.00    1.15012   1.17081   -1.000
 4816.00    1.14949   1.17544   -1.000
 4817.00    1.15183   1.17865   -1.000
 4818.00    1.15912   1.17999   -1.000
 4819.00    1.15959   1.17952   -1.000
 4820.00    1.15300   1.17643   -1.000
 4821.00    1.15347   1.16840   -1.000
 4822.00    1.14003   1.15445   -1.000
 4823.00    1.12541   1.13826   -1.000
 4824.00    1.11381   1.12710   -1.000
 4825.00    1.12251   1.12622  312.608
 4826.00    1.13728   1.13338  315.439
 4827.00    1.14546   1.14138  315.256
 4828.00    1.13727   1.14498  309.998
 4829.00    1.12874   1.14368   -1.000
 4830.00    1.12877   1.13953   -1.000
 4831.00    1.12456   1.13414  306.121
 4832.00    1.11927   1.12931   -1.000
 4833.00    1.12538   1.12730  312.444
 4834.00    1.13596   1.12894  317.528
 4835.00    1.13671   1.13259  317.337
 4836.00    1.13659   1.13514  316.523
 4837.00    1.13638   1.13399  314.795
 4838.00    1.12999   1.12843  312.309
 4839.00    1.11630   1.11977  308.931
 4840.00    1.10576   1.11106  304.361
 4841.00    1.10724   1.10543  303.861
 4842.00    1.11571   1.10428   -1.000
 4843.00    1.12327   1.10656   -1.000
 4844.00    1.12095   1.11052   -1.000
 4845.00    1.12440   1.11476   -1.000
 4846.00    1.13105   1.11693   -1.000
 4847.00    1.12627   1.11456   -1.000
 4848.00    1.10769   1.10884  314.550
 4849.00    1.09444   1.10388   -1.000
 4850.00    1.10362   1.10178  332.183
 4851.00    1.10875   1.10022   -1.000
 4852.00    1.10586   1.09435   -1.000
 4853.00    1.09691   1.08057   -1.000
 4854.00    1.07150   1.05876   -1.000
 4855.00    1.04560   1.03287   -1.000
 4856.00    1.03442   1.00761   -1.000
 4857.00    1.02948   0.98192   -1.000
 4858.00    1.00737   0.94776   -1.000
 4859.00    0.93544   0.89817   -1.000
 4860.00    0.83630   0.84049  331.572
 4861.00    0.76445   0.79685   -1.000
 4862.00    0.78191   0.78818  322.712
 4863.00    0.86718   0.81799   -1.000
 4864.00    0.95064   0.87060   -1.000
 4865.00    1.00229   0.92613   -1.000
 4866.00    1.02907   0.97225   -1.000
 4867.00    1.04639   1.00538   -1.000
 4868.00    1.06279   1.02517   -1.000
 4869.00    1.06641   1.03167   -1.000
 4870.00    1.05438   1.02684   -1.000
 4871.00    1.03249   1.01731   -1.000
 4872.00    1.02888   1.01312   -1.000
 4873.00    1.04833   1.02105   -1.000
 4874.00    1.07005   1.03819   -1.000
 4875.00    1.08119   1.05559   -1.000
 4876.00    1.08108   1.06711   -1.000
 4877.00    1.07944   1.07459  319.950
 4878.00    1.08673   1.08351  319.187
 4879.00    1.10187   1.09549  321.538
 4880.00    1.11062   1.10669  326.147
 4881.00    1.10564   1.11219  327.195
 4882.00    1.09650   1.11070   -1.000
 4883.00    1.09724   1.10520  325.979
 4884.00    1.09419   1.09830  331.424
 4885.00    1.08690   1.09105  337.326
 4886.00    1.08528   1.08448  332.768
 4887.00    1.09079   1.07923   -1.000
 4888.00    1.08972   1.07412   -1.000
 4889.00    1.07698   1.06696   -1.000
 4890.00    1.05872   1.05883  291.596
 4891.00    1.05105   1.05664  290.682
 4892.00    1.07201   1.06819  292.351
 4893.00    1.11226   1.09467   -1.000
 4894.00    1.14227   1.12768   -1.000
 4895.00    1.15820   1.15534  307.895
 4896.00    1.16437   1.17157  306.559
 4897.00    1.16228   1.17634   -1.000
 4898.00    1.15664   1.17260   -1.000
 4899.00    1.14273   1.16411   -1.000
 4900.00    1.12951   1.15486   -1.000
 4901.00    1.12969   1.14720   -1.000
 4902.00    1.13168   1.14146  302.621
 4903.00    1.12201   1.13769   -1.000
 4904.00    1.12141   1.13802   -1.000
 4905.00    1.13931   1.14401  320.874
 4906.00    1.15402   1.15208  316.064
 4907.00    1.14693   1.15508  310.536
 4908.00    1.13344   1.14872   -1.000
 4909.00    1.11841   1.13440   -1.000
 4910.00    1.10548   1.11891   -1.000
 4911.00    1.10115   1.11007  304.049
 4912.00    1.11019   1.11218  316.182
 4913.00    1.12439   1.12309  333.407
 4914.00    1.13225   1.13657  346.939
 4915.00    1.14198   1.14547  347.465
 4916.00    1.14976   1.14313  335.418
 4917.00    1.12710   1.12523  324.615
 4918.00    1.09200   1.09405  320.907
 4919.00    1.05858   1.05938  319.960
 4920.00    1.03527   1.03390  314.864
 4921.00    1.03933   1.02564   -1.000
 4922.00    1.06338   1.03304   -1.000
 4923.00    1.08319   1.04823   -1.000
 4924.00    1.09001   1.06467   -1.000
 4925.00    1.09273   1.08172   -1.000
 4926.00    1.11310   1.10068   -1.000
 4927.00    1.13162   1.12080   -1.000
 4928.00    1.14016   1.13903  319.044
 4929.00    1.14752   1.15168  318.121
 4930.00    1.15301   1.15628  313.365
 4931.00    1.15131   1.15116  315.313
 4932.00    1.13414   1.13687  324.825
 4933.00    1.10388   1.11829   -1.000
 4934.00    1.08529   1.10348   -1.000
 4935.00    1.09395   1.09677  314.885
 4936.00    1.10813   1.09487   -1.000
 4937.00    1.09857   1.09059  300.826
 4938.00    1.07848   1.08289  298.806
 4939.00    1.07201   1.07944  299.534
 4940.00    1.09323   1.08745  301.404
 4941.00    1.12438   1.10651   -1.000
 4942.00    1.14107   1.12863   -1.000
 4943.00    1.14574   1.14494  295.261
 4944.00    1.14370   1.15207  294.362
 4945.00    1.13963   1.15227   -1.000
 4946.00    1.13857   1.15050   -1.000
 4947.00    1.13883   1.15111   -1.000
 4948.00    1.14050   1.15577   -1.000
 4949.00    1.14906   1.16200   -1.000
 4950.00    1.15434   1.16566   -1.000
 4951.00    1.15557   1.16479  332.086
 4952.00    1.15337   1.16064  340.589
 4953.00    1.15095   1.15466  330.043
 4954.00    1.14836   1.14535  312.599
 4955.00    1.13731   1.12877  304.012
 4956.00    1.10203   1.10347  302.774
 4957.00    1.06412   1.07754   -1.000
 4958.00    1.05561   1.06577   -1.000
 4959.00    1.08891   1.07587   -1.000
 4960.00    1.12737   1.10141   -1.000
 4961.00    1.14119   1.12747   -1.000
 4962.00    1.14341   1.14383  320.557
 4963.00    1.13914   1.14875  319.234
 4964.00    1.13473   1.14474  316.565
 4965.00    1.12405   1.13524   -1.000
 4966.00    1.11259   1.12403   -1.000
 4967.00    1.10641   1.11467  306.156
 4968.00    1.11038   1.10935  303.701
 4969.00    1.11617   1.10883  303.356
 4970.00    1.11914   1.11308  305.837
 4971.00    1.12292   1.12096  309.336
 4972.00    1.13180   1.13047  313.793
 4973.00    1.14245   1.13940  318.629
 4974.00    1.14788   1.14589  322.681
 4975.00    1.14707   1.14825  328.836
 4976.00    1.14448   1.14600  339.837
 4977.00    1.13523   1.13969  347.989
 4978.00    1.12559   1.13019  345.972
 4979.00    1.11431   1.11772  338.426
 4980.00    1.10243   1.10091  328.479
 4981.00    1.07628   1.07840  318.621
 4982.00    1.04970   1.05264  312.960
 4983.00    1.03916   1.03172  314.588
 4984.00    1.04716   1.02508   -1.000
 4985.00    1.06431   1.03604   -1.000
 4986.00    1.08310   1.05865   -1.000
 4987.00    1.10161   1.08246   -1.000
 4988.00    1.11174   1.09903   -1.000
 4989.00    1.10901   1.10471  316.574
 4990.00    1.09881   1.10184  314.916
 4991.00    1.09633   1.09622  314.315
 4992.00    1.09833   1.09309  316.952
 4993.00    1.10191   1.09428  321.874
 4994.00    1.10754   1.09878   -1.000
 4995.00    1.11062   1.10445  330.726
 4996.00    1.11836   1.10885   -1.000
 4997.00    1.11986   1.10918   -1.000
 4998.00    1.11086   1.10296  326.769
 4999.00    1.09305   1.09019  332.674
 5000.00    1.08424   1.07481   -1.000
 5001.00    1.08552   1.06267   -1.000
 5002.00    1.08959   1.05731   -1.000
 5003.00    1.09194   1.05660   -1.000
 5004.00    1.09106   1.05450   -1.000
 5005.00    1.07758   1.04775   -1.000
 5006.00    1.06273   1.04060   -1.000
 5007.00    1.06697   1.04134   -1.000
 5008.00    1.09306   1.05243   -1.000
 5009.00    1.11175   1.06691   -1.000
 5010.00    1.10644   1.07435   -1.000
 5011.00    1.08695   1.06851   -1.000
 5012.00    1.06301   1.05207   -1.000
 5013.00    1.04096   1.03360  333.884
 5014.00    1.03687   1.02176   -1.000
 5015.00    1.04992   1.01894   -1.000
 5016.00    1.06675   1.02173   -1.000
 5017.00    1.06637   1.02566   -1.000
 5018.00    1.06357   1.02965   -1.000
 5019.00    1.06858   1.03574   -1.000
 5020.00    1.07942   1.04421   -1.000
 5021.00    1.08351   1.05230   -1.000
 5022.00    1.08592   1.05830   -1.000
 5023.00    1.08939   1.06351   -1.000
 5024.00    1.09535   1.07015   -1.000
 5025.00    1.09956   1.07687   -1.000
 5026.00    1.09832   1.08001   -1.000
 5027.00    1.09261   1.07969   -1.000
 5028.00    1.09502   1.07976   -1.000
 5029.00    1.10272   1.08343   -1.000
 5030.00    1.11184   1.09138   -1.000
 5031.00    1.12268   1.10188   -1.000
 5032.00    1.12957   1.11144   -1.000
 5033.00    1.13095   1.11548   -1.000
 5034.00    1.12558   1.11039   -1.000
 5035.00    1.10451   1.09667   -1.000
 5036.00    1.07998   1.07980  359.395
 5037.00    1.07382   1.06424   -1.000
 5038.00    1.07138   1.04937   -1.000
 5039.00    1.05433   1.03109   -1.000
 5040.00    1.02821   1.01097   -1.000
 5041.00    1.00988   0.99940  297.230
 5042.00    1.03634   1.00613   -1.000
 5043.00    1.01292   1.03157  119.273
 5044.00    0.57677   1.06589   -1.000
 5045.00    0.01811   1.09602   -1.000
 5046.00    0.03657   1.11381   -1.000
 5047.00    0.41725   1.11639   -1.000
 5048.00    0.98261   1.10587   -1.000
 5049.00    1.08697   1.08802  305.879
 5050.00    1.07847   1.07120  303.693
 5051.00    1.08006   1.06255   -1.000
 5052.00    1.09167   1.06551   -1.000
 5053.00    1.11176   1.07824   -1.000
 5054.00    1.13287   1.09482   -1.000
 5055.00    1.14144   1.10884   -1.000
 5056.00    1.14508   1.11862   -1.000
 5057.00    1.14690   1.12549   -1.000
 5058.00    1.14666   1.13087   -1.000
 5059.00    1.14304   1.13505  328.162
 5060.00    1.13784   1.13738  328.957
 5061.00    1.13937   1.13668  324.401
 5062.00    1.13551   1.13123  320.850
 5063.00    1.12405   1.11930  319.745
 5064.00    1.10291   1.10237  317.992
 5065.00    1.08705   1.08669  317.562
 5066.00    1.08815   1.07767   -1.000
 5067.00    1.09616   1.07619   -1.000
 5068.00    1.10530   1.07859   -1.000
 5069.00    1.11206   1.08145   -1.000
 5070.00    1.11920   1.08315   -1.000
 5071.00    1.11891   1.08268   -1.000
 5072.00    1.11360   1.08009   -1.000
 5073.00    1.11195   1.07757   -1.000
 5074.00    1.11311   1.07762   -1.000
 5075.00    1.11439   1.07973   -1.000
 5076.00    1.11285   1.08019   -1.000
 5077.00    1.10565   1.07458   -1.000
 5078.00    1.08848   1.06141   -1.000
 5079.00    1.06334   1.04412   -1.000
 5080.00    1.04609   1.03039   -1.000
 5081.00    1.05287   1.02618   -1.000
 5082.00    1.07417   1.03132   -1.000
 5083.00    1.08651   1.04226   -1.000
 5084.00    1.09678   1.05542   -1.000
 5085.00    1.11234   1.06938   -1.000
 5086.00    1.12425   1.08235   -1.000
 5087.00    1.12804   1.09228   -1.000
 5088.00    1.12362   1.09883   -1.000
 5089.00    1.12592   1.10323   -1.000
 5090.00    1.12948   1.10718   -1.000
 5091.00    1.13064   1.11188   -1.000
 5092.00    1.13288   1.11729   -1.000
 5093.00    1.13973   1.12156   -1.000
 5094.00    1.14423   1.12117   -1.000
 5095.00    1.14174   1.11289   -1.000
 5096.00    1.12847   1.09665   -1.000
 5097.00    1.10718   1.07669   -1.000
 5098.00    1.08480   1.05976   -1.000
 5099.00    1.07848   1.05196   -1.000
 5100.00    1.09183   1.05546   -1.000
 5101.00    1.11584   1.06742   -1.000
 5102.00    1.12882   1.08104   -1.000
 5103.00    1.12861   1.08939   -1.000
 5104.00    1.12299   1.08998   -1.000
 5105.00    1.11550   1.08362   -1.000
 5106.00    1.09980   1.07309   -1.000
 5107.00    1.08317   1.06196   -1.000
 5108.00    1.07638   1.05415   -1.000
 5109.00    1.07933   1.05238   -1.000
 5110.00    1.08681   1.05727   -1.000
 5111.00    1.09760   1.06752   -1.000
 5112.00    1.11049   1.08055   -1.000
 5113.00    1.12045   1.09293   -1.000
 5114.00    1.12679   1.10306   -1.000
 5115.00    1.13291   1.11091   -1.000
 5116.00    1.14217   1.11721   -1.000
 5117.00    1.14792   1.12162   -1.000
 5118.00    1.14762   1.12261   -1.000
 5119.00    1.14389   1.11872   -1.000
 5120.00    1.13535   1.10962   -1.000
 5121.00    1.12163   1.09671   -1.000
 5122.00    1.09966   1.08195   -1.000
 5123.00    1.08153   1.06733   -1.000
 5124.00    1.07808   1.05482   -1.000
 5125.00    1.07721   1.04671   -1.000
 5126.00    1.07913   1.04334   -1.000
 5127.00    1.08397   1.04306   -1.000
 5128.00    1.08357   1.04385   -1.000
 5129.00    1.08238   1.04564   -1.000
 5130.00    1.08430   1.04946   -1.000
 5131.00    1.09278   1.05574   -1.000
 5132.00    1.10496   1.06330   -1.000
 5133.00    1.10892   1.07042   -1.000
 5134.00    1.11395   1.07577   -1.000
 5135.00    1.12151   1.07781   -1.000
 5136.00    1.11496   1.07502   -1.000
 5137.00    1.09846   1.06690   -1.000
 5138.00    1.07860   1.05581   -1.000
 5139.00    1.06636   1.04562   -1.000
 5140.00    1.07054   1.03955   -1.000
 5141.00    1.07612   1.03791   -1.000
 5142.00    1.07128   1.03907   -1.000
 5143.00    1.06931   1.04195   -1.000
 5144.00    1.08119   1.04583   -1.000
 5145.00    1.09333   1.04918   -1.000
 5146.00    1.09671   1.05010   -1.000
 5147.00    1.09350   1.04879   -1.000
 5148.00    1.09148   1.04808   -1.000
 5149.00    1.09618   1.04914   -1.000
 5150.00    1.09480   1.04921   -1.000
 5151.00    1.08176   1.04626   -1.000
 5152.00    1.07259   1.04167   -1.000
 5153.00    1.07593   1.03883   -1.000
 5154.00    1.08605   1.04129   -1.000
 5155.00    1.10030   1.05033   -1.000
 5156.00    1.11699   1.06456   -1.000
 5157.00    1.13153   1.07993   -1.000
 5158.00    1.14275   1.09272   -1.000
 5159.00    1.14690   1.10040   -1.000
 5160.00    1.14401   1.10237   -1.000
 5161.00    1.13784   1.09877   -1.000
 5162.00    1.13229   1.08963   -1.000
 5163.00    1.12624   1.07374   -1.000
 5164.00    1.10944   1.04833   -1.000
 5165.00    1.06809   1.01062   -1.000
 5166.00    1.00294   0.96384   -1.000
 5167.00    0.94861   0.92078   -1.000
 5168.00    0.94013   0.89564   -1.000
 5169.00    0.97020   0.89291   -1.000
 5170.00    0.99734   0.89977   -1.000
 5171.00    0.98759   0.90070   -1.000
 5172.00    0.95569   0.89681   -1.000
 5173.00    0.95266   0.90221   -1.000
 5174.00    0.99995   0.92998   -1.000
 5175.00    1.06470   0.97495   -1.000
 5176.00    1.10651   1.02006   -1.000
 5177.00    1.12274   1.05268   -1.000
 5178.00    1.12979   1.06812   -1.000
 5179.00    1.12723   1.06698   -1.000
 5180.00    1.11379   1.04875   -1.000
 5181.00    1.08177   1.01260   -1.000
 5182.00    1.02459   0.96537   -1.000
 5183.00    0.96433   0.92318   -1.000
 5184.00    0.95096   0.90597   -1.000
 5185.00    0.99984   0.92134   -1.000
 5186.00    1.06310   0.95898   -1.000
 5187.00    1.09557   0.99936   -1.000
 5188.00    1.10037   1.02713   -1.000
 5189.00    1.10053   1.04033   -1.000
 5190.00    1.09497   1.04213   -1.000
 5191.00    1.07257   1.03603   -1.000
 5192.00    1.04922   1.02664   -1.000
 5193.00    1.04565   1.02007   -1.000
 5194.00    1.05702   1.01938   -1.000
 5195.00    1.06984   1.02442   -1.000
 5196.00    1.08294   1.03276   -1.000
 5197.00    1.09722   1.04369   -1.000
 5198.00    1.10716   1.05703   -1.000
 5199.00    1.11400   1.07050   -1.000
 5200.00    1.12028   1.07997   -1.000
 5201.00    1.12030   1.08168   -1.000
 5202.00    1.11273   1.07349   -1.000
 5203.00    1.09830   1.05622   -1.000
 5204.00    1.07671   1.03341   -1.000
 5205.00    1.05508   1.01072   -1.000
 5206.00    1.04370   0.99336   -1.000
 5207.00    1.04294   0.98442   -1.000
 5208.00    1.04506   0.98416   -1.000
 5209.00    1.04914   0.99237   -1.000
 5210.00    1.06281   1.00924   -1.000
 5211.00    1.09112   1.03312   -1.000
 5212.00    1.12175   1.05890   -1.000
 5213.00    1.13751   1.07817   -1.000
 5214.00    1.13626   1.08518   -1.000
 5215.00    1.11801   1.08046   -1.000
 5216.00    1.10068   1.07178   -1.000
 5217.00    1.10262   1.06897   -1.000
 5218.00    1.11639   1.07643   -1.000
 5219.00    1.13296   1.09165   -1.000
 5220.00    1.14482   1.10725   -1.000
 5221.00    1.15127   1.11713   -1.000
 5222.00    1.14890   1.11708   -1.000
 5223.00    1.13392   1.10520   -1.000
 5224.00    1.10575   1.08130   -1.000
 5225.00    1.06718   1.04892   -1.000
 5226.00    1.03367   1.01804   -1.000
 5227.00    1.02705   1.00224   -1.000
 5228.00    1.05465   1.00772   -1.000
 5229.00    1.09379   1.02907   -1.000
 5230.00    1.12215   1.05191   -1.000
 5231.00    1.13085   1.06519   -1.000
 5232.00    1.11745   1.06637   -1.000
 5233.00    1.09890   1.06072   -1.000
 5234.00    1.09391   1.05739   -1.000
 5235.00    1.10532   1.06291   -1.000
 5236.00    1.12740   1.07722   -1.000
 5237.00    1.14414   1.09459   -1.000
 5238.00    1.14959   1.10917   -1.000
 5239.00    1.15005   1.11766   -1.000
 5240.00    1.15078   1.12070   -1.000
 5241.00    1.15167   1.12059   -1.000
 5242.00    1.15350   1.11983   -1.000
 5243.00    1.15565   1.12006   -1.000
 5244.00    1.15745   1.12075   -1.000
 5245.00    1.15384   1.11867   -1.000
 5246.00    1.13089   1.11085   -1.000
 5247.00    1.10560   1.09859  315.935
 5248.00    1.09813   1.08595   -1.000
 5249.00    1.09513   1.07685   -1.000
 5250.00    1.08944   1.07242   -1.000
 5251.00    1.08815   1.07219   -1.000
 5252.00    1.09528   1.07492   -1.000
 5253.00    1.10413   1.07872   -1.000
 5254.00    1.10661   1.08240   -1.000
 5255.00    1.10939   1.08739   -1.000
 5256.00    1.12599   1.09620   -1.000
 5257.00    1.14937   1.10774   -1.000
 5258.00    1.15778   1.11722   -1.000
 5259.00    1.15332   1.11808   -1.000
 5260.00    1.13761   1.10631   -1.000
 5261.00    1.11109   1.08209   -1.000
 5262.00    1.08249   1.04976   -1.000
 5263.00    1.05558   1.01652   -1.000
 5264.00    1.03346   0.98962   -1.000
 5265.00    1.02446   0.97392   -1.000
 5266.00    1.03470   0.96955   -1.000
 5267.00    1.05089   0.97038   -1.000
 5268.00    1.04652   0.96888   -1.000
 5269.00    1.01782   0.96409   -1.000
 5270.00    1.00228   0.96241   -1.000
 5271.00    1.02950   0.97231   -1.000
 5272.00    1.06859   0.99268   -1.000
 5273.00    1.08869   1.01439   -1.000
 5274.00    1.09542   1.03148   -1.000
 5275.00    1.09846   1.04443   -1.000
 5276.00    1.10696   1.05843   -1.000
 5277.00    1.12553   1.07569   -1.000
 5278.00    1.14492   1.09237   -1.000
 5279.00    1.15087   1.10153   -1.000
 5280.00    1.14297   1.09864   -1.000
 5281.00    1.12577   1.08642   -1.000
 5282.00    1.08868   1.07201   -1.000
 5283.00    1.07378   1.06321   -1.000
 5284.00    1.09660   1.06537   -1.000
 5285.00    1.12708   1.07961   -1.000
 5286.00    1.15288   1.10077   -1.000
 5287.00    1.16331   1.12103   -1.000
 5288.00    1.16269   1.13481   -1.000
 5289.00    1.16020   1.14176   -1.000
 5290.00    1.16027   1.14455   -1.000
 5291.00    1.16271   1.14476   -1.000
 5292.00    1.16067   1.14296   -1.000
 5293.00    1.15469   1.13904   -1.000
 5294.00    1.14694   1.13111   -1.000
 5295.00    1.13540   1.11719   -1.000
 5296.00    1.11350   1.09785   -1.000
 5297.00    1.08762   1.07775   -1.000
 5298.00    1.08143   1.06456   -1.000
 5299.00    1.09525   1.06262   -1.000
 5300.00    1.11079   1.06960   -1.000
 5301.00    1.11584   1.08076   -1.000
 5302.00    1.11690   1.09238   -1.000
 5303.00    1.12648   1.10430   -1.000
 5304.00    1.14683   1.11601   -1.000
 5305.00    1.16003   1.12441   -1.000
 5306.00    1.15695   1.12810   -1.000
 5307.00    1.14621   1.12857   -1.000
 5308.00    1.14614   1.12941   -1.000
 5309.00    1.15501   1.13333   -1.000
 5310.00    1.16323   1.13907   -1.000
 5311.00    1.16602   1.14350   -1.000
 5312.00    1.16403   1.14379   -1.000
 5313.00    1.16124   1.13886   -1.000
 5314.00    1.15906   1.12949   -1.000
 5315.00    1.14941   1.11778   -1.000
 5316.00    1.13321   1.10733   -1.000
 5317.00    1.12800   1.10268   -1.000
 5318.00    1.13883   1.10558   -1.000
 5319.00    1.14549   1.11292   -1.000
 5320.00    1.14593   1.11808   -1.000
 5321.00    1.14006   1.11612   -1.000
 5322.00    1.13321   1.10681   -1.000
 5323.00    1.12296   1.09240   -1.000
 5324.00    1.11119   1.07622   -1.000
 5325.00    1.10758   1.05926   -1.000
 5326.00    1.09256   1.04061   -1.000
 5327.00    1.05801   1.02014   -1.000
 5328.00    1.02903   1.00365   -1.000
 5329.00    1.03437   1.00162   -1.000
 5330.00    1.07437   1.01698   -1.000
 5331.00    1.11181   1.04329   -1.000
 5332.00    1.12395   1.06860   -1.000
 5333.00    1.12783   1.08625   -1.000
 5334.00    1.13690   1.09713   -1.000
 5335.00    1.14205   1.10310   -1.000
 5336.00    1.13837   1.10432   -1.000
 5337.00    1.13318   1.10055   -1.000
 5338.00    1.12889   1.09190   -1.000
 5339.00    1.11969   1.08001   -1.000
 5340.00    1.10413   1.06888   -1.000
 5341.00    1.10082   1.06439   -1.000
 5342.00    1.11511   1.06908   -1.000
 5343.00    1.13054   1.08010   -1.000
 5344.00    1.14075   1.08969   -1.000
 5345.00    1.14278   1.09276   -1.000
 5346.00    1.13517   1.08975   -1.000
 5347.00    1.12498   1.08429   -1.000
 5348.00    1.11997   1.08058   -1.000
 5349.00    1.11602   1.08085   -1.000
 5350.00    1.12497   1.08600   -1.000
 5351.00    1.14208   1.09520   -1.000
 5352.00    1.14864   1.10617   -1.000
 5353.00    1.15080   1.11630   -1.000
 5354.00    1.16049   1.12497   -1.000
 5355.00    1.16844   1.13299   -1.000
 5356.00    1.17352   1.13999   -1.000
 5357.00    1.17142   1.14491   -1.000
 5358.00    1.17166   1.14657   -1.000
 5359.00    1.16900   1.14462   -1.000
 5360.00    1.16589   1.13897   -1.000
 5361.00    1.15550   1.12928   -1.000
 5362.00    1.14320   1.11662   -1.000
 5363.00    1.13681   1.10350   -1.000
 5364.00    1.13141   1.09264   -1.000
 5365.00    1.12939   1.08572   -1.000
 5366.00    1.12576   1.08201   -1.000
 5367.00    1.12039   1.07875   -1.000
 5368.00    1.11912   1.07209   -1.000
 5369.00    1.10847   1.06054   -1.000
 5370.00    1.08513   1.04665   -1.000
 5371.00    1.07349   1.03733   -1.000
 5372.00    1.09018   1.03981   -1.000
 5373.00    1.12359   1.05570   -1.000
 5374.00    1.14802   1.07982   -1.000
 5375.00    1.15968   1.10234   -1.000
 5376.00    1.16719   1.11724   -1.000
 5377.00    1.16729   1.12314   -1.000
 5378.00    1.16318   1.12220   -1.000
 5379.00    1.15633   1.11717   -1.000
 5380.00    1.14694   1.11027   -1.000
 5381.00    1.14051   1.10325   -1.000
 5382.00    1.13332   1.09775   -1.000
 5383.00    1.13046   1.09559   -1.000
 5384.00    1.13462   1.09818   -1.000
 5385.00    1.14206   1.10496   -1.000
 5386.00    1.15351   1.11285   -1.000
 5387.00    1.15506   1.11757   -1.000
 5388.00    1.14634   1.11692   -1.000
 5389.00    1.13802   1.11110   -1.000
 5390.00    1.13038   1.10198   -1.000
 5391.00    1.12597   1.09212   -1.000
 5392.00    1.11987   1.08333   -1.000
 5393.00    1.11216   1.07607   -1.000
 5394.00    1.11178   1.06986   -1.000
 5395.00    1.10472   1.06257   -1.000
 5396.00    1.08951   1.05380   -1.000
 5397.00    1.07862   1.04694   -1.000
 5398.00    1.08922   1.04635   -1.000
 5399.00    1.11088   1.05414   -1.000
 5400.00    1.13002   1.06588   -1.000
 5401.00    1.13231   1.07430   -1.000
 5402.00    1.12616   1.07413   -1.000
 5403.00    1.11125   1.06379   -1.000
 5404.00    1.08403   1.04675   -1.000
 5405.00    1.06890   1.03112   -1.000
 5406.00    1.07423   1.02406   -1.000
 5407.00    1.08608   1.02642   -1.000
 5408.00    1.09693   1.03406   -1.000
 5409.00    1.09739   1.04082   -1.000
 5410.00    1.09415   1.04639   -1.000
 5411.00    1.10339   1.05400   -1.000
 5412.00    1.12501   1.06435   -1.000
 5413.00    1.13882   1.07522   -1.000
 5414.00    1.13709   1.08328   -1.000
 5415.00    1.12939   1.08881   -1.000
 5416.00    1.13244   1.09438   -1.000
 5417.00    1.14003   1.10012   -1.000
 5418.00    1.14048   1.10468   -1.000
 5419.00    1.13942   1.10647   -1.000
 5420.00    1.13714   1.10522   -1.000
 5421.00    1.13719   1.10193   -1.000
 5422.00    1.13778   1.09675   -1.000
 5423.00    1.12766   1.09040   -1.000
 5424.00    1.11760   1.08587   -1.000
 5425.00    1.12123   1.08554   -1.000
 5426.00    1.12880   1.08922   -1.000
 5427.00    1.13525   1.09145   -1.000
 5428.00    1.12537   1.08610   -1.000
 5429.00    1.09947   1.07514   -1.000
 5430.00    1.08943   1.06458   -1.000
 5431.00    1.09702   1.05971   -1.000
 5432.00    1.10431   1.05933   -1.000
 5433.00    1.09758   1.05835   -1.000
 5434.00    1.08355   1.05657   -1.000
 5435.00    1.08142   1.05780   -1.000
 5436.00    1.09369   1.06640   -1.000
 5437.00    1.11251   1.08250   -1.000
 5438.00    1.13537   1.10104   -1.000
 5439.00    1.15317   1.11683   -1.000
 5440.00    1.15969   1.12653   -1.000
 5441.00    1.15674   1.13077   -1.000
 5442.00    1.15144   1.12946   -1.000
 5443.00    1.15032   1.12137   -1.000
 5444.00    1.13811   1.10583   -1.000
 5445.00    1.10931   1.08491   -1.000
 5446.00    1.07895   1.06578   -1.000
 5447.00    1.07169   1.05634   -1.000
 5448.00    1.09194   1.06070   -1.000
 5449.00    1.12789   1.07601   -1.000
 5450.00    1.14513   1.09336   -1.000
 5451.00    1.14624   1.10536   -1.000
 5452.00    1.14487   1.10742   -1.000
 5453.00    1.13758   1.09918   -1.000
 5454.00    1.11129   1.08448   -1.000
 5455.00    1.08186   1.07089   -1.000
 5456.00    1.08010   1.06593   -1.000
 5457.00    1.10889   1.07346   -1.000
 5458.00    1.13793   1.08817   -1.000
 5459.00    1.14674   1.10138   -1.000
 5460.00    1.13834   1.10629   -1.000
 5461.00    1.12756   1.10190   -1.000
 5462.00    1.11960   1.09231   -1.000
 5463.00    1.11269   1.08386   -1.000
 5464.00    1.11958   1.08151   -1.000
 5465.00    1.13055   1.08584   -1.000
 5466.00    1.13294   1.09396   -1.000
 5467.00    1.13794   1.10183   -1.000
 5468.00    1.14271   1.10757   -1.000
 5469.00    1.14252   1.11042   -1.000
 5470.00    1.13507   1.10999   -1.000
 5471.00    1.12575   1.10652   -1.000
 5472.00    1.12247   1.10045   -1.000
 5473.00    1.11662   1.09151   -1.000
 5474.00    1.10743   1.07973   -1.000
 5475.00    1.09398   1.06590   -1.000
 5476.00    1.07539   1.05337   -1.000
 5477.00    1.07278   1.04764   -1.000
 5478.00    1.09097   1.05114   -1.000
 5479.00    1.10999   1.06153   -1.000
 5480.00    1.11331   1.07255   -1.000
 5481.00    1.10593   1.07960   -1.000
 5482.00    1.10406   1.08444   -1.000
 5483.00    1.11152   1.08964   -1.000
 5484.00    1.11962   1.09647   -1.000
 5485.00    1.13239   1.10260   -1.000
 5486.00    1.13431   1.10466   -1.000
 5487.00    1.12451   1.10246   -1.000
 5488.00    1.12075   1.09866   -1.000
 5489.00    1.11917   1.09688   -1.000
 5490.00    1.12469   1.09812   -1.000
 5491.00    1.12653   1.10080   -1.000
 5492.00    1.12362   1.10331   -1.000
 5493.00    1.12491   1.10441   -1.000
 5494.00    1.12589   1.10391   -1.000
 5495.00    1.12836   1.10174   -1.000
 5496.00    1.12468   1.09802   -1.000
 5497.00    1.11214   1.09413   -1.000
 5498.00    1.10797   1.09135   -1.000
 5499.00    1.12155   1.08954   -1.000
 5500.00    1.12627   1.08745   -1.000
 5501.00    1.11601   1.08362   -1.000
 5502.00    1.10724   1.07953   -1.000
 5503.00    1.11219   1.07773   -1.000
 5504.00    1.12306   1.07681   -1.000
 5505.00    1.11872   1.07504   -1.000
 5506.00    1.10335   1.07204   -1.000
 5507.00    1.09614   1.07000   -1.000
 5508.00    1.10438   1.07182   -1.000
 5509.00    1.11924   1.07590   -1.000
 5510.00    1.11986   1.07869   -1.000
 5511.00    1.10933   1.07724   -1.000
 5512.00    1.09938   1.07193   -1.000
 5513.00    1.08904   1.06670   -1.000
 5514.00    1.09047   1.06568   -1.000
 5515.00    1.09975   1.07073   -1.000
 5516.00    1.11469   1.08013   -1.000
 5517.00    1.12618   1.09118   -1.000
 5518.00    1.13765   1.10116   -1.000
 5519.00    1.14272   1.10860   -1.000
 5520.00    1.14496   1.11268   -1.000
 5521.00    1.13744   1.11397   -1.000
 5522.00    1.13707   1.11301   -1.000
 5523.00    1.13803   1.10994   -1.000
 5524.00    1.13445   1.10358   -1.000
 5525.00    1.12290   1.09255   -1.000
 5526.00    1.10290   1.07784   -1.000
 5527.00    1.08590   1.06302   -1.000
 5528.00    1.07398   1.05426   -1.000
 5529.00    1.08209   1.05542   -1.000
 5530.00    1.10487   1.06593   -1.000
 5531.00    1.12242   1.07962   -1.000
 5532.00    1.12379   1.08915   -1.000
 5533.00    1.11634   1.09199   -1.000
 5534.00    1.10915   1.08999   -1.000
 5535.00    1.11056   1.08772   -1.000
 5536.00    1.11226   1.08833   -1.000
 5537.00    1.12084   1.09216   -1.000
 5538.00    1.12565   1.09725   -1.000
 5539.00    1.12950   1.10200   -1.000
 5540.00    1.13084   1.10576   -1.000
 5541.00    1.13268   1.10758   -1.000
 5542.00    1.13778   1.10626   -1.000
 5543.00    1.13098   1.10270   -1.000
 5544.00    1.12199   1.09924   -1.000
 5545.00    1.12158   1.09818   -1.000
 5546.00    1.11976   1.10018   -1.000
 5547.00    1.12536   1.10432   -1.000
 5548.00    1.13509   1.10965   -1.000
 5549.00    1.14161   1.11482   -1.000
 5550.00    1.14471   1.11788   -1.000
 5551.00    1.13861   1.11802   -1.000
 5552.00    1.13564   1.11549   -1.000
 5553.00    1.12888   1.11139   -1.000
 5554.00    1.11933   1.10782   -1.000
 5555.00    1.12286   1.10621   -1.000
 5556.00    1.12385   1.10683   -1.000
 5557.00    1.12801   1.10854   -1.000
 5558.00    1.13258   1.11021   -1.000
 5559.00    1.13411   1.11095   -1.000
 5560.00    1.12946   1.10976   -1.000
 5561.00    1.13049   1.10616   -1.000
 5562.00    1.12101   1.10062   -1.000
 5563.00    1.11538   1.09462   -1.000
 5564.00    1.11414   1.08970   -1.000
 5565.00    1.10854   1.08635   -1.000
 5566.00    1.10535   1.08419   -1.000
 5567.00    1.10536   1.08255   -1.000
 5568.00    1.10815   1.08094   -1.000
 5569.00    1.10320   1.07907   -1.000
 5570.00    1.09246   1.07704   -1.000
 5571.00    1.08283   1.07485  293.001
 5572.00    1.07691   1.07310  297.876
 5573.00    1.08041   1.07268  308.259
 5574.00    1.10173   1.07462   -1.000
 5575.00    1.10679   1.07862   -1.000
 5576.00    1.10704   1.08307   -1.000
 5577.00    1.11513   1.08787   -1.000
 5578.00    1.11447   1.09266   -1.000
 5579.00    1.11719   1.09656   -1.000
 5580.00    1.12178   1.09874   -1.000
 5581.00    1.11590   1.09907   -1.000
 5582.00    1.11378   1.09814   -1.000
 5583.00    1.11176   1.09577   -1.000
 5584.00    1.11642   1.09007   -1.000
 5585.00    1.10943   1.07922   -1.000
 5586.00    1.08559   1.06259   -1.000
 5587.00    1.06384   1.04394   -1.000
 5588.00    1.05437   1.03029   -1.000
 5589.00    1.05698   1.02573   -1.000
 5590.00    1.06925   1.03091   -1.000
 5591.00    1.08859   1.04145   -1.000
 5592.00    1.09389   1.05224   -1.000
 5593.00    1.09117   1.05946   -1.000
 5594.00    1.09133   1.06366   -1.000
 5595.00    1.09126   1.06672   -1.000
 5596.00    1.10207   1.06899   -1.000
 5597.00    1.10489   1.06930   -1.000
 5598.00    1.09212   1.06592   -1.000
 5599.00    1.08773   1.06023   -1.000
 5600.00    1.08628   1.05469   -1.000
 5601.00    1.07800   1.05030   -1.000
 5602.00    1.06948   1.04961   -1.000
 5603.00    1.07186   1.05584   -1.000
 5604.00    1.09257   1.06918   -1.000
 5605.00    1.11561   1.08685   -1.000
 5606.00    1.12812   1.10379   -1.000
 5607.00    1.13473   1.11614   -1.000
 5608.00    1.13533   1.12349   -1.000
 5609.00    1.13437   1.12682   -1.000
 5610.00    1.13590   1.12758   -1.000
 5611.00    1.13538   1.12559   -1.000
 5612.00    1.13483   1.11912   -1.000
 5613.00    1.12852   1.10613   -1.000
 5614.00    1.10152   1.08795   -1.000
 5615.00    1.07738   1.07044  303.966
 5616.00    1.07465   1.06022   -1.000
 5617.00    1.08656   1.06178   -1.000
 5618.00    1.10266   1.07126   -1.000
 5619.00    1.11380   1.08290   -1.000
 5620.00    1.11406   1.09215   -1.000
 5621.00    1.11700   1.09686   -1.000
 5622.00    1.11846   1.09654   -1.000
 5623.00    1.10914   1.09210   -1.000
 5624.00    1.08805   1.08578  299.341
 5625.00    1.08700   1.08209  298.101
 5626.00    1.09609   1.08373   -1.000
 5627.00    1.10686   1.09048   -1.000
 5628.00    1.12015   1.09989   -1.000
 5629.00    1.12699   1.10860   -1.000
 5630.00    1.13206   1.11489   -1.000
 5631.00    1.13217   1.11774   -1.000
 5632.00    1.13362   1.11680   -1.000
 5633.00    1.12915   1.11283   -1.000
 5634.00    1.12403   1.10731   -1.000
 5635.00    1.12070   1.10120   -1.000
 5636.00    1.11617   1.09581   -1.000
 5637.00    1.11033   1.09176   -1.000
 5638.00    1.10635   1.08935   -1.000
 5639.00    1.10865   1.08832   -1.000
 5640.00    1.10467   1.08793   -1.000
 5641.00    1.10016   1.08765   -1.000
 5642.00    1.10798   1.08811   -1.000
 5643.00    1.11214   1.08979   -1.000
 5644.00    1.10862   1.09233   -1.000
 5645.00    1.11559   1.09520   -1.000
 5646.00    1.12619   1.09769   -1.000
 5647.00    1.12152   1.09899   -1.000
 5648.00    1.11782   1.09892   -1.000
 5649.00    1.12121   1.09814   -1.000
 5650.00    1.11673   1.09727   -1.000
 5651.00    1.12239   1.09692   -1.000
 5652.00    1.12724   1.09616   -1.000
 5653.00    1.12392   1.09387   -1.000
 5654.00    1.11905   1.08918   -1.000
 5655.00    1.10725   1.08144   -1.000
 5656.00    1.09816   1.07098   -1.000
 5657.00    1.08311   1.05933   -1.000
 5658.00    1.06009   1.04958   -1.000
 5659.00    1.06273   1.04559   -1.000
 5660.00    1.07945   1.04812   -1.000
 5661.00    1.09143   1.05428   -1.000
 5662.00    1.09197   1.06149   -1.000
 5663.00    1.09245   1.06826   -1.000
 5664.00    1.10725   1.07501   -1.000
 5665.00    1.11127   1.08135   -1.000
 5666.00    1.10731   1.08533   -1.000
 5667.00    1.11030   1.08635   -1.000
 5668.00    1.10071   1.08598   -1.000
 5669.00    1.09704   1.08626   -1.000
 5670.00    1.10046   1.08862   -1.000
 5671.00    1.10704   1.09267   -1.000
 5672.00    1.11959   1.09733   -1.000
 5673.00    1.12782   1.10117   -1.000
 5674.00    1.12629   1.10373   -1.000
 5675.00    1.12026   1.10483   -1.000
 5676.00    1.12466   1.10520   -1.000
 5677.00    1.11883   1.10506   -1.000
 5678.00    1.11599   1.10382   -1.000
 5679.00    1.11797   1.10054   -1.000
 5680.00    1.10944   1.09467   -1.000
 5681.00    1.10830   1.08666   -1.000
 5682.00    1.10541   1.07823   -1.000
 5683.00    1.09716   1.07165   -1.000
 5684.00    1.09723   1.06831   -1.000
 5685.00    1.09721   1.06793   -1.000
 5686.00    1.09121   1.06850   -1.000
 5687.00    1.08712   1.06823   -1.000
 5688.00    1.08712   1.06798   -1.000
 5689.00    1.09207   1.06953   -1.000
 5690.00    1.10399   1.07441   -1.000
 5691.00    1.11515   1.08169   -1.000
 5692.00    1.11716   1.08899   -1.000
 5693.00    1.11641   1.09472   -1.000
 5694.00    1.11824   1.09821   -1.000
 5695.00    1.11572   1.09988   -1.000
 5696.00    1.11427   1.09949   -1.000
 5697.00    1.11495   1.09717   -1.000
 5698.00    1.11008   1.09265   -1.000
 5699.00    1.09528   1.08674   -1.000
 5700.00    1.09436   1.08087   -1.000
 5701.00    1.09279   1.07636   -1.000
 5702.00    1.08522   1.07428   -1.000
 5703.00    1.09017   1.07398   -1.000
 5704.00    1.09774   1.07411   -1.000
 5705.00    1.09449   1.07224   -1.000
 5706.00    1.08857   1.06700   -1.000
 5707.00    1.07237   1.05873   -1.000
 5708.00    1.06299   1.04891   -1.000
 5709.00    1.05112   1.04035   -1.000
 5710.00    1.04801   1.03624   -1.000
 5711.00    1.05613   1.03857   -1.000
 5712.00    1.06675   1.04700   -1.000
 5713.00    1.08431   1.05956   -1.000
 5714.00    1.09894   1.07248   -1.000
 5715.00    1.10232   1.08302   -1.000
 5716.00    1.11069   1.08983   -1.000
 5717.00    1.11211   1.09455   -1.000
 5718.00    1.10999   1.09854   -1.000
 5719.00    1.11411   1.10274   -1.000
 5720.00    1.11867   1.10706   -1.000
 5721.00    1.12388   1.11102   -1.000
 5722.00    1.13007   1.11397   -1.000
 5723.00    1.12650   1.11537   -1.000
 5724.00    1.12486   1.11469   -1.000
 5725.00    1.11725   1.11204  302.550
 5726.00    1.10840   1.10781  300.927
 5727.00    1.10292   1.10356  297.830
 5728.00    1.10946   1.10088   -1.000
 5729.00    1.12009   1.09996   -1.000
 5730.00    1.11808   1.10033   -1.000
 5731.00    1.10915   1.10072   -1.000
 5732.00    1.11174   1.10152   -1.000
 5733.00    1.11540   1.10337   -1.000
 5734.00    1.11934   1.10633   -1.000
 5735.00    1.12038   1.10945   -1.000
 5736.00    1.11588   1.11137  299.110
 5737.00    1.11958   1.11200  298.786
 5738.00    1.11938   1.11180  296.329
 5739.00    1.11477   1.11138  295.078
 5740.00    1.11590   1.11063  297.225
 5741.00    1.11396   1.10949  300.206
 5742.00    1.11252   1.10814  300.854
 5743.00    1.11572   1.10759   -1.000
 5744.00    1.11750   1.10779   -1.000
 5745.00    1.12096   1.10820   -1.000
 5746.00    1.11913   1.10777   -1.000
 5747.00    1.10838   1.10662  307.621
 5748.00    1.10732   1.10557  306.825
 5749.00    1.10899   1.10470  302.277
 5750.00    1.11432   1.10308   -1.000
 5751.00    1.11250   1.09902   -1.000
 5752.00    1.10342   1.09280   -1.000
 5753.00    1.08997   1.08713  299.103
 5754.00    1.08458   1.08483  303.097
 5755.00    1.09664   1.08804   -1.000
 5756.00    1.11055   1.09498   -1.000
 5757.00    1.12165   1.10279   -1.000
 5758.00    1.12116   1.10793   -1.000
 5759.00    1.11909   1.10876   -1.000
 5760.00    1.11324   1.10529   -1.000
 5761.00    1.10381   1.09958  294.185
 5762.00    1.09433   1.09437  293.757
 5763.00    1.09761   1.09317  294.551
 5764.00    1.10827   1.09694   -1.000
 5765.00    1.11586   1.10414   -1.000
 5766.00    1.12647   1.11153   -1.000
 5767.00    1.12544   1.11615   -1.000
 5768.00    1.12637   1.11764   -1.000
 5769.00    1.12407   1.11657  299.077
 5770.00    1.12054   1.11409  297.600
 5771.00    1.11343   1.11084  297.625
 5772.00    1.11057   1.10733  299.071
 5773.00    1.11313   1.10407   -1.000
 5774.00    1.10512   1.10198  310.996
 5775.00    1.10240   1.10129  314.104
 5776.00    1.10929   1.10157   -1.000
 5777.00    1.11225   1.10123   -1.000
 5778.00    1.11315   1.09829   -1.000
 5779.00    1.11094   1.09179   -1.000
 5780.00    1.10601   1.08337   -1.000
 5781.00    1.09554   1.07534   -1.000
 5782.00    1.09380   1.07023   -1.000
 5783.00    1.09589   1.06850   -1.000
 5784.00    1.09512   1.06962   -1.000
 5785.00    1.09670   1.07272   -1.000
 5786.00    1.10405   1.07716   -1.000
 5787.00    1.10939   1.08273   -1.000
 5788.00    1.11351   1.08775   -1.000
 5789.00    1.11673   1.09050   -1.000
 5790.00    1.11035   1.09101   -1.000
 5791.00    1.10528   1.09076   -1.000
 5792.00    1.11165   1.09206   -1.000
 5793.00    1.11760   1.09554   -1.000
 5794.00    1.12022   1.10006   -1.000
 5795.00    1.12468   1.10392   -1.000
 5796.00    1.12249   1.10571   -1.000
 5797.00    1.12014   1.10553   -1.000
 5798.00    1.11624   1.10480   -1.000
 5799.00    1.12144   1.10551   -1.000
 5800.00    1.13192   1.10770   -1.000
 5801.00    1.13381   1.11010   -1.000
 5802.00    1.13140   1.11116   -1.000
 5803.00    1.12900   1.10991   -1.000
 5804.00    1.12404   1.10698   -1.000
 5805.00    1.11819   1.10379   -1.000
 5806.00    1.11538   1.10216   -1.000
 5807.00    1.12225   1.10247   -1.000
 5808.00    1.12770   1.10430   -1.000
 5809.00    1.12806   1.10662   -1.000
 5810.00    1.13145   1.10896   -1.000
 5811.00    1.13317   1.11073   -1.000
 5812.00    1.13459   1.11121   -1.000
 5813.00    1.13061   1.10986   -1.000
 5814.00    1.13261   1.10714   -1.000
 5815.00    1.12708   1.10405   -1.000
 5816.00    1.12458   1.10235   -1.000
 5817.00    1.12603   1.10326   -1.000
 5818.00    1.13221   1.10652   -1.000
 5819.00    1.13899   1.11032   -1.000
 5820.00    1.13836   1.11320   -1.000
 5821.00    1.13596   1.11472   -1.000
 5822.00    1.13960   1.11549   -1.000
 5823.00    1.13953   1.11592   -1.000
 5824.00    1.13669   1.11614   -1.000
 5825.00    1.13666   1.11612   -1.000
 5826.00    1.14191   1.11628   -1.000
 5827.00    1.13783   1.11672   -1.000
 5828.00    1.13488   1.11738   -1.000
 5829.00    1.14208   1.11772   -1.000
 5830.00    1.14420   1.11758   -1.000
 5831.00    1.14183   1.11693   -1.000
 5832.00    1.14268   1.11567   -1.000
 5833.00    1.14197   1.11404   -1.000
 5834.00    1.13817   1.11245   -1.000
 5835.00    1.13513   1.11174   -1.000
 5836.00    1.13707   1.11220   -1.000
 5837.00    1.13832   1.11362   -1.000
 5838.00    1.13993   1.11504   -1.000
 5839.00    1.14040   1.11610   -1.000
 5840.00    1.14019   1.11665   -1.000
 5841.00    1.14081   1.11691   -1.000
 5842.00    1.14122   1.11664   -1.000
 5843.00    1.14104   1.11555   -1.000
 5844.00    1.13700   1.11354   -1.000
 5845.00    1.13355   1.11078   -1.000
 5846.00    1.13267   1.10770   -1.000
 5847.00    1.13217   1.10530   -1.000
 5848.00    1.13259   1.10386   -1.000
 5849.00    1.13305   1.10300   -1.000
 5850.00    1.13067   1.10100   -1.000
 5851.00    1.12888   1.09707   -1.000
 5852.00    1.11888   1.09116   -1.000
 5853.00    1.10396   1.08449   -1.000
 5854.00    1.10047   1.07789   -1.000
 5855.00    1.10686   1.07113   -1.000
 5856.00    1.10553   1.06423   -1.000
 5857.00    1.09303   1.05780   -1.000
 5858.00    1.09244   1.05471   -1.000
 5859.00    1.10196   1.05707   -1.000
 5860.00    1.11297   1.06351   -1.000
 5861.00    1.12485   1.07164   -1.000
 5862.00    1.12586   1.07892   -1.000
 5863.00    1.11918   1.08420   -1.000
 5864.00    1.12025   1.08749   -1.000
 5865.00    1.12045   1.08823   -1.000
 5866.00    1.11925   1.08726   -1.000
 5867.00    1.11602   1.08656   -1.000
 5868.00    1.11735   1.08779   -1.000
 5869.00    1.12753   1.09169   -1.000
 5870.00    1.13053   1.09659   -1.000
 5871.00    1.13222   1.10029   -1.000
 5872.00    1.13078   1.10153   -1.000
 5873.00    1.12454   1.10056   -1.000
 5874.00    1.11742   1.09846   -1.000
 5875.00    1.11786   1.09617   -1.000
 5876.00    1.11765   1.09388   -1.000
 5877.00    1.11807   1.09156   -1.000
 5878.00    1.11162   1.08890   -1.000
 5879.00    1.10628   1.08582   -1.000
 5880.00    1.09668   1.08231   -1.000
 5881.00    1.08623   1.07837   -1.000
 5882.00    1.07754   1.07393  345.575
 5883.00    1.05683   1.06895   -1.000
 5884.00    1.03968   1.06329   -1.000
 5885.00    1.04293   1.05512   -1.000
 5886.00    1.06469   1.04090   -1.000
 5887.00    1.07360   1.01641   -1.000
 5888.00    1.04762   0.98194   -1.000
 5889.00    0.99454   0.94660   -1.000
 5890.00    0.96174   0.92139   -1.000
 5891.00    0.97533   0.91574   -1.000
 5892.00    1.01609   0.92301   -1.000
 5893.00    1.04401   0.93258   -1.000
 5894.00    1.03913   0.93526   -1.000
 5895.00    1.01905   0.93158   -1.000
 5896.00    1.01044   0.93044   -1.000
 5897.00    1.02952   0.93877   -1.000
 5898.00    1.06654   0.95903   -1.000
 5899.00    1.08925   0.98460   -1.000
 5900.00    1.09599   1.00967   -1.000
 5901.00    1.10478   1.03075   -1.000
 5902.00    1.10730   1.04661   -1.000
 5903.00    1.10488   1.05722   -1.000
 5904.00    1.10455   1.06373   -1.000
 5905.00    1.10477   1.06738   -1.000
 5906.00    1.10731   1.07008   -1.000
 5907.00    1.10776   1.07252   -1.000
 5908.00    1.10956   1.07496   -1.000
 5909.00    1.11124   1.07682   -1.000
 5910.00    1.10865   1.07770   -1.000
 5911.00    1.10111   1.07665   -1.000
 5912.00    1.09571   1.07356   -1.000
 5913.00    1.08379   1.06849   -1.000
 5914.00    1.07194   1.06328   -1.000
 5915.00    1.07590   1.05995   -1.000
 5916.00    1.07642   1.05964   -1.000
 5917.00    1.08045   1.06241   -1.000
 5918.00    1.09091   1.06668   -1.000
 5919.00    1.10466   1.07111   -1.000
 5920.00    1.10873   1.07398   -1.000
 5921.00    1.10975   1.07547   -1.000
 5922.00    1.10970   1.07588   -1.000
 5923.00    1.11048   1.07644   -1.000
 5924.00    1.11415   1.07752   -1.000
 5925.00    1.11581   1.07908   -1.000
 5926.00    1.11135   1.07989   -1.000
 5927.00    1.11348   1.07879   -1.000
 5928.00    1.11484   1.07552   -1.000
 5929.00    1.10821   1.07146   -1.000
 5930.00    1.10087   1.06884   -1.000
 5931.00    1.10513   1.06857   -1.000
 5932.00    1.10331   1.07036   -1.000
 5933.00    1.09560   1.07231   -1.000
 5934.00    1.08697   1.07372   -1.000
 5935.00    1.07721   1.07525  307.176
 5936.00    1.07966   1.07723  306.278
 5937.00    1.08718   1.07931   -1.000
 5938.00    1.09053   1.08024   -1.000
 5939.00    1.09259   1.07920   -1.000
 5940.00    1.09008   1.07681   -1.000
 5941.00    1.08566   1.07410   -1.000
 5942.00    1.08597   1.07281   -1.000
 5943.00    1.09183   1.07289   -1.000
 5944.00    1.09785   1.07396   -1.000
 5945.00    1.11008   1.07455   -1.000
 5946.00    1.11637   1.07381   -1.000
 5947.00    1.11527   1.07177   -1.000
 5948.00    1.10598   1.06942   -1.000
 5949.00    1.09913   1.06813   -1.000
 5950.00    1.09729   1.06786   -1.000
 5951.00    1.09207   1.06813   -1.000
 5952.00    1.08799   1.06787   -1.000
 5953.00    1.08892   1.06719   -1.000
 5954.00    1.09339   1.06679   -1.000
 5955.00    1.09845   1.06651   -1.000
 5956.00    1.09670   1.06617   -1.000
 5957.00    1.09494   1.06665   -1.000
 5958.00    1.10012   1.06854   -1.000
 5959.00    1.10163   1.07210   -1.000
 5960.00    1.09688   1.07645   -1.000
 5961.00    1.09765   1.08012   -1.000
 5962.00    1.10331   1.08233   -1.000
 5963.00    1.10544   1.08271   -1.000
 5964.00    1.10515   1.08169   -1.000
 5965.00    1.10524   1.07994   -1.000
 5966.00    1.10474   1.07851   -1.000
 5967.00    1.10669   1.07797   -1.000
 5968.00    1.11329   1.07872   -1.000
 5969.00    1.11251   1.08028   -1.000
 5970.00    1.10707   1.08230   -1.000
 5971.00    1.10719   1.08397   -1.000
 5972.00    1.11371   1.08431   -1.000
 5973.00    1.11453   1.08276   -1.000
 5974.00    1.11060   1.07900   -1.000
 5975.00    1.10576   1.07389   -1.000
 5976.00    1.10040   1.06911   -1.000
 5977.00    1.09786   1.06627   -1.000
 5978.00    1.09976   1.06663   -1.000
 5979.00    1.10283   1.06910   -1.000
 5980.00    1.10437   1.07200   -1.000
 5981.00    1.10454   1.07284   -1.000
 5982.00    1.09721   1.07069   -1.000
 5983.00    1.08800   1.06625   -1.000
 5984.00    1.08230   1.06188   -1.000
 5985.00    1.08057   1.05993   -1.000
 5986.00    1.08561   1.06103   -1.000
 5987.00    1.09296   1.06444   -1.000
 5988.00    1.09989   1.06806   -1.000
 5989.00    1.10217   1.07092   -1.000
 5990.00    1.10033   1.07247   -1.000
 5991.00    1.09934   1.07384   -1.000
 5992.00    1.10373   1.07564   -1.000
 5993.00    1.10702   1.07804   -1.000
 5994.00    1.10574   1.07994   -1.000
 5995.00    1.10770   1.07984   -1.000
 5996.00    1.10472   1.07817   -1.000
 5997.00    1.10406   1.07548   -1.000
 5998.00    1.10305   1.07345   -1.000
 5999.00    1.10448   1.07218   -1.000
 6000.00    1.10778   1.07145   -1.000
 6001.00    1.10393   1.07040   -1.000
 6002.00    1.10069   1.06887   -1.000
 6003.00    1.09430   1.06713   -1.000
 6004.00    1.08949   1.06542   -1.000
 6005.00    1.09055   1.06331   -1.000
 6006.00    1.08764   1.06022   -1.000
 6007.00    1.08070   1.05659   -1.000
 6008.00    1.07901   1.05458   -1.000
 6009.00    1.08381   1.05550   -1.000
 6010.00    1.09326   1.05888   -1.000
 6011.00    1.10085   1.06250   -1.000
 6012.00    1.10112   1.06394   -1.000
 6013.00    1.09252   1.06362   -1.000
 6014.00    1.09105   1.06220   -1.000
 6015.00    1.09463   1.06104   -1.000
 6016.00    1.09252   1.06012   -1.000
 6017.00    1.09183   1.05900   -1.000
 6018.00    1.09017   1.05714   -1.000
 6019.00    1.08479   1.05444   -1.000
 6020.00    1.07982   1.05157   -1.000
 6021.00    1.07817   1.04952   -1.000
 6022.00    1.08086   1.04935   -1.000
 6023.00    1.08291   1.05100   -1.000
 6024.00    1.08435   1.05422   -1.000
 6025.00    1.08818   1.05879   -1.000
 6026.00    1.09488   1.06405   -1.000
 6027.00    1.09816   1.06915   -1.000
 6028.00    1.10119   1.07368   -1.000
 6029.00    1.10539   1.07753   -1.000
 6030.00    1.10466   1.08041   -1.000
 6031.00    1.10252   1.08242   -1.000
 6032.00    1.10271   1.08371   -1.000
 6033.00    1.10723   1.08479   -1.000
 6034.00    1.10668   1.08569   -1.000
 6035.00    1.10509   1.08633   -1.000
 6036.00    1.10664   1.08617   -1.000
 6037.00    1.10451   1.08518   -1.000
 6038.00    1.10078   1.08314   -1.000
 6039.00    1.09748   1.08044   -1.000
 6040.00    1.09991   1.07760   -1.000
 6041.00    1.10393   1.07549   -1.000
 6042.00    1.10180   1.07471   -1.000
 6043.00    1.10315   1.07548   -1.000
 6044.00    1.10784   1.07733   -1.000
 6045.00    1.10926   1.07982   -1.000
 6046.00    1.10799   1.08217   -1.000
 6047.00    1.10690   1.08454   -1.000
 6048.00    1.10792   1.08650   -1.000
 6049.00    1.10503   1.08780   -1.000
 6050.00    1.10158   1.08821   -1.000
 6051.00    1.10050   1.08733   -1.000
 6052.00    1.10067   1.08532   -1.000
 6053.00    1.10014   1.08184   -1.000
 6054.00    1.09938   1.07786   -1.000
 6055.00    1.09649   1.07424   -1.000
 6056.00    1.10128   1.07257   -1.000
 6057.00    1.07489   1.07307  307.946
 6058.00    0.83537   1.07542   -1.000
 6059.00    0.76635   1.07790   -1.000
 6060.00    1.05608   1.07930  127.338
 6061.00    0.68361   1.07831   -1.000
 6062.00    0.17017   1.07455   -1.000
 6063.00    0.40374   1.06840   -1.000
 6064.00    0.86650   1.06192   -1.000
 6065.00    1.08080   1.05771   -1.000
 6066.00    1.08222   1.05796   -1.000
 6067.00    0.68875   1.06261   -1.000
 6068.00    0.48265   1.06917   -1.000
 6069.00    1.00086   1.07572   -1.000
 6070.00    1.12745   1.08048   -1.000
 6071.00    1.10311   1.08360   -1.000
 6072.00    1.10319   1.08539   -1.000
 6073.00    1.10355   1.08636   -1.000
 6074.00    1.10621   1.08632   -1.000
 6075.00    1.10206   1.08494   -1.000
 6076.00    1.09780   1.08182   -1.000
 6077.00    1.09109   1.07756   -1.000
 6078.00    1.08578   1.07302   -1.000
 6079.00    1.08422   1.06939   -1.000
 6080.00    1.08508   1.06717   -1.000
 6081.00    1.08588   1.06559   -1.000
 6082.00    1.08255   1.06405   -1.000
 6083.00    1.07832   1.06252   -1.000
 6084.00    1.07706   1.06150   -1.000
 6085.00    1.07798   1.06169   -1.000
 6086.00    1.07891   1.06314   -1.000
 6087.00    1.07906   1.06519   -1.000
 6088.00    1.08362   1.06660   -1.000
 6089.00    1.08283   1.06663   -1.000
 6090.00    1.07698   1.06573   -1.000
 6091.00    1.07459   1.06477   -1.000
 6092.00    1.07698   1.06494   -1.000
 6093.00    1.07735   1.06633   -1.000
 6094.00    1.08156   1.06876   -1.000
 6095.00    1.08811   1.07161   -1.000
 6096.00    1.08689   1.07406   -1.000
 6097.00    1.08526   1.07553   -1.000
 6098.00    1.08607   1.07450   -1.000
 6099.00    1.08402   1.06994   -1.000
 6100.00    1.07557   1.06095   -1.000
 6101.00    1.06112   1.04917   -1.000
 6102.00    1.04734   1.03862   -1.000
 6103.00    1.04578   1.03341   -1.000
 6104.00    1.05711   1.03605   -1.000
 6105.00    1.07295   1.04402   -1.000
 6106.00    1.08044   1.05376   -1.000
 6107.00    1.07604   1.06226   -1.000
 6108.00    1.07341   1.06832  304.025
 6109.00    1.07403   1.07242  305.770
 6110.00    1.07601   1.07466  307.012
 6111.00    1.07941   1.07569  307.869
 6112.00    1.07989   1.07605  311.014
 6113.00    1.08063   1.07626  315.500
 6114.00    1.08318   1.07651  318.967
 6115.00    1.08371   1.07654   -1.000
 6116.00    1.08101   1.07596  317.646
 6117.00    1.07673   1.07417  312.702
 6118.00    1.07505   1.07029  310.874
 6119.00    1.07032   1.06305   -1.000
 6120.00    1.05750   1.05275  312.793
 6121.00    1.04451   1.04135  312.072
 6122.00    1.04026   1.03273  310.389
 6123.00    1.04592   1.03014   -1.000
 6124.00    1.05747   1.03365   -1.000
 6125.00    1.06434   1.04112   -1.000
 6126.00    1.06221   1.04872   -1.000
 6127.00    1.06007   1.05482  313.141
 6128.00    1.06166   1.05905  321.710
 6129.00    1.06474   1.06276  330.620
 6130.00    1.06940   1.06671  334.834
 6131.00    1.07323   1.07040  330.168
 6132.00    1.07401   1.07198  320.739
 6133.00    1.06862   1.06903  314.686
 6134.00    1.05821   1.05945  313.775
 6135.00    1.03934   1.04439  314.528
 6136.00    1.01609   1.02802   -1.000
 6137.00    1.00422   1.01585   -1.000
 6138.00    1.00865   1.01136  307.298
 6139.00    1.02761   1.01343   -1.000
 6140.00    1.04048   1.01902   -1.000
 6141.00    1.03953   1.02690   -1.000
 6142.00    1.03549   1.03591  314.105
 6143.00    1.04254   1.04541  314.894
 6144.00    1.05774   1.05350  314.136
 6145.00    1.06797   1.05828   -1.000
 6146.00    1.06942   1.05962   -1.000
 6147.00    1.06341   1.05817  312.556
 6148.00    1.05764   1.05569  314.808
 6149.00    1.05396   1.05345  315.537
 6150.00    1.05238   1.05250  316.306
 6151.00    1.05157   1.05279  318.878
 6152.00    1.05657   1.05363  323.943
 6153.00    1.06249   1.05379   -1.000
 6154.00    1.06179   1.05258   -1.000
 6155.00    1.05761   1.05031   -1.000
 6156.00    1.05350   1.04764  346.556
 6157.00    1.05068   1.04417   -1.000
 6158.00    1.04888   1.03812   -1.000
 6159.00    1.04494   1.02754   -1.000
 6160.00    1.02847   1.01194   -1.000
 6161.00    1.00405   0.99461   -1.000
 6162.00    0.98870   0.98088   -1.000
 6163.00    0.98967   0.97551   -1.000
 6164.00    1.00544   0.97924   -1.000
 6165.00    1.02220   0.98798   -1.000
 6166.00    1.02860   0.99681   -1.000
 6167.00    1.02926   1.00121   -1.000
 6168.00    1.02447   1.00154   -1.000
 6169.00    1.01534   1.00018   -1.000
 6170.00    1.01415   1.00186   -1.000
 6171.00    1.02279   1.00767   -1.000
 6172.00    1.03047   1.01635   -1.000
 6173.00    1.03577   1.02542   -1.000
 6174.00    1.04049   1.03273   -1.000
 6175.00    1.04243   1.03795  315.626
 6176.00    1.04547   1.04127  315.744
 6177.00    1.04864   1.04365  316.756
 6178.00    1.04909   1.04553  318.756
 6179.00    1.05081   1.04731  321.979
 6180.00    1.05094   1.04928  325.439
 6181.00    1.04880   1.05150  328.620
 6182.00    1.05134   1.05360  331.274
 6183.00    1.05581   1.05473  334.835
 6184.00    1.05625   1.05405  337.983
 6185.00    1.05456   1.05168  336.290
 6186.00    1.05226   1.04776  329.297
 6187.00    1.04642   1.04273  322.633
 6188.00    1.03683   1.03649  319.619
 6189.00    1.02745   1.02914  318.748
 6190.00    1.01698   1.02192  319.941
 6191.00    1.00577   1.01720   -1.000
 6192.00    1.00941   1.01773  326.358
 6193.00    1.02682   1.02339  327.064
 6194.00    1.04200   1.03156   -1.000
 6195.00    1.04966   1.03964   -1.000
 6196.00    1.04892   1.04508  318.648
 6197.00    1.04357   1.04736  318.538
 6198.00    1.03778   1.04664  318.223
 6199.00    1.03236   1.04458   -1.000
 6200.00    1.02800   1.04304   -1.000
 6201.00    1.03210   1.04380   -1.000
 6202.00    1.04214   1.04678  320.113
 6203.00    1.04604   1.05126  322.623
 6204.00    1.04579   1.05572  325.379
 6205.00    1.04905   1.05937  328.303
 6206.00    1.05159   1.06154  332.742
 6207.00    1.04900   1.06243   -1.000
 6208.00    1.04802   1.06179   -1.000
 6209.00    1.04891   1.05939  335.727
 6210.00    1.04480   1.05474  332.856
 6211.00    1.03392   1.04780   -1.000
 6212.00    1.02216   1.03947   -1.000
 6213.00    1.01527   1.03148   -1.000
 6214.00    1.01121   1.02544   -1.000
 6215.00    1.00952   1.02207   -1.000
 6216.00    1.01306   1.02050  352.068
 6217.00    1.02241   1.01981  335.002
 6218.00    0.97803   1.01900   -1.000
 6219.00    0.89011   1.01896   -1.000
 6220.00    0.94695   1.02023   -1.000
 6221.00    1.01802   1.02320  334.843
 6222.00    1.02087   1.02698  340.225
 6223.00    1.02348   1.03015  345.053
 6224.00    1.02348   1.03234  345.458
 6225.00    1.02312   1.03279  341.330
 6226.00    1.02710   1.03124  335.221
 6227.00    1.02880   1.02692  329.410
 6228.00    1.02064   1.01961  326.683
 6229.00    1.00521   1.01060  327.852
 6230.00    0.98908   1.00269   -1.000
 6231.00    0.98279   0.99897   -1.000
 6232.00    0.99189   1.00087  337.897
 6233.00    1.00511   1.00707  340.027
 6234.00    1.01574   1.01460  340.279
 6235.00    1.02454   1.02000  341.873
 6236.00    1.02716   1.02204  344.361
 6237.00    1.02304   1.02075  344.900
 6238.00    1.01384   1.01797  343.206
 6239.00    1.00547   1.01488  340.098
 6240.00    1.00015   1.01210   -1.000
 6241.00    0.99711   1.00910   -1.000
 6242.00    0.99643   1.00523  330.935
 6243.00    0.99606   1.00021  333.081
 6244.00    0.99686   0.99514  338.448
 6245.00    0.99550   0.99183  343.425
 6246.00    0.99199   0.99214  346.239
 6247.00    0.99478   0.99669  347.569
 6248.00    1.00243   1.00358  347.714
 6249.00    1.00983   1.00966  349.812
 6250.00    1.01106   1.01151  353.126
 6251.00    1.00033   1.00848  353.017
 6252.00    0.98165   1.00192   -1.000
 6253.00    0.97421   0.99489   -1.000
 6254.00    0.97350   0.98977   -1.000
 6255.00    0.97067   0.98710   -1.000
 6256.00    0.97031   0.98663   -1.000
 6257.00    0.96933   0.98744   -1.000
 6258.00    0.96865   0.98986   -1.000
 6259.00    0.97455   0.99400   -1.000
 6260.00    0.98518   1.00012   -1.000
 6261.00    0.99298   1.00717   -1.000
 6262.00    0.99742   1.01396   -1.000
 6263.00    1.00025   1.01916   -1.000
 6264.00    0.99932   1.02242   -1.000
 6265.00    0.99225   1.02452   -1.000
 6266.00    0.98766   1.02609   -1.000
 6267.00    0.98989   1.02735   -1.000
 6268.00    0.98550   1.02777   -1.000
 6269.00    0.96676   1.02712   -1.000
 6270.00    0.94181   1.02610   -1.000
 6271.00    0.93074   1.02523   -1.000
 6272.00    0.93397   1.02401   -1.000
 6273.00    0.94609   1.02147   -1.000
 6274.00    0.95973   1.01617   -1.000
 6275.00    0.96621   1.00868   -1.000
 6276.00    0.97307   1.00006   -1.000
 6277.00    0.97862   0.99202   -1.000
 6278.00    0.97583   0.98617  335.783
 6279.00    0.97140   0.98339   -1.000
 6280.00    0.96661   0.98452   -1.000
 6281.00    0.96670   0.98964   -1.000
 6282.00    0.97248   0.99745   -1.000
 6283.00    0.97928   1.00643   -1.000
 6284.00    0.98254   1.01451   -1.000
 6285.00    0.98562   1.02071   -1.000
 6286.00    0.98813   1.02456   -1.000
 6287.00    0.99014   1.02621   -1.000
 6288.00    0.99462   1.02591   -1.000
 6289.00    0.99476   1.02402   -1.000
 6290.00    0.99405   1.02144   -1.000
 6291.00    0.99268   1.01915   -1.000
 6292.00    0.98872   1.01760   -1.000
 6293.00    0.97984   1.01654   -1.000
 6294.00    0.97623   1.01512   -1.000
 6295.00    0.97906   1.01257   -1.000
 6296.00    0.97852   1.00870   -1.000
 6297.00    0.97259   1.00424   -1.000
 6298.00    0.96923   1.00004   -1.000
 6299.00    0.97020   0.99661   -1.000
 6300.00    0.96873   0.99425   -1.000
 6301.00    0.96514   0.99372   -1.000
 6302.00    0.96354   0.99616   -1.000
 6303.00    0.96839   1.00204   -1.000
 6304.00    0.97785   1.00988   -1.000
 6305.00    0.98610   1.01750   -1.000
 6306.00    0.99535   1.02321   -1.000
 6307.00    1.00046   1.02644   -1.000
 6308.00    0.99855   1.02758   -1.000
 6309.00    0.99623   1.02740   -1.000
 6310.00    0.99555   1.02644   -1.000
 6311.00    0.99261   1.02455   -1.000
 6312.00    0.99008   1.02177   -1.000
 6313.00    0.98518   1.01782   -1.000
 6314.00    0.97890   1.01316   -1.000
 6315.00    0.97330   1.00856   -1.000
 6316.00    0.96987   1.00474   -1.000
 6317.00    0.96984   1.00275   -1.000
 6318.00    0.97020   1.00321   -1.000
 6319.00    0.97532   1.00637   -1.000
 6320.00    0.98256   1.01148   -1.000
 6321.00    0.98488   1.01723   -1.000
 6322.00    0.98734   1.02267   -1.000
 6323.00    0.98829   1.02777   -1.000
 6324.00    0.99295   1.03215   -1.000
 6325.00    0.99872   1.03513   -1.000
 6326.00    1.00070   1.03670   -1.000
 6327.00    0.99891   1.03686   -1.000
 6328.00    0.99512   1.03653   -1.000
 6329.00    0.99428   1.03613   -1.000
 6330.00    0.98982   1.03577   -1.000
 6331.00    0.99042   1.03494   -1.000
 6332.00    0.99371   1.03269   -1.000
 6333.00    0.99075   1.02814   -1.000
 6334.00    0.98425   1.02167   -1.000
 6335.00    0.97573   1.01505   -1.000
 6336.00    0.96776   1.01076   -1.000
 6337.00    0.97185   1.01047   -1.000
 6338.00    0.98306   1.01383   -1.000
 6339.00    0.98921   1.01925   -1.000
 6340.00    0.99167   1.02490   -1.000
 6341.00    0.99237   1.02889   -1.000
 6342.00    0.99308   1.03032   -1.000
 6343.00    0.99235   1.02959   -1.000
 6344.00    0.99035   1.02787   -1.000
 6345.00    0.99059   1.02682   -1.000
 6346.00    0.99388   1.02760   -1.000
 6347.00    0.99411   1.03052   -1.000
 6348.00    0.99542   1.03496   -1.000
 6349.00    0.99884   1.03943   -1.000
 6350.00    1.00083   1.04243   -1.000
 6351.00    1.00116   1.04321   -1.000
 6352.00    0.99783   1.04163   -1.000
 6353.00    0.99272   1.03844   -1.000
 6354.00    0.98702   1.03465   -1.000
 6355.00    0.98289   1.03107   -1.000
 6356.00    0.97854   1.02802   -1.000
 6357.00    0.97362   1.02515   -1.000
 6358.00    0.96750   1.02235   -1.000
 6359.00    0.96469   1.01976   -1.000
 6360.00    0.96840   1.01742   -1.000
 6361.00    0.96880   1.01539   -1.000
 6362.00    0.96551   1.01419   -1.000
 6363.00    0.96797   1.01425   -1.000
 6364.00    0.97149   1.01586   -1.000
 6365.00    0.97426   1.01863   -1.000
 6366.00    0.97758   1.02177   -1.000
 6367.00    0.97797   1.02453   -1.000
 6368.00    0.98175   1.02620   -1.000
 6369.00    0.98226   1.02682   -1.000
 6370.00    0.97958   1.02721   -1.000
 6371.00    0.97880   1.02826   -1.000
 6372.00    0.97875   1.03018   -1.000
 6373.00    0.97840   1.03234   -1.000
 6374.00    0.97709   1.03372   -1.000
 6375.00    0.97606   1.03369   -1.000
 6376.00    0.97812   1.03240   -1.000
 6377.00    0.97683   1.03026   -1.000
 6378.00    0.97083   1.02807   -1.000
 6379.00    0.96575   1.02602   -1.000
 6380.00    0.95772   1.02434   -1.000
 6381.00    0.95309   1.02303   -1.000
 6382.00    0.95399   1.02232   -1.000
 6383.00    0.95286   1.02243   -1.000
 6384.00    0.95215   1.02353   -1.000
 6385.00    0.95144   1.02535   -1.000
 6386.00    0.94742   1.02730   -1.000
 6387.00    0.94301   1.02855   -1.000
 6388.00    0.93852   1.02864   -1.000
 6389.00    0.93702   1.02710   -1.000
 6390.00    0.93194   1.02383   -1.000
 6391.00    0.92042   1.01895   -1.000
 6392.00    0.91080   1.01377   -1.000
 6393.00    0.89955   1.01041   -1.000
 6394.00    0.89471   1.01011   -1.000
 6395.00    0.89845   1.01242   -1.000
 6396.00    0.90219   1.01485   -1.000
 6397.00    0.90038   1.01504   -1.000
 6398.00    0.89085   1.01241   -1.000
 6399.00    0.87846   1.00875   -1.000
 6400.00    0.86585   1.00715   -1.000
 6401.00    0.85990   1.00918   -1.000
 6402.00    0.87057   1.01431   -1.000
 6403.00    0.87905   1.02000   -1.000
 6404.00    0.87520   1.02376   -1.000
 6405.00    0.87011   1.02425   -1.000
 6406.00    0.86682   1.02190   -1.000
 6407.00    0.85239   1.01856   -1.000
 6408.00    0.84008   1.01584   -1.000
 6409.00    0.83475   1.01450   -1.000
 6410.00    0.83315   1.01395   -1.000
 6411.00    0.82772   1.01409   -1.000
 6412.00    0.82039   1.01506   -1.000
 6413.00    0.81682   1.01675   -1.000
 6414.00    0.81180   1.01863   -1.000
 6415.00    0.80661   1.02005   -1.000
 6416.00    0.80030   1.02050   -1.000
 6417.00    0.79385   1.01946   -1.000
 6418.00    0.78587   1.01674   -1.000
 6419.00    0.77319   1.01319   -1.000
 6420.00    0.75842   1.01070   -1.000
 6421.00    0.75123   1.01103   -1.000
 6422.00    0.74806   1.01514   -1.000
 6423.00    0.74613   1.02171   -1.000
 6424.00    0.16168   1.02847   -1.000
 6425.00    0.00000   1.03401   -2.000
 6426.00    0.00000   1.03678   -2.000
 6427.00    0.00000   1.03620   -2.000
 6428.00    0.00000   1.03206   -2.000
