###################################################################
## OUTPUT of StarlightChains_v04.for    [Cid@UFSC - 01/Apr/2007] ##
###################################################################

## Some input info
NGC2298_a_1.cxt                          [arq_obs]
Base.BC03.N                              [arq_base]
NGC2298_a_1.msk                          [arq_masks]
StCv04.C99.config                        [arq_config]
   45                                    [N_base]
    0                                    [N_YAV_components = # of components with extra extinction!]
    0                                    [i_FitPowerLaw (1/0 = Yes/No)]
-9.99                                    [alpha_PowerLaw]
CCM                                      [red_law_option]
 1.458241                                [q_norm = A(l_norm)/A(V)]

## (Re)Sampling Parameters
 3359.00                                 [l_ini (A)]
 6428.00                                 [l_fin (A)]
    1.00                                 [dl    (A)]     (OBS: dl_cushion =    50.00 A)

## Normalization info
 4020.00                                 [l_norm (A) - for base]
 4010.00                                 [llow_norm (A) - window for f_obs]
 4060.00                                 [lupp_norm (A) - window for f_obs]
3.712074E-15                             [fobs_norm (in input units)]

## S/N
 4730.00                                 [llow_SN (A) - window for S/N]
 4780.00                                 [lupp_SN (A) - window for S/N]
  81.814                                 [S/N in S/N window]
  72.947                                 [S/N in norm. window]
 157.218                                 [S/N_err in S/N window]
 140.180                                 [S/N_err in norm. window]
  1.0000                                 [fscale_chi2]

## etc...
  2147483644                             [idum_orig]
  3065                                   [NOl_eff]
  1188                                   [Nl_eff]
  1877    NSIGMA                         [Ntot_cliped & clip_method]
  1315160                                [Nglobal_steps]
   7                                     [N_chains]
   7                                     [NEX0s_base = N_base in EX0s-fits]
 0   0   1      150   2.0   3.200E+02    [Clip-Bug, RC-Crash & Burn-In warning-flags, n_censored_weights, wei_nsig_threshold & wei_limit]
    23     22.368     22.368      0.000  [idt_all, wdt_TotTime, wdt_UsrTime & wdt_SysTime (sec)]

## Synthesis Results - Best model ##

 2.68181E+00                             [chi2/Nl_eff]
     1.18674                             [adev (%)]

   103.54326                             [sum-of-x (%)]
 1.61278E-14                             [Flux_tot (units of input spectrum!)]
 7.00882E-11                             [Mini_tot (???)]
 3.89507E-11                             [Mcor_tot (???)]

   2.61                                  [v0_min  (km/s)]
 127.29                                  [vd_min  (km/s)]
 1.0678                                  [AV_min  (mag)]
 0.0000                                  [YAV_min (mag)]

# j     x_j(%)      Mini_j(%)     Mcor_j(%)     age_j(yr)     Z_j      (L/M)_j    YAV?  Mstars   component_j        a/Fe...       SSP_chi2r SSP_adev(%)   SSP_AV   SSP_x(%)
  1      0.0000     0.0000E+00    0.0000E+00    1.000000E+06  0.00400  1.114E-02    0   1.0000   age020_m42            0.0000     4.2327E+02    11.2859   3.7392    80.6303
  2     23.7324     1.2949E-01    2.3298E-01    3.160000E+06  0.00400  4.073E-02    0   0.9999   age045_m42            0.0000     7.3190E+01     4.9030   2.7945    94.1667
  3      0.0000     0.0000E+00    0.0000E+00    5.010000E+06  0.00400  2.534E-02    0   0.9488   age055_m42            0.0000     2.0744E+02     8.1194   3.1906    88.0836
  4      0.0000     0.0000E+00    0.0000E+00    1.000000E+07  0.00400  1.271E-02    0   0.8862   age070_m42            0.0000     1.8232E+02     8.1014   2.4058    91.5440
  5      0.0000     0.0000E+00    0.0000E+00    2.512000E+07  0.00400  5.070E-03    0   0.8174   age090_m42            0.0000     1.5353E+02     7.3828   2.2742    93.1156
  6      0.0000     0.0000E+00    0.0000E+00    4.000000E+07  0.00400  3.505E-03    0   0.7851   age104_m42            0.0000     8.1128E+01     5.2542   1.9586    95.9908
  7     25.4556     2.4943E+00    3.2347E+00    1.015200E+08  0.00400  2.268E-03    0   0.7207   age116_m42            0.0000     1.2069E+02     4.5173   1.9801   104.7249
  8      0.0000     0.0000E+00    0.0000E+00    2.861200E+08  0.00400  1.079E-03    0   0.6613   age125_m42            0.0000     1.4646E+02     5.5874   1.4858   106.8672
  9      0.1329     5.8180E-02    6.4876E-02    6.405400E+08  0.00400  5.077E-04    0   0.6197   age132_m42            0.0000     1.6309E+02     5.9427   1.1208   111.0174
 10     18.0755     1.1363E+01    1.2317E+01    9.047900E+08  0.00400  3.535E-04    0   0.6024   age135_m42            0.0000     9.1231E+01     4.8157   0.8774   110.2486
 11      0.0000     0.0000E+00    0.0000E+00    1.434000E+09  0.00400  1.910E-04    0   0.5716   age139_m42            0.0000     6.2595E+01     4.8503   0.3441   108.7123
 12     34.3448     7.7740E+01    7.6420E+01    2.500000E+09  0.00400  9.818E-05    0   0.5463   age150_m42            0.0000     9.0676E+01     4.8543   0.0623   104.0294
 13      1.7423     8.2066E+00    7.7202E+00    5.000000E+09  0.00400  4.718E-05    0   0.5228   age161_m42            0.0000     1.4068E+02     5.4662  -0.1055   100.5618
 14      0.0000     0.0000E+00    0.0000E+00    1.100000E+10  0.00400  2.205E-05    0   0.4980   age185_m42            0.0000     2.6136E+02     7.2739  -0.3673    98.1219
 15      0.0000     0.0000E+00    0.0000E+00    1.300000E+10  0.00400  1.883E-05    0   0.4927   age193_m42            0.0000     2.7932E+02     7.4958  -0.3851    97.9459
 16      0.0000     0.0000E+00    0.0000E+00    1.000000E+06  0.02000  1.989E-02    0   1.0000   age020_m62            0.0000     4.2650E+02    11.2311   3.6996    81.3910
 17      0.0000     0.0000E+00    0.0000E+00    3.160000E+06  0.02000  3.772E-02    0   0.9858   age045_m62            0.0000     3.7914E+02    10.7057   3.5587    83.5227
 18      0.0000     0.0000E+00    0.0000E+00    5.010000E+06  0.02000  3.227E-02    0   0.9342   age055_m62            0.0000     1.3175E+02     6.4928   3.0557    90.7376
 19      0.0000     0.0000E+00    0.0000E+00    1.000000E+07  0.02000  1.011E-02    0   0.8751   age070_m62            0.0000     4.5016E+02    12.6009   2.4154    88.0354
 20      0.0000     0.0000E+00    0.0000E+00    2.512000E+07  0.02000  4.206E-03    0   0.8099   age090_m62            0.0000     3.1517E+02    10.2842   2.3474    89.0576
 21      0.0000     0.0000E+00    0.0000E+00    4.000000E+07  0.02000  3.373E-03    0   0.7799   age104_m62            0.0000     6.4625E+01     4.6726   2.1751    97.4056
 22      0.0000     0.0000E+00    0.0000E+00    1.015200E+08  0.02000  1.878E-03    0   0.7221   age116_m62            0.0000     9.6339E+01     3.7697   2.0029   105.1220
 23      0.0000     0.0000E+00    0.0000E+00    2.861200E+08  0.02000  8.869E-04    0   0.6700   age125_m62            0.0000     2.9716E+02     7.8036   1.4872   112.0378
 24      0.0000     0.0000E+00    0.0000E+00    6.405400E+08  0.02000  3.657E-04    0   0.6322   age132_m62            0.0000     2.1081E+02     7.8600   0.7929   115.6127
 25      0.0000     0.0000E+00    0.0000E+00    9.047900E+08  0.02000  2.312E-04    0   0.6152   age135_m62            0.0000     1.3512E+02     6.8788   0.4159   114.5070
 26      0.0000     0.0000E+00    0.0000E+00    1.434000E+09  0.02000  1.168E-04    0   0.5865   age139_m62            0.0000     1.1345E+02     5.7789  -0.0027   108.4005
 27      0.0000     0.0000E+00    0.0000E+00    2.500000E+09  0.02000  5.505E-05    0   0.5610   age150_m62            0.0000     2.1810E+02     7.2536  -0.3778   105.1914
 28      0.0000     0.0000E+00    0.0000E+00    5.000000E+09  0.02000  2.596E-05    0   0.5353   age161_m62            0.0000     4.0449E+02     9.6295  -0.7082   104.7529
 29      0.0000     0.0000E+00    0.0000E+00    1.100000E+10  0.02000  1.169E-05    0   0.5103   age185_m62            0.0000     6.1924E+02    11.5146  -1.0000   103.9963
 30      0.0000     0.0000E+00    0.0000E+00    1.300000E+10  0.02000  9.691E-06    0   0.5047   age193_m62            0.0000     6.6831E+02    11.6942  -1.0000   102.9853
 31      0.0000     0.0000E+00    0.0000E+00    1.000000E+06  0.05000  2.651E-02    0   0.9998   age020_m72            0.0000     3.9464E+02    10.6376   3.7044    82.2692
 32      0.0000     0.0000E+00    0.0000E+00    3.160000E+06  0.05000  4.817E-02    0   0.9577   age045_m72            0.0000     2.6098E+02     8.7659   3.4258    86.6239
 33      0.0000     0.0000E+00    0.0000E+00    5.010000E+06  0.05000  3.101E-02    0   0.9147   age055_m72            0.0000     2.3627E+02     8.5791   3.0682    89.1867
 34      0.0000     0.0000E+00    0.0000E+00    1.000000E+07  0.05000  8.954E-03    0   0.8524   age070_m72            0.0000     2.4983E+02     8.3967   3.3075    87.8620
 35      0.0000     0.0000E+00    0.0000E+00    2.512000E+07  0.05000  4.207E-03    0   0.7902   age090_m72            0.0000     1.0426E+02     5.4077   2.8758    93.2344
 36      0.0000     0.0000E+00    0.0000E+00    4.000000E+07  0.05000  3.198E-03    0   0.7618   age104_m72            0.0000     4.9142E+01     2.8621   2.3733   100.9070
 37      0.0599     7.7540E-03    9.8952E-03    1.015200E+08  0.05000  1.716E-03    0   0.7092   age116_m72            0.0000     1.3131E+02     4.5694   2.0938   105.2625
 38      0.0000     0.0000E+00    0.0000E+00    2.861200E+08  0.05000  7.047E-04    0   0.6618   age125_m72            0.0000     2.9473E+02     8.3155   1.2771   112.4584
 39      0.0000     0.0000E+00    0.0000E+00    6.405400E+08  0.05000  2.633E-04    0   0.6253   age132_m72            0.0000     1.8333E+02     7.8488   0.4115   114.8262
 40      0.0000     0.0000E+00    0.0000E+00    9.047900E+08  0.05000  1.484E-04    0   0.6088   age135_m72            0.0000     1.6557E+02     7.1718  -0.0741   109.3990
 41      0.0000     0.0000E+00    0.0000E+00    1.434000E+09  0.05000  7.827E-05    0   0.5847   age139_m72            0.0000     2.8430E+02     8.5773  -0.4652   105.4951
 42      0.0000     0.0000E+00    0.0000E+00    2.500000E+09  0.05000  3.759E-05    0   0.5583   age150_m72            0.0000     4.3461E+02    10.0739  -0.7883   104.4076
 43      0.0000     0.0000E+00    0.0000E+00    5.000000E+09  0.05000  1.548E-05    0   0.5320   age161_m72            0.0000     6.6357E+02    11.4656  -1.0000    98.7283
 44      0.0000     0.0000E+00    0.0000E+00    1.100000E+10  0.05000  6.532E-06    0   0.5070   age185_m72            0.0000     1.1403E+03    15.6230  -1.0000    88.3926
 45      0.0000     0.0000E+00    0.0000E+00    1.300000E+10  0.05000  5.316E-06    0   0.5018   age193_m72            0.0000     1.3484E+03    17.1659  -1.0000    85.2572


## Synthesis Results - Average & Chains ##

# j      x_j: min, <> & last-chain-values for 1 ...  7 chains
  1      0.0000      0.0060      0.0000      0.0000      0.0000      0.0000      0.0000      0.0000      0.0000
  2     23.7324     22.7625     22.9390     23.1087     23.1358     23.1384     23.2946     23.1023     23.3091
  3      0.0000      0.0178      0.0000      0.0000      0.0479      0.0000      0.0000      0.0000      0.0000
  4      0.0000      0.1771      0.3247      0.3110      0.2089      0.1773      0.1074      0.2897      0.0738
  5      0.0000      0.0450      0.0168      0.0069      0.0000      0.0000      0.0000      0.0000      0.0170
  6      0.0000      0.0301      0.0000      0.0000      0.0000      0.0077      0.0000      0.0000      0.0000
  7     25.4556     23.9268     24.0577     24.0024     24.1681     24.5391     24.1417     23.7302     24.2442
  8      0.0000      0.1787      0.4335      0.4796      0.3268      0.0000      0.2125      0.3782      0.1345
  9      0.1329      0.3207      0.0600      0.6177      0.6652      0.2873      0.0000      0.5183      0.2369
 10     18.0755     19.2944     19.3266     18.8289     18.7994     19.2871     19.3924     19.5667     19.2859
 11      0.0000      0.0619      0.0491      0.0000      0.0030      0.0000      0.0583      0.0168      0.0202
 12     34.3448     33.7094     33.7857     33.7370     33.6294     34.2447     33.6963     33.4175     33.6633
 13      1.7423      1.3595      1.3097      1.1602      1.4233      1.1850      1.5053      1.1624      1.1606
 14      0.0000      0.0121      0.0000      0.0000      0.0000      0.0000      0.0000      0.0000      0.0000
 15      0.0000      0.0113      0.0115      0.0000      0.0000      0.0000      0.0000      0.0000      0.0000
 16      0.0000      0.0058      0.0000      0.0000      0.0000      0.0000      0.0000      0.0000      0.0000
 17      0.0000      0.0060      0.0000      0.0000      0.0000      0.0000      0.0000      0.0000      0.0000
 18      0.0000      0.0571      0.0211      0.0160      0.0000      0.0000      0.0000      0.0000      0.0000
 19      0.0000      0.0198      0.0000      0.0000      0.0013      0.0162      0.0000      0.0000      0.0000
 20      0.0000      0.0135      0.0234      0.0000      0.0000      0.0000      0.0000      0.0000      0.0000
 21      0.0000      0.0414      0.0000      0.0000      0.0000      0.0161      0.0000      0.0000      0.0000
 22      0.0000      0.0985      0.0000      0.1033      0.0738      0.0000      0.0000      0.0000      0.0000
 23      0.0000      0.0437      0.0000      0.0000      0.0000      0.0000      0.0000      0.0000      0.0000
 24      0.0000      0.0181      0.0000      0.0000      0.0000      0.0000      0.0000      0.0000      0.0000
 25      0.0000      0.0331      0.0000      0.0357      0.0000      0.0000      0.0358      0.0000      0.0293
 26      0.0000      0.0322      0.0000      0.0199      0.0000      0.0000      0.0409      0.0000      0.0000
 27      0.0000      0.0235      0.0000      0.0166      0.0000      0.0000      0.0000      0.0000      0.0000
 28      0.0000      0.0110      0.0000      0.0017      0.0544      0.0000      0.0000      0.0000      0.0000
 29      0.0000      0.0342      0.0000      0.0149      0.0441      0.0000      0.0000      0.0127      0.0000
 30      0.0000      0.0059      0.0000      0.0000      0.0000      0.0000      0.0000      0.0000      0.0168
 31      0.0000      0.0041      0.0000      0.0000      0.0000      0.0000      0.0000      0.0000      0.0000
 32      0.0000      0.0108      0.0000      0.0000      0.0000      0.0000      0.0000      0.0564      0.0000
 33      0.0000      0.0275      0.0000      0.0000      0.0000      0.0000      0.0000      0.0300      0.0000
 34      0.0000      0.0051      0.0000      0.0000      0.0000      0.0000      0.0000      0.0000      0.0000
 35      0.0000      0.0147      0.0000      0.0000      0.0000      0.0000      0.0000      0.0000      0.0000
 36      0.0000      0.0409      0.0000      0.0000      0.0000      0.0000      0.0000      0.0000      0.0000
 37      0.0599      0.3286      0.5502      0.3183      0.3191      0.0000      0.4006      0.4728      0.3464
 38      0.0000      0.0468      0.0000      0.0000      0.0000      0.0000      0.0000      0.0000      0.0000
 39      0.0000      0.0427      0.0000      0.0000      0.0000      0.0000      0.0000      0.0589      0.0000
 40      0.0000      0.0398      0.0000      0.0844      0.0000      0.0000      0.0000      0.0000      0.0000
 41      0.0000      0.0370      0.0000      0.0000      0.0000      0.0000      0.0571      0.0000      0.2086
 42      0.0000      0.0988      0.0000      0.0794      0.0702      0.0908      0.1600      0.0885      0.2034
 43      0.0000      0.3040      0.3986      0.2584      0.3124      0.2641      0.2560      0.4035      0.3335
 44      0.0000      0.1732      0.1993      0.2835      0.2091      0.1748      0.1538      0.1664      0.1807
 45      0.0000      0.2058      0.2034      0.2324      0.2118      0.2602      0.2000      0.2615      0.2348

# j      m_j: min, <> & last-chain-values for 1 ...  7 chains
  1  0.0000E+00  1.8247E-04  0.0000E+00  0.0000E+00  0.0000E+00  0.0000E+00  0.0000E+00  0.0000E+00  0.0000E+00
  2  2.3298E-01  1.9065E-01  1.9216E-01  1.9069E-01  1.9226E-01  1.9332E-01  1.9811E-01  1.9233E-01  1.9392E-01
  3  0.0000E+00  2.2731E-04  0.0000E+00  0.0000E+00  6.0734E-04  0.0000E+00  0.0000E+00  0.0000E+00  0.0000E+00
  4  0.0000E+00  4.2119E-03  7.7258E-03  7.2886E-03  4.9300E-03  4.2063E-03  2.5938E-03  6.8496E-03  1.7443E-03
  5  0.0000E+00  2.4770E-03  9.2251E-04  3.7165E-04  0.0000E+00  0.0000E+00  0.0000E+00  0.0000E+00  9.2928E-04
  6  0.0000E+00  2.3009E-03  0.0000E+00  0.0000E+00  0.0000E+00  5.9042E-04  0.0000E+00  0.0000E+00  0.0000E+00
  7  3.2347E+00  2.5940E+00  2.6086E+00  2.5638E+00  2.5996E+00  2.6538E+00  2.6575E+00  2.5572E+00  2.6108E+00
  8  0.0000E+00  3.7357E-02  9.0661E-02  9.8813E-02  6.7788E-02  0.0000E+00  4.5123E-02  7.8602E-02  2.7932E-02
  9  6.4876E-02  1.3356E-01  2.4971E-02  2.5344E-01  2.7485E-01  1.1933E-01  0.0000E+00  2.1456E-01  9.8014E-02
 10  1.2317E+01  1.1217E+01  1.1238E+01  1.0785E+01  1.0844E+01  1.1185E+01  1.1448E+01  1.1307E+01  1.1138E+01
 11  0.0000E+00  6.3243E-02  5.0103E-02  0.0000E+00  3.0839E-03  0.0000E+00  6.0389E-02  1.7056E-02  2.0522E-02
 12  7.6420E+01  6.3992E+01  6.4147E+01  6.3100E+01  6.3341E+01  6.4848E+01  6.4952E+01  6.3057E+01  6.3478E+01
 13  7.7202E+00  5.1394E+00  4.9520E+00  4.3213E+00  5.3388E+00  4.4689E+00  5.7782E+00  4.3680E+00  4.3585E+00
 14  0.0000E+00  9.3151E-02  0.0000E+00  0.0000E+00  0.0000E+00  0.0000E+00  0.0000E+00  0.0000E+00  0.0000E+00
 15  0.0000E+00  1.0107E-01  1.0248E-01  0.0000E+00  0.0000E+00  0.0000E+00  0.0000E+00  0.0000E+00  0.0000E+00
 16  0.0000E+00  9.9589E-05  0.0000E+00  0.0000E+00  0.0000E+00  0.0000E+00  0.0000E+00  0.0000E+00  0.0000E+00
 17  0.0000E+00  5.3243E-05  0.0000E+00  0.0000E+00  0.0000E+00  0.0000E+00  0.0000E+00  0.0000E+00  0.0000E+00
 18  0.0000E+00  5.6442E-04  2.0874E-04  1.5541E-04  0.0000E+00  0.0000E+00  0.0000E+00  0.0000E+00  0.0000E+00
 19  0.0000E+00  5.8614E-04  0.0000E+00  0.0000E+00  3.7310E-05  4.7794E-04  0.0000E+00  0.0000E+00  0.0000E+00
 20  0.0000E+00  8.8429E-04  1.5346E-03  0.0000E+00  0.0000E+00  0.0000E+00  0.0000E+00  0.0000E+00  0.0000E+00
 21  0.0000E+00  3.2631E-03  0.0000E+00  0.0000E+00  0.0000E+00  1.2632E-03  0.0000E+00  0.0000E+00  0.0000E+00
 22  0.0000E+00  1.2920E-02  0.0000E+00  1.3351E-02  9.6059E-03  0.0000E+00  0.0000E+00  0.0000E+00  0.0000E+00
 23  0.0000E+00  1.1253E-02  0.0000E+00  0.0000E+00  0.0000E+00  0.0000E+00  0.0000E+00  0.0000E+00  0.0000E+00
 24  0.0000E+00  1.0704E-02  0.0000E+00  0.0000E+00  0.0000E+00  0.0000E+00  0.0000E+00  0.0000E+00  0.0000E+00
 25  0.0000E+00  3.0029E-02  0.0000E+00  3.1940E-02  0.0000E+00  0.0000E+00  3.2980E-02  0.0000E+00  2.6461E-02
 26  0.0000E+00  5.5226E-02  0.0000E+00  3.3594E-02  0.0000E+00  0.0000E+00  7.1213E-02  0.0000E+00  0.0000E+00
 27  0.0000E+00  8.1627E-02  0.0000E+00  5.6861E-02  0.0000E+00  0.0000E+00  0.0000E+00  0.0000E+00  0.0000E+00
 28  0.0000E+00  7.7474E-02  0.0000E+00  1.1607E-02  3.7974E-01  0.0000E+00  0.0000E+00  0.0000E+00  0.0000E+00
 29  0.0000E+00  5.0975E-01  0.0000E+00  2.1848E-01  6.5114E-01  0.0000E+00  0.0000E+00  1.8811E-01  0.0000E+00
 30  0.0000E+00  1.0562E-01  0.0000E+00  0.0000E+00  0.0000E+00  0.0000E+00  0.0000E+00  0.0000E+00  2.9680E-01
 31  0.0000E+00  5.3159E-05  0.0000E+00  0.0000E+00  0.0000E+00  0.0000E+00  0.0000E+00  0.0000E+00  0.0000E+00
 32  0.0000E+00  7.3552E-05  0.0000E+00  0.0000E+00  0.0000E+00  0.0000E+00  0.0000E+00  3.8039E-04  0.0000E+00
 33  0.0000E+00  2.7676E-04  0.0000E+00  0.0000E+00  0.0000E+00  0.0000E+00  0.0000E+00  2.9964E-04  0.0000E+00
 34  0.0000E+00  1.6670E-04  0.0000E+00  0.0000E+00  0.0000E+00  0.0000E+00  0.0000E+00  0.0000E+00  0.0000E+00
 35  0.0000E+00  9.4316E-04  0.0000E+00  0.0000E+00  0.0000E+00  0.0000E+00  0.0000E+00  0.0000E+00  0.0000E+00
 36  0.0000E+00  3.3231E-03  0.0000E+00  0.0000E+00  0.0000E+00  0.0000E+00  0.0000E+00  0.0000E+00  0.0000E+00
 37  9.8952E-03  4.6329E-02  7.7594E-02  4.4212E-02  4.4639E-02  0.0000E+00  5.7352E-02  6.6264E-02  4.8520E-02
 38  0.0000E+00  1.4997E-02  0.0000E+00  0.0000E+00  0.0000E+00  0.0000E+00  0.0000E+00  0.0000E+00  0.0000E+00
 39  0.0000E+00  3.4618E-02  0.0000E+00  0.0000E+00  0.0000E+00  0.0000E+00  0.0000E+00  4.7419E-02  0.0000E+00
 40  0.0000E+00  5.5654E-02  0.0000E+00  1.1638E-01  0.0000E+00  0.0000E+00  0.0000E+00  0.0000E+00  0.0000E+00
 41  0.0000E+00  9.4223E-02  0.0000E+00  0.0000E+00  0.0000E+00  0.0000E+00  1.4773E-01  0.0000E+00  5.2801E-01
 42  0.0000E+00  5.0053E-01  0.0000E+00  3.9648E-01  3.5279E-01  4.5876E-01  8.2298E-01  4.4586E-01  1.0240E+00
 43  0.0000E+00  3.5642E+00  4.6745E+00  2.9852E+00  3.6344E+00  3.0887E+00  3.0482E+00  4.7027E+00  3.8842E+00
 44  0.0000E+00  4.5864E+00  5.2796E+00  7.3970E+00  5.4937E+00  4.6172E+00  4.1366E+00  4.3792E+00  4.7527E+00
 45  0.0000E+00  6.6267E+00  6.5517E+00  7.3733E+00  6.7669E+00  8.3604E+00  6.5409E+00  8.3705E+00  7.5111E+00

# AV, chi2 & Mass for <> & i_chain = 1 ...  7 solutions
AV       1.0678      1.0274      1.0330      1.0334      1.0329      1.0301      1.0323      1.0341      1.0297
chi2 2.6818E+00  2.6997E+00  2.6839E+00  2.6830E+00  2.6830E+00  2.6868E+00  2.6849E+00  2.6814E+00  2.6835E+00
Mass 3.8951E-11  4.3241E-11  4.3565E-11  4.4247E-11  4.3906E-11  4.3509E-11  4.2869E-11  4.3898E-11  4.3668E-11
   2.98                                  [v0_min (km/s) before EX0s...]
 127.86                                  [vd_min (km/s) before EX0s...]


## Synthetic spectrum (Best Model) ##l_obs f_obs f_syn wei
 3070    [Nl_obs]
 3359.00    0.31994   0.52309   -1.000
 3360.00    0.26431   0.51193   -1.000
 3361.00    0.27338   0.50898   -1.000
 3362.00    0.31592   0.51559   -1.000
 3363.00    0.31180   0.52740   -1.000
 3364.00    0.34234   0.53731   -1.000
 3365.00    0.34322   0.54001   -1.000
 3366.00    0.30777   0.53470   -1.000
 3367.00    0.28587   0.52491   -1.000
 3368.00    0.26612   0.51543   -1.000
 3369.00    0.28045   0.50903   -1.000
 3370.00    0.29336   0.50572   -1.000
 3371.00    0.27859   0.50435   -1.000
 3372.00    0.31227   0.50557   -1.000
 3373.00    0.34409   0.51179   -1.000
 3374.00    0.33799   0.52342   -1.000
 3375.00    0.32298   0.53672   -1.000
 3376.00    0.31251   0.54498   -1.000
 3377.00    0.33883   0.54418   -1.000
 3378.00    0.38515   0.53645   -1.000
 3379.00    0.38055   0.52812   -1.000
 3380.00    0.36460   0.52521   -1.000
 3381.00    0.36680   0.52923   -1.000
 3382.00    0.38343   0.53774   -1.000
 3383.00    0.39957   0.54679   -1.000
 3384.00    0.39489   0.55425   -1.000
 3385.00    0.37574   0.55988   -1.000
 3386.00    0.36445   0.56342   -1.000
 3387.00    0.39206   0.56464   -1.000
 3388.00    0.41039   0.56400   -1.000
 3389.00    0.39006   0.56225   -1.000
 3390.00    0.36457   0.55965   -1.000
 3391.00    0.42817   0.55609   -1.000
 3392.00    0.47651   0.55265   -1.000
 3393.00    0.43737   0.55183   -1.000
 3394.00    0.41159   0.55568   -1.000
 3395.00    0.42141   0.56352   -1.000
 3396.00    0.44319   0.57256   -1.000
 3397.00    0.45931   0.57938   -1.000
 3398.00    0.47532   0.58154   -1.000
 3399.00    0.49204   0.57836   -1.000
 3400.00    0.46706   0.57135   -1.000
 3401.00    0.42168   0.56299   -1.000
 3402.00    0.41148   0.55538   -1.000
 3403.00    0.40216   0.54999   -1.000
 3404.00    0.42550   0.54668   -1.000
 3405.00    0.46573   0.54395   -1.000
 3406.00    0.47066   0.54074   -1.000
 3407.00    0.48234   0.53789   44.546
 3408.00    0.46904   0.53729   44.491
 3409.00    0.44932   0.53963   -1.000
 3410.00    0.43829   0.54347   -1.000
 3411.00    0.43856   0.54652   -1.000
 3412.00    0.44815   0.54763   -1.000
 3413.00    0.44626   0.54747   -1.000
 3414.00    0.47089   0.54767   -1.000
 3415.00    0.45872   0.54967   -1.000
 3416.00    0.47220   0.55450   -1.000
 3417.00    0.47818   0.56190   -1.000
 3418.00    0.44542   0.57032   -1.000
 3419.00    0.47903   0.57726   -1.000
 3420.00    0.53356   0.58050   37.903
 3421.00    0.55478   0.57966   38.635
 3422.00    0.53851   0.57639   39.633
 3423.00    0.48985   0.57274   -1.000
 3424.00    0.46898   0.57030   -1.000
 3425.00    0.48479   0.56996   -1.000
 3426.00    0.48728   0.57252   -1.000
 3427.00    0.46214   0.57818   -1.000
 3428.00    0.45868   0.58546   -1.000
 3429.00    0.48892   0.59061   -1.000
 3430.00    0.52416   0.59080   -1.000
 3431.00    0.52881   0.58620   -1.000
 3432.00    0.50934   0.57985   37.642
 3433.00    0.50129   0.57538   -1.000
 3434.00    0.49075   0.57424   -1.000
 3435.00    0.47262   0.57525   -1.000
 3436.00    0.50345   0.57508   38.497
 3437.00    0.52447   0.57094   40.600
 3438.00    0.47793   0.56145   -1.000
 3439.00    0.41973   0.54776   -1.000
 3440.00    0.44027   0.53300   -1.000
 3441.00    0.47830   0.52173   46.745
 3442.00    0.46833   0.51704   45.579
 3443.00    0.48112   0.51887   43.356
 3444.00    0.50361   0.52501   40.961
 3445.00    0.49072   0.53392   39.183
 3446.00    0.48781   0.54528   -1.000
 3447.00    0.50959   0.55816   -1.000
 3448.00    0.52784   0.56961   -1.000
 3449.00    0.52908   0.57543   -1.000
 3450.00    0.49533   0.57319   -1.000
 3451.00    0.47580   0.56491   -1.000
 3452.00    0.50873   0.55517   -1.000
 3453.00    0.54681   0.54877  320.008
 3454.00    0.56817   0.54731   -1.000
 3455.00    0.54419   0.54874  320.008
 3456.00    0.52442   0.54943   -1.000
 3457.00    0.53440   0.54691   61.062
 3458.00    0.53471   0.54167   37.922
 3459.00    0.52328   0.53588   37.993
 3460.00    0.49334   0.53225   77.883
 3461.00    0.46962   0.53300   -1.000
 3462.00    0.51533   0.53849   -1.000
 3463.00    0.53935   0.54608  320.008
 3464.00    0.53962   0.55213   -1.000
 3465.00    0.54947   0.55587  320.008
 3466.00    0.54115   0.55838   -1.000
 3467.00    0.55261   0.56117  320.008
 3468.00    0.53112   0.56449   -1.000
 3469.00    0.52539   0.56737   -1.000
 3470.00    0.56568   0.56824  320.008
 3471.00    0.58487   0.56570   -1.000
 3472.00    0.56752   0.55933  320.008
 3473.00    0.53041   0.54984   60.882
 3474.00    0.52502   0.53931   38.765
 3475.00    0.53189   0.53131   38.863
 3476.00    0.53588   0.52876   79.813
 3477.00    0.54551   0.53207   -1.000
 3478.00    0.54539   0.53887  320.008
 3479.00    0.53061   0.54611   -1.000
 3480.00    0.51603   0.55116   -1.000
 3481.00    0.49942   0.55289   -1.000
 3482.00    0.50125   0.55199   -1.000
 3483.00    0.50717   0.55097   -1.000
 3484.00    0.54002   0.55283   -1.000
 3485.00    0.54484   0.55831   -1.000
 3486.00    0.51871   0.56471   -1.000
 3487.00    0.51009   0.56758   -1.000
 3488.00    0.54815   0.56470   -1.000
 3489.00    0.57207   0.55758   -1.000
 3490.00    0.52341   0.55053   -1.000
 3491.00    0.51923   0.54681   -1.000
 3492.00    0.55639   0.54590   -1.000
 3493.00    0.53374   0.54506  320.008
 3494.00    0.50899   0.54245   -1.000
 3495.00    0.53245   0.53930  320.008
 3496.00    0.55584   0.53882   -1.000
 3497.00    0.57817   0.54327   -1.000
 3498.00    0.57049   0.55121   -1.000
 3499.00    0.54377   0.55824   -1.000
 3500.00    0.54931   0.56210   -1.000
 3501.00    0.53335   0.56355   -1.000
 3502.00    0.54426   0.56414   -1.000
 3503.00    0.59683   0.56379   -1.000
 3504.00    0.61395   0.56137   -1.000
 3505.00    0.59001   0.55740   -1.000
 3506.00    0.57404   0.55391   -1.000
 3507.00    0.57141   0.55208   -1.000
 3508.00    0.57340   0.55128   -1.000
 3509.00    0.55821   0.54989  320.008
 3510.00    0.54878   0.54694  320.008
 3511.00    0.54257   0.54278  320.008
 3512.00    0.54531   0.53871  320.008
 3513.00    0.56088   0.53647   -1.000
 3514.00    0.53623   0.53853  320.008
 3515.00    0.53402   0.54541   -1.000
 3516.00    0.56503   0.55501   -1.000
 3517.00    0.59371   0.56363   -1.000
 3518.00    0.60711   0.56763   -1.000
 3519.00    0.59270   0.56588   -1.000
 3520.00    0.58974   0.55951   -1.000
 3521.00    0.58087   0.55123   -1.000
 3522.00    0.57415   0.54288   58.557
 3523.00    0.58350   0.53524   38.424
 3524.00    0.56589   0.52959   38.815
 3525.00    0.51954   0.52770   83.818
 3526.00    0.53258   0.53139  320.008
 3527.00    0.53150   0.54013  320.008
 3528.00    0.53772   0.55083   -1.000
 3529.00    0.56017   0.55969  316.420
 3530.00    0.59108   0.56464   -1.000
 3531.00    0.61479   0.56646   -1.000
 3532.00    0.59889   0.56725   -1.000
 3533.00    0.56708   0.56863  308.076
 3534.00    0.55935   0.57065   -1.000
 3535.00    0.58799   0.57297   -1.000
 3536.00    0.59857   0.57542   -1.000
 3537.00    0.59008   0.57831   -1.000
 3538.00    0.58253   0.58173  296.999
 3539.00    0.55282   0.58483   -1.000
 3540.00    0.51672   0.58667   -1.000
 3541.00    0.51942   0.58749   -1.000
 3542.00    0.55353   0.58847   -1.000
 3543.00    0.56240   0.58995   -1.000
 3544.00    0.53804   0.59152   -1.000
 3545.00    0.50888   0.59218   -1.000
 3546.00    0.51398   0.59192   -1.000
 3547.00    0.54356   0.59158   -1.000
 3548.00    0.56147   0.59171   -1.000
 3549.00    0.57146   0.59218   -1.000
 3550.00    0.55024   0.59207   -1.000
 3551.00    0.54305   0.59067   -1.000
 3552.00    0.54408   0.58780   -1.000
 3553.00    0.52018   0.58431   -1.000
 3554.00    0.52310   0.58133   -1.000
 3555.00    0.55122   0.57960   -1.000
 3556.00    0.54640   0.57887   -1.000
 3557.00    0.52104   0.57840   -1.000
 3558.00    0.53020   0.57805   -1.000
 3559.00    0.52988   0.57858   -1.000
 3560.00    0.52906   0.58098   -1.000
 3561.00    0.56321   0.58441   -1.000
 3562.00    0.55439   0.58549   -1.000
 3563.00    0.53482   0.58080   57.460
 3564.00    0.54232   0.56973   38.953
 3565.00    0.53814   0.55683   39.263
 3566.00    0.53039   0.54673   38.949
 3567.00    0.53141   0.54061   39.697
 3568.00    0.51120   0.53626   40.672
 3569.00    0.49818   0.53108   40.128
 3570.00    0.52133   0.52578   38.514
 3571.00    0.54000   0.52275   85.814
 3572.00    0.53972   0.52323   -1.000
 3573.00    0.55537   0.52595   -1.000
 3574.00    0.54340   0.52880   -1.000
 3575.00    0.51355   0.53081   -1.000
 3576.00    0.52228   0.53168  320.008
 3577.00    0.53326   0.53074   58.982
 3578.00    0.56595   0.52704   41.189
 3579.00    0.58220   0.52035   43.846
 3580.00    0.55270   0.51257   44.905
 3581.00    0.53150   0.50627   45.119
 3582.00    0.52403   0.50270   45.909
 3583.00    0.53769   0.50093   47.301
 3584.00    0.53101   0.49876   48.300
 3585.00    0.51116   0.49585   46.947
 3586.00    0.49789   0.49418   44.474
 3587.00    0.47197   0.49601   42.245
 3588.00    0.48850   0.50249   39.051
 3589.00    0.53682   0.51270   86.428
 3590.00    0.58720   0.52455   -1.000
 3591.00    0.58249   0.53516   -1.000
 3592.00    0.55655   0.54300   -1.000
 3593.00    0.52730   0.54847   -1.000
 3594.00    0.55181   0.55345  308.785
 3595.00    0.58105   0.55951   -1.000
 3596.00    0.57415   0.56655  289.528
 3597.00    0.56603   0.57330  283.779
 3598.00    0.58935   0.57811  284.327
 3599.00    0.58434   0.57941  294.355
 3600.00    0.55912   0.57635   -1.000
 3601.00    0.56386   0.56914  320.008
 3602.00    0.56979   0.55981   -1.000
 3603.00    0.54839   0.55128  320.008
 3604.00    0.54313   0.54583  320.008
 3605.00    0.56132   0.54385   -1.000
 3606.00    0.55319   0.54334   -1.000
 3607.00    0.55976   0.54235   -1.000
 3608.00    0.56518   0.54047   -1.000
 3609.00    0.55099   0.53908   -1.000
 3610.00    0.53272   0.53981  320.008
 3611.00    0.51838   0.54235   -1.000
 3612.00    0.54766   0.54598  320.008
 3613.00    0.55648   0.55015  310.479
 3614.00    0.54025   0.55435   -1.000
 3615.00    0.55027   0.55707  320.008
 3616.00    0.54228   0.55601   -1.000
 3617.00    0.55164   0.55059   54.993
 3618.00    0.55370   0.54469   88.297
 3619.00    0.55344   0.54280   -1.000
 3620.00    0.54867   0.54720  308.409
 3621.00    0.54709   0.55604  297.601
 3622.00    0.55399   0.56613   -1.000
 3623.00    0.59393   0.57536   -1.000
 3624.00    0.58377   0.58409  272.827
 3625.00    0.58102   0.59333   -1.000
 3626.00    0.60268   0.60170  268.175
 3627.00    0.57764   0.60571   -1.000
 3628.00    0.57725   0.60178   -1.000
 3629.00    0.55510   0.58950   -1.000
 3630.00    0.53548   0.57355   -1.000
 3631.00    0.52760   0.56033   -1.000
 3632.00    0.53088   0.55465   -1.000
 3633.00    0.53286   0.55613   -1.000
 3634.00    0.53072   0.56125   -1.000
 3635.00    0.56041   0.56629  299.400
 3636.00    0.57107   0.57051  285.674
 3637.00    0.54578   0.57559   -1.000
 3638.00    0.55971   0.58169   -1.000
 3639.00    0.58715   0.58714  276.193
 3640.00    0.58446   0.58872  284.786
 3641.00    0.57177   0.58511   -1.000
 3642.00    0.54078   0.57741   -1.000
 3643.00    0.54361   0.56849   -1.000
 3644.00    0.55770   0.56117  320.008
 3645.00    0.55353   0.55650  320.008
 3646.00    0.56337   0.55397   -1.000
 3647.00    0.55796   0.55318  320.008
 3648.00    0.55229   0.55438  311.170
 3649.00    0.55376   0.55822  296.829
 3650.00    0.55056   0.56473   -1.000
 3651.00    0.55566   0.57315   -1.000
 3652.00    0.56855   0.58184   -1.000
 3653.00    0.58099   0.58961  268.572
 3654.00    0.58616   0.59571  266.187
 3655.00    0.59744   0.60059  263.310
 3656.00    0.59638   0.60498  259.370
 3657.00    0.59328   0.60873   -1.000
 3658.00    0.59058   0.61102   -1.000
 3659.00    0.60468   0.61089  260.143
 3660.00    0.60435   0.60814  262.990
 3661.00    0.59628   0.60360  266.965
 3662.00    0.60551   0.59881  269.845
 3663.00    0.61993   0.59507   -1.000
 3664.00    0.60713   0.59308   -1.000
 3665.00    0.60351   0.59214  271.183
 3666.00    0.60409   0.59104   -1.000
 3667.00    0.59972   0.58920  280.688
 3668.00    0.60633   0.58724   -1.000
 3669.00    0.58460   0.58723  273.744
 3670.00    0.60978   0.59004   -1.000
 3671.00    0.64097   0.59477   -1.000
 3672.00    0.64336   0.59913   -1.000
 3673.00    0.63971   0.60065   -1.000
 3674.00    0.60520   0.59865  270.241
 3675.00    0.59882   0.59331  278.724
 3676.00    0.59682   0.58596  287.259
 3677.00    0.58414   0.57851  295.027
 3678.00    0.60534   0.57279   -1.000
 3679.00    0.58802   0.57028   -1.000
 3680.00    0.57397   0.57084  282.880
 3681.00    0.58960   0.57329   -1.000
 3682.00    0.59769   0.57550   -1.000
 3683.00    0.59276   0.57536   -1.000
 3684.00    0.57321   0.57192  304.687
 3685.00    0.57504   0.56616  312.392
 3686.00    0.58726   0.56186   -1.000
 3687.00    0.60397   0.56268   -1.000
 3688.00    0.60324   0.56996   -1.000
 3689.00    0.59552   0.58092   -1.000
 3690.00    0.59347   0.59168  259.292
 3691.00    0.61348   0.59920   -1.000
 3692.00    0.63857   0.60343   -1.000
 3693.00    0.65315   0.60522   -1.000
 3694.00    0.66635   0.60481   -1.000
 3695.00    0.65055   0.60318   -1.000
 3696.00    0.61524   0.60252  257.867
 3697.00    0.60455   0.60637  250.701
 3698.00    0.60948   0.61570  246.453
 3699.00    0.63331   0.62656  248.738
 3700.00    0.65282   0.63132   -1.000
 3701.00    0.64270   0.62397   -1.000
 3702.00    0.61314   0.60431  305.654
 3703.00    0.57359   0.57934  320.008
 3704.00    0.54782   0.55852   -1.000
 3705.00    0.51020   0.54906   -1.000
 3706.00    0.53755   0.55124   -1.000
 3707.00    0.58324   0.55962   -1.000
 3708.00    0.61006   0.56749   -1.000
 3709.00    0.60916   0.57061   -1.000
 3710.00    0.56855   0.57045  267.356
 3711.00    0.56284   0.57266  253.813
 3712.00    0.56675   0.58255   -1.000
 3713.00    0.60147   0.60104  243.515
 3714.00    0.64018   0.62396   -1.000
 3715.00    0.66293   0.64394   -1.000
 3716.00    0.69032   0.65383   -1.000
 3717.00    0.68165   0.64854   -1.000
 3718.00    0.66123   0.62682   -1.000
 3719.00    0.62264   0.59281   52.841
 3720.00    0.55992   0.55773   99.705
 3721.00    0.54810   0.53451   -1.000
 3722.00    0.55645   0.53230   -1.000
 3723.00    0.57387   0.55135   -1.000
 3724.00    0.59941   0.58400   -1.000
 3725.00    0.63414   0.61824   -1.000
 3726.00    0.64378   0.64524  284.414
 3727.00    0.66052   0.66265  281.679
 3728.00    0.67473   0.67041  282.332
 3729.00    0.66236   0.66727  292.346
 3730.00    0.65567   0.64993  318.580
 3731.00    0.63911   0.61714   51.304
 3732.00    0.55634   0.57415   40.550
 3733.00    0.51181   0.53200   43.112
 3734.00    0.48661   0.50324   42.020
 3735.00    0.47386   0.49698   38.556
 3736.00    0.51288   0.51537   98.411
 3737.00    0.56289   0.55341   -1.000
 3738.00    0.61709   0.60145   -1.000
 3739.00    0.64679   0.64784  279.635
 3740.00    0.66753   0.68257   -1.000
 3741.00    0.66405   0.70069   -1.000
 3742.00    0.68569   0.70198   -1.000
 3743.00    0.66562   0.68952   -1.000
 3744.00    0.65784   0.66697  320.008
 3745.00    0.64079   0.63655   51.829
 3746.00    0.62053   0.59984   39.729
 3747.00    0.60838   0.56028   40.792
 3748.00    0.55419   0.52438   -1.000
 3749.00    0.52031   0.50252   -1.000
 3750.00    0.51454   0.50319   -1.000
 3751.00    0.54417   0.52815   -1.000
 3752.00    0.59397   0.57091   -1.000
 3753.00    0.64551   0.62024   -1.000
 3754.00    0.69749   0.66415   -1.000
 3755.00    0.74339   0.69426   -1.000
 3756.00    0.73398   0.70711   -1.000
 3757.00    0.72007   0.70575   -1.000
 3758.00    0.70657   0.69823   -1.000
 3759.00    0.69996   0.69251  299.872
 3760.00    0.73365   0.69269   -1.000
 3761.00    0.73826   0.69733   -1.000
 3762.00    0.73940   0.70258   -1.000
 3763.00    0.74729   0.70327   -1.000
 3764.00    0.73223   0.69591   -1.000
 3765.00    0.71101   0.67862   -1.000
 3766.00    0.68760   0.65221   -1.000
 3767.00    0.68682   0.61940   -1.000
 3768.00    0.64751   0.58502   -1.000
 3769.00    0.58362   0.55621   -1.000
 3770.00    0.54376   0.54101  273.320
 3771.00    0.55229   0.54517  262.862
 3772.00    0.61508   0.56808   -1.000
 3773.00    0.64261   0.60276   -1.000
 3774.00    0.64000   0.64092  259.169
 3775.00    0.65857   0.67785   -1.000
 3776.00    0.71292   0.71209  255.610
 3777.00    0.74802   0.74421  248.274
 3778.00    0.76857   0.77357  241.774
 3779.00    0.78858   0.79884  239.097
 3780.00    0.82447   0.81867  237.625
 3781.00    0.84361   0.83215  237.343
 3782.00    0.83000   0.83930  241.419
 3783.00    0.80600   0.83984   -1.000
 3784.00    0.80925   0.83368   -1.000
 3785.00    0.82483   0.82102  285.442
 3786.00    0.79758   0.80418  293.082
 3787.00    0.76785   0.78677   -1.000
 3788.00    0.77110   0.77194  290.295
 3789.00    0.77724   0.75997   -1.000
 3790.00    0.74863   0.74837  289.217
 3791.00    0.76290   0.73280   -1.000
 3792.00    0.77162   0.70917   -1.000
 3793.00    0.72636   0.67593   -1.000
 3794.00    0.68638   0.63419   -1.000
 3795.00    0.64895   0.58857   -1.000
 3796.00    0.60546   0.54641   -1.000
 3797.00    0.55329   0.51703   -1.000
 3798.00    0.52217   0.50966   -1.000
 3799.00    0.55075   0.52869   -1.000
 3800.00    0.62802   0.56979   -1.000
 3801.00    0.69449   0.62274   -1.000
 3802.00    0.72611   0.67535   -1.000
 3803.00    0.74788   0.71907   -1.000
 3804.00    0.78577   0.75060   -1.000
 3805.00    0.79253   0.77144   -1.000
 3806.00    0.78784   0.78644  278.242
 3807.00    0.77990   0.80141   -1.000
 3808.00    0.78457   0.81883   -1.000
 3809.00    0.80576   0.83652   -1.000
 3810.00    0.85043   0.84874  278.585
 3811.00    0.85799   0.84989  295.454
 3812.00    0.81676   0.83887   -1.000
 3813.00    0.78726   0.82100   -1.000
 3814.00    0.80106   0.80441  320.008
 3815.00    0.82599   0.79549   -1.000
 3816.00    0.81964   0.79425   -1.000
 3817.00    0.83978   0.79534   -1.000
 3818.00    0.83600   0.79306   -1.000
 3819.00    0.82338   0.78596   -1.000
 3820.00    0.78737   0.77716   -1.000
 3821.00    0.77400   0.77021  320.008
 3822.00    0.79456   0.76419   -1.000
 3823.00    0.78925   0.75510   51.335
 3824.00    0.75797   0.74052   39.919
 3825.00    0.75252   0.72243   39.864
 3826.00    0.75450   0.70463   39.283
 3827.00    0.73877   0.68879   38.637
 3828.00    0.73335   0.67296   38.847
 3829.00    0.71923   0.65319   40.313
 3830.00    0.67752   0.62619   43.218
 3831.00    0.61519   0.59068   45.085
 3832.00    0.58188   0.54944   44.718
 3833.00    0.54387   0.50849   43.103
 3834.00    0.49485   0.47651   41.964
 3835.00    0.50059   0.46080   42.428
 3836.00    0.52359   0.46432   43.442
 3837.00    0.54497   0.48533   43.097
 3838.00    0.59091   0.51902   -1.000
 3839.00    0.61208   0.56069   -1.000
 3840.00    0.62399   0.60688   -1.000
 3841.00    0.69522   0.65415   -1.000
 3842.00    0.74607   0.69905   -1.000
 3843.00    0.76771   0.73843   -1.000
 3844.00    0.79547   0.77025   -1.000
 3845.00    0.78534   0.79502  305.034
 3846.00    0.80935   0.81313  310.870
 3847.00    0.83835   0.82579   -1.000
 3848.00    0.83679   0.83329  320.008
 3849.00    0.84664   0.83812  320.008
 3850.00    0.84523   0.84266  315.672
 3851.00    0.82062   0.84841   -1.000
 3852.00    0.83100   0.85400   -1.000
 3853.00    0.85777   0.85659  320.008
 3854.00    0.85280   0.85467  320.008
 3855.00    0.85508   0.84896  320.008
 3856.00    0.86545   0.84151   47.765
 3857.00    0.86234   0.83461   38.986
 3858.00    0.85396   0.83031   38.875
 3859.00    0.83094   0.83022  117.156
 3860.00    0.82784   0.83549  318.679
 3861.00    0.84827   0.84407  300.264
 3862.00    0.86677   0.85310   -1.000
 3863.00    0.88902   0.85905   -1.000
 3864.00    0.88119   0.86180   -1.000
 3865.00    0.87504   0.86252   -1.000
 3866.00    0.86183   0.86307  320.008
 3867.00    0.89838   0.86343   -1.000
 3868.00    0.89562   0.86172   -1.000
 3869.00    0.87612   0.85524   48.123
 3870.00    0.85611   0.84393  118.155
 3871.00    0.82107   0.83044  320.008
 3872.00    0.81713   0.82070  307.416
 3873.00    0.81439   0.81766  292.338
 3874.00    0.81882   0.82031  297.076
 3875.00    0.84255   0.82198   -1.000
 3876.00    0.86439   0.81748   -1.000
 3877.00    0.81471   0.80614   -1.000
 3878.00    0.79675   0.79216  320.008
 3879.00    0.80173   0.77929   -1.000
 3880.00    0.79627   0.76745   -1.000
 3881.00    0.77674   0.75346   -1.000
 3882.00    0.75802   0.73421   -1.000
 3883.00    0.76442   0.70782   -1.000
 3884.00    0.74258   0.67303   -1.000
 3885.00    0.72059   0.63065   -1.000
 3886.00    0.67171   0.58431   -1.000
 3887.00    0.63243   0.54322   -1.000
 3888.00    0.55468   0.51743   -1.000
 3889.00    0.53235   0.51511   -1.000
 3890.00    0.57757   0.53654   -1.000
 3891.00    0.64248   0.57511   -1.000
 3892.00    0.70761   0.61967   -1.000
 3893.00    0.72073   0.66153   -1.000
 3894.00    0.74126   0.69703   -1.000
 3895.00    0.75526   0.72631   -1.000
 3896.00    0.76494   0.75093   -1.000
 3897.00    0.78911   0.77091   -1.000
 3898.00    0.82125   0.78692   -1.000
 3899.00    0.84129   0.80026   -1.000
 3900.00    0.82521   0.81280   -1.000
 3901.00    0.82723   0.82433  257.176
 3902.00    0.84012   0.83325  264.489
 3903.00    0.83499   0.83824  272.178
 3904.00    0.83280   0.84073  272.065
 3905.00    0.81413   0.84483   -1.000
 3906.00    0.82874   0.85434   -1.000
 3907.00    0.84833   0.87027   -1.000
 3908.00    0.85197   0.88981   -1.000
 3909.00    0.86689   0.90729   -1.000
 3910.00    0.87750   0.91881   -1.000
 3911.00    0.88701   0.92260   -1.000
 3912.00    0.88080   0.92007   -1.000
 3913.00    0.87177   0.91410   -1.000
 3914.00    0.86361   0.90805   -1.000
 3915.00    0.85072   0.90371   -1.000
 3916.00    0.85648   0.90092   -1.000
 3917.00    0.87595   0.89807   -1.000
 3918.00    0.89045   0.89399  274.981
 3919.00    0.87805   0.88894   -1.000
 3920.00    0.88002   0.88442  281.191
 3921.00    0.85908   0.88202   -1.000
 3922.00    0.84911   0.88136   -1.000
 3923.00    0.87980   0.88030  288.772
 3924.00    0.88622   0.87542   -1.000
 3925.00    0.89380   0.86359   -1.000
 3926.00    0.86998   0.84348   51.402
 3927.00    0.80696   0.81514   47.054
 3928.00    0.77508   0.77954   55.082
 3929.00    0.73550   0.73765   65.028
 3930.00    0.67473   0.69010   76.283
 3931.00    0.58706   0.64083   -1.000
 3932.00    0.47968   0.59753   -1.000
 3933.00    0.41856   0.57173   -1.000
 3934.00    0.42363   0.57220   -1.000
 3935.00    0.50184   0.59974   -1.000
 3936.00    0.59477   0.64556   42.174
 3937.00    0.68881   0.69851  136.082
 3938.00    0.74443   0.74807  320.008
 3939.00    0.79196   0.78913  320.008
 3940.00    0.81743   0.81922  319.720
 3941.00    0.82055   0.83829   -1.000
 3942.00    0.83712   0.84861   -1.000
 3943.00    0.84914   0.85371  279.944
 3944.00    0.84601   0.85764  261.943
 3945.00    0.87114   0.86262  256.814
 3946.00    0.88241   0.86847   -1.000
 3947.00    0.86849   0.87359  246.806
 3948.00    0.87210   0.87682  238.501
 3949.00    0.91481   0.87820   -1.000
 3950.00    0.88715   0.87830  241.055
 3951.00    0.88107   0.87816  238.222
 3952.00    0.87934   0.87830  232.511
 3953.00    0.88335   0.87822  233.490
 3954.00    0.90104   0.87617   -1.000
 3955.00    0.89347   0.87066   -1.000
 3956.00    0.87102   0.86201  242.996
 3957.00    0.86757   0.85138   -1.000
 3958.00    0.86893   0.83851   -1.000
 3959.00    0.84856   0.82065   -1.000
 3960.00    0.81428   0.79577   -1.000
 3961.00    0.77865   0.76357   -1.000
 3962.00    0.75756   0.72593   47.590
 3963.00    0.72891   0.68350   44.446
 3964.00    0.68164   0.63386   54.279
 3965.00    0.60973   0.57609   66.555
 3966.00    0.50611   0.51194   75.115
 3967.00    0.39896   0.45107   -1.000
 3968.00    0.34329   0.40567   -1.000
 3969.00    0.33567   0.38695   49.713
 3970.00    0.35153   0.39847   41.465
 3971.00    0.43164   0.43660  139.330
 3972.00    0.52682   0.49192   -1.000
 3973.00    0.60918   0.55464   -1.000
 3974.00    0.67060   0.61716   -1.000
 3975.00    0.73658   0.67441   -1.000
 3976.00    0.78706   0.72511   -1.000
 3977.00    0.81115   0.76812   -1.000
 3978.00    0.85493   0.80402   -1.000
 3979.00    0.88819   0.83180   -1.000
 3980.00    0.89870   0.85150   -1.000
 3981.00    0.88271   0.86453   -1.000
 3982.00    0.88501   0.87417  212.614
 3983.00    0.90578   0.88380   -1.000
 3984.00    0.92872   0.89459   -1.000
 3985.00    0.91602   0.90565  201.033
 3986.00    0.93730   0.91619   -1.000
 3987.00    0.93990   0.92584  199.091
 3988.00    0.96283   0.93563   -1.000
 3989.00    0.96582   0.94539   -1.000
 3990.00    0.95644   0.95518  189.361
 3991.00    0.97336   0.96405  190.520
 3992.00    0.99427   0.97076   -1.000
 3993.00    0.98404   0.97362  199.351
 3994.00    0.97705   0.97190  203.304
 3995.00    0.97022   0.96683  205.365
 3996.00    0.94000   0.96148   -1.000
 3997.00    0.95105   0.95909  193.081
 3998.00    0.95693   0.96159  186.145
 3999.00    0.96525   0.96771  182.661
 4000.00    0.96759   0.97464  180.016
 4001.00    0.97853   0.97853  182.606
 4002.00    0.99891   0.97732   -1.000
 4003.00    0.98695   0.97065  204.341
 4004.00    0.98341   0.96232   -1.000
 4005.00    0.96117   0.95653  194.166
 4006.00    0.94306   0.95801   -1.000
 4007.00    0.95478   0.96664   -1.000
 4008.00    1.02895   0.97878   -1.000
 4009.00    1.00267   0.98985  179.888
 4010.00    0.97076   0.99701   -1.000
 4011.00    0.98840   1.00052   -1.000
 4012.00    0.99459   1.00219  180.939
 4013.00    0.99364   1.00387  178.519
 4014.00    1.00317   1.00657  179.446
 4015.00    1.02688   1.00992  181.603
 4016.00    1.00895   1.01395  181.195
 4017.00    0.99946   1.01823   -1.000
 4018.00    1.01011   1.02267   -1.000
 4019.00    1.01090   1.02602   -1.000
 4020.00    0.98479   1.02688   -1.000
 4021.00    1.00465   1.02400   -1.000
 4022.00    1.01048   1.01774  184.799
 4023.00    0.99716   1.01021   -1.000
 4024.00    0.99127   1.00451   -1.000
 4025.00    1.01651   1.00318  170.877
 4026.00    1.02409   1.00554  171.715
 4027.00    1.01714   1.00825  178.049
 4028.00    0.99812   1.00708  189.642
 4029.00    0.99482   1.00095  198.433
 4030.00    0.98903   0.99243  201.655
 4031.00    0.97389   0.98538   -1.000
 4032.00    0.97914   0.98369  193.727
 4033.00    0.97712   0.98812  184.526
 4034.00    0.96771   0.99842   -1.000
 4035.00    0.97808   1.01234   -1.000
 4036.00    1.00338   1.02737   -1.000
 4037.00    1.00452   1.04007   -1.000
 4038.00    1.00528   1.04775   -1.000
 4039.00    1.03200   1.04916   -1.000
 4040.00    1.02197   1.04547   -1.000
 4041.00    1.01604   1.03770   -1.000
 4042.00    1.01034   1.02561   -1.000
 4043.00    0.98559   1.01033   -1.000
 4044.00    0.97789   0.99431   -1.000
 4045.00    0.94754   0.98457   -1.000
 4046.00    0.94778   0.98550   -1.000
 4047.00    0.97833   0.99690   -1.000
 4048.00    0.98057   1.01308   -1.000
 4049.00    1.00223   1.02674   -1.000
 4050.00    1.01706   1.03372   -1.000
 4051.00    1.00572   1.03325   -1.000
 4052.00    0.99781   1.02786   -1.000
 4053.00    1.00093   1.02072   -1.000
 4054.00    0.98989   1.01502   -1.000
 4055.00    0.99006   1.01219   -1.000
 4056.00    1.00659   1.01203  188.610
 4057.00    1.00000   1.01423   -1.000
 4058.00    1.00624   1.01733  178.258
 4059.00    1.00818   1.01892  180.492
 4060.00    1.00851   1.01610  192.490
 4061.00    0.99341   1.00663   -1.000
 4062.00    0.97386   0.99315   -1.000
 4063.00    0.96821   0.97922  195.644
 4064.00    0.94624   0.97005   -1.000
 4065.00    0.95113   0.96716   -1.000
 4066.00    0.97473   0.97025  179.282
 4067.00    0.97834   0.97570  176.555
 4068.00    0.97585   0.98001  182.413
 4069.00    0.98599   0.98011  190.732
 4070.00    0.98996   0.97559  190.611
 4071.00    0.97779   0.96930  184.165
 4072.00    0.97416   0.96422  182.441
 4073.00    0.97311   0.96075  190.133
 4074.00    0.97659   0.95609   -1.000
 4075.00    0.96889   0.94779   -1.000
 4076.00    0.95511   0.93797  207.804
 4077.00    0.92982   0.93155  194.241
 4078.00    0.91645   0.93374   -1.000
 4079.00    0.93635   0.94399  174.492
 4080.00    0.95983   0.95768  176.500
 4081.00    0.98623   0.96762  182.271
 4082.00    0.99972   0.97052   -1.000
 4083.00    0.98296   0.96739  183.353
 4084.00    0.97543   0.96263  177.489
 4085.00    0.97580   0.96064  170.717
 4086.00    0.96194   0.96248  165.087
 4087.00    0.97464   0.96640  165.151
 4088.00    1.00388   0.96833   -1.000
 4089.00    1.00496   0.96577   -1.000
 4090.00    0.99832   0.95782   -1.000
 4091.00    0.97640   0.94572   -1.000
 4092.00    0.93886   0.93029  176.817
 4093.00    0.92301   0.91089  184.461
 4094.00    0.92255   0.88683   -1.000
 4095.00    0.89300   0.85701   -1.000
 4096.00    0.85958   0.82162   -1.000
 4097.00    0.85045   0.78027   -1.000
 4098.00    0.83481   0.73324   -1.000
 4099.00    0.79362   0.68380   -1.000
 4100.00    0.72585   0.63939   -1.000
 4101.00    0.64578   0.61148   -1.000
 4102.00    0.63438   0.60934   -1.000
 4103.00    0.68536   0.63420   -1.000
 4104.00    0.75921   0.67837   -1.000
 4105.00    0.82287   0.72907   -1.000
 4106.00    0.85795   0.77560   -1.000
 4107.00    0.88674   0.81325   -1.000
 4108.00    0.88640   0.84183   -1.000
 4109.00    0.90351   0.86416   -1.000
 4110.00    0.92030   0.88348   -1.000
 4111.00    0.91593   0.90191  181.378
 4112.00    0.93851   0.92053  178.560
 4113.00    0.96303   0.93854   -1.000
 4114.00    0.96511   0.95485  177.338
 4115.00    0.98472   0.96704  180.860
 4116.00    0.98121   0.97381  186.808
 4117.00    0.98019   0.97515  189.421
 4118.00    0.96857   0.97341  187.465
 4119.00    0.95291   0.97145   -1.000
 4120.00    0.95831   0.97133   -1.000
 4121.00    0.98208   0.97346  183.672
 4122.00    1.00768   0.97725   -1.000
 4123.00    1.01092   0.98209   -1.000
 4124.00    1.01365   0.98661   -1.000
 4125.00    1.00593   0.98894  185.626
 4126.00    1.00637   0.98767  187.405
 4127.00    1.00820   0.98341   -1.000
 4128.00    0.99919   0.97809   -1.000
 4129.00    0.99234   0.97334  196.362
 4130.00    0.98834   0.96962  202.608
 4131.00    0.98780   0.96714   -1.000
 4132.00    0.94994   0.96767   -1.000
 4133.00    0.96568   0.97319  187.804
 4134.00    1.02086   0.98474   -1.000
 4135.00    1.00710   1.00015  178.198
 4136.00    0.98849   1.01671   -1.000
 4137.00    0.99583   1.03072   -1.000
 4138.00    1.03152   1.03994  177.764
 4139.00    1.06222   1.04210  186.689
 4140.00    1.04585   1.03640  202.058
 4141.00    1.02523   1.02367  213.402
 4142.00    0.99529   1.00885   -1.000
 4143.00    0.96473   0.99751   -1.000
 4144.00    0.98001   0.99453   -1.000
 4145.00    1.02469   0.99990   -1.000
 4146.00    1.03316   1.00888   -1.000
 4147.00    1.03225   1.01676  193.193
 4148.00    1.02050   1.02109  195.864
 4149.00    1.01906   1.02268  194.733
 4150.00    1.00516   1.02300   -1.000
 4151.00    1.07909   1.02239   -1.000
 4152.00    1.36760   1.02039   -1.000
 4153.00    1.09119   1.01718   -1.000
 4154.00    0.63533   1.01440   -1.000
 4155.00    0.92098   1.01411   -1.000
 4156.00    1.08873   1.01758   -1.000
 4157.00    1.01579   1.02394  187.560
 4158.00    1.02544   1.03138  186.661
 4159.00    1.02829   1.03773  181.227
 4160.00    1.02112   1.04203   -1.000
 4161.00    1.01840   1.04479   -1.000
 4162.00    1.00296   1.04713   -1.000
 4163.00    1.02344   1.04935   -1.000
 4164.00    1.04140   1.05086  189.505
 4165.00    1.03251   1.05068   -1.000
 4166.00    1.02275   1.04820   -1.000
 4167.00    1.01200   1.04338   -1.000
 4168.00    1.02067   1.03626   -1.000
 4169.00    1.02678   1.02582  200.457
 4170.00    1.01267   1.01117  212.758
 4171.00    0.98168   0.99471   -1.000
 4172.00    0.96775   0.98080   -1.000
 4173.00    0.96520   0.97450  199.496
 4174.00    0.96193   0.97639   -1.000
 4175.00    0.96608   0.98310   -1.000
 4176.00    0.98145   0.98994  199.245
 4177.00    0.98830   0.99496  196.240
 4178.00    0.99484   0.99924  194.261
 4179.00    0.99936   1.00436  194.292
 4180.00    0.99090   1.00996   -1.000
 4181.00    0.99597   1.01485   -1.000
 4182.00    0.99826   1.01831   -1.000
 4183.00    1.02319   1.02062  185.243
 4184.00    1.02840   1.02198  191.193
 4185.00    0.99792   1.02157   -1.000
 4186.00    0.99496   1.01977   -1.000
 4187.00    1.00263   1.01753   -1.000
 4188.00    0.99983   1.01692   -1.000
 4189.00    1.00082   1.01884   -1.000
 4190.00    1.02236   1.02269  183.345
 4191.00    1.02412   1.02731  180.815
 4192.00    1.01415   1.03105   -1.000
 4193.00    1.01823   1.03148   -1.000
 4194.00    1.01051   1.02671   -1.000
 4195.00    1.00966   1.01670  205.751
 4196.00    1.00053   1.00329  206.357
 4197.00    0.97864   0.98999   -1.000
 4198.00    0.99623   0.97961  200.967
 4199.00    0.97932   0.97392  200.285
 4200.00    0.97923   0.97302  199.037
 4201.00    0.99126   0.97590  195.969
 4202.00    0.97656   0.98165  194.483
 4203.00    0.98809   0.98989  190.802
 4204.00    0.99033   1.00015  186.050
 4205.00    1.01941   1.01119  182.376
 4206.00    1.01603   1.02174  181.350
 4207.00    0.99317   1.03017   -1.000
 4208.00    1.00210   1.03568   -1.000
 4209.00    1.02478   1.03877   -1.000
 4210.00    1.01899   1.04060   -1.000
 4211.00    1.01936   1.04129   -1.000
 4212.00    1.03529   1.03962  195.733
 4213.00    1.02383   1.03443   -1.000
 4214.00    1.00860   1.02640   -1.000
 4215.00    1.00911   1.01928  182.701
 4216.00    1.00256   1.01706   -1.000
 4217.00    1.00201   1.02136   -1.000
 4218.00    1.01190   1.03013   -1.000
 4219.00    1.01277   1.03830   -1.000
 4220.00    1.01274   1.04156   -1.000
 4221.00    1.02410   1.03672   -1.000
 4222.00    0.99498   1.02269   -1.000
 4223.00    0.99198   1.00073  234.026
 4224.00    0.97651   0.97550  253.697
 4225.00    0.94045   0.95396   -1.000
 4226.00    0.92994   0.94399   -1.000
 4227.00    0.92975   0.94929   -1.000
 4228.00    0.96015   0.96811  175.772
 4229.00    1.00495   0.99105  174.142
 4230.00    0.99976   1.00876  177.927
 4231.00    0.99328   1.01601   -1.000
 4232.00    0.98702   1.01362   -1.000
 4233.00    0.99517   1.00665  188.798
 4234.00    0.97363   1.00045   -1.000
 4235.00    0.97211   0.99760   -1.000
 4236.00    0.97658   0.99857   -1.000
 4237.00    0.97395   1.00258   -1.000
 4238.00    0.97900   1.00891   -1.000
 4239.00    0.98579   1.01607   -1.000
 4240.00    1.00519   1.02319   -1.000
 4241.00    1.00349   1.02920   -1.000
 4242.00    1.01525   1.03353   -1.000
 4243.00    0.99515   1.03561   -1.000
 4244.00    1.00679   1.03415   -1.000
 4245.00    1.00698   1.02847   -1.000
 4246.00    1.00057   1.01950   -1.000
 4247.00    0.98138   1.01017   -1.000
 4248.00    0.96008   1.00390   -1.000
 4249.00    0.96978   1.00202   -1.000
 4250.00    0.97352   1.00406   -1.000
 4251.00    0.98167   1.00783   -1.000
 4252.00    0.98045   1.01158   -1.000
 4253.00    1.00541   1.01371  186.104
 4254.00    0.99570   1.01448   -1.000
 4255.00    0.98093   1.01502   -1.000
 4256.00    1.00445   1.01447  183.983
 4257.00    0.99840   1.01147   -1.000
 4258.00    0.97630   1.00579   -1.000
 4259.00    0.96790   1.00014   -1.000
 4260.00    0.98144   0.99914   -1.000
 4261.00    0.97388   1.00523   -1.000
 4262.00    0.98416   1.01808   -1.000
 4263.00    1.01320   1.03283   -1.000
 4264.00    1.02041   1.04477   -1.000
 4265.00    1.03460   1.05037   -1.000
 4266.00    1.00991   1.04848   -1.000
 4267.00    0.98947   1.03962   -1.000
 4268.00    0.99104   1.02508   -1.000
 4269.00    0.99971   1.00676  212.501
 4270.00    0.97199   0.98805   -1.000
 4271.00    0.94857   0.97257   -1.000
 4272.00    0.93902   0.96408   -1.000
 4273.00    0.94239   0.96459   -1.000
 4274.00    0.94153   0.97318   -1.000
 4275.00    0.97412   0.98738  174.325
 4276.00    0.99740   1.00376  174.162
 4277.00    0.99304   1.01758   -1.000
 4278.00    0.99193   1.02570   -1.000
 4279.00    0.99249   1.02743   -1.000
 4280.00    0.98452   1.02518   -1.000
 4281.00    0.99128   1.02133   -1.000
 4282.00    0.99482   1.01772   -1.000
 4283.00    0.98400   1.01402   -1.000
 4284.00    0.96539   1.00879   -1.000
 4285.00    0.98027   1.00121   -1.000
 4286.00    0.97215   0.99014   -1.000
 4287.00    0.96555   0.97657  218.320
 4288.00    0.92801   0.96295   -1.000
 4289.00    0.92313   0.95264   -1.000
 4290.00    0.92857   0.94895   -1.000
 4291.00    0.91749   0.95209   -1.000
 4292.00    0.93261   0.95809   -1.000
 4293.00    0.95854   0.96212  195.720
 4294.00    0.95518   0.96097  200.216
 4295.00    0.92934   0.95453   -1.000
 4296.00    0.93376   0.94296  228.858
 4297.00    0.91572   0.92740  245.966
 4298.00    0.86575   0.90920   -1.000
 4299.00    0.85856   0.89167   -1.000
 4300.00    0.87441   0.87859  237.843
 4301.00    0.87239   0.87279  234.231
 4302.00    0.87368   0.87429  231.398
 4303.00    0.86014   0.88055   -1.000
 4304.00    0.87911   0.88776  240.609
 4305.00    0.90046   0.89171  253.752
 4306.00    0.86912   0.89087   -1.000
 4307.00    0.84209   0.88773   -1.000
 4308.00    0.83946   0.88619   -1.000
 4309.00    0.83830   0.88951   -1.000
 4310.00    0.86925   0.89756   -1.000
 4311.00    0.87293   0.90819   -1.000
 4312.00    0.87660   0.92026   -1.000
 4313.00    0.87588   0.93551   -1.000
 4314.00    0.92144   0.95536   -1.000
 4315.00    0.96166   0.98009   -1.000
 4316.00    1.00867   1.00519  157.336
 4317.00    1.02172   1.02473  159.860
 4318.00    1.00722   1.03453   -1.000
 4319.00    0.98137   1.03325   -1.000
 4320.00    0.98089   1.02263   -1.000
 4321.00    0.97758   1.00515   -1.000
 4322.00    0.98036   0.98344  208.186
 4323.00    0.93937   0.96093   -1.000
 4324.00    0.91259   0.94233   -1.000
 4325.00    0.90798   0.93297   -1.000
 4326.00    0.90972   0.93496   -1.000
 4327.00    0.92489   0.94588   -1.000
 4328.00    0.94569   0.95812  165.298
 4329.00    0.97350   0.96590  164.331
 4330.00    0.96335   0.96691  161.377
 4331.00    0.96015   0.96159  159.765
 4332.00    0.97641   0.95096   -1.000
 4333.00    0.96331   0.93350   -1.000
 4334.00    0.92769   0.90654   -1.000
 4335.00    0.89980   0.86755   -1.000
 4336.00    0.87585   0.81698   -1.000
 4337.00    0.82796   0.75931   -1.000
 4338.00    0.77556   0.70499   -1.000
 4339.00    0.72057   0.66553   -1.000
 4340.00    0.66339   0.65014  191.244
 4341.00    0.66996   0.66217  179.694
 4342.00    0.73618   0.69721   -1.000
 4343.00    0.80763   0.74481   -1.000
 4344.00    0.85612   0.79537   -1.000
 4345.00    0.88829   0.84241   -1.000
 4346.00    0.91466   0.88215   -1.000
 4347.00    0.93679   0.91254   -1.000
 4348.00    0.93487   0.93193  172.204
 4349.00    0.94886   0.94067  185.358
 4350.00    0.95739   0.94173  187.519
 4351.00    0.93278   0.94130  179.442
 4352.00    0.90190   0.94592   -1.000
 4353.00    0.91099   0.95781   -1.000
 4354.00    0.96463   0.97495  162.686
 4355.00    0.99290   0.99258  162.910
 4356.00    0.98501   1.00715   -1.000
 4357.00    0.97643   1.01749   -1.000
 4358.00    0.98187   1.02476   -1.000
 4359.00    0.97546   1.03137   -1.000
 4360.00    0.98089   1.03913   -1.000
 4361.00    0.99677   1.04821   -1.000
 4362.00    1.01698   1.05700   -1.000
 4363.00    1.03804   1.06378   -1.000
 4364.00    1.06115   1.06689  160.976
 4365.00    1.04087   1.06489   -1.000
 4366.00    1.00989   1.05785   -1.000
 4367.00    1.00176   1.04794   -1.000
 4368.00    1.01020   1.03797   -1.000
 4369.00    1.00774   1.02961   -1.000
 4370.00    1.00137   1.02268   -1.000
 4371.00    1.03310   1.01565  174.581
 4372.00    1.02829   1.00738   -1.000
 4373.00    1.00105   0.99889  181.260
 4374.00    0.98926   0.99344  173.361
 4375.00    0.97794   0.99443   -1.000
 4376.00    1.00465   1.00279  161.939
 4377.00    1.02310   1.01457  163.113
 4378.00    1.02885   1.02374  166.149
 4379.00    1.00634   1.02481   -1.000
 4380.00    1.02145   1.01470  194.480
 4381.00    1.01027   0.99404   -1.000
 4382.00    0.99486   0.96837   -1.000
 4383.00    0.95920   0.94561  196.404
 4384.00    0.94170   0.93422  177.813
 4385.00    0.96470   0.93729   -1.000
 4386.00    0.99751   0.95055   -1.000
 4387.00    1.00595   0.96730   -1.000
 4388.00    1.01714   0.98180   -1.000
 4389.00    1.01537   0.99199   -1.000
 4390.00    1.02183   0.99816   -1.000
 4391.00    0.99714   1.00153  169.471
 4392.00    1.02190   1.00316  173.431
 4393.00    1.02858   1.00312   -1.000
 4394.00    1.01668   1.00279  164.089
 4395.00    1.01420   1.00441  159.515
 4396.00    1.02663   1.00823  162.228
 4397.00    1.04054   1.01182   -1.000
 4398.00    1.02181   1.01260  173.441
 4399.00    1.00127   1.01078  170.916
 4400.00    1.00469   1.00829  167.765
 4401.00    1.01883   1.00675  174.356
 4402.00    1.00754   1.00570  184.910
 4403.00    1.00781   1.00359  185.735
 4404.00    1.01171   1.00097  178.979
 4405.00    0.99586   0.99991  176.642
 4406.00    1.00708   1.00174  175.109
 4407.00    1.01839   1.00684  168.015
 4408.00    1.03884   1.01465   -1.000
 4409.00    1.04037   1.02439  155.426
 4410.00    1.02583   1.03433  153.862
 4411.00    1.01784   1.04067   -1.000
 4412.00    1.03014   1.04031  168.037
 4413.00    1.04893   1.03253  173.781
 4414.00    1.02905   1.01977  172.256
 4415.00    1.00652   1.00801  165.870
 4416.00    0.98935   1.00349  158.919
 4417.00    0.99775   1.00874  154.631
 4418.00    1.01003   1.02128  155.938
 4419.00    1.03115   1.03620  160.301
 4420.00    1.03213   1.04774   -1.000
 4421.00    1.04087   1.05321  161.869
 4422.00    1.02891   1.05424   -1.000
 4423.00    1.03285   1.05348   -1.000
 4424.00    1.01708   1.05277   -1.000
 4425.00    1.01325   1.05251   -1.000
 4426.00    1.01284   1.05252   -1.000
 4427.00    1.01744   1.05312   -1.000
 4428.00    1.01842   1.05408   -1.000
 4429.00    1.04009   1.05486  160.839
 4430.00    1.02272   1.05481   -1.000
 4431.00    1.03491   1.05304   -1.000
 4432.00    1.05111   1.04944  173.821
 4433.00    1.03165   1.04503  175.126
 4434.00    1.01668   1.04199   -1.000
 4435.00    1.03542   1.04349  156.940
 4436.00    1.03736   1.05071  150.667
 4437.00    1.03462   1.06116   -1.000
 4438.00    1.04947   1.06970   -1.000
 4439.00    1.04813   1.07162   -1.000
 4440.00    1.04707   1.06550   -1.000
 4441.00    1.05460   1.05408  170.360
 4442.00    1.02849   1.04361   -1.000
 4443.00    1.01731   1.03958   -1.000
 4444.00    1.01528   1.04445   -1.000
 4445.00    1.02139   1.05585   -1.000
 4446.00    1.04395   1.06824   -1.000
 4447.00    1.05598   1.07718   -1.000
 4448.00    1.05725   1.08127   -1.000
 4449.00    1.04989   1.08123   -1.000
 4450.00    1.03477   1.07830   -1.000
 4451.00    1.02608   1.07338   -1.000
 4452.00    1.04528   1.06645   -1.000
 4453.00    1.05921   1.05717  174.715
 4454.00    1.04877   1.04719  171.314
 4455.00    1.01132   1.03947   -1.000
 4456.00    1.02087   1.03631  168.701
 4457.00    1.06127   1.03729   -1.000
 4458.00    1.04232   1.04042  171.491
 4459.00    1.04532   1.04406  172.852
 4460.00    1.04524   1.04734  168.983
 4461.00    1.03178   1.05038   -1.000
 4462.00    1.03498   1.05361   -1.000
 4463.00    1.04100   1.05699   -1.000
 4464.00    1.04022   1.05933   -1.000
 4465.00    1.05873   1.05926  160.817
 4466.00    1.05783   1.05628  163.959
 4467.00    1.04729   1.05130  164.679
 4468.00    1.02959   1.04677   -1.000
 4469.00    1.00839   1.04608   -1.000
 4470.00    1.04725   1.05115  151.323
 4471.00    1.06797   1.06137  147.386
 4472.00    1.08088   1.07444  146.375
 4473.00    1.07841   1.08754  146.690
 4474.00    1.09146   1.09815  145.303
 4475.00    1.08867   1.10458  144.568
 4476.00    1.08397   1.10601   -1.000
 4477.00    1.08643   1.10193  151.950
 4478.00    1.11611   1.09230   -1.000
 4479.00    1.11416   1.07887   -1.000
 4480.00    1.07622   1.06536  160.471
 4481.00    1.04234   1.05735  153.384
 4482.00    1.04507   1.05896  147.742
 4483.00    1.05083   1.06931   -1.000
 4484.00    1.06047   1.08359   -1.000
 4485.00    1.07166   1.09573   -1.000
 4486.00    1.07168   1.10128   -1.000
 4487.00    1.08128   1.09932   -1.000
 4488.00    1.08308   1.09280  155.886
 4489.00    1.06834   1.08624   -1.000
 4490.00    1.05738   1.08326   -1.000
 4491.00    1.06678   1.08436   -1.000
 4492.00    1.06807   1.08791   -1.000
 4493.00    1.05730   1.09166   -1.000
 4494.00    1.05006   1.09416   -1.000
 4495.00    1.05816   1.09617   -1.000
 4496.00    1.05831   1.09832   -1.000
 4497.00    1.06742   1.10032   -1.000
 4498.00    1.07866   1.10145   -1.000
 4499.00    1.07675   1.10155   -1.000
 4500.00    1.06416   1.10154   -1.000
 4501.00    1.05609   1.10367   -1.000
 4502.00    1.09136   1.10982   -1.000
 4503.00    1.09147   1.11883   -1.000
 4504.00    1.08394   1.12771   -1.000
 4505.00    1.10717   1.13334   -1.000
 4506.00    1.10614   1.13482   -1.000
 4507.00    1.08589   1.13320   -1.000
 4508.00    1.09396   1.13087   -1.000
 4509.00    1.10692   1.12984   -1.000
 4510.00    1.09145   1.12974   -1.000
 4511.00    1.09322   1.12875   -1.000
 4512.00    1.10340   1.12549   -1.000
 4513.00    1.08515   1.12010   -1.000
 4514.00    1.08240   1.11368   -1.000
 4515.00    1.07573   1.10775   -1.000
 4516.00    1.08180   1.10364   -1.000
 4517.00    1.08172   1.10108   -1.000
 4518.00    1.08323   1.09899  145.016
 4519.00    1.07429   1.09700   -1.000
 4520.00    1.08043   1.09489  149.488
 4521.00    1.07195   1.09240   -1.000
 4522.00    1.05879   1.08925   -1.000
 4523.00    1.05379   1.08527   -1.000
 4524.00    1.05953   1.08052   -1.000
 4525.00    1.06045   1.07458  165.756
 4526.00    1.06777   1.06721  167.374
 4527.00    1.07128   1.05919  165.846
 4528.00    1.06065   1.05203  162.815
 4529.00    1.05194   1.04747  159.971
 4530.00    1.04952   1.04561  159.650
 4531.00    1.05111   1.04514  164.550
 4532.00    1.02790   1.04431   -1.000
 4533.00    1.03088   1.04341  166.479
 4534.00    1.03166   1.04524  156.526
 4535.00    1.00831   1.05256   -1.000
 4536.00    1.04694   1.06548   -1.000
 4537.00    1.07876   1.08064  146.135
 4538.00    1.08608   1.09375  149.560
 4539.00    1.14073   1.10141   -1.000
 4540.00    0.67433   1.10340   -1.000
 4541.00   -0.02167   1.10196    0.000
 4542.00    0.00361   1.09965   -1.000
 4543.00    0.48649   1.09766   -1.000
 4544.00    0.81327   1.09540   -1.000
 4545.00    0.33875   1.09183   -1.000
 4546.00    1.08729   1.08641  207.582
 4547.00    1.05888   1.07906   69.601
 4548.00    1.05137   1.07074   -1.000
 4549.00    1.03658   1.06354   -1.000
 4550.00    1.04073   1.05988   -1.000
 4551.00    1.05330   1.06027  157.364
 4552.00    1.07575   1.06227  158.469
 4553.00    1.07526   1.06345  155.593
 4554.00    1.06198   1.06425  149.666
 4555.00    1.06019   1.06681  143.856
 4556.00    1.07567   1.07321  141.773
 4557.00    1.08648   1.08365  142.683
 4558.00    1.09205   1.09570  142.547
 4559.00    1.10708   1.10654  142.865
 4560.00    1.10751   1.11387  146.416
 4561.00    1.09891   1.11622   -1.000
 4562.00    1.09220   1.11357   -1.000
 4563.00    1.09325   1.10780  150.069
 4564.00    1.07793   1.10262   -1.000
 4565.00    1.06227   1.10115   -1.000
 4566.00    1.09425   1.10380  141.379
 4567.00    1.10646   1.10874  143.271
 4568.00    1.10181   1.11257  147.054
 4569.00    1.09208   1.11291   -1.000
 4570.00    1.08472   1.10970   -1.000
 4571.00    1.09504   1.10501  144.357
 4572.00    1.07761   1.10193   -1.000
 4573.00    1.07537   1.10290   -1.000
 4574.00    1.08727   1.10699   -1.000
 4575.00    1.10644   1.11106  144.544
 4576.00    1.10896   1.11283  147.278
 4577.00    1.09375   1.11106   -1.000
 4578.00    1.09584   1.10544  154.448
 4579.00    1.09502   1.09635  153.666
 4580.00    1.07429   1.08544  151.490
 4581.00    1.07463   1.07505  150.569
 4582.00    1.06696   1.06736  151.149
 4583.00    1.06846   1.06363  151.856
 4584.00    1.07372   1.06482  149.411
 4585.00    1.07694   1.07009  145.447
 4586.00    1.06922   1.07734  142.657
 4587.00    1.10274   1.08440  142.808
 4588.00    1.11877   1.08979   -1.000
 4589.00    1.09821   1.09295  147.814
 4590.00    1.08400   1.09404  150.173
 4591.00    1.08082   1.09394  150.047
 4592.00    1.07835   1.09389  148.701
 4593.00    1.08811   1.09505  147.611
 4594.00    1.09987   1.09789  147.267
 4595.00    1.08367   1.10178   -1.000
 4596.00    1.08523   1.10578   -1.000
 4597.00    1.10400   1.10889  148.170
 4598.00    1.10656   1.11034  149.416
 4599.00    1.10854   1.10983  149.589
 4600.00    1.10392   1.10799  147.881
 4601.00    1.09423   1.10579  146.401
 4602.00    1.08152   1.10440   -1.000
 4603.00    1.09045   1.10455  146.291
 4604.00    1.11240   1.10632  144.491
 4605.00    1.09490   1.10958  141.537
 4606.00    1.08952   1.11411   -1.000
 4607.00    1.11657   1.11937  137.290
 4608.00    1.12169   1.12439  138.153
 4609.00    1.11030   1.12810  140.096
 4610.00    1.12047   1.12979  141.565
 4611.00    1.12779   1.12920  142.282
 4612.00    1.11204   1.12721  141.431
 4613.00    1.09635   1.12457   -1.000
 4614.00    1.10848   1.12177  139.843
 4615.00    1.10937   1.11852  140.876
 4616.00    1.10477   1.11470  141.804
 4617.00    1.09563   1.11092  141.473
 4618.00    1.09706   1.10826  139.956
 4619.00    1.10526   1.10808  137.909
 4620.00    1.10096   1.11100  138.031
 4621.00    1.09768   1.11647   -1.000
 4622.00    1.10523   1.12285  138.764
 4623.00    1.12646   1.12786  140.002
 4624.00    1.11522   1.13026  140.243
 4625.00    1.11780   1.13006  140.255
 4626.00    1.11308   1.12761  141.156
 4627.00    1.10371   1.12401   -1.000
 4628.00    1.11311   1.12045  140.441
 4629.00    1.11510   1.11815  139.012
 4630.00    1.11029   1.11776  139.919
 4631.00    1.11940   1.11883  141.994
 4632.00    1.10814   1.11983  143.340
 4633.00    1.10690   1.11932  143.261
 4634.00    1.11251   1.11738  144.587
 4635.00    1.09420   1.11549   -1.000
 4636.00    1.10126   1.11481  146.832
 4637.00    1.09476   1.11555   -1.000
 4638.00    1.10022   1.11796  143.574
 4639.00    1.11428   1.12181  140.170
 4640.00    1.12389   1.12648  138.621
 4641.00    1.11811   1.13078  139.556
 4642.00    1.11684   1.13336  142.431
 4643.00    1.10272   1.13268   -1.000
 4644.00    1.10750   1.12829   -1.000
 4645.00    1.11752   1.12138  150.229
 4646.00    1.10428   1.11400  147.287
 4647.00    1.08884   1.10849   -1.000
 4648.00    1.08469   1.10706   -1.000
 4649.00    1.10201   1.10985  142.114
 4650.00    1.10675   1.11504  142.051
 4651.00    1.10470   1.11998  144.052
 4652.00    1.10991   1.12257  147.298
 4653.00    1.09698   1.12230   -1.000
 4654.00    1.08908   1.12012   -1.000
 4655.00    1.09589   1.11821   -1.000
 4656.00    1.10896   1.11888  136.465
 4657.00    1.10520   1.12352  133.885
 4658.00    1.11416   1.13137  134.129
 4659.00    1.12802   1.13985  136.100
 4660.00    1.12370   1.14532   -1.000
 4661.00    1.12242   1.14589   -1.000
 4662.00    1.11002   1.14141   -1.000
 4663.00    1.10871   1.13296   -1.000
 4664.00    1.12152   1.12184  151.722
 4665.00    1.10107   1.10955  157.243
 4666.00    1.08624   1.09737  156.397
 4667.00    1.08973   1.08775  151.093
 4668.00    1.07537   1.08330  144.963
 4669.00    1.08370   1.08529  141.560
 4670.00    1.10094   1.09256  141.006
 4671.00    1.10641   1.10299  141.129
 4672.00    1.10969   1.11374  140.738
 4673.00    1.12718   1.12284  138.769
 4674.00    1.12136   1.12921  137.031
 4675.00    1.13156   1.13273  138.182
 4676.00    1.11147   1.13317   -1.000
 4677.00    1.12111   1.13022  144.005
 4678.00    1.11727   1.12455  146.229
 4679.00    1.09024   1.11789   -1.000
 4680.00    1.10029   1.11236  144.870
 4681.00    1.10248   1.10923  141.348
 4682.00    1.11282   1.10866  139.911
 4683.00    1.12227   1.11019  140.458
 4684.00    1.12168   1.11284  140.587
 4685.00    1.12337   1.11554  141.327
 4686.00    1.13118   1.11774  141.288
 4687.00    1.13467   1.11942  141.444
 4688.00    1.11928   1.12063  142.424
 4689.00    1.10919   1.12145  142.395
 4690.00    1.11855   1.12207  140.531
 4691.00    1.10657   1.12265  138.264
 4692.00    1.10501   1.12363  135.307
 4693.00    1.12814   1.12513  133.993
 4694.00    1.13565   1.12649  135.234
 4695.00    1.14868   1.12674  139.363
 4696.00    1.12903   1.12514  143.220
 4697.00    1.11600   1.12118  144.331
 4698.00    1.12457   1.11497  143.339
 4699.00    1.11351   1.10773  144.759
 4700.00    1.10481   1.10056  147.150
 4701.00    1.11544   1.09441  147.280
 4702.00    1.09676   1.08996  144.383
 4703.00    1.09788   1.08794  142.894
 4704.00    1.09166   1.08837  145.251
 4705.00    1.11399   1.09008   -1.000
 4706.00    1.12189   1.09128   -1.000
 4707.00    1.10083   1.09137  147.561
 4708.00    1.09587   1.09134  143.059
 4709.00    1.09973   1.09285  139.533
 4710.00    1.10346   1.09635  138.690
 4711.00    1.10085   1.10088  140.362
 4712.00    1.11336   1.10524  142.699
 4713.00    1.12362   1.10851  142.114
 4714.00    1.11016   1.11093  139.150
 4715.00    1.11362   1.11373  136.761
 4716.00    1.12234   1.11781  136.068
 4717.00    1.11047   1.12295  135.605
 4718.00    1.11841   1.12780  135.390
 4719.00    1.12957   1.13155  136.608
 4720.00    1.12791   1.13389  137.290
 4721.00    1.11809   1.13520  136.279
 4722.00    1.09474   1.13587   -1.000
 4723.00    1.10708   1.13596   -1.000
 4724.00    1.11678   1.13502  139.571
 4725.00    1.10256   1.13220   -1.000
 4726.00    1.11423   1.12696  147.188
 4727.00    1.12449   1.11954  146.287
 4728.00    1.12253   1.11146  144.799
 4729.00    1.13117   1.10468   -1.000
 4730.00    1.12344   1.10056   -1.000
 4731.00    1.09531   1.09932  140.756
 4732.00    1.10544   1.10067  139.980
 4733.00    1.11684   1.10353  139.568
 4734.00    1.12588   1.10632  140.986
 4735.00    1.11707   1.10805  140.758
 4736.00    1.12639   1.10890  139.131
 4737.00    1.10716   1.10964  139.421
 4738.00    1.12586   1.11108  140.171
 4739.00    1.12067   1.11341  140.102
 4740.00    1.12523   1.11628  138.838
 4741.00    1.13570   1.11919  137.596
 4742.00    1.15840   1.12204   -1.000
 4743.00    1.12985   1.12477  137.864
 4744.00    1.11330   1.12739  136.707
 4745.00    1.12716   1.12988  135.486
 4746.00    1.12101   1.13243  135.344
 4747.00    1.13542   1.13525  135.556
 4748.00    1.14751   1.13836  135.790
 4749.00    1.15203   1.14102  136.924
 4750.00    1.13105   1.14259  138.443
 4751.00    1.13233   1.14243  139.547
 4752.00    1.12599   1.14016  140.287
 4753.00    1.11981   1.13626  140.111
 4754.00    1.11400   1.13204  140.789
 4755.00    1.11607   1.12909  141.709
 4756.00    1.12805   1.12823  141.583
 4757.00    1.14346   1.12926  140.495
 4758.00    1.14563   1.13082  140.712
 4759.00    1.12579   1.13116  143.278
 4760.00    1.11198   1.12877  146.646
 4761.00    1.11254   1.12292  148.146
 4762.00    1.12700   1.11455  148.190
 4763.00    1.10641   1.10603  147.727
 4764.00    1.09521   1.10044  146.469
 4765.00    1.09441   1.09934  144.153
 4766.00    1.10315   1.10275  141.032
 4767.00    1.11732   1.10934  139.531
 4768.00    1.11898   1.11742  140.046
 4769.00    1.11073   1.12502  141.293
 4770.00    1.09976   1.13082   -1.000
 4771.00    1.11680   1.13447  139.975
 4772.00    1.12563   1.13705  137.274
 4773.00    1.11616   1.13974   -1.000
 4774.00    1.11529   1.14305   -1.000
 4775.00    1.11417   1.14624   -1.000
 4776.00    1.13045   1.14810  138.391
 4777.00    1.13116   1.14796  139.852
 4778.00    1.11972   1.14583   -1.000
 4779.00    1.12107   1.14268   -1.000
 4780.00    1.11888   1.13972   -1.000
 4781.00    1.11256   1.13760   -1.000
 4782.00    1.10040   1.13577   -1.000
 4783.00    1.12055   1.13358  143.345
 4784.00    1.12519   1.13098  144.715
 4785.00    1.12832   1.12825  145.334
 4786.00    1.11463   1.12602  145.033
 4787.00    1.09729   1.12502   -1.000
 4788.00    1.11067   1.12592  143.241
 4789.00    1.12897   1.12874  141.548
 4790.00    1.13618   1.13325  139.021
 4791.00    1.13454   1.13918  136.010
 4792.00    1.13498   1.14603  134.062
 4793.00    1.13320   1.15299  134.006
 4794.00    1.13942   1.15877  135.706
 4795.00    1.13293   1.16219   -1.000
 4796.00    1.12645   1.16244   -1.000
 4797.00    1.12832   1.15983   -1.000
 4798.00    1.13487   1.15590   -1.000
 4799.00    1.13908   1.15245  137.490
 4800.00    1.12111   1.15080   -1.000
 4801.00    1.11866   1.15084   -1.000
 4802.00    1.12816   1.15137   -1.000
 4803.00    1.12433   1.15100   -1.000
 4804.00    1.10409   1.14931   -1.000
 4805.00    1.11135   1.14696   -1.000
 4806.00    1.12120   1.14527   -1.000
 4807.00    1.12886   1.14497  139.796
 4808.00    1.13375   1.14583  138.548
 4809.00    1.13727   1.14734  137.625
 4810.00    1.14675   1.14899  137.046
 4811.00    1.13395   1.15054  136.898
 4812.00    1.12590   1.15235   -1.000
 4813.00    1.14697   1.15498  135.948
 4814.00    1.14225   1.15840  135.075
 4815.00    1.13133   1.16214   -1.000
 4816.00    1.13414   1.16552   -1.000
 4817.00    1.13499   1.16788   -1.000
 4818.00    1.13218   1.16868   -1.000
 4819.00    1.12336   1.16751   -1.000
 4820.00    1.12704   1.16396   -1.000
 4821.00    1.13909   1.15773  141.337
 4822.00    1.13233   1.14934  140.472
 4823.00    1.11284   1.14060   -1.000
 4824.00    1.11625   1.13414  136.381
 4825.00    1.11761   1.13198  137.289
 4826.00    1.11739   1.13371  138.809
 4827.00    1.13591   1.13693  139.449
 4828.00    1.13720   1.13932  139.645
 4829.00    1.14381   1.13967  140.789
 4830.00    1.13524   1.13827  140.450
 4831.00    1.11812   1.13576  138.165
 4832.00    1.12274   1.13309  136.626
 4833.00    1.12978   1.13127  136.332
 4834.00    1.13005   1.13058  136.679
 4835.00    1.12182   1.13048  137.605
 4836.00    1.11590   1.13006  139.671
 4837.00    1.11917   1.12854  141.699
 4838.00    1.12047   1.12558  141.590
 4839.00    1.10799   1.12136  141.188
 4840.00    1.10827   1.11679  140.386
 4841.00    1.11653   1.11292  139.244
 4842.00    1.11636   1.11045  137.664
 4843.00    1.11412   1.10909  135.772
 4844.00    1.10368   1.10803  135.866
 4845.00    1.10515   1.10651  138.637
 4846.00    1.10029   1.10378  140.225
 4847.00    1.09961   1.09920  139.695
 4848.00    1.08880   1.09309  138.000
 4849.00    1.08254   1.08663  137.990
 4850.00    1.07607   1.08003  138.910
 4851.00    1.07434   1.07205  140.741
 4852.00    1.07935   1.06057  145.055
 4853.00    1.05915   1.04403  148.196
 4854.00    1.05328   1.02200   -1.000
 4855.00    1.05288   0.99502   -1.000
 4856.00    1.03397   0.96410   -1.000
 4857.00    1.02027   0.92904   -1.000
 4858.00    0.98740   0.88933   -1.000
 4859.00    0.91697   0.84611   -1.000
 4860.00    0.83107   0.80504   -1.000
 4861.00    0.74730   0.77608   -1.000
 4862.00    0.74006   0.76805   -1.000
 4863.00    0.82325   0.78406   -1.000
 4864.00    0.92993   0.81862   -1.000
 4865.00    0.99049   0.86261   -1.000
 4866.00    1.01502   0.90686   -1.000
 4867.00    1.04003   0.94508   -1.000
 4868.00    1.05418   0.97400   -1.000
 4869.00    1.04632   0.99309   -1.000
 4870.00    1.05101   1.00425   -1.000
 4871.00    1.04527   1.01096   -1.000
 4872.00    1.03328   1.01722  144.029
 4873.00    1.05442   1.02606   -1.000
 4874.00    1.07196   1.03753   -1.000
 4875.00    1.07932   1.04998   -1.000
 4876.00    1.09138   1.06165   -1.000
 4877.00    1.08966   1.07232  138.652
 4878.00    1.07328   1.08256  140.229
 4879.00    1.07168   1.09222   -1.000
 4880.00    1.08697   1.10010  142.748
 4881.00    1.10527   1.10492  142.501
 4882.00    1.10983   1.10618  143.647
 4883.00    1.10067   1.10488  145.598
 4884.00    1.10074   1.10237  145.962
 4885.00    1.10877   1.09967  145.259
 4886.00    1.12265   1.09711   -1.000
 4887.00    1.11774   1.09447   -1.000
 4888.00    1.09989   1.09163  150.463
 4889.00    1.10646   1.08888  148.106
 4890.00    1.10445   1.08755  141.754
 4891.00    1.07874   1.09024  135.687
 4892.00    1.09364   1.09903  132.101
 4893.00    1.11269   1.11377  130.098
 4894.00    1.12627   1.13145  129.743
 4895.00    1.13868   1.14748  130.642
 4896.00    1.14428   1.15889  133.635
 4897.00    1.14283   1.16458   -1.000
 4898.00    1.13707   1.16510   -1.000
 4899.00    1.13140   1.16195   -1.000
 4900.00    1.12404   1.15736   -1.000
 4901.00    1.12449   1.15328   -1.000
 4902.00    1.12024   1.15080   -1.000
 4903.00    1.11888   1.15013   -1.000
 4904.00    1.11415   1.15127   -1.000
 4905.00    1.13281   1.15391  135.229
 4906.00    1.13823   1.15637  138.729
 4907.00    1.13151   1.15620   -1.000
 4908.00    1.14273   1.15234  143.091
 4909.00    1.14676   1.14548  140.919
 4910.00    1.12839   1.13825  138.489
 4911.00    1.11421   1.13367  136.632
 4912.00    1.14214   1.13369  134.991
 4913.00    1.15074   1.13763  134.257
 4914.00    1.13990   1.14254  135.919
 4915.00    1.14649   1.14472  141.458
 4916.00    1.13577   1.14099  149.111
 4917.00    1.12301   1.12985  154.901
 4918.00    1.11800   1.11275  154.815
 4919.00    1.09582   1.09371  149.435
 4920.00    1.09153   1.07775  144.775
 4921.00    1.10256   1.06873   -1.000
 4922.00    1.10272   1.06761   -1.000
 4923.00    1.09955   1.07316   -1.000
 4924.00    1.08923   1.08334  136.908
 4925.00    1.10569   1.09710  134.780
 4926.00    1.14248   1.11312   -1.000
 4927.00    1.15164   1.12900  132.749
 4928.00    1.15455   1.14246  132.473
 4929.00    1.15940   1.15141  134.411
 4930.00    1.15689   1.15473  138.461
 4931.00    1.14281   1.15235  142.388
 4932.00    1.11665   1.14534   -1.000
 4933.00    1.10232   1.13601   -1.000
 4934.00    1.10816   1.12736  140.867
 4935.00    1.11799   1.12132  145.101
 4936.00    1.13520   1.11792  147.768
 4937.00    1.14602   1.11587   -1.000
 4938.00    1.12951   1.11495  140.369
 4939.00    1.11471   1.11689  136.360
 4940.00    1.11364   1.12295  134.212
 4941.00    1.12604   1.13263  133.354
 4942.00    1.14879   1.14355  133.705
 4943.00    1.14348   1.15288  134.517
 4944.00    1.14561   1.15918  134.401
 4945.00    1.13646   1.16260   -1.000
 4946.00    1.13010   1.16447   -1.000
 4947.00    1.13728   1.16614   -1.000
 4948.00    1.14110   1.16830   -1.000
 4949.00    1.14349   1.17048   -1.000
 4950.00    1.15451   1.17168  132.961
 4951.00    1.14866   1.17098   -1.000
 4952.00    1.14888   1.16796  136.726
 4953.00    1.14759   1.16233  141.311
 4954.00    1.14867   1.15373  148.337
 4955.00    1.12873   1.14226  151.916
 4956.00    1.11504   1.12922  147.086
 4957.00    1.08360   1.11807   -1.000
 4958.00    1.09828   1.11364  135.652
 4959.00    1.12762   1.11805  135.134
 4960.00    1.14053   1.12924  135.927
 4961.00    1.15072   1.14205  137.165
 4962.00    1.15981   1.15190  139.144
 4963.00    1.15962   1.15673  141.845
 4964.00    1.15802   1.15656  143.180
 4965.00    1.13935   1.15287  143.049
 4966.00    1.12705   1.14776  142.448
 4967.00    1.13965   1.14329  141.251
 4968.00    1.13500   1.14073  139.723
 4969.00    1.13643   1.14057  138.177
 4970.00    1.14506   1.14287  136.611
 4971.00    1.14945   1.14715  135.527
 4972.00    1.16189   1.15249  135.393
 4973.00    1.15601   1.15767  136.505
 4974.00    1.14501   1.16158  138.071
 4975.00    1.15316   1.16318  140.063
 4976.00    1.15266   1.16199  142.214
 4977.00    1.13882   1.15789  144.024
 4978.00    1.14524   1.15087  146.798
 4979.00    1.13696   1.14097  151.703
 4980.00    1.11029   1.12848  155.297
 4981.00    1.10695   1.11429  154.374
 4982.00    1.10152   1.10056  151.001
 4983.00    1.08880   1.09056  146.561
 4984.00    1.10115   1.08731  142.173
 4985.00    1.09587   1.09170  139.667
 4986.00    1.10753   1.10169  140.402
 4987.00    1.11614   1.11336  142.357
 4988.00    1.12610   1.12305  143.422
 4989.00    1.12530   1.12856  143.077
 4990.00    1.11303   1.13004  141.953
 4991.00    1.11594   1.12935  141.517
 4992.00    1.11905   1.12876  141.278
 4993.00    1.13490   1.12958  140.538
 4994.00    1.13270   1.13183  140.271
 4995.00    1.12591   1.13445  141.445
 4996.00    1.13547   1.13587  143.640
 4997.00    1.14506   1.13473  146.269
 4998.00    1.15016   1.13037   -1.000
 4999.00    1.13333   1.12319  147.232
 5000.00    1.11252   1.11479  145.918
 5001.00    1.10532   1.10713  145.818
 5002.00    1.13037   1.10152   -1.000
 5003.00    1.13081   1.09782   -1.000
 5004.00    1.12584   1.09495   -1.000
 5005.00    1.12183   1.09240   -1.000
 5006.00    1.11065   1.09099  143.175
 5007.00    1.10805   1.09230  142.672
 5008.00    1.10444   1.09633  145.303
 5009.00    1.12013   1.10074   -1.000
 5010.00    1.13913   1.10249   -1.000
 5011.00    1.13750   1.09951   -1.000
 5012.00    1.12589   1.09239   -1.000
 5013.00    1.10382   1.08350   -1.000
 5014.00    1.09373   1.07578  149.870
 5015.00    1.09950   1.07076   -1.000
 5016.00    1.10381   1.06825   -1.000
 5017.00    1.11326   1.06749   -1.000
 5018.00    1.11062   1.06834   -1.000
 5019.00    1.09833   1.07172   -1.000
 5020.00    1.11013   1.07806   -1.000
 5021.00    1.12129   1.08615   -1.000
 5022.00    1.12141   1.09447   -1.000
 5023.00    1.13175   1.10200   -1.000
 5024.00    1.14765   1.10853   -1.000
 5025.00    1.13318   1.11385  145.219
 5026.00    1.13113   1.11737  143.419
 5027.00    1.13857   1.11937  140.874
 5028.00    1.14954   1.12107   -1.000
 5029.00    1.14239   1.12347  136.724
 5030.00    1.13733   1.12689  135.694
 5031.00    1.14456   1.13091  137.161
 5032.00    1.14111   1.13441  141.991
 5033.00    1.12793   1.13580  146.710
 5034.00    1.13276   1.13367  148.495
 5035.00    1.14322   1.12755  149.362
 5036.00    1.13419   1.11844  152.428
 5037.00    1.10767   1.10762  158.612
 5038.00    1.11793   1.09624   -1.000
 5039.00    1.11354   1.08521   -1.000
 5040.00    1.11345   1.07638   -1.000
 5041.00    0.85647   1.07316   -1.000
 5042.00    0.17893   1.07817   -1.000
 5043.00   -0.03176   1.09109    0.000
 5044.00    0.08852   1.10833   -1.000
 5045.00    0.52310   1.12450   -1.000
 5046.00    1.03201   1.13537   -1.000
 5047.00    1.17303   1.13886   -1.000
 5048.00    1.15873   1.13548   -1.000
 5049.00    1.15309   1.12776   -1.000
 5050.00    1.13833   1.11948  141.971
 5051.00    1.12693   1.11401  138.680
 5052.00    1.13039   1.11344  136.550
 5053.00    1.13903   1.11830  135.545
 5054.00    1.14030   1.12701  135.341
 5055.00    1.15537   1.13655  135.608
 5056.00    1.16533   1.14515  135.766
 5057.00    1.16302   1.15233  135.431
 5058.00    1.16443   1.15806  134.793
 5059.00    1.16230   1.16218  135.435
 5060.00    1.16073   1.16418  137.967
 5061.00    1.16140   1.16342  142.337
 5062.00    1.16858   1.15957  146.388
 5063.00    1.16765   1.15274  146.885
 5064.00    1.15031   1.14397  144.866
 5065.00    1.13339   1.13545  143.203
 5066.00    1.13069   1.12900  142.724
 5067.00    1.13408   1.12536  141.954
 5068.00    1.13505   1.12390  141.664
 5069.00    1.14129   1.12347  142.866
 5070.00    1.13568   1.12329  143.072
 5071.00    1.14467   1.12284   -1.000
 5072.00    1.15715   1.12207   -1.000
 5073.00    1.14411   1.12142   -1.000
 5074.00    1.14321   1.12125   -1.000
 5075.00    1.14724   1.12107   -1.000
 5076.00    1.14737   1.11968   -1.000
 5077.00    1.14429   1.11592   -1.000
 5078.00    1.13477   1.10974   -1.000
 5079.00    1.12693   1.10244   -1.000
 5080.00    1.12583   1.09651   -1.000
 5081.00    1.12825   1.09426   -1.000
 5082.00    1.12221   1.09629   -1.000
 5083.00    1.13355   1.10187   -1.000
 5084.00    1.14542   1.10956   -1.000
 5085.00    1.15412   1.11811   -1.000
 5086.00    1.15704   1.12640   -1.000
 5087.00    1.15863   1.13364   -1.000
 5088.00    1.19868   1.13969   -1.000
 5089.00    1.26432   1.14479   -1.000
 5090.00    1.20006   1.14913   -1.000
 5091.00    1.15781   1.15266  134.919
 5092.00    1.16205   1.15502  136.746
 5093.00    1.17374   1.15548  139.690
 5094.00    1.19496   1.15304   -1.000
 5095.00    1.18257   1.14702   -1.000
 5096.00    1.15945   1.13790   -1.000
 5097.00    1.15109   1.12762   -1.000
 5098.00    1.14869   1.11896   -1.000
 5099.00    1.14376   1.11432   -1.000
 5100.00    1.14677   1.11455   -1.000
 5101.00    1.15582   1.11868   -1.000
 5102.00    1.15696   1.12438   -1.000
 5103.00    1.16258   1.12883   -1.000
 5104.00    1.16848   1.13030   -1.000
 5105.00    1.16833   1.12848   -1.000
 5106.00    1.15759   1.12430   -1.000
 5107.00    1.14100   1.11954   -1.000
 5108.00    1.13503   1.11615  144.593
 5109.00    1.12906   1.11555  142.583
 5110.00    1.13097   1.11823  140.848
 5111.00    1.13545   1.12375  139.282
 5112.00    1.14985   1.13111  138.212
 5113.00    1.16571   1.13887   -1.000
 5114.00    1.17097   1.14602   -1.000
 5115.00    1.17854   1.15191   -1.000
 5116.00    1.18820   1.15628   -1.000
 5117.00    1.18080   1.15880   -1.000
 5118.00    1.16904   1.15895  140.262
 5119.00    1.16818   1.15634  143.027
 5120.00    1.16719   1.15087  146.980
 5121.00    1.15791   1.14311  150.274
 5122.00    1.15339   1.13407   -1.000
 5123.00    1.15387   1.12499   -1.000
 5124.00    1.14219   1.11697   -1.000
 5125.00    1.13679   1.11090   -1.000
 5126.00    1.13991   1.10704   -1.000
 5127.00    1.14564   1.10512   -1.000
 5128.00    1.14517   1.10476   -1.000
 5129.00    1.14408   1.10585   -1.000
 5130.00    1.14269   1.10844   -1.000
 5131.00    1.14391   1.11228   -1.000
 5132.00    1.15210   1.11672   -1.000
 5133.00    1.16975   1.12085   -1.000
 5134.00    1.15604   1.12386   -1.000
 5135.00    1.15927   1.12498   -1.000
 5136.00    1.17170   1.12370   -1.000
 5137.00    1.16183   1.12006   -1.000
 5138.00    1.14614   1.11500   -1.000
 5139.00    1.12412   1.10992  148.534
 5140.00    1.12003   1.10615  149.837
 5141.00    1.13414   1.10429   -1.000
 5142.00    1.14014   1.10410   -1.000
 5143.00    1.14551   1.10501   -1.000
 5144.00    1.14681   1.10643   -1.000
 5145.00    1.14452   1.10777   -1.000
 5146.00    1.15182   1.10859   -1.000
 5147.00    1.16048   1.10873   -1.000
 5148.00    1.16899   1.10852   -1.000
 5149.00    1.16057   1.10815   -1.000
 5150.00    1.13769   1.10722   -1.000
 5151.00    1.13796   1.10559   -1.000
 5152.00    1.14182   1.10401   -1.000
 5153.00    1.14128   1.10378   -1.000
 5154.00    1.13809   1.10631   -1.000
 5155.00    1.13906   1.11219   -1.000
 5156.00    1.15721   1.12076   -1.000
 5157.00    1.17131   1.13008   -1.000
 5158.00    1.18438   1.13806   -1.000
 5159.00    1.18538   1.14305   -1.000
 5160.00    1.17820   1.14409   -1.000
 5161.00    1.17699   1.14060   -1.000
 5162.00    1.17342   1.13197   -1.000
 5163.00    1.16973   1.11744   -1.000
 5164.00    1.16164   1.09656   -1.000
 5165.00    1.13544   1.06997   -1.000
 5166.00    1.10049   1.04047   -1.000
 5167.00    1.05717   1.01320   -1.000
 5168.00    1.03901   0.99305   -1.000
 5169.00    1.06305   0.98254   -1.000
 5170.00    1.09349   0.98022   -1.000
 5171.00    1.10563   0.98289   -1.000
 5172.00    1.08960   0.98999   -1.000
 5173.00    1.06915   1.00322   -1.000
 5174.00    1.09280   1.02432   -1.000
 5175.00    1.13816   1.05125   -1.000
 5176.00    1.16516   1.07802   -1.000
 5177.00    1.18364   1.09881   -1.000
 5178.00    1.19169   1.10953   -1.000
 5179.00    1.18622   1.10847   -1.000
 5180.00    1.17806   1.09606   -1.000
 5181.00    1.15133   1.07475   -1.000
 5182.00    1.12726   1.04987   -1.000
 5183.00    1.10164   1.02864   -1.000
 5184.00    1.08100   1.01826   -1.000
 5185.00    1.09962   1.02188   -1.000
 5186.00    1.12955   1.03671   -1.000
 5187.00    1.15345   1.05619   -1.000
 5188.00    1.17303   1.07349   -1.000
 5189.00    1.16571   1.08523   -1.000
 5190.00    1.13873   1.09111   -1.000
 5191.00    1.12495   1.09229   -1.000
 5192.00    1.12678   1.09088   -1.000
 5193.00    1.14193   1.08938   -1.000
 5194.00    1.17013   1.08944   -1.000
 5195.00    1.19705   1.09172   -1.000
 5196.00    1.21630   1.09606   -1.000
 5197.00    1.19038   1.10212   -1.000
 5198.00    1.15966   1.10947   -1.000
 5199.00    1.16285   1.11678   -1.000
 5200.00    1.16436   1.12193   -1.000
 5201.00    1.17637   1.12287   -1.000
 5202.00    1.16593   1.11845   -1.000
 5203.00    1.15800   1.10908   -1.000
 5204.00    1.14900   1.09665   -1.000
 5205.00    1.13001   1.08397   -1.000
 5206.00    1.12573   1.07385   -1.000
 5207.00    1.12594   1.06833   -1.000
 5208.00    1.12901   1.06837   -1.000
 5209.00    1.13459   1.07396   -1.000
 5210.00    1.14814   1.08432   -1.000
 5211.00    1.16660   1.09767   -1.000
 5212.00    1.18471   1.11127   -1.000
 5213.00    1.19362   1.12210   -1.000
 5214.00    1.17610   1.12832   -1.000
 5215.00    1.15557   1.13025   -1.000
 5216.00    1.14344   1.13027  137.416
 5217.00    1.14658   1.13154  135.777
 5218.00    1.16658   1.13581   -1.000
 5219.00    1.18583   1.14253   -1.000
 5220.00    1.19162   1.14914   -1.000
 5221.00    1.19528   1.15260   -1.000
 5222.00    1.19000   1.15045   -1.000
 5223.00    1.17601   1.14164   -1.000
 5224.00    1.16500   1.12706   -1.000
 5225.00    1.15094   1.10964   -1.000
 5226.00    1.14050   1.09393   -1.000
 5227.00    1.13045   1.08485   -1.000
 5228.00    1.13447   1.08465   -1.000
 5229.00    1.15683   1.09161   -1.000
 5230.00    1.17318   1.10094   -1.000
 5231.00    1.17493   1.10814   -1.000
 5232.00    1.16975   1.11144   -1.000
 5233.00    1.16232   1.11210   -1.000
 5234.00    1.15001   1.11314   -1.000
 5235.00    1.15222   1.11724   -1.000
 5236.00    1.16863   1.12505   -1.000
 5237.00    1.18279   1.13504   -1.000
 5238.00    1.18069   1.14495   -1.000
 5239.00    1.17361   1.15301  133.140
 5240.00    1.17680   1.15864  133.192
 5241.00    1.18640   1.16215   -1.000
 5242.00    1.19858   1.16405   -1.000
 5243.00    1.19478   1.16464   -1.000
 5244.00    1.19167   1.16379   -1.000
 5245.00    1.19935   1.16100   -1.000
 5246.00    1.19212   1.15596   -1.000
 5247.00    1.17507   1.14932   -1.000
 5248.00    1.16448   1.14251   -1.000
 5249.00    1.15747   1.13695   -1.000
 5250.00    1.15127   1.13348  141.202
 5251.00    1.15504   1.13222   -1.000
 5252.00    1.15897   1.13292   -1.000
 5253.00    1.16378   1.13507   -1.000
 5254.00    1.16584   1.13831   -1.000
 5255.00    1.16676   1.14257   -1.000
 5256.00    1.18344   1.14772   -1.000
 5257.00    1.19943   1.15255   -1.000
 5258.00    1.19644   1.15480   -1.000
 5259.00    1.19672   1.15200   -1.000
 5260.00    1.20058   1.14269   -1.000
 5261.00    1.17784   1.12727   -1.000
 5262.00    1.15735   1.10788   -1.000
 5263.00    1.15147   1.08788   -1.000
 5264.00    1.13911   1.07051   -1.000
 5265.00    1.13412   1.05782   -1.000
 5266.00    1.13610   1.05023   -1.000
 5267.00    1.13684   1.04655   -1.000
 5268.00    1.13164   1.04511   -1.000
 5269.00    1.11436   1.04545   -1.000
 5270.00    1.09801   1.04848   -1.000
 5271.00    1.11010   1.05545   -1.000
 5272.00    1.14746   1.06603   -1.000
 5273.00    1.16890   1.07806   -1.000
 5274.00    1.16837   1.08976   -1.000
 5275.00    1.15980   1.10076   -1.000
 5276.00    1.16329   1.11163   -1.000
 5277.00    1.18519   1.12246   -1.000
 5278.00    1.20398   1.13187   -1.000
 5279.00    1.20636   1.13774   -1.000
 5280.00    1.17380   1.13873   -1.000
 5281.00    1.16117   1.13571   -1.000
 5282.00    1.16589   1.13152   -1.000
 5283.00    1.15286   1.12946   -1.000
 5284.00    1.15869   1.13198   -1.000
 5285.00    1.18401   1.13971   -1.000
 5286.00    1.19732   1.15110   -1.000
 5287.00    1.19859   1.16329   -1.000
 5288.00    1.20879   1.17361   -1.000
 5289.00    1.21073   1.18077   -1.000
 5290.00    1.19864   1.18474  130.688
 5291.00    1.19270   1.18583  132.161
 5292.00    1.19645   1.18421  134.733
 5293.00    1.19823   1.17999  139.136
 5294.00    1.19840   1.17314   -1.000
 5295.00    1.19412   1.16393   -1.000
 5296.00    1.18707   1.15344   -1.000
 5297.00    1.17314   1.14356   -1.000
 5298.00    1.15948   1.13662   -1.000
 5299.00    1.16377   1.13419   -1.000
 5300.00    1.18372   1.13621   -1.000
 5301.00    1.18840   1.14145   -1.000
 5302.00    1.19034   1.14836   -1.000
 5303.00    1.18926   1.15566   -1.000
 5304.00    1.19305   1.16246   -1.000
 5305.00    1.19713   1.16787   -1.000
 5306.00    1.18476   1.17155  130.450
 5307.00    1.17085   1.17399  129.300
 5308.00    1.17945   1.17604  128.922
 5309.00    1.19170   1.17829  129.357
 5310.00    1.19215   1.18040  130.035
 5311.00    1.20187   1.18124  130.759
 5312.00    1.21380   1.17972   -1.000
 5313.00    1.21046   1.17537   -1.000
 5314.00    1.20277   1.16878   -1.000
 5315.00    1.20179   1.16148   -1.000
 5316.00    1.19524   1.15545   -1.000
 5317.00    1.17613   1.15251   -1.000
 5318.00    1.16946   1.15315  133.156
 5319.00    1.18072   1.15600   -1.000
 5320.00    1.19695   1.15834   -1.000
 5321.00    1.20733   1.15754   -1.000
 5322.00    1.20277   1.15249   -1.000
 5323.00    1.19226   1.14345   -1.000
 5324.00    1.18987   1.13161   -1.000
 5325.00    1.18534   1.11849   -1.000
 5326.00    1.16600   1.10573   -1.000
 5327.00    1.15282   1.09515   -1.000
 5328.00    1.12327   1.08902   -1.000
 5329.00    1.12195   1.08971   -1.000
 5330.00    1.15410   1.09766   -1.000
 5331.00    1.16887   1.11059   -1.000
 5332.00    1.18275   1.12461   -1.000
 5333.00    1.19251   1.13628   -1.000
 5334.00    1.18752   1.14415   -1.000
 5335.00    1.17769   1.14811   -1.000
 5336.00    1.18217   1.14853   -1.000
 5337.00    1.18994   1.14613   -1.000
 5338.00    1.18201   1.14199   -1.000
 5339.00    1.18096   1.13745   -1.000
 5340.00    1.17534   1.13407   -1.000
 5341.00    1.16574   1.13326   -1.000
 5342.00    1.17280   1.13545   -1.000
 5343.00    1.17751   1.13956   -1.000
 5344.00    1.18384   1.14351   -1.000
 5345.00    1.19002   1.14558   -1.000
 5346.00    1.18341   1.14561   -1.000
 5347.00    1.17886   1.14467   -1.000
 5348.00    1.17860   1.14428   -1.000
 5349.00    1.18404   1.14559   -1.000
 5350.00    1.19654   1.14908   -1.000
 5351.00    1.19733   1.15453   -1.000
 5352.00    1.20663   1.16118   -1.000
 5353.00    1.21758   1.16811   -1.000
 5354.00    1.20815   1.17462   -1.000
 5355.00    1.20464   1.18039   -1.000
 5356.00    1.20990   1.18503   -1.000
 5357.00    1.20854   1.18789  128.319
 5358.00    1.20712   1.18834  130.179
 5359.00    1.21219   1.18598   -1.000
 5360.00    1.22012   1.18084   -1.000
 5361.00    1.21751   1.17337   -1.000
 5362.00    1.20435   1.16458   -1.000
 5363.00    1.19593   1.15594   -1.000
 5364.00    1.18739   1.14865   -1.000
 5365.00    1.18074   1.14314   -1.000
 5366.00    1.18154   1.13883   -1.000
 5367.00    1.17605   1.13461   -1.000
 5368.00    1.16857   1.12956   -1.000
 5369.00    1.16854   1.12379   -1.000
 5370.00    1.16967   1.11877   -1.000
 5371.00    1.15732   1.11684   -1.000
 5372.00    1.15775   1.12005   -1.000
 5373.00    1.18328   1.12871   -1.000
 5374.00    1.19580   1.14095   -1.000
 5375.00    1.19472   1.15345   -1.000
 5376.00    1.20054   1.16313   -1.000
 5377.00    1.20895   1.16849   -1.000
 5378.00    1.21368   1.16949   -1.000
 5379.00    1.20717   1.16720   -1.000
 5380.00    1.20320   1.16319   -1.000
 5381.00    1.20337   1.15913   -1.000
 5382.00    1.19656   1.15641   -1.000
 5383.00    1.19436   1.15588   -1.000
 5384.00    1.19401   1.15767   -1.000
 5385.00    1.19831   1.16107   -1.000
 5386.00    1.20296   1.16468   -1.000
 5387.00    1.20469   1.16688   -1.000
 5388.00    1.20832   1.16656   -1.000
 5389.00    1.20206   1.16361   -1.000
 5390.00    1.20287   1.15859   -1.000
 5391.00    1.20164   1.15246   -1.000
 5392.00    1.18783   1.14604   -1.000
 5393.00    1.18289   1.13977   -1.000
 5394.00    1.19303   1.13385   -1.000
 5395.00    1.18923   1.12841   -1.000
 5396.00    1.16206   1.12387   -1.000
 5397.00    1.14546   1.12120   -1.000
 5398.00    1.16287   1.12124   -1.000
 5399.00    1.19417   1.12387   -1.000
 5400.00    1.20673   1.12748   -1.000
 5401.00    1.20669   1.12958   -1.000
 5402.00    1.20359   1.12829   -1.000
 5403.00    1.18370   1.12335   -1.000
 5404.00    1.15940   1.11614   -1.000
 5405.00    1.14910   1.10915   -1.000
 5406.00    1.15442   1.10478   -1.000
 5407.00    1.17148   1.10394   -1.000
 5408.00    1.18276   1.10606   -1.000
 5409.00    1.18439   1.10985   -1.000
 5410.00    1.18220   1.11436   -1.000
 5411.00    1.17736   1.11957   -1.000
 5412.00    1.18302   1.12545   -1.000
 5413.00    1.19980   1.13163   -1.000
 5414.00    1.20779   1.13757   -1.000
 5415.00    1.19844   1.14301   -1.000
 5416.00    1.19071   1.14807   -1.000
 5417.00    1.18571   1.15257   -1.000
 5418.00    1.18208   1.15591   -1.000
 5419.00    1.18692   1.15760   -1.000
 5420.00    1.18067   1.15745   -1.000
 5421.00    1.17969   1.15576   -1.000
 5422.00    1.19893   1.15318   -1.000
 5423.00    1.20170   1.15044   -1.000
 5424.00    1.18969   1.14836   -1.000
 5425.00    1.19352   1.14735   -1.000
 5426.00    1.19765   1.14701   -1.000
 5427.00    1.19031   1.14624   -1.000
 5428.00    1.18859   1.14377   -1.000
 5429.00    1.18151   1.13952   -1.000
 5430.00    1.16892   1.13481   -1.000
 5431.00    1.17396   1.13104   -1.000
 5432.00    1.18560   1.12900   -1.000
 5433.00    1.18164   1.12867   -1.000
 5434.00    1.16826   1.13019   -1.000
 5435.00    1.16725   1.13430   -1.000
 5436.00    1.17924   1.14143   -1.000
 5437.00    1.18901   1.15106   -1.000
 5438.00    1.19209   1.16155   -1.000
 5439.00    1.19326   1.17078   -1.000
 5440.00    1.19242   1.17702  129.459
 5441.00    1.19693   1.17928  131.978
 5442.00    1.20323   1.17727   -1.000
 5443.00    1.19724   1.17115   -1.000
 5444.00    1.18922   1.16189   -1.000
 5445.00    1.17922   1.15146   -1.000
 5446.00    1.16544   1.14266   -1.000
 5447.00    1.16112   1.13821   -1.000
 5448.00    1.17276   1.13928   -1.000
 5449.00    1.18291   1.14486   -1.000
 5450.00    1.19115   1.15198   -1.000
 5451.00    1.20455   1.15731   -1.000
 5452.00    1.20004   1.15873   -1.000
 5453.00    1.18998   1.15603   -1.000
 5454.00    1.17392   1.15093   -1.000
 5455.00    1.15734   1.14626  135.008
 5456.00    1.16120   1.14466  132.932
 5457.00    1.16955   1.14715   -1.000
 5458.00    1.17454   1.15251   -1.000
 5459.00    1.17612   1.15793  137.944
 5460.00    1.17975   1.16092   -1.000
 5461.00    1.18800   1.16063   -1.000
 5462.00    1.18385   1.15807   -1.000
 5463.00    1.18347   1.15525   -1.000
 5464.00    1.19616   1.15404   -1.000
 5465.00    1.19179   1.15529   -1.000
 5466.00    1.18790   1.15848   -1.000
 5467.00    1.20085   1.16235   -1.000
 5468.00    1.21191   1.16561   -1.000
 5469.00    1.20489   1.16743   -1.000
 5470.00    1.20225   1.16727   -1.000
 5471.00    1.21048   1.16486   -1.000
 5472.00    1.21494   1.16026   -1.000
 5473.00    1.20962   1.15377   -1.000
 5474.00    1.18275   1.14607   -1.000
 5475.00    1.17080   1.13833   -1.000
 5476.00    1.17820   1.13214   -1.000
 5477.00    1.17567   1.12904   -1.000
 5478.00    1.17826   1.12983   -1.000
 5479.00    1.19364   1.13389   -1.000
 5480.00    1.20221   1.13969   -1.000
 5481.00    1.20070   1.14559   -1.000
 5482.00    1.19395   1.15087   -1.000
 5483.00    1.19308   1.15559   -1.000
 5484.00    1.20461   1.15964   -1.000
 5485.00    1.21224   1.16270   -1.000
 5486.00    1.20340   1.16431   -1.000
 5487.00    1.19509   1.16449   -1.000
 5488.00    1.19947   1.16392   -1.000
 5489.00    1.20360   1.16352   -1.000
 5490.00    1.20363   1.16384   -1.000
 5491.00    1.20113   1.16478   -1.000
 5492.00    1.20066   1.16588   -1.000
 5493.00    1.20515   1.16662   -1.000
 5494.00    1.20376   1.16660   -1.000
 5495.00    1.19991   1.16572   -1.000
 5496.00    1.19410   1.16409   -1.000
 5497.00    1.18135   1.16196   -1.000
 5498.00    1.18042   1.15969   -1.000
 5499.00    1.18466   1.15744   -1.000
 5500.00    1.17769   1.15515   -1.000
 5501.00    1.17586   1.15269   -1.000
 5502.00    1.18924   1.15009   -1.000
 5503.00    1.19867   1.14771   -1.000
 5504.00    1.19552   1.14576   -1.000
 5505.00    1.19556   1.14414   -1.000
 5506.00    1.18710   1.14292   -1.000
 5507.00    1.17277   1.14234   -1.000
 5508.00    1.17764   1.14261   -1.000
 5509.00    1.19076   1.14347   -1.000
 5510.00    1.20350   1.14413   -1.000
 5511.00    1.20395   1.14410   -1.000
 5512.00    1.19292   1.14358   -1.000
 5513.00    1.18477   1.14352   -1.000
 5514.00    1.17888   1.14502   -1.000
 5515.00    1.18039   1.14868   -1.000
 5516.00    1.18781   1.15424   -1.000
 5517.00    1.19100   1.16075   -1.000
 5518.00    1.19102   1.16706   -1.000
 5519.00    1.19474   1.17218   -1.000
 5520.00    1.20188   1.17543   -1.000
 5521.00    1.20815   1.17638   -1.000
 5522.00    1.21349   1.17491   -1.000
 5523.00    1.20674   1.17094   -1.000
 5524.00    1.19175   1.16458   -1.000
 5525.00    1.18950   1.15629   -1.000
 5526.00    1.18520   1.14731   -1.000
 5527.00    1.17217   1.13962   -1.000
 5528.00    1.16300   1.13521   -1.000
 5529.00    1.16567   1.13525   -1.000
 5530.00    1.17604   1.13913   -1.000
 5531.00    1.18128   1.14494   -1.000
 5532.00    1.18798   1.15023   -1.000
 5533.00    1.18914   1.15355   -1.000
 5534.00    1.17726   1.15506   -1.000
 5535.00    1.17725   1.15593   -1.000
 5536.00    1.18929   1.15743   -1.000
 5537.00    1.19969   1.16010   -1.000
 5538.00    1.20712   1.16358   -1.000
 5539.00    1.20759   1.16699   -1.000
 5540.00    1.19962   1.16956   -1.000
 5541.00    1.19127   1.17088   -1.000
 5542.00    1.18493   1.17087  135.077
 5543.00    1.18840   1.16992   -1.000
 5544.00    1.20088   1.16890   -1.000
 5545.00    1.21104   1.16868   -1.000
 5546.00    1.20877   1.16975   -1.000
 5547.00    1.19821   1.17200   -1.000
 5548.00    1.19242   1.17484  131.406
 5549.00    1.19196   1.17757  132.416
 5550.00    1.20610   1.17952   -1.000
 5551.00    1.21531   1.18024   -1.000
 5552.00    1.20336   1.17978   -1.000
 5553.00    1.19631   1.17859  134.580
 5554.00    1.20563   1.17726   -1.000
 5555.00    1.21418   1.17639   -1.000
 5556.00    1.21091   1.17621   -1.000
 5557.00    1.21601   1.17653   -1.000
 5558.00    1.21797   1.17679   -1.000
 5559.00    1.20518   1.17647   -1.000
 5560.00    1.19358   1.17522   -1.000
 5561.00    1.19602   1.17296   -1.000
 5562.00    1.20344   1.16993   -1.000
 5563.00    1.20068   1.16662   -1.000
 5564.00    1.19404   1.16351   -1.000
 5565.00    1.19298   1.16088   -1.000
 5566.00    1.19714   1.15871   -1.000
 5567.00    1.19384   1.15680   -1.000
 5568.00    1.19332   1.15496   -1.000
 5569.00    1.19446   1.15312   -1.000
 5570.00    1.19457   1.15138   -1.000
 5571.00    1.27968   1.15001   -1.000
 5572.00    1.29270   1.14933   -1.000
 5573.00    0.58740   1.14964   -1.000
 5574.00   -0.88565   1.15109    0.000
 5575.00   -1.76306   1.15358    0.000
 5576.00   -0.85234   1.15674    0.000
 5577.00    0.73734   1.16002   -1.000
 5578.00    1.26197   1.16309   -1.000
 5579.00    1.16763   1.16558  136.516
 5580.00    1.18348   1.16708  135.749
 5581.00    1.20043   1.16726   -1.000
 5582.00    1.19845   1.16583   -1.000
 5583.00    1.19196   1.16246   -1.000
 5584.00    1.18157   1.15676   -1.000
 5585.00    1.17570   1.14870   -1.000
 5586.00    1.17191   1.13908   -1.000
 5587.00    1.16188   1.12948   -1.000
 5588.00    1.15563   1.12213   -1.000
 5589.00    1.14984   1.11874   -1.000
 5590.00    1.16208   1.11954   -1.000
 5591.00    1.17504   1.12353   -1.000
 5592.00    1.18130   1.12895   -1.000
 5593.00    1.18920   1.13429   -1.000
 5594.00    1.18208   1.13860   -1.000
 5595.00    1.17813   1.14164   -1.000
 5596.00    1.18513   1.14334   -1.000
 5597.00    1.19593   1.14358   -1.000
 5598.00    1.20104   1.14236   -1.000
 5599.00    1.19718   1.14006   -1.000
 5600.00    1.19879   1.13778   -1.000
 5601.00    1.19418   1.13683   -1.000
 5602.00    1.18411   1.13828   -1.000
 5603.00    1.18169   1.14297   -1.000
 5604.00    1.19174   1.15094   -1.000
 5605.00    1.19625   1.16102   -1.000
 5606.00    1.20096   1.17144   -1.000
 5607.00    1.20851   1.18042   -1.000
 5608.00    1.20850   1.18685   -1.000
 5609.00    1.20387   1.19038  132.790
 5610.00    1.20874   1.19089  134.778
 5611.00    1.21446   1.18833   -1.000
 5612.00    1.21454   1.18272   -1.000
 5613.00    1.20622   1.17454   -1.000
 5614.00    1.18539   1.16512   -1.000
 5615.00    1.17552   1.15665   -1.000
 5616.00    1.17956   1.15139   -1.000
 5617.00    1.18665   1.15052   -1.000
 5618.00    1.19235   1.15366   -1.000
 5619.00    1.20655   1.15878   -1.000
 5620.00    1.22976   1.16366   -1.000
 5621.00    1.22518   1.16679   -1.000
 5622.00    1.20697   1.16764   -1.000
 5623.00    1.20241   1.16668   -1.000
 5624.00    1.19493   1.16509   -1.000
 5625.00    1.19816   1.16427   -1.000
 5626.00    1.20643   1.16540   -1.000
 5627.00    1.20863   1.16867   -1.000
 5628.00    1.21668   1.17334   -1.000
 5629.00    1.22358   1.17819   -1.000
 5630.00    1.21614   1.18196   -1.000
 5631.00    1.20723   1.18390   -1.000
 5632.00    1.20152   1.18377   -1.000
 5633.00    1.20497   1.18183   -1.000
 5634.00    1.21272   1.17869   -1.000
 5635.00    1.21154   1.17507   -1.000
 5636.00    1.20878   1.17153   -1.000
 5637.00    1.19895   1.16847   -1.000
 5638.00    1.18100   1.16605  138.416
 5639.00    1.16856   1.16434  138.066
 5640.00    1.18170   1.16336   -1.000
 5641.00    1.19649   1.16311   -1.000
 5642.00    1.19533   1.16363   -1.000
 5643.00    1.20080   1.16491   -1.000
 5644.00    1.20545   1.16672   -1.000
 5645.00    1.20726   1.16866   -1.000
 5646.00    1.20452   1.17037   -1.000
 5647.00    1.20552   1.17159   -1.000
 5648.00    1.20228   1.17220   -1.000
 5649.00    1.19821   1.17222   -1.000
 5650.00    1.20570   1.17176   -1.000
 5651.00    1.20888   1.17079   -1.000
 5652.00    1.21320   1.16906   -1.000
 5653.00    1.21425   1.16611   -1.000
 5654.00    1.20600   1.16152   -1.000
 5655.00    1.20104   1.15525   -1.000
 5656.00    1.19625   1.14793   -1.000
 5657.00    1.18876   1.14077   -1.000
 5658.00    1.17952   1.13525   -1.000
 5659.00    1.17562   1.13252   -1.000
 5660.00    1.17860   1.13300   -1.000
 5661.00    1.18589   1.13612   -1.000
 5662.00    1.19052   1.14075   -1.000
 5663.00    1.19557   1.14586   -1.000
 5664.00    1.19955   1.15069   -1.000
 5665.00    1.19321   1.15477   -1.000
 5666.00    1.19306   1.15782   -1.000
 5667.00    1.20018   1.15985   -1.000
 5668.00    1.19707   1.16135   -1.000
 5669.00    1.18953   1.16304   -1.000
 5670.00    1.19175   1.16539   -1.000
 5671.00    1.19734   1.16841   -1.000
 5672.00    1.19632   1.17166   -1.000
 5673.00    1.19538   1.17461   -1.000
 5674.00    1.20604   1.17680   -1.000
 5675.00    1.21686   1.17805   -1.000
 5676.00    1.22360   1.17832   -1.000
 5677.00    1.20838   1.17760   -1.000
 5678.00    1.19656   1.17578   -1.000
 5679.00    1.19849   1.17272   -1.000
 5680.00    1.19226   1.16846   -1.000
 5681.00    1.18626   1.16337   -1.000
 5682.00    1.17618   1.15817   -1.000
 5683.00    1.16396   1.15368  137.523
 5684.00    1.15345   1.15051  138.888
 5685.00    1.15604   1.14884  139.787
 5686.00    1.17043   1.14847   -1.000
 5687.00    1.16276   1.14909  136.499
 5688.00    1.14694   1.15060  134.759
 5689.00    1.15490   1.15310  133.826
 5690.00    1.17331   1.15664  133.394
 5691.00    1.17725   1.16096  133.453
 5692.00    1.17256   1.16543  133.592
 5693.00    1.19251   1.16935   -1.000
 5694.00    1.21575   1.17218   -1.000
 5695.00    1.21738   1.17361   -1.000
 5696.00    1.20350   1.17354   -1.000
 5697.00    1.19353   1.17204   -1.000
 5698.00    1.19212   1.16936   -1.000
 5699.00    1.18962   1.16597   -1.000
 5700.00    1.18733   1.16246   -1.000
 5701.00    1.18204   1.15938   -1.000
 5702.00    1.17253   1.15695  138.014
 5703.00    1.18361   1.15496   -1.000
 5704.00    1.19151   1.15285   -1.000
 5705.00    1.17980   1.14995   -1.000
 5706.00    1.17715   1.14588   -1.000
 5707.00    1.18870   1.14087   -1.000
 5708.00    1.18671   1.13580   -1.000
 5709.00    1.17037   1.13195   -1.000
 5710.00    1.16986   1.13054   -1.000
 5711.00    1.17007   1.13230   -1.000
 5712.00    1.17810   1.13717   -1.000
 5713.00    1.19629   1.14423   -1.000
 5714.00    1.19461   1.15214   -1.000
 5715.00    1.20072   1.15965   -1.000
 5716.00    1.21048   1.16603   -1.000
 5717.00    1.20245   1.17115   -1.000
 5718.00    1.20094   1.17532   -1.000
 5719.00    1.20097   1.17889   -1.000
 5720.00    1.18945   1.18202  131.568
 5721.00    1.18663   1.18462  131.738
 5722.00    1.19622   1.18646  132.628
 5723.00    1.20162   1.18730  133.983
 5724.00    1.20405   1.18700  135.170
 5725.00    1.20834   1.18570   -1.000
 5726.00    1.20387   1.18373   -1.000
 5727.00    1.20415   1.18162   -1.000
 5728.00    1.20959   1.17985   -1.000
 5729.00    1.20839   1.17877   -1.000
 5730.00    1.20323   1.17844   -1.000
 5731.00    1.21050   1.17879   -1.000
 5732.00    1.20157   1.17973   -1.000
 5733.00    1.19703   1.18114  132.529
 5734.00    1.20269   1.18287   -1.000
 5735.00    1.19941   1.18465  133.057
 5736.00    1.21099   1.18613   -1.000
 5737.00    1.20666   1.18708   -1.000
 5738.00    1.20167   1.18743  133.778
 5739.00    1.20220   1.18729  133.652
 5740.00    1.20099   1.18686  133.439
 5741.00    1.21650   1.18634   -1.000
 5742.00    1.21397   1.18590   -1.000
 5743.00    1.19439   1.18560  132.196
 5744.00    1.20029   1.18540  133.406
 5745.00    1.19905   1.18520  134.179
 5746.00    1.19602   1.18484  133.730
 5747.00    1.19972   1.18422  133.155
 5748.00    1.19390   1.18326  133.798
 5749.00    1.19065   1.18182  135.327
 5750.00    1.18732   1.17978  136.792
 5751.00    1.18995   1.17715  137.158
 5752.00    1.19792   1.17437   -1.000
 5753.00    1.20050   1.17226   -1.000
 5754.00    1.19540   1.17168   -1.000
 5755.00    1.19213   1.17303   -1.000
 5756.00    1.19299   1.17588  132.728
 5757.00    1.19620   1.17913  134.439
 5758.00    1.19777   1.18156  136.267
 5759.00    1.19585   1.18237  137.294
 5760.00    1.19385   1.18158  136.383
 5761.00    1.18961   1.17998  134.128
 5762.00    1.19267   1.17873  132.240
 5763.00    1.19249   1.17882  131.517
 5764.00    1.19144   1.18060  131.351
 5765.00    1.19905   1.18368  131.158
 5766.00    1.18649   1.18711  131.281
 5767.00    1.17973   1.18990  131.692
 5768.00    1.19264   1.19139  132.346
 5769.00    1.19982   1.19143  133.159
 5770.00    1.20515   1.19022  133.634
 5771.00    1.20400   1.18818  133.825
 5772.00    1.21159   1.18577   -1.000
 5773.00    1.21264   1.18339   -1.000
 5774.00    1.20102   1.18132   -1.000
 5775.00    1.19204   1.17954  133.080
 5776.00    1.18766   1.17772  134.609
 5777.00    1.17692   1.17531  137.418
 5778.00    1.16126   1.17189  139.629
 5779.00    1.16003   1.16749  139.904
 5780.00    1.16789   1.16270  139.365
 5781.00    1.18005   1.15844   -1.000
 5782.00    1.18648   1.15558   -1.000
 5783.00    1.19744   1.15462   -1.000
 5784.00    1.19280   1.15552   -1.000
 5785.00    1.18918   1.15792   -1.000
 5786.00    1.19287   1.16121   -1.000
 5787.00    1.19404   1.16476   -1.000
 5788.00    1.19572   1.16799   -1.000
 5789.00    1.19526   1.17056   -1.000
 5790.00    1.20104   1.17248   -1.000
 5791.00    1.20753   1.17406   -1.000
 5792.00    1.19631   1.17572   -1.000
 5793.00    1.18659   1.17765  132.030
 5794.00    1.18526   1.17975  132.893
 5795.00    1.18423   1.18166  132.669
 5796.00    1.18725   1.18312  131.208
 5797.00    1.20381   1.18415   -1.000
 5798.00    1.20796   1.18499   -1.000
 5799.00    1.20460   1.18592   -1.000
 5800.00    1.20251   1.18695  130.525
 5801.00    1.20882   1.18786   -1.000
 5802.00    1.21491   1.18832   -1.000
 5803.00    1.21219   1.18813   -1.000
 5804.00    1.21060   1.18743   -1.000
 5805.00    1.20345   1.18664  131.316
 5806.00    1.20086   1.18620  131.209
 5807.00    1.21176   1.18638   -1.000
 5808.00    1.21962   1.18718   -1.000
 5809.00    1.21333   1.18833   -1.000
 5810.00    1.20969   1.18945   -1.000
 5811.00    1.20826   1.19018   -1.000
 5812.00    1.20888   1.19030   -1.000
 5813.00    1.21192   1.18982   -1.000
 5814.00    1.20345   1.18901  130.801
 5815.00    1.19423   1.18830  130.034
 5816.00    1.19887   1.18816  129.381
 5817.00    1.21331   1.18888   -1.000
 5818.00    1.22680   1.19040   -1.000
 5819.00    1.22485   1.19241   -1.000
 5820.00    1.21660   1.19447   -1.000
 5821.00    1.22065   1.19623   -1.000
 5822.00    1.22120   1.19757   -1.000
 5823.00    1.21521   1.19851  128.707
 5824.00    1.21207   1.19917  128.705
 5825.00    1.21830   1.19966   -1.000
 5826.00    1.23110   1.20006   -1.000
 5827.00    1.22118   1.20040   -1.000
 5828.00    1.21729   1.20064  128.626
 5829.00    1.22068   1.20071   -1.000
 5830.00    1.22187   1.20054   -1.000
 5831.00    1.23176   1.20009   -1.000
 5832.00    1.22079   1.19942   -1.000
 5833.00    1.20739   1.19867  129.278
 5834.00    1.21175   1.19803  129.535
 5835.00    1.22649   1.19772   -1.000
 5836.00    1.21692   1.19781   -1.000
 5837.00    1.20728   1.19825  128.796
 5838.00    1.21783   1.19884   -1.000
 5839.00    1.21519   1.19936  127.903
 5840.00    1.20842   1.19960  128.254
 5841.00    1.21261   1.19945  128.746
 5842.00    1.21549   1.19882  129.522
 5843.00    1.22098   1.19769   -1.000
 5844.00    1.21790   1.19611   -1.000
 5845.00    1.21549   1.19425   -1.000
 5846.00    1.20789   1.19233  131.019
 5847.00    1.19765   1.19048  131.654
 5848.00    1.21260   1.18867   -1.000
 5849.00    1.21365   1.18662   -1.000
 5850.00    1.21396   1.18399   -1.000
 5851.00    1.22543   1.18053   -1.000
 5852.00    1.21456   1.17626   -1.000
 5853.00    1.19435   1.17141   -1.000
 5854.00    1.19503   1.16632   -1.000
 5855.00    1.18463   1.16140   -1.000
 5856.00    1.17836   1.15715   -1.000
 5857.00    1.18112   1.15422   -1.000
 5858.00    1.18321   1.15321   -1.000
 5859.00    1.18892   1.15443   -1.000
 5860.00    1.20440   1.15761   -1.000
 5861.00    1.22889   1.16195   -1.000
 5862.00    1.23819   1.16645   -1.000
 5863.00    1.21395   1.17027   -1.000
 5864.00    1.20266   1.17295   -1.000
 5865.00    1.19671   1.17452   -1.000
 5866.00    1.18378   1.17542  131.851
 5867.00    1.19945   1.17625   -1.000
 5868.00    1.21716   1.17747   -1.000
 5869.00    1.21635   1.17915   -1.000
 5870.00    1.21464   1.18094   -1.000
 5871.00    1.20596   1.18224   -1.000
 5872.00    1.20428   1.18258   -1.000
 5873.00    1.21348   1.18182   -1.000
 5874.00    1.21261   1.18018   -1.000
 5875.00    1.20683   1.17811   -1.000
 5876.00    1.20496   1.17596   -1.000
 5877.00    1.20669   1.17393   -1.000
 5878.00    1.19574   1.17192   -1.000
 5879.00    1.19323   1.16972   -1.000
 5880.00    1.20831   1.16708   -1.000
 5881.00    1.21438   1.16375   -1.000
 5882.00    1.21650   1.15944   -1.000
 5883.00    1.22122   1.15369   -1.000
 5884.00    1.22092   1.14566   -1.000
 5885.00    1.21207   1.13419   -1.000
 5886.00    1.08630   1.11834   -1.000
 5887.00    0.79690   1.09829   -1.000
 5888.00    0.65110   1.07609   -1.000
 5889.00    0.76200   1.05535   -1.000
 5890.00    0.97857   1.03976   -1.000
 5891.00    1.08664   1.03118   -1.000
 5892.00    1.06563   1.02880   -1.000
 5893.00    0.91748   1.03005   -1.000
 5894.00    0.84208   1.03271   -1.000
 5895.00    0.89377   1.03639   -1.000
 5896.00    0.99844   1.04245   -1.000
 5897.00    1.09385   1.05251   -1.000
 5898.00    1.15477   1.06695   -1.000
 5899.00    1.18641   1.08443   -1.000
 5900.00    1.20318   1.10264   -1.000
 5901.00    1.20218   1.11933   -1.000
 5902.00    1.19090   1.13312   -1.000
 5903.00    1.20068   1.14357   -1.000
 5904.00    1.20387   1.15099   -1.000
 5905.00    1.18210   1.15606   -1.000
 5906.00    1.17471   1.15952  134.748
 5907.00    1.18900   1.16192   -1.000
 5908.00    1.19121   1.16352   -1.000
 5909.00    1.20780   1.16432   -1.000
 5910.00    1.20655   1.16416   -1.000
 5911.00    1.20912   1.16291   -1.000
 5912.00    1.20415   1.16069   -1.000
 5913.00    1.17516   1.15793   -1.000
 5914.00    1.15100   1.15531  137.210
 5915.00    1.15042   1.15356  136.659
 5916.00    1.16236   1.15316  136.283
 5917.00    1.17060   1.15414  135.817
 5918.00    1.17448   1.15613   -1.000
 5919.00    1.17178   1.15858  135.882
 5920.00    1.16838   1.16094  135.463
 5921.00    1.18711   1.16292   -1.000
 5922.00    1.17826   1.16446  134.720
 5923.00    1.16956   1.16566  134.597
 5924.00    1.18270   1.16653  134.789
 5925.00    1.19381   1.16697   -1.000
 5926.00    1.18623   1.16675   -1.000
 5927.00    1.18328   1.16576   -1.000
 5928.00    1.18959   1.16420   -1.000
 5929.00    1.19048   1.16256   -1.000
 5930.00    1.19997   1.16140   -1.000
 5931.00    1.18651   1.16105   -1.000
 5932.00    1.17474   1.16152  136.928
 5933.00    1.18734   1.16254   -1.000
 5934.00    1.19946   1.16383   -1.000
 5935.00    1.21194   1.16515   -1.000
 5936.00    1.19764   1.16634   -1.000
 5937.00    1.18545   1.16714   -1.000
 5938.00    1.19093   1.16733   -1.000
 5939.00    1.17239   1.16682  136.993
 5940.00    1.17091   1.16579  136.291
 5941.00    1.18448   1.16461   -1.000
 5942.00    1.18853   1.16368   -1.000
 5943.00    1.18517   1.16315   -1.000
 5944.00    1.17247   1.16292  136.220
 5945.00    1.15420   1.16269  137.651
 5946.00    1.16568   1.16225  138.162
 5947.00    1.18267   1.16158   -1.000
 5948.00    1.18886   1.16086   -1.000
 5949.00    1.18568   1.16028   -1.000
 5950.00    1.18349   1.15997   -1.000
 5951.00    1.18266   1.15984   -1.000
 5952.00    1.18538   1.15976   -1.000
 5953.00    1.19213   1.15962   -1.000
 5954.00    1.17414   1.15944  137.722
 5955.00    1.17046   1.15935  137.298
 5956.00    1.16624   1.15960  135.867
 5957.00    1.16926   1.16044  134.491
 5958.00    1.17154   1.16199  133.844
 5959.00    1.19418   1.16417   -1.000
 5960.00    1.19618   1.16661   -1.000
 5961.00    1.19684   1.16881   -1.000
 5962.00    1.17613   1.17034  135.092
 5963.00    1.16943   1.17100  135.568
 5964.00    1.17520   1.17088  135.388
 5965.00    1.17188   1.17033  134.444
 5966.00    1.17327   1.16981  133.988
 5967.00    1.16970   1.16969  133.928
 5968.00    1.17838   1.17013  133.678
 5969.00    1.18822   1.17101   -1.000
 5970.00    1.19554   1.17199   -1.000
 5971.00    1.18244   1.17256  135.133
 5972.00    1.18499   1.17232  136.178
 5973.00    1.17745   1.17104  137.159
 5974.00    1.17915   1.16888  137.832
 5975.00    1.18339   1.16632   -1.000
 5976.00    1.17586   1.16403  136.276
 5977.00    1.17857   1.16257  135.646
 5978.00    1.18212   1.16212   -1.000
 5979.00    1.16734   1.16237  136.870
 5980.00    1.17498   1.16269  138.081
 5981.00    1.18758   1.16245   -1.000
 5982.00    1.18400   1.16142   -1.000
 5983.00    1.18182   1.15988   -1.000
 5984.00    1.17791   1.15845   -1.000
 5985.00    1.17351   1.15777  135.752
 5986.00    1.15870   1.15814  135.124
 5987.00    1.16113   1.15942  135.196
 5988.00    1.17350   1.16119  135.519
 5989.00    1.18424   1.16305   -1.000
 5990.00    1.18242   1.16478   -1.000
 5991.00    1.17626   1.16637  133.413
 5992.00    1.19440   1.16780   -1.000
 5993.00    1.20038   1.16899   -1.000
 5994.00    1.17792   1.16973  135.773
 5995.00    1.16998   1.16983  136.096
 5996.00    1.17206   1.16931  135.924
 5997.00    1.18029   1.16837  135.988
 5998.00    1.19709   1.16728   -1.000
 5999.00    1.19341   1.16624   -1.000
 6000.00    1.19545   1.16526   -1.000
 6001.00    1.20059   1.16428   -1.000
 6002.00    1.19857   1.16320   -1.000
 6003.00    1.18310   1.16195   -1.000
 6004.00    1.16365   1.16046  139.159
 6005.00    1.16159   1.15874  139.356
 6006.00    1.17034   1.15699  137.941
 6007.00    1.17013   1.15557  136.458
 6008.00    1.18209   1.15490   -1.000
 6009.00    1.16974   1.15514  137.264
 6010.00    1.15980   1.15609  138.053
 6011.00    1.16868   1.15730  137.552
 6012.00    1.17590   1.15826   -1.000
 6013.00    1.18431   1.15871   -1.000
 6014.00    1.17703   1.15861   -1.000
 6015.00    1.18551   1.15811   -1.000
 6016.00    1.17917   1.15731   -1.000
 6017.00    1.18580   1.15622   -1.000
 6018.00    1.16892   1.15488  138.809
 6019.00    1.17245   1.15342   -1.000
 6020.00    1.18088   1.15214   -1.000
 6021.00    1.17288   1.15137   -1.000
 6022.00    1.16912   1.15143   -1.000
 6023.00    1.17702   1.15252   -1.000
 6024.00    1.16748   1.15462  135.313
 6025.00    1.16260   1.15751  134.676
 6026.00    1.17673   1.16091  134.445
 6027.00    1.17988   1.16449  134.459
 6028.00    1.18089   1.16793  134.742
 6029.00    1.17976   1.17102  134.576
 6030.00    1.16701   1.17363  134.007
 6031.00    1.17623   1.17574  133.628
 6032.00    1.17464   1.17740  133.540
 6033.00    1.19028   1.17863  133.319
 6034.00    1.18741   1.17943  133.409
 6035.00    1.18589   1.17976  134.106
 6036.00    1.18997   1.17953  134.453
 6037.00    1.18325   1.17871  134.849
 6038.00    1.16786   1.17735  134.655
 6039.00    1.17461   1.17567  134.445
 6040.00    1.17781   1.17400  133.820
 6041.00    1.16216   1.17271  132.786
 6042.00    1.16380   1.17215  132.715
 6043.00    1.17325   1.17245  132.777
 6044.00    1.16882   1.17351  132.584
 6045.00    1.16789   1.17509  132.667
 6046.00    1.19118   1.17687  133.102
 6047.00    1.18794   1.17848  133.427
 6048.00    1.17404   1.17964  133.564
 6049.00    1.16614   1.18022  133.801
 6050.00    1.17520   1.18013  134.319
 6051.00    1.17858   1.17933  134.752
 6052.00    1.18484   1.17787  135.459
 6053.00    1.18925   1.17593  135.919
 6054.00    1.18525   1.17386  135.757
 6055.00    1.17687   1.17212  135.081
 6056.00    1.15425   1.17112  134.377
 6057.00    1.09049   1.17095   -1.000
 6058.00    1.08665   1.17138   -1.000
 6059.00    0.62943   1.17188   -1.000
 6060.00    0.50520   1.17180   -1.000
 6061.00    0.93761   1.17068   -1.000
 6062.00    1.08113   1.16843   -1.000
 6063.00    1.12871   1.16548   50.021
 6064.00    1.22214   1.16272   -1.000
 6065.00    0.68680   1.16113   -1.000
 6066.00    0.49278   1.16132   -1.000
 6067.00    1.06149   1.16335   -1.000
 6068.00    1.18358   1.16671  129.574
 6069.00    1.17845   1.17061  131.873
 6070.00    1.18201   1.17429  133.111
 6071.00    1.18550   1.17727  133.287
 6072.00    1.17999   1.17930  133.693
 6073.00    1.16700   1.18028  134.368
 6074.00    1.16617   1.18020  135.134
 6075.00    1.18180   1.17909  136.157
 6076.00    1.18075   1.17710  137.021
 6077.00    1.16598   1.17454  137.179
 6078.00    1.17302   1.17181  137.285
 6079.00    1.18095   1.16926  137.654
 6080.00    1.16867   1.16703  137.695
 6081.00    1.16797   1.16516  137.596
 6082.00    1.17384   1.16368  137.455
 6083.00    1.16822   1.16265  137.083
 6084.00    1.17087   1.16221  136.541
 6085.00    1.15972   1.16242  136.715
 6086.00    1.15533   1.16314  137.500
 6087.00    1.18701   1.16407   -1.000
 6088.00    1.18508   1.16490   -1.000
 6089.00    1.17931   1.16546  137.308
 6090.00    1.17048   1.16583  136.589
 6091.00    1.16786   1.16623  135.830
 6092.00    1.15931   1.16690  135.219
 6093.00    1.16580   1.16796  135.201
 6094.00    1.17236   1.16932  135.519
 6095.00    1.17394   1.17066  135.637
 6096.00    1.17812   1.17148  135.650
 6097.00    1.18645   1.17117  137.096
 6098.00    1.17169   1.16918  140.312
 6099.00    1.15751   1.16524  142.730
 6100.00    1.16717   1.15971  142.039
 6101.00    1.15866   1.15371  139.449
 6102.00    1.14620   1.14888  137.263
 6103.00    1.14561   1.14661  136.627
 6104.00    1.14115   1.14743  137.068
 6105.00    1.14652   1.15092  137.439
 6106.00    1.15952   1.15601  137.419
 6107.00    1.16620   1.16147  137.140
 6108.00    1.16363   1.16635  136.564
 6109.00    1.17000   1.17014  136.472
 6110.00    1.16136   1.17276  135.827
 6111.00    1.16489   1.17439  135.445
 6112.00    1.16060   1.17531  135.889
 6113.00    1.16870   1.17575  136.768
 6114.00    1.16928   1.17576  137.036
 6115.00    1.16317   1.17524  137.642
 6116.00    1.16421   1.17392  139.517
 6117.00    1.15916   1.17141  141.374
 6118.00    1.16631   1.16735  142.766
 6119.00    1.15605   1.16173  143.001
 6120.00    1.14939   1.15513  140.901
 6121.00    1.13998   1.14872  139.008
 6122.00    1.14512   1.14393  138.799
 6123.00    1.13700   1.14174  139.552
 6124.00    1.13610   1.14230  139.482
 6125.00    1.14380   1.14492  139.173
 6126.00    1.15288   1.14859  138.114
 6127.00    1.14753   1.15240  136.813
 6128.00    1.14247   1.15609  136.430
 6129.00    1.13908   1.15968  136.655
 6130.00    1.14712   1.16285  137.860
 6131.00    1.15600   1.16498  140.829
 6132.00    1.15096   1.16513  144.952
 6133.00    1.15240   1.16237  148.677
 6134.00    1.15353   1.15650  149.417
 6135.00    1.14698   1.14833  146.005
 6136.00    1.12407   1.13964  141.859
 6137.00    1.11144   1.13243  140.060
 6138.00    1.12545   1.12794  140.174
 6139.00    1.12249   1.12654  140.427
 6140.00    1.13444   1.12818  139.150
 6141.00    1.13683   1.13229  137.479
 6142.00    1.11594   1.13795  137.142
 6143.00    1.12385   1.14402  137.722
 6144.00    1.15913   1.14933  138.588
 6145.00    1.16460   1.15306  139.585
 6146.00    1.15989   1.15493  140.419
 6147.00    1.16393   1.15524  140.496
 6148.00    1.14650   1.15467  140.013
 6149.00    1.12860   1.15399  139.065
 6150.00    1.12786   1.15362  138.823
 6151.00    1.12800   1.15363  139.905
 6152.00    1.12844   1.15367  140.679
 6153.00    1.14300   1.15324  140.822
 6154.00    1.15390   1.15200  141.364
 6155.00    1.15297   1.14978  142.804
 6156.00    1.14752   1.14641  145.451
 6157.00    1.13325   1.14164  149.760
 6158.00    1.12196   1.13518  154.153
 6159.00    1.12519   1.12697  155.872
 6160.00    1.11938   1.11769  153.817
 6161.00    1.09880   1.10880  149.661
 6162.00    1.08085   1.10212  147.215
 6163.00    1.09194   1.09887  146.483
 6164.00    1.12119   1.09904   -1.000
 6165.00    1.12440   1.10163   -1.000
 6166.00    1.13506   1.10511   -1.000
 6167.00    1.13406   1.10821   -1.000
 6168.00    1.12740   1.11062   -1.000
 6169.00    1.11735   1.11302  144.332
 6170.00    1.11294   1.11614  144.332
 6171.00    1.12415   1.12036  144.469
 6172.00    1.12577   1.12554  144.140
 6173.00    1.11696   1.13110  143.857
 6174.00    1.13191   1.13636  143.475
 6175.00    1.13406   1.14084  142.782
 6176.00    1.13338   1.14443  142.251
 6177.00    1.12679   1.14726  141.795
 6178.00    1.13477   1.14953  141.145
 6179.00    1.13451   1.15149  140.769
 6180.00    1.13215   1.15327  141.017
 6181.00    1.13408   1.15484  141.508
 6182.00    1.14720   1.15595  142.608
 6183.00    1.13273   1.15629  144.156
 6184.00    1.13011   1.15563  145.655
 6185.00    1.14592   1.15384  147.046
 6186.00    1.13663   1.15092  148.127
 6187.00    1.14050   1.14706  150.030
 6188.00    1.14360   1.14260  151.049
 6189.00    1.14388   1.13805  149.492
 6190.00    1.12432   1.13425  145.841
 6191.00    1.10437   1.13229   -1.000
 6192.00    1.09872   1.13266   -1.000
 6193.00    1.10843   1.13512  142.212
 6194.00    1.12746   1.13897  143.092
 6195.00    1.13917   1.14319  144.739
 6196.00    1.13460   1.14683  145.945
 6197.00    1.10228   1.14933   -1.000
 6198.00    1.11007   1.15062   -1.000
 6199.00    1.11931   1.15123   -1.000
 6200.00    1.11291   1.15185   -1.000
 6201.00    1.11811   1.15302   -1.000
 6202.00    1.12359   1.15493   -1.000
 6203.00    1.11685   1.15741   -1.000
 6204.00    1.12273   1.16006   -1.000
 6205.00    1.12148   1.16240   -1.000
 6206.00    1.12824   1.16405   -1.000
 6207.00    1.13786   1.16468  144.363
 6208.00    1.14394   1.16406  145.500
 6209.00    1.12591   1.16205   -1.000
 6210.00    1.11557   1.15866   -1.000
 6211.00    1.10273   1.15411   -1.000
 6212.00    1.11026   1.14893   -1.000
 6213.00    1.11558   1.14383   -1.000
 6214.00    1.11136   1.13947   -1.000
 6215.00    1.12715   1.13617  149.508
 6216.00    1.11701   1.13397  149.017
 6217.00    1.03461   1.13267   -1.000
 6218.00    1.07211   1.13218   -1.000
 6219.00    1.12064   1.13247  159.570
 6220.00    1.11756   1.13357  154.948
 6221.00    1.10784   1.13526   -1.000
 6222.00    1.10716   1.13712   -1.000
 6223.00    1.13041   1.13871  147.208
 6224.00    1.12179   1.13950  148.016
 6225.00    1.12110   1.13906  150.010
 6226.00    1.11105   1.13713  152.500
 6227.00    1.11268   1.13367  154.469
 6228.00    1.11647   1.12908  153.892
 6229.00    1.12267   1.12426  151.709
 6230.00    1.11680   1.12040  148.847
 6231.00    1.10780   1.11844  146.411
 6232.00    1.11286   1.11871  145.685
 6233.00    1.10709   1.12073  146.622
 6234.00    1.09336   1.12344   -1.000
 6235.00    1.09723   1.12574   -1.000
 6236.00    1.09831   1.12684   -1.000
 6237.00    1.10560   1.12662  151.862
 6238.00    1.11169   1.12536  151.822
 6239.00    1.10804   1.12351  152.904
 6240.00    1.10362   1.12128  153.920
 6241.00    1.11129   1.11871  153.852
 6242.00    1.10614   1.11576  152.889
 6243.00    1.09843   1.11267  151.383
 6244.00    1.09755   1.10992  149.459
 6245.00    1.08867   1.10824  147.891
 6246.00    1.08798   1.10825  147.702
 6247.00    1.10269   1.11001  149.039
 6248.00    1.10797   1.11284  151.779
 6249.00    1.10581   1.11548  153.680
 6250.00    1.10505   1.11684  154.751
 6251.00    1.10609   1.11637  155.196
 6252.00    1.10394   1.11438  155.144
 6253.00    1.10414   1.11168  156.519
 6254.00    1.10070   1.10915  157.921
 6255.00    1.08250   1.10742  157.304
 6256.00    1.06571   1.10684   -1.000
 6257.00    1.08314   1.10757  152.630
 6258.00    1.09565   1.10960  150.556
 6259.00    1.08180   1.11284   -1.000
 6260.00    1.07564   1.11696   -1.000
 6261.00    1.08995   1.12154   -1.000
 6262.00    1.10844   1.12601  149.575
 6263.00    1.09991   1.12988   -1.000
 6264.00    1.08691   1.13294   -1.000
 6265.00    1.09083   1.13516   -1.000
 6266.00    1.08855   1.13658   -1.000
 6267.00    1.09076   1.13717   -1.000
 6268.00    1.09278   1.13687   -1.000
 6269.00    1.08896   1.13582   -1.000
 6270.00    1.09484   1.13416   -1.000
 6271.00    1.09404   1.13191   -1.000
 6272.00    1.08766   1.12885   -1.000
 6273.00    1.07415   1.12465   -1.000
 6274.00    1.04575   1.11928   -1.000
 6275.00    1.02376   1.11307   -1.000
 6276.00    1.02541   1.10678   -1.000
 6277.00    1.03932   1.10137   -1.000
 6278.00    1.04468   1.09766   -1.000
 6279.00    1.04575   1.09634   -1.000
 6280.00    1.05080   1.09762   -1.000
 6281.00    1.04703   1.10123   -1.000
 6282.00    1.04730   1.10645   -1.000
 6283.00    1.05456   1.11241   -1.000
 6284.00    1.05731   1.11826   -1.000
 6285.00    1.05391   1.12330   -1.000
 6286.00    1.05390   1.12711   -1.000
 6287.00    1.05756   1.12947   -1.000
 6288.00    1.07218   1.13039   -1.000
 6289.00    1.08505   1.13015   -1.000
 6290.00    1.10093   1.12918   -1.000
 6291.00    1.12531   1.12789  150.745
 6292.00    1.16225   1.12649   -1.000
 6293.00    1.30836   1.12499   -1.000
 6294.00    1.56880   1.12323   -1.000
 6295.00    1.87680   1.12105   -1.000
 6296.00    2.21481   1.11847   -1.000
 6297.00    2.13494   1.11577   -1.000
 6298.00    1.65090   1.11331   -1.000
 6299.00    1.56246   1.11141   -1.000
 6300.00    1.70745   1.11045   -1.000
 6301.00    1.24203   1.11089   -1.000
 6302.00    1.07210   1.11304   -1.000
 6303.00    1.07508   1.11668   -1.000
 6304.00    1.07678   1.12118   -1.000
 6305.00    1.07107   1.12580   -1.000
 6306.00    1.08549   1.12982   -1.000
 6307.00    1.08374   1.13277   -1.000
 6308.00    1.08262   1.13450   -1.000
 6309.00    1.08816   1.13508   -1.000
 6310.00    1.07473   1.13464   -1.000
 6311.00    1.07816   1.13331   -1.000
 6312.00    1.08221   1.13120   -1.000
 6313.00    1.08576   1.12848   -1.000
 6314.00    1.08439   1.12551   -1.000
 6315.00    1.07412   1.12269   -1.000
 6316.00    1.07403   1.12053   -1.000
 6317.00    1.06880   1.11955   -1.000
 6318.00    1.07052   1.12015   -1.000
 6319.00    1.06813   1.12241   -1.000
 6320.00    1.07939   1.12591   -1.000
 6321.00    1.08100   1.13009   -1.000
 6322.00    1.08393   1.13452   -1.000
 6323.00    1.10205   1.13876   -1.000
 6324.00    1.10566   1.14235   -1.000
 6325.00    1.09803   1.14503   -1.000
 6326.00    1.09954   1.14676   -1.000
 6327.00    1.09159   1.14765   -1.000
 6328.00    1.08411   1.14787   -1.000
 6329.00    1.07953   1.14751   -1.000
 6330.00    1.08635   1.14660   -1.000
 6331.00    1.09228   1.14507   -1.000
 6332.00    1.10193   1.14275   -1.000
 6333.00    1.09490   1.13967   -1.000
 6334.00    1.10066   1.13619   -1.000
 6335.00    1.08458   1.13310   -1.000
 6336.00    1.06716   1.13124   -1.000
 6337.00    1.07254   1.13100   -1.000
 6338.00    1.07957   1.13228   -1.000
 6339.00    1.09086   1.13457   -1.000
 6340.00    1.09927   1.13708   -1.000
 6341.00    1.09294   1.13901   -1.000
 6342.00    1.08123   1.13993   -1.000
 6343.00    1.08724   1.13986   -1.000
 6344.00    1.09772   1.13923   -1.000
 6345.00    1.08956   1.13869   -1.000
 6346.00    1.09431   1.13896   -1.000
 6347.00    1.10004   1.14050   -1.000
 6348.00    1.10473   1.14311   -1.000
 6349.00    1.10386   1.14614   -1.000
 6350.00    1.10768   1.14882   -1.000
 6351.00    1.08833   1.15051   -1.000
 6352.00    1.09123   1.15091   -1.000
 6353.00    1.10029   1.15007   -1.000
 6354.00    1.10295   1.14835   -1.000
 6355.00    1.09921   1.14616   -1.000
 6356.00    1.14928   1.14377  148.117
 6357.00    1.20832   1.14135   -1.000
 6358.00    1.27906   1.13907   -1.000
 6359.00    1.44150   1.13706   -1.000
 6360.00    1.48613   1.13536   -1.000
 6361.00    1.32478   1.13404   -1.000
 6362.00    1.18615   1.13327   -1.000
 6363.00    1.07386   1.13316   -1.000
 6364.00    1.01643   1.13367   -1.000
 6365.00    1.08594   1.13460   -1.000
 6366.00    1.09459   1.13569   -1.000
 6367.00    1.07870   1.13665   -1.000
 6368.00    1.09108   1.13728   -1.000
 6369.00    1.08379   1.13771   -1.000
 6370.00    1.08267   1.13831   -1.000
 6371.00    1.08399   1.13941   -1.000
 6372.00    1.06265   1.14102   -1.000
 6373.00    1.05514   1.14278   -1.000
 6374.00    1.07528   1.14423   -1.000
 6375.00    1.08031   1.14500   -1.000
 6376.00    1.06415   1.14495   -1.000
 6377.00    1.06112   1.14420   -1.000
 6378.00    1.06317   1.14302   -1.000
 6379.00    1.06231   1.14172   -1.000
 6380.00    1.07250   1.14056   -1.000
 6381.00    1.06695   1.13973   -1.000
 6382.00    1.04966   1.13939   -1.000
 6383.00    1.05245   1.13961   -1.000
 6384.00    1.03325   1.14036   -1.000
 6385.00    1.02884   1.14146   -1.000
 6386.00    1.03778   1.14254   -1.000
 6387.00    1.04403   1.14320   -1.000
 6388.00    1.01936   1.14314   -1.000
 6389.00    1.01531   1.14221   -1.000
 6390.00    1.00909   1.14035   -1.000
 6391.00    1.01099   1.13783   -1.000
 6392.00    0.98721   1.13524   -1.000
 6393.00    0.97718   1.13327   -1.000
 6394.00    0.98539   1.13232   -1.000
 6395.00    1.00081   1.13215   -1.000
 6396.00    0.98486   1.13215   -1.000
 6397.00    0.96778   1.13177   -1.000
 6398.00    0.97151   1.13098   -1.000
 6399.00    0.95632   1.13030   -1.000
 6400.00    0.92934   1.13045   -1.000
 6401.00    0.93618   1.13173   -1.000
 6402.00    0.94665   1.13383   -1.000
 6403.00    0.95724   1.13606   -1.000
 6404.00    0.93841   1.13766   -1.000
 6405.00    0.96616   1.13812   -1.000
 6406.00    0.94112   1.13747   -1.000
 6407.00    0.93288   1.13621   -1.000
 6408.00    0.91784   1.13488   -1.000
 6409.00    0.90113   1.13378   -1.000
 6410.00    0.89839   1.13304   -1.000
 6411.00    0.88491   1.13280   -1.000
 6412.00    0.88499   1.13307   -1.000
 6413.00    0.89059   1.13358   -1.000
 6414.00    0.88066   1.13398   -1.000
 6415.00    0.88877   1.13424   -1.000
 6416.00    0.87952   1.13431   -1.000
 6417.00    0.83614   1.13400   -1.000
 6418.00    0.84061   1.13339   -1.000
 6419.00    0.84165   1.13287   -1.000
 6420.00    0.83285   1.13306   -1.000
 6421.00    0.82279   1.13453   -1.000
 6422.00    0.81236   1.13736   -1.000
 6423.00    0.81172   1.14096   -1.000
 6424.00    0.79428   1.14461   -1.000
 6425.00    0.79023   1.14752   -1.000
 6426.00    0.78915   1.14900   -1.000
 6427.00    0.77849   1.14866   -1.000
 6428.00    0.06075   1.14656   -1.000
