###################################################################
## OUTPUT of StarlightChains_v04.for    [Cid@UFSC - 01/Apr/2007] ##
###################################################################

## Some input info
NGC2298_b_1.cxt                          [arq_obs]
Base.BC03.N                              [arq_base]
NGC2298_b_1.msk                          [arq_masks]
StCv04.C99.config                        [arq_config]
   45                                    [N_base]
    0                                    [N_YAV_components = # of components with extra extinction!]
    0                                    [i_FitPowerLaw (1/0 = Yes/No)]
-9.99                                    [alpha_PowerLaw]
CCM                                      [red_law_option]
 1.458241                                [q_norm = A(l_norm)/A(V)]

## (Re)Sampling Parameters
 3359.00                                 [l_ini (A)]
 6428.00                                 [l_fin (A)]
    1.00                                 [dl    (A)]     (OBS: dl_cushion =    50.00 A)

## Normalization info
 4020.00                                 [l_norm (A) - for base]
 4010.00                                 [llow_norm (A) - window for f_obs]
 4060.00                                 [lupp_norm (A) - window for f_obs]
6.358602E-15                             [fobs_norm (in input units)]

## S/N
 4730.00                                 [llow_SN (A) - window for S/N]
 4780.00                                 [lupp_SN (A) - window for S/N]
 100.550                                 [S/N in S/N window]
  93.926                                 [S/N in norm. window]
 257.092                                 [S/N_err in S/N window]
 240.154                                 [S/N_err in norm. window]
  1.0000                                 [fscale_chi2]

## etc...
  2147483643                             [idum_orig]
  3065                                   [NOl_eff]
   937                                   [Nl_eff]
  2128    NSIGMA                         [Ntot_cliped & clip_method]
  1608880                                [Nglobal_steps]
   7                                     [N_chains]
   7                                     [NEX0s_base = N_base in EX0s-fits]
 0   0   1      257   2.0   5.053E+02    [Clip-Bug, RC-Crash & Burn-In warning-flags, n_censored_weights, wei_nsig_threshold & wei_limit]
    24     24.383     24.379      0.004  [idt_all, wdt_TotTime, wdt_UsrTime & wdt_SysTime (sec)]

## Synthesis Results - Best model ##

 2.55805E+00                             [chi2/Nl_eff]
     0.63260                             [adev (%)]

   101.60336                             [sum-of-x (%)]
 3.07765E-14                             [Flux_tot (units of input spectrum!)]
 1.17744E-10                             [Mini_tot (???)]
 6.52880E-11                             [Mcor_tot (???)]

  -9.36                                  [v0_min  (km/s)]
 118.55                                  [vd_min  (km/s)]
 1.1623                                  [AV_min  (mag)]
 0.0000                                  [YAV_min (mag)]

# j     x_j(%)      Mini_j(%)     Mcor_j(%)     age_j(yr)     Z_j      (L/M)_j    YAV?  Mstars   component_j        a/Fe...       SSP_chi2r SSP_adev(%)   SSP_AV   SSP_x(%)
  1      0.0000     0.0000E+00    0.0000E+00    1.000000E+06  0.00400  1.114E-02    0   1.0000   age020_m42            0.0000     1.0237E+03     9.4553   3.6209    79.8711
  2     17.1597     1.0838E-01    1.9545E-01    3.160000E+06  0.00400  4.073E-02    0   0.9999   age045_m42            0.0000     1.5815E+02     3.8876   2.6926    93.1194
  3      0.0000     0.0000E+00    0.0000E+00    5.010000E+06  0.00400  2.534E-02    0   0.9488   age055_m42            0.0000     4.7536E+02     6.5923   3.0788    87.2216
  4     11.2691     2.2810E-01    3.6455E-01    1.000000E+07  0.00400  1.271E-02    0   0.8862   age070_m42            0.0000     4.0586E+02     6.6536   2.2889    90.8234
  5      0.0000     0.0000E+00    0.0000E+00    2.512000E+07  0.00400  5.070E-03    0   0.8174   age090_m42            0.0000     3.3824E+02     6.0272   2.1619    92.2749
  6      0.0000     0.0000E+00    0.0000E+00    4.000000E+07  0.00400  3.505E-03    0   0.7851   age104_m42            0.0000     1.6733E+02     4.1143   1.8544    94.9879
  7     21.7606     2.4683E+00    3.2082E+00    1.015200E+08  0.00400  2.268E-03    0   0.7207   age116_m42            0.0000     2.7439E+02     4.3037   1.9024   103.0975
  8      0.0000     0.0000E+00    0.0000E+00    2.861200E+08  0.00400  1.079E-03    0   0.6613   age125_m42            0.0000     3.5649E+02     5.2912   1.4155   104.8503
  9      0.0000     0.0000E+00    0.0000E+00    6.405400E+08  0.00400  5.077E-04    0   0.6197   age132_m42            0.0000     4.0947E+02     5.5917   1.0574   108.7016
 10     29.4700     2.1447E+01    2.3300E+01    9.047900E+08  0.00400  3.535E-04    0   0.6024   age135_m42            0.0000     2.4289E+02     4.6449   0.8144   107.9733
 11      0.0000     0.0000E+00    0.0000E+00    1.434000E+09  0.00400  1.910E-04    0   0.5716   age139_m42            0.0000     1.8798E+02     4.7505   0.2848   106.5370
 12     13.0231     3.4124E+01    3.3620E+01    2.500000E+09  0.00400  9.818E-05    0   0.5463   age150_m42            0.0000     2.4952E+02     4.5835  -0.0008   102.1325
 13      7.5972     4.1426E+01    3.9058E+01    5.000000E+09  0.00400  4.718E-05    0   0.5228   age161_m42            0.0000     3.6633E+02     5.0432  -0.1734    98.8883
 14      0.0000     0.0000E+00    0.0000E+00    1.100000E+10  0.00400  2.205E-05    0   0.4980   age185_m42            0.0000     6.5691E+02     6.5922  -0.4341    96.5848
 15      0.0000     0.0000E+00    0.0000E+00    1.300000E+10  0.00400  1.883E-05    0   0.4927   age193_m42            0.0000     7.0150E+02     6.7798  -0.4508    96.3941
 16      0.0000     0.0000E+00    0.0000E+00    1.000000E+06  0.02000  1.989E-02    0   1.0000   age020_m62            0.0000     1.0208E+03     9.4661   3.5825    80.5579
 17      0.0000     0.0000E+00    0.0000E+00    3.160000E+06  0.02000  3.772E-02    0   0.9858   age045_m62            0.0000     8.9750E+02     8.9332   3.4464    82.6727
 18      0.0000     0.0000E+00    0.0000E+00    5.010000E+06  0.02000  3.227E-02    0   0.9342   age055_m62            0.0000     2.8778E+02     5.1367   2.9476    89.8253
 19      0.0000     0.0000E+00    0.0000E+00    1.000000E+07  0.02000  1.011E-02    0   0.8751   age070_m62            0.0000     1.0971E+03    11.1079   2.2838    87.3909
 20      0.0000     0.0000E+00    0.0000E+00    2.512000E+07  0.02000  4.206E-03    0   0.8099   age090_m62            0.0000     7.5175E+02     8.8915   2.2254    88.2324
 21      0.0000     0.0000E+00    0.0000E+00    4.000000E+07  0.02000  3.373E-03    0   0.7799   age104_m62            0.0000     1.1302E+02     3.6003   2.0710    96.2813
 22      0.0000     0.0000E+00    0.0000E+00    1.015200E+08  0.02000  1.878E-03    0   0.7221   age116_m62            0.0000     1.8270E+02     3.1945   1.9202   103.5564
 23      0.0000     0.0000E+00    0.0000E+00    2.861200E+08  0.02000  8.869E-04    0   0.6700   age125_m62            0.0000     7.0500E+02     7.1222   1.4279   109.6960
 24      0.0000     0.0000E+00    0.0000E+00    6.405400E+08  0.02000  3.657E-04    0   0.6322   age132_m62            0.0000     5.5884E+02     7.3577   0.7537   112.6070
 25      0.0000     0.0000E+00    0.0000E+00    9.047900E+08  0.02000  2.312E-04    0   0.6152   age135_m62            0.0000     3.7300E+02     6.5880   0.3712   111.8281
 26      0.0000     0.0000E+00    0.0000E+00    1.434000E+09  0.02000  1.168E-04    0   0.5865   age139_m62            0.0000     3.1583E+02     5.5968  -0.0603   106.3387
 27      0.0000     0.0000E+00    0.0000E+00    2.500000E+09  0.02000  5.505E-05    0   0.5610   age150_m62            0.0000     5.6820E+02     6.7198  -0.4358   103.3932
 28      0.0000     0.0000E+00    0.0000E+00    5.000000E+09  0.02000  2.596E-05    0   0.5353   age161_m62            0.0000     1.0201E+03     8.8433  -0.7616   103.0377
 29      0.0000     0.0000E+00    0.0000E+00    1.100000E+10  0.02000  1.169E-05    0   0.5103   age185_m62            0.0000     1.5678E+03    10.6669  -1.0000   100.8285
 30      0.0000     0.0000E+00    0.0000E+00    1.300000E+10  0.02000  9.691E-06    0   0.5047   age193_m62            0.0000     1.7003E+03    11.0146  -1.0000    99.7324
 31      0.0000     0.0000E+00    0.0000E+00    1.000000E+06  0.05000  2.651E-02    0   0.9998   age020_m72            0.0000     9.4632E+02     9.0002   3.5875    81.3953
 32      0.0000     0.0000E+00    0.0000E+00    3.160000E+06  0.05000  4.817E-02    0   0.9577   age045_m72            0.0000     6.1441E+02     7.3004   3.3148    85.6968
 33      0.0000     0.0000E+00    0.0000E+00    5.010000E+06  0.05000  3.101E-02    0   0.9147   age055_m72            0.0000     5.5440E+02     7.0952   2.9476    88.3136
 34      0.0000     0.0000E+00    0.0000E+00    1.000000E+07  0.05000  8.954E-03    0   0.8524   age070_m72            0.0000     5.9760E+02     7.1337   3.1840    86.9529
 35      0.0000     0.0000E+00    0.0000E+00    2.512000E+07  0.05000  4.207E-03    0   0.7902   age090_m72            0.0000     2.2482E+02     4.4812   2.7643    92.1331
 36      0.0000     0.0000E+00    0.0000E+00    4.000000E+07  0.05000  3.198E-03    0   0.7618   age104_m72            0.0000     7.0973E+01     2.2383   2.2816    99.5200
 37      1.3236     1.9843E-01    2.5379E-01    1.015200E+08  0.05000  1.716E-03    0   0.7092   age116_m72            0.0000     2.6403E+02     3.9713   2.0089   103.6619
 38      0.0000     0.0000E+00    0.0000E+00    2.861200E+08  0.05000  7.047E-04    0   0.6618   age125_m72            0.0000     7.1662E+02     7.5879   1.2232   110.0215
 39      0.0000     0.0000E+00    0.0000E+00    6.405400E+08  0.05000  2.633E-04    0   0.6253   age132_m72            0.0000     4.9933E+02     7.4495   0.3701   112.1094
 40      0.0000     0.0000E+00    0.0000E+00    9.047900E+08  0.05000  1.484E-04    0   0.6088   age135_m72            0.0000     4.5483E+02     6.8785  -0.1218   107.1754
 41      0.0000     0.0000E+00    0.0000E+00    1.434000E+09  0.05000  7.827E-05    0   0.5847   age139_m72            0.0000     7.4020E+02     8.0502  -0.5163   103.6268
 42      0.0000     0.0000E+00    0.0000E+00    2.500000E+09  0.05000  3.759E-05    0   0.5583   age150_m72            0.0000     1.1001E+03     9.2923  -0.8383   102.6283
 43      0.0000     0.0000E+00    0.0000E+00    5.000000E+09  0.05000  1.548E-05    0   0.5320   age161_m72            0.0000     1.7259E+03    11.1651  -1.0000    95.2589
 44      0.0000     0.0000E+00    0.0000E+00    1.100000E+10  0.05000  6.532E-06    0   0.5070   age185_m72            0.0000     3.0663E+03    15.1734  -1.0000    84.5429
 45      0.0000     0.0000E+00    0.0000E+00    1.300000E+10  0.05000  5.316E-06    0   0.5018   age193_m72            0.0000     3.6302E+03    16.6043  -1.0000    81.3480


## Synthesis Results - Average & Chains ##

# j      x_j: min, <> & last-chain-values for 1 ...  7 chains
  1      0.0000      0.0074      0.0000      0.0000      0.0000      0.0000      0.0000      0.0000      0.0209
  2     17.1597     16.2311     16.3910     16.4525     16.3366     16.5238     16.1395     16.4033     16.3463
  3      0.0000      0.0515      0.0000      0.0000      0.0000      0.0000      0.1639      0.1458      0.1413
  4     11.2691     10.8295     10.9468     10.9472     10.7550     10.9390     10.7735     11.1338     10.8870
  5      0.0000      0.1064      0.2632      0.0317      0.0000      0.0625      0.1527      0.0324      0.0000
  6      0.0000      0.0570      0.0000      0.0000      0.0834      0.0900      0.0365      0.0000      0.0000
  7     21.7606     22.0702     22.1842     22.0556     22.1309     22.0595     22.1107     22.4704     22.2627
  8      0.0000      0.1171      0.1378      0.0102      0.0000      0.2169      0.0902      0.0713      0.2010
  9      0.0000      0.4088      0.2799      0.5209      0.6752      0.3213      0.5422      0.2316      0.4366
 10     29.4700     29.3332     29.2784     29.1758     29.3375     29.2414     29.3941     29.4631     29.2394
 11      0.0000      0.0295      0.0000      0.0000      0.0000      0.0000      0.0829      0.0000      0.0000
 12     13.0231     13.1635     12.9569     13.1293     13.0652     13.2528     12.9203     13.0304     12.9414
 13      7.5972      7.4890      7.4770      7.4802      7.2057      7.3887      7.5511      7.4904      7.4261
 14      0.0000      0.0061      0.0000      0.0000      0.0000      0.0000      0.0000      0.0000      0.0000
 15      0.0000      0.0036      0.0000      0.0000      0.0133      0.0000      0.0000      0.0000      0.0000
 16      0.0000      0.0091      0.0000      0.0000      0.0000      0.0000      0.0000      0.0000      0.0000
 17      0.0000      0.0120      0.0531      0.0000      0.0397      0.0110      0.0000      0.0000      0.0021
 18      0.0000      0.0811      0.0324      0.1698      0.5008      0.0077      0.1492      0.0000      0.0000
 19      0.0000      0.0882      0.0000      0.0684      0.0000      0.0625      0.0000      0.0000      0.0172
 20      0.0000      0.0381      0.0000      0.0000      0.0306      0.0260      0.0385      0.0000      0.0000
 21      0.0000      0.0866      0.1740      0.0000      0.0000      0.0544      0.2499      0.0000      0.2766
 22      0.0000      0.1270      0.2630      0.1930      0.0437      0.0000      0.0919      0.0617      0.1763
 23      0.0000      0.0332      0.0000      0.0241      0.0000      0.0270      0.0000      0.0574      0.0328
 24      0.0000      0.0148      0.0000      0.0000      0.0000      0.0000      0.0000      0.0000      0.0000
 25      0.0000      0.0166      0.0000      0.0000      0.0102      0.0000      0.0000      0.0000      0.0000
 26      0.0000      0.0178      0.0000      0.0000      0.1080      0.0000      0.0000      0.0000      0.0000
 27      0.0000      0.0186      0.0000      0.0012      0.0976      0.0000      0.0428      0.0000      0.0009
 28      0.0000      0.0055      0.0000      0.0297      0.0000      0.0000      0.0000      0.0000      0.0000
 29      0.0000      0.0034      0.0000      0.0000      0.0587      0.0000      0.0000      0.0000      0.0000
 30      0.0000      0.0025      0.0000      0.0000      0.0000      0.0000      0.0000      0.0000      0.0202
 31      0.0000      0.0106      0.0000      0.0000      0.0000      0.0000      0.0000      0.0000      0.0000
 32      0.0000      0.0362      0.0000      0.0000      0.0965      0.0204      0.0178      0.0321      0.0267
 33      0.0000      0.1238      0.1436      0.2613      0.0380      0.1590      0.2480      0.1547      0.0948
 34      0.0000      0.0239      0.0000      0.0055      0.0000      0.0000      0.0131      0.0000      0.1810
 35      0.0000      0.0364      0.0255      0.0000      0.0000      0.0844      0.0182      0.0000      0.0000
 36      0.0000      0.0489      0.0276      0.0000      0.1015      0.1998      0.0283      0.0000      0.0031
 37      1.3236      0.5174      0.6032      0.6992      0.5469      0.5606      0.4449      0.4454      0.4768
 38      0.0000      0.0358      0.0942      0.0715      0.0040      0.0148      0.0591      0.0000      0.0000
 39      0.0000      0.0179      0.0000      0.0000      0.0000      0.0000      0.0000      0.0000      0.0341
 40      0.0000      0.0128      0.0000      0.0000      0.0000      0.0000      0.0086      0.0000      0.0000
 41      0.0000      0.0126      0.0000      0.0000      0.0000      0.0000      0.0000      0.0341      0.0729
 42      0.0000      0.0061      0.0055      0.0000      0.0000      0.0000      0.0000      0.0000      0.0000
 43      0.0000      0.1267      0.1025      0.1159      0.1150      0.1363      0.1087      0.1435      0.1308
 44      0.0000      0.0485      0.0610      0.0519      0.0964      0.0000      0.0197      0.0732      0.0588
 45      0.0000      0.1986      0.1993      0.1938      0.2232      0.1967      0.2078      0.2138      0.2039

# j      m_j: min, <> & last-chain-values for 1 ...  7 chains
  1  0.0000E+00  2.7323E-04  0.0000E+00  0.0000E+00  0.0000E+00  0.0000E+00  0.0000E+00  0.0000E+00  7.7225E-04
  2  1.9545E-01  1.6359E-01  1.6685E-01  1.6698E-01  1.6118E-01  1.7059E-01  1.6471E-01  1.6391E-01  1.6488E-01
  3  0.0000E+00  7.9099E-04  0.0000E+00  0.0000E+00  0.0000E+00  0.0000E+00  2.5516E-03  2.2217E-03  2.1742E-03
  4  3.6455E-01  3.1000E-01  3.1648E-01  3.1556E-01  3.0136E-01  3.2075E-01  3.1227E-01  3.1599E-01  3.1188E-01
  5  0.0000E+00  7.0413E-03  1.7598E-02  2.1102E-03  0.0000E+00  4.2360E-03  1.0234E-02  2.1236E-03  0.0000E+00
  6  0.0000E+00  5.2434E-03  0.0000E+00  0.0000E+00  7.5084E-03  8.4813E-03  3.3985E-03  0.0000E+00  0.0000E+00
  7  3.2082E+00  2.8792E+00  2.9230E+00  2.8975E+00  2.8262E+00  2.9479E+00  2.9208E+00  2.9065E+00  2.9066E+00
  8  0.0000E+00  2.9476E-02  3.5011E-02  2.5723E-03  0.0000E+00  5.5917E-02  2.2981E-02  1.7789E-02  5.0607E-02
  9  0.0000E+00  2.0485E-01  1.4165E-01  2.6285E-01  3.3121E-01  1.6494E-01  2.7512E-01  1.1508E-01  2.1896E-01
 10  2.3300E+01  2.0522E+01  2.0688E+01  2.0555E+01  2.0092E+01  2.0956E+01  2.0823E+01  2.0437E+01  2.0472E+01
 11  0.0000E+00  3.6259E-02  0.0000E+00  0.0000E+00  0.0000E+00  0.0000E+00  1.0320E-01  0.0000E+00  0.0000E+00
 12  3.3620E+01  3.0071E+01  2.9894E+01  3.0203E+01  2.9216E+01  3.1012E+01  2.9887E+01  2.9513E+01  2.9586E+01
 13  3.9058E+01  3.4069E+01  3.4354E+01  3.4268E+01  3.2088E+01  3.4431E+01  3.4784E+01  3.3785E+01  3.3810E+01
 14  0.0000E+00  5.6539E-02  0.0000E+00  0.0000E+00  0.0000E+00  0.0000E+00  0.0000E+00  0.0000E+00  0.0000E+00
 15  0.0000E+00  3.9118E-02  0.0000E+00  0.0000E+00  1.3944E-01  0.0000E+00  0.0000E+00  0.0000E+00  0.0000E+00
 16  0.0000E+00  1.8868E-04  0.0000E+00  0.0000E+00  0.0000E+00  0.0000E+00  0.0000E+00  0.0000E+00  0.0000E+00
 17  0.0000E+00  1.2885E-04  5.7584E-04  0.0000E+00  4.1723E-04  1.2054E-04  0.0000E+00  0.0000E+00  2.2280E-05
 18  0.0000E+00  9.6390E-04  3.8880E-04  2.0320E-03  5.8265E-03  9.4273E-05  1.7956E-03  0.0000E+00  0.0000E+00
 19  0.0000E+00  3.1344E-03  0.0000E+00  2.4480E-03  0.0000E+00  2.2747E-03  0.0000E+00  0.0000E+00  6.1104E-04
 20  0.0000E+00  3.0149E-03  0.0000E+00  0.0000E+00  2.3651E-03  2.1061E-03  3.0788E-03  0.0000E+00  0.0000E+00
 21  0.0000E+00  8.2217E-03  1.6681E-02  0.0000E+00  0.0000E+00  5.2938E-03  2.4023E-02  0.0000E+00  2.6278E-02
 22  0.0000E+00  2.0054E-02  4.1934E-02  3.0686E-02  6.7489E-03  0.0000E+00  1.4693E-02  9.6492E-03  2.7853E-02
 23  0.0000E+00  1.0296E-02  0.0000E+00  7.5356E-03  0.0000E+00  8.5713E-03  0.0000E+00  1.7650E-02  1.0184E-02
 24  0.0000E+00  1.0520E-02  0.0000E+00  0.0000E+00  0.0000E+00  0.0000E+00  0.0000E+00  0.0000E+00  0.0000E+00
 25  0.0000E+00  1.8092E-02  0.0000E+00  0.0000E+00  1.0877E-02  0.0000E+00  0.0000E+00  0.0000E+00  0.0000E+00
 26  0.0000E+00  3.6673E-02  0.0000E+00  0.0000E+00  2.1792E-01  0.0000E+00  0.0000E+00  0.0000E+00  0.0000E+00
 27  0.0000E+00  7.7611E-02  0.0000E+00  5.1095E-03  3.9974E-01  0.0000E+00  1.8152E-01  0.0000E+00  3.6410E-03
 28  0.0000E+00  4.6961E-02  0.0000E+00  2.5278E-01  0.0000E+00  0.0000E+00  0.0000E+00  0.0000E+00  0.0000E+00
 29  0.0000E+00  6.0423E-02  0.0000E+00  0.0000E+00  1.0293E+00  0.0000E+00  0.0000E+00  0.0000E+00  0.0000E+00
 30  0.0000E+00  5.3831E-02  0.0000E+00  0.0000E+00  0.0000E+00  0.0000E+00  0.0000E+00  0.0000E+00  4.3216E-01
 31  0.0000E+00  1.6371E-04  0.0000E+00  0.0000E+00  0.0000E+00  0.0000E+00  0.0000E+00  0.0000E+00  0.0000E+00
 32  0.0000E+00  2.9555E-04  0.0000E+00  0.0000E+00  7.7100E-04  1.7092E-04  1.4675E-04  2.5947E-04  2.1771E-04
 33  0.0000E+00  1.4992E-03  1.7569E-03  3.1871E-03  4.5056E-04  1.9718E-03  3.0411E-03  1.8572E-03  1.1491E-03
 34  0.0000E+00  9.3449E-04  0.0000E+00  2.1589E-04  0.0000E+00  0.0000E+00  5.2000E-04  0.0000E+00  7.0787E-03
 35  0.0000E+00  2.8069E-03  1.9841E-03  0.0000E+00  0.0000E+00  6.6701E-03  1.4222E-03  0.0000E+00  0.0000E+00
 36  0.0000E+00  4.7803E-03  2.7240E-03  0.0000E+00  9.7133E-03  2.0019E-02  2.8050E-03  0.0000E+00  3.0161E-04
 37  2.5379E-01  8.7789E-02  1.0337E-01  1.1946E-01  9.0829E-02  9.7437E-02  7.6440E-02  7.4923E-02  8.0967E-02
 38  0.0000E+00  1.3787E-02  3.6681E-02  2.7746E-02  1.5139E-03  5.8592E-03  2.3074E-02  0.0000E+00  0.0000E+00
 39  0.0000E+00  1.7414E-02  0.0000E+00  0.0000E+00  0.0000E+00  0.0000E+00  0.0000E+00  0.0000E+00  3.3284E-02
 40  0.0000E+00  2.1578E-02  0.0000E+00  0.0000E+00  0.0000E+00  0.0000E+00  1.4720E-02  0.0000E+00  0.0000E+00
 41  0.0000E+00  3.8556E-02  0.0000E+00  0.0000E+00  0.0000E+00  0.0000E+00  0.0000E+00  1.0373E-01  2.2378E-01
 42  0.0000E+00  3.7241E-02  3.3647E-02  0.0000E+00  0.0000E+00  0.0000E+00  0.0000E+00  0.0000E+00  0.0000E+00
 43  0.0000E+00  1.7878E+00  1.4603E+00  1.6472E+00  1.5878E+00  1.9698E+00  1.5528E+00  2.0080E+00  1.8468E+00
 44  0.0000E+00  1.5456E+00  1.9645E+00  1.6654E+00  3.0073E+00  0.0000E+00  6.3567E-01  2.3130E+00  1.8751E+00
 45  0.0000E+00  7.6954E+00  7.7988E+00  7.5626E+00  8.4655E+00  7.8084E+00  8.1549E+00  8.2132E+00  7.9069E+00

# AV, chi2 & Mass for <> & i_chain = 1 ...  7 solutions
AV       1.1623      1.1311      1.1407      1.1373      1.1323      1.1405      1.1369      1.1343      1.1377
chi2 2.5580E+00  2.6122E+00  2.5826E+00  2.5858E+00  2.5979E+00  2.5837E+00  2.5942E+00  2.5903E+00  2.5912E+00
Mass 6.5288E-11  7.0756E-11  7.0968E-11  7.0851E-11  7.2400E-11  6.9949E-11  7.0426E-11  7.1673E-11  7.1331E-11
  -9.37                                  [v0_min (km/s) before EX0s...]
 119.37                                  [vd_min (km/s) before EX0s...]


## Synthetic spectrum (Best Model) ##l_obs f_obs f_syn wei
 3070    [Nl_obs]
 3359.00    0.27666   0.52931   -1.000
 3360.00    0.26890   0.51931   -1.000
 3361.00    0.26614   0.51696   -1.000
 3362.00    0.27359   0.52317   -1.000
 3363.00    0.29860   0.53361   -1.000
 3364.00    0.28461   0.54173   -1.000
 3365.00    0.29166   0.54285   -1.000
 3366.00    0.33225   0.53674   -1.000
 3367.00    0.33662   0.52711   -1.000
 3368.00    0.32895   0.51873   -1.000
 3369.00    0.31916   0.51404   -1.000
 3370.00    0.30202   0.51218   -1.000
 3371.00    0.30661   0.51137   -1.000
 3372.00    0.31927   0.51222   -1.000
 3373.00    0.30221   0.51769   -1.000
 3374.00    0.31978   0.52883   -1.000
 3375.00    0.36004   0.54136   -1.000
 3376.00    0.36297   0.54815   -1.000
 3377.00    0.35897   0.54564   -1.000
 3378.00    0.39011   0.53724   -1.000
 3379.00    0.36054   0.53006   -1.000
 3380.00    0.35099   0.52933   -1.000
 3381.00    0.37684   0.53537   -1.000
 3382.00    0.39137   0.54463   -1.000
 3383.00    0.38651   0.55315   -1.000
 3384.00    0.37665   0.55919   -1.000
 3385.00    0.38537   0.56296   -1.000
 3386.00    0.41295   0.56484   -1.000
 3387.00    0.40959   0.56510   -1.000
 3388.00    0.39222   0.56450   -1.000
 3389.00    0.41670   0.56374   -1.000
 3390.00    0.42425   0.56252   -1.000
 3391.00    0.42368   0.56014   -1.000
 3392.00    0.41992   0.55730   -1.000
 3393.00    0.42232   0.55648   -1.000
 3394.00    0.44440   0.55969   -1.000
 3395.00    0.43766   0.56634   -1.000
 3396.00    0.42276   0.57348   -1.000
 3397.00    0.43468   0.57788   -1.000
 3398.00    0.44030   0.57770   -1.000
 3399.00    0.45260   0.57328   -1.000
 3400.00    0.45833   0.56663   -1.000
 3401.00    0.44356   0.55993   -1.000
 3402.00    0.45254   0.55442   -1.000
 3403.00    0.44031   0.55053   -1.000
 3404.00    0.41128   0.54785   -1.000
 3405.00    0.42133   0.54526   -1.000
 3406.00    0.42792   0.54235   -1.000
 3407.00    0.41366   0.54031   -1.000
 3408.00    0.39747   0.54076   -1.000
 3409.00    0.40540   0.54373   -1.000
 3410.00    0.43739   0.54752   -1.000
 3411.00    0.45351   0.55031   -1.000
 3412.00    0.45811   0.55154   -1.000
 3413.00    0.43775   0.55194   -1.000
 3414.00    0.43160   0.55257   -1.000
 3415.00    0.44340   0.55455   -1.000
 3416.00    0.44139   0.55877   -1.000
 3417.00    0.44099   0.56533   -1.000
 3418.00    0.46621   0.57291   -1.000
 3419.00    0.45360   0.57911   -1.000
 3420.00    0.45659   0.58178   -1.000
 3421.00    0.47332   0.58058   -1.000
 3422.00    0.45850   0.57716   -1.000
 3423.00    0.45796   0.57373   -1.000
 3424.00    0.46217   0.57169   -1.000
 3425.00    0.44345   0.57172   -1.000
 3426.00    0.45644   0.57429   -1.000
 3427.00    0.47891   0.57940   -1.000
 3428.00    0.48551   0.58533   -1.000
 3429.00    0.47176   0.58903   -1.000
 3430.00    0.48253   0.58830   -1.000
 3431.00    0.48335   0.58395   -1.000
 3432.00    0.49385   0.57884   -1.000
 3433.00    0.50261   0.57573   -1.000
 3434.00    0.48369   0.57549   -1.000
 3435.00    0.48585   0.57667   -1.000
 3436.00    0.49007   0.57647   -1.000
 3437.00    0.48145   0.57232   -1.000
 3438.00    0.48317   0.56318   -1.000
 3439.00    0.47040   0.55011   -1.000
 3440.00    0.45955   0.53645   -1.000
 3441.00    0.45944   0.52666   -1.000
 3442.00    0.46353   0.52363   -1.000
 3443.00    0.45346   0.52656   -1.000
 3444.00    0.46064   0.53265   -1.000
 3445.00    0.46857   0.54030   -1.000
 3446.00    0.47875   0.54988   -1.000
 3447.00    0.50961   0.56106   -1.000
 3448.00    0.51451   0.57075   -1.000
 3449.00    0.50831   0.57460   -1.000
 3450.00    0.51281   0.57062   -1.000
 3451.00    0.49334   0.56134   -1.000
 3452.00    0.49525   0.55203   -1.000
 3453.00    0.49669   0.54685   -1.000
 3454.00    0.49617   0.54670   -1.000
 3455.00    0.50838   0.54896   -1.000
 3456.00    0.53483   0.54995  143.216
 3457.00    0.51691   0.54775   64.795
 3458.00    0.50963   0.54311   65.163
 3459.00    0.51147   0.53823   99.514
 3460.00    0.50414   0.53539   -1.000
 3461.00    0.50827   0.53640   -1.000
 3462.00    0.51442   0.54144   -1.000
 3463.00    0.52294   0.54828   -1.000
 3464.00    0.52781   0.55389   -1.000
 3465.00    0.52220   0.55719   -1.000
 3466.00    0.51237   0.55936   -1.000
 3467.00    0.52347   0.56158   -1.000
 3468.00    0.54775   0.56415   -1.000
 3469.00    0.56583   0.56644  505.286
 3470.00    0.56972   0.56723  505.286
 3471.00    0.56227   0.56521  505.286
 3472.00    0.55736   0.55966  141.140
 3473.00    0.54239   0.55122   65.955
 3474.00    0.52488   0.54205   66.847
 3475.00    0.51688   0.53537  102.368
 3476.00    0.50938   0.53362   -1.000
 3477.00    0.51031   0.53667   -1.000
 3478.00    0.51846   0.54226   -1.000
 3479.00    0.53036   0.54774   -1.000
 3480.00    0.54740   0.55133  505.286
 3481.00    0.54929   0.55213  505.286
 3482.00    0.52493   0.55076   -1.000
 3483.00    0.52516   0.54959   -1.000
 3484.00    0.53247   0.55159   -1.000
 3485.00    0.52754   0.55759   -1.000
 3486.00    0.53478   0.56477   -1.000
 3487.00    0.55616   0.56851   -1.000
 3488.00    0.55777   0.56621   -1.000
 3489.00    0.53612   0.55954   -1.000
 3490.00    0.50478   0.55281   -1.000
 3491.00    0.51698   0.54932   -1.000
 3492.00    0.53476   0.54858   -1.000
 3493.00    0.53266   0.54778   -1.000
 3494.00    0.52756   0.54531   -1.000
 3495.00    0.52364   0.54266   -1.000
 3496.00    0.51276   0.54297   -1.000
 3497.00    0.51347   0.54756   -1.000
 3498.00    0.53470   0.55426   -1.000
 3499.00    0.56888   0.55928   -1.000
 3500.00    0.57398   0.56110   -1.000
 3501.00    0.54867   0.56153   -1.000
 3502.00    0.54595   0.56208   -1.000
 3503.00    0.54589   0.56189   -1.000
 3504.00    0.54448   0.55944   -1.000
 3505.00    0.55655   0.55514  505.286
 3506.00    0.55692   0.55135  505.286
 3507.00    0.56186   0.54973   -1.000
 3508.00    0.55055   0.54969  505.286
 3509.00    0.53557   0.54929   -1.000
 3510.00    0.53952   0.54713   -1.000
 3511.00    0.53869   0.54327  505.286
 3512.00    0.53818   0.53915  505.286
 3513.00    0.53426   0.53716  505.286
 3514.00    0.53082   0.53950   -1.000
 3515.00    0.54121   0.54664  505.286
 3516.00    0.56807   0.55598   -1.000
 3517.00    0.58460   0.56373   -1.000
 3518.00    0.58506   0.56693   -1.000
 3519.00    0.57078   0.56473  505.286
 3520.00    0.54874   0.55869   -1.000
 3521.00    0.55218   0.55127  131.611
 3522.00    0.55446   0.54431   65.420
 3523.00    0.52784   0.53842   66.568
 3524.00    0.51104   0.53423  108.136
 3525.00    0.50814   0.53316   -1.000
 3526.00    0.51238   0.53647   -1.000
 3527.00    0.52603   0.54389   -1.000
 3528.00    0.54702   0.55290  505.286
 3529.00    0.56747   0.56016   -1.000
 3530.00    0.56300   0.56394  505.286
 3531.00    0.56534   0.56509  505.286
 3532.00    0.56462   0.56576  505.286
 3533.00    0.55609   0.56735   -1.000
 3534.00    0.56277   0.56970   -1.000
 3535.00    0.56048   0.57195   -1.000
 3536.00    0.55893   0.57391   -1.000
 3537.00    0.56792   0.57609   -1.000
 3538.00    0.57015   0.57891   -1.000
 3539.00    0.56740   0.58178   -1.000
 3540.00    0.55926   0.58375   -1.000
 3541.00    0.55649   0.58494   -1.000
 3542.00    0.54791   0.58626   -1.000
 3543.00    0.55934   0.58811   -1.000
 3544.00    0.57358   0.58969   -1.000
 3545.00    0.55600   0.59028   -1.000
 3546.00    0.56460   0.58985   -1.000
 3547.00    0.56735   0.58916   -1.000
 3548.00    0.54793   0.58889   -1.000
 3549.00    0.55042   0.58907   -1.000
 3550.00    0.55346   0.58914   -1.000
 3551.00    0.54358   0.58819   -1.000
 3552.00    0.54744   0.58565   -1.000
 3553.00    0.55032   0.58203   -1.000
 3554.00    0.54165   0.57879   -1.000
 3555.00    0.53490   0.57701   -1.000
 3556.00    0.53216   0.57654   -1.000
 3557.00    0.54490   0.57634   -1.000
 3558.00    0.54638   0.57610   -1.000
 3559.00    0.54164   0.57680   -1.000
 3560.00    0.54445   0.57948   -1.000
 3561.00    0.54273   0.58325   -1.000
 3562.00    0.54897   0.58454   -1.000
 3563.00    0.56951   0.57973   66.294
 3564.00    0.57469   0.56897   67.388
 3565.00    0.54183   0.55679   66.777
 3566.00    0.51736   0.54819   67.629
 3567.00    0.50642   0.54377   69.469
 3568.00    0.51033   0.54036   69.092
 3569.00    0.52149   0.53523   66.456
 3570.00    0.51219   0.52925  111.163
 3571.00    0.50804   0.52558   -1.000
 3572.00    0.51712   0.52575   -1.000
 3573.00    0.52063   0.52838   -1.000
 3574.00    0.51254   0.53109   -1.000
 3575.00    0.51812   0.53280   -1.000
 3576.00    0.53711   0.53345  128.124
 3577.00    0.54415   0.53247   69.701
 3578.00    0.54891   0.52885   74.482
 3579.00    0.54264   0.52253   76.848
 3580.00    0.52592   0.51531   77.237
 3581.00    0.51403   0.50988   78.329
 3582.00    0.51206   0.50748   80.612
 3583.00    0.51757   0.50691   82.557
 3584.00    0.50462   0.50586   81.079
 3585.00    0.48978   0.50364   76.830
 3586.00    0.49246   0.50217   72.918
 3587.00    0.49280   0.50388   67.870
 3588.00    0.50502   0.50968  112.543
 3589.00    0.53080   0.51853   -1.000
 3590.00    0.53964   0.52817   -1.000
 3591.00    0.52663   0.53630   -1.000
 3592.00    0.52485   0.54193   -1.000
 3593.00    0.54912   0.54615  505.286
 3594.00    0.56474   0.55083   -1.000
 3595.00    0.57180   0.55700   -1.000
 3596.00    0.57343   0.56399   -1.000
 3597.00    0.56972   0.57023  486.117
 3598.00    0.58743   0.57426   -1.000
 3599.00    0.58596   0.57502   -1.000
 3600.00    0.56698   0.57200   -1.000
 3601.00    0.56062   0.56569  505.286
 3602.00    0.56326   0.55778  505.286
 3603.00    0.56333   0.55072   -1.000
 3604.00    0.55437   0.54637   -1.000
 3605.00    0.55533   0.54483   -1.000
 3606.00    0.55125   0.54451   -1.000
 3607.00    0.55019   0.54375   -1.000
 3608.00    0.54851   0.54253   -1.000
 3609.00    0.54509   0.54210  505.286
 3610.00    0.55226   0.54344   -1.000
 3611.00    0.55466   0.54611   -1.000
 3612.00    0.55370   0.54908  505.286
 3613.00    0.55073   0.55218  505.286
 3614.00    0.55568   0.55522  505.286
 3615.00    0.56565   0.55688   -1.000
 3616.00    0.56423   0.55510  117.007
 3617.00    0.54697   0.54980  115.334
 3618.00    0.52584   0.54443   -1.000
 3619.00    0.52850   0.54359   -1.000
 3620.00    0.53448   0.54878   -1.000
 3621.00    0.54168   0.55788   -1.000
 3622.00    0.56115   0.56751   -1.000
 3623.00    0.56682   0.57578   -1.000
 3624.00    0.57755   0.58323   -1.000
 3625.00    0.59962   0.59112   -1.000
 3626.00    0.60165   0.59845  476.552
 3627.00    0.60345   0.60159  505.286
 3628.00    0.60719   0.59720   -1.000
 3629.00    0.59220   0.58538   -1.000
 3630.00    0.55098   0.57088   -1.000
 3631.00    0.52164   0.56010   -1.000
 3632.00    0.53013   0.55662   -1.000
 3633.00    0.55368   0.55918  505.286
 3634.00    0.56300   0.56360  505.286
 3635.00    0.55344   0.56689   -1.000
 3636.00    0.55546   0.56932   -1.000
 3637.00    0.56915   0.57312  465.476
 3638.00    0.58737   0.57862   -1.000
 3639.00    0.58618   0.58327  485.497
 3640.00    0.57499   0.58414   -1.000
 3641.00    0.58296   0.58025  505.286
 3642.00    0.57540   0.57329  505.286
 3643.00    0.55797   0.56593   -1.000
 3644.00    0.55972   0.56016  505.286
 3645.00    0.55210   0.55647  505.286
 3646.00    0.54364   0.55423   -1.000
 3647.00    0.55604   0.55313  505.286
 3648.00    0.56248   0.55390   -1.000
 3649.00    0.55745   0.55733  488.912
 3650.00    0.55959   0.56337  472.942
 3651.00    0.58250   0.57095   -1.000
 3652.00    0.59409   0.57846   -1.000
 3653.00    0.58323   0.58472  456.716
 3654.00    0.58697   0.58954  451.688
 3655.00    0.60864   0.59346   -1.000
 3656.00    0.61750   0.59723   -1.000
 3657.00    0.60576   0.60071  442.314
 3658.00    0.59953   0.60280  444.916
 3659.00    0.60067   0.60253  449.827
 3660.00    0.60927   0.59976   -1.000
 3661.00    0.61444   0.59535   -1.000
 3662.00    0.60387   0.59074   -1.000
 3663.00    0.59389   0.58729  457.761
 3664.00    0.59459   0.58557   -1.000
 3665.00    0.59007   0.58502  470.540
 3666.00    0.59483   0.58439   -1.000
 3667.00    0.61310   0.58305   -1.000
 3668.00    0.60264   0.58170   -1.000
 3669.00    0.57912   0.58200  458.027
 3670.00    0.58304   0.58477  453.034
 3671.00    0.60168   0.58886   -1.000
 3672.00    0.60242   0.59213   -1.000
 3673.00    0.59925   0.59277  460.959
 3674.00    0.60232   0.59024   -1.000
 3675.00    0.60662   0.58512   -1.000
 3676.00    0.60329   0.57859   -1.000
 3677.00    0.58849   0.57236   -1.000
 3678.00    0.57986   0.56806   -1.000
 3679.00    0.58192   0.56656   -1.000
 3680.00    0.58223   0.56760   -1.000
 3681.00    0.58610   0.56988   -1.000
 3682.00    0.58916   0.57166   -1.000
 3683.00    0.59341   0.57118   -1.000
 3684.00    0.59594   0.56756   -1.000
 3685.00    0.57921   0.56195   -1.000
 3686.00    0.57207   0.55795   -1.000
 3687.00    0.58520   0.55938   -1.000
 3688.00    0.59429   0.56687   -1.000
 3689.00    0.59899   0.57718   -1.000
 3690.00    0.60518   0.58618   -1.000
 3691.00    0.60943   0.59208   -1.000
 3692.00    0.61013   0.59565   -1.000
 3693.00    0.61627   0.59781   -1.000
 3694.00    0.62044   0.59789   -1.000
 3695.00    0.61287   0.59584   -1.000
 3696.00    0.59715   0.59445  430.849
 3697.00    0.59146   0.59794   -1.000
 3698.00    0.60423   0.60776  424.990
 3699.00    0.62573   0.61925  439.660
 3700.00    0.64437   0.62388   -1.000
 3701.00    0.64902   0.61521   -1.000
 3702.00    0.63016   0.59402   -1.000
 3703.00    0.60344   0.56855   -1.000
 3704.00    0.57665   0.54945   -1.000
 3705.00    0.55670   0.54332   -1.000
 3706.00    0.56041   0.54916   -1.000
 3707.00    0.58299   0.55990   -1.000
 3708.00    0.60802   0.56792   -1.000
 3709.00    0.61176   0.56942   -1.000
 3710.00    0.59360   0.56647   -1.000
 3711.00    0.57459   0.56608   -1.000
 3712.00    0.57320   0.57479  417.271
 3713.00    0.59683   0.59366  423.100
 3714.00    0.63557   0.61777   -1.000
 3715.00    0.67286   0.63897   -1.000
 3716.00    0.67765   0.64956   -1.000
 3717.00    0.65982   0.64433   -1.000
 3718.00    0.65228   0.62205   -1.000
 3719.00    0.60967   0.58742  132.546
 3720.00    0.55811   0.55193   -1.000
 3721.00    0.53762   0.52961   -1.000
 3722.00    0.54299   0.52952   -1.000
 3723.00    0.56828   0.55121   -1.000
 3724.00    0.60659   0.58563   -1.000
 3725.00    0.65479   0.62056   -1.000
 3726.00    0.68305   0.64728   -1.000
 3727.00    0.68461   0.66387   -1.000
 3728.00    0.68091   0.67100   -1.000
 3729.00    0.68558   0.66682   -1.000
 3730.00    0.66987   0.64774  102.975
 3731.00    0.63760   0.61299   68.488
 3732.00    0.59490   0.56862   73.526
 3733.00    0.54903   0.52674   72.428
 3734.00    0.51096   0.50030   66.830
 3735.00    0.49245   0.49778  131.768
 3736.00    0.51400   0.52023  505.286
 3737.00    0.56148   0.56142  492.482
 3738.00    0.60780   0.61059  479.272
 3739.00    0.65433   0.65621  489.369
 3740.00    0.69617   0.68911   -1.000
 3741.00    0.70505   0.70516  505.286
 3742.00    0.69166   0.70509   -1.000
 3743.00    0.67629   0.69209   -1.000
 3744.00    0.66444   0.66951  103.709
 3745.00    0.63990   0.63918   67.546
 3746.00    0.60442   0.60206   69.790
 3747.00    0.56818   0.56123  146.599
 3748.00    0.53420   0.52398   -1.000
 3749.00    0.51400   0.50118   -1.000
 3750.00    0.51448   0.50218   -1.000
 3751.00    0.54739   0.52850   -1.000
 3752.00    0.59883   0.57263   -1.000
 3753.00    0.66354   0.62244   -1.000
 3754.00    0.71174   0.66595   -1.000
 3755.00    0.72062   0.69497   -1.000
 3756.00    0.71896   0.70700   -1.000
 3757.00    0.71340   0.70556   -1.000
 3758.00    0.69327   0.69861  505.286
 3759.00    0.69691   0.69395  500.690
 3760.00    0.71763   0.69505   -1.000
 3761.00    0.72854   0.70015   -1.000
 3762.00    0.72924   0.70482   -1.000
 3763.00    0.73351   0.70428   -1.000
 3764.00    0.72675   0.69510   -1.000
 3765.00    0.71078   0.67609   -1.000
 3766.00    0.69492   0.64807   -1.000
 3767.00    0.66700   0.61352   -1.000
 3768.00    0.63049   0.57706   -1.000
 3769.00    0.59437   0.54641   -1.000
 3770.00    0.55613   0.53086   -1.000
 3771.00    0.56850   0.53668   -1.000
 3772.00    0.61932   0.56259   -1.000
 3773.00    0.64869   0.60017   -1.000
 3774.00    0.67288   0.64015   -1.000
 3775.00    0.70399   0.67779   -1.000
 3776.00    0.73426   0.71233   -1.000
 3777.00    0.75500   0.74414   -1.000
 3778.00    0.76678   0.77266  409.850
 3779.00    0.79643   0.79659  407.311
 3780.00    0.81903   0.81502  406.525
 3781.00    0.83184   0.82756  412.479
 3782.00    0.83175   0.83429  429.823
 3783.00    0.83406   0.83496  458.786
 3784.00    0.82399   0.82923  486.382
 3785.00    0.80201   0.81750   -1.000
 3786.00    0.77809   0.80189   -1.000
 3787.00    0.76703   0.78580   -1.000
 3788.00    0.77317   0.77183  491.653
 3789.00    0.76741   0.75985   -1.000
 3790.00    0.76623   0.74722   -1.000
 3791.00    0.77063   0.73008   -1.000
 3792.00    0.75091   0.70485   -1.000
 3793.00    0.72380   0.67016   -1.000
 3794.00    0.68362   0.62737   -1.000
 3795.00    0.64994   0.58073   -1.000
 3796.00    0.61235   0.53791   -1.000
 3797.00    0.56424   0.50904   -1.000
 3798.00    0.54084   0.50372   -1.000
 3799.00    0.55761   0.52598   -1.000
 3800.00    0.61114   0.57028   -1.000
 3801.00    0.66841   0.62463   -1.000
 3802.00    0.71826   0.67696   -1.000
 3803.00    0.75952   0.71947   -1.000
 3804.00    0.77800   0.74990   -1.000
 3805.00    0.78601   0.77037   -1.000
 3806.00    0.78771   0.78558  461.244
 3807.00    0.78856   0.80075   -1.000
 3808.00    0.79826   0.81851   -1.000
 3809.00    0.82430   0.83666   -1.000
 3810.00    0.83691   0.84964   -1.000
 3811.00    0.82892   0.85190   -1.000
 3812.00    0.82002   0.84176   -1.000
 3813.00    0.79872   0.82444   -1.000
 3814.00    0.79016   0.80856   -1.000
 3815.00    0.79170   0.80032   -1.000
 3816.00    0.79626   0.79949  505.286
 3817.00    0.81899   0.80012   -1.000
 3818.00    0.81646   0.79664   -1.000
 3819.00    0.79523   0.78855   -1.000
 3820.00    0.79758   0.77991   -1.000
 3821.00    0.80422   0.77415   -1.000
 3822.00    0.80671   0.76950   -1.000
 3823.00    0.79408   0.76099   68.236
 3824.00    0.77404   0.74620   68.348
 3825.00    0.75070   0.72775   67.400
 3826.00    0.74601   0.70979   66.292
 3827.00    0.73880   0.69361   -1.000
 3828.00    0.72764   0.67690   -1.000
 3829.00    0.71180   0.65586   -1.000
 3830.00    0.69688   0.62747   -1.000
 3831.00    0.67294   0.59077   -1.000
 3832.00    0.63225   0.54823   -1.000
 3833.00    0.57635   0.50635   -1.000
 3834.00    0.53590   0.47410   -1.000
 3835.00    0.52546   0.45954   -1.000
 3836.00    0.53249   0.46572   -1.000
 3837.00    0.56384   0.49009   -1.000
 3838.00    0.59660   0.52708   -1.000
 3839.00    0.62831   0.57113   -1.000
 3840.00    0.66994   0.61834   -1.000
 3841.00    0.70822   0.66535   -1.000
 3842.00    0.73709   0.70874   -1.000
 3843.00    0.76949   0.74600   -1.000
 3844.00    0.79112   0.77592   -1.000
 3845.00    0.80556   0.79926   -1.000
 3846.00    0.81917   0.81683  505.286
 3847.00    0.83182   0.82902  505.286
 3848.00    0.82704   0.83629   -1.000
 3849.00    0.81597   0.84081   -1.000
 3850.00    0.81127   0.84558   -1.000
 3851.00    0.83274   0.85171   -1.000
 3852.00    0.85742   0.85744  505.286
 3853.00    0.85904   0.85966  505.286
 3854.00    0.86201   0.85718  505.286
 3855.00    0.84412   0.85145   91.446
 3856.00    0.82703   0.84484   66.400
 3857.00    0.82903   0.83927   66.740
 3858.00    0.82301   0.83621  161.158
 3859.00    0.82630   0.83671   -1.000
 3860.00    0.83133   0.84135   -1.000
 3861.00    0.84450   0.84843  505.286
 3862.00    0.87594   0.85512   -1.000
 3863.00    0.88536   0.85917   -1.000
 3864.00    0.89294   0.86075   -1.000
 3865.00    0.89475   0.86162   -1.000
 3866.00    0.89323   0.86289   -1.000
 3867.00    0.88636   0.86406   -1.000
 3868.00    0.88337   0.86286   91.725
 3869.00    0.88615   0.85662   -1.000
 3870.00    0.85920   0.84529   -1.000
 3871.00    0.82617   0.83224  505.286
 3872.00    0.81243   0.82309   -1.000
 3873.00    0.81122   0.82100   -1.000
 3874.00    0.82345   0.82368  505.286
 3875.00    0.84822   0.82443   -1.000
 3876.00    0.84230   0.81804   -1.000
 3877.00    0.80966   0.80521  505.286
 3878.00    0.78696   0.79076  505.286
 3879.00    0.78298   0.77812  505.286
 3880.00    0.79134   0.76626   -1.000
 3881.00    0.78797   0.75147   -1.000
 3882.00    0.77068   0.73078   -1.000
 3883.00    0.75598   0.70278   -1.000
 3884.00    0.74440   0.66635   -1.000
 3885.00    0.71937   0.62202   -1.000
 3886.00    0.66892   0.57400   -1.000
 3887.00    0.61412   0.53176   -1.000
 3888.00    0.57191   0.50665   -1.000
 3889.00    0.55503   0.50651   -1.000
 3890.00    0.59769   0.53124   -1.000
 3891.00    0.65857   0.57273   -1.000
 3892.00    0.70356   0.61912   -1.000
 3893.00    0.72510   0.66154   -1.000
 3894.00    0.73746   0.69721   -1.000
 3895.00    0.76313   0.72694   -1.000
 3896.00    0.77709   0.75193   -1.000
 3897.00    0.79339   0.77211   -1.000
 3898.00    0.80775   0.78781   -1.000
 3899.00    0.80659   0.80082  424.740
 3900.00    0.81763   0.81328  438.969
 3901.00    0.83039   0.82520  452.194
 3902.00    0.84963   0.83450   -1.000
 3903.00    0.86329   0.83981   -1.000
 3904.00    0.84762   0.84246  445.251
 3905.00    0.82781   0.84668   -1.000
 3906.00    0.84343   0.85638   -1.000
 3907.00    0.87370   0.87200  395.810
 3908.00    0.88007   0.89043   -1.000
 3909.00    0.89284   0.90621   -1.000
 3910.00    0.91284   0.91569  392.068
 3911.00    0.91497   0.91833  399.304
 3912.00    0.90516   0.91579   -1.000
 3913.00    0.89479   0.91100   -1.000
 3914.00    0.89253   0.90676   -1.000
 3915.00    0.89026   0.90435   -1.000
 3916.00    0.88137   0.90302   -1.000
 3917.00    0.88109   0.90101   -1.000
 3918.00    0.88277   0.89727   -1.000
 3919.00    0.85668   0.89244   -1.000
 3920.00    0.86374   0.88820   -1.000
 3921.00    0.86884   0.88604   -1.000
 3922.00    0.87222   0.88570   -1.000
 3923.00    0.89287   0.88501   -1.000
 3924.00    0.88573   0.88095  505.286
 3925.00    0.86836   0.87077   95.930
 3926.00    0.84138   0.85332   79.611
 3927.00    0.81785   0.82900   93.212
 3928.00    0.77632   0.79855  109.936
 3929.00    0.73587   0.76221  129.101
 3930.00    0.67058   0.71968   -1.000
 3931.00    0.56690   0.67394   -1.000
 3932.00    0.48507   0.63358   -1.000
 3933.00    0.43242   0.61092   -1.000
 3934.00    0.44765   0.61483   -1.000
 3935.00    0.51645   0.64476   -1.000
 3936.00    0.60491   0.69019   -1.000
 3937.00    0.67555   0.73914   -1.000
 3938.00    0.74780   0.78273   -1.000
 3939.00    0.79346   0.81697   -1.000
 3940.00    0.82934   0.84112   -1.000
 3941.00    0.85215   0.85523  505.286
 3942.00    0.86389   0.86139  482.784
 3943.00    0.86829   0.86326  450.544
 3944.00    0.86389   0.86470  440.217
 3945.00    0.86791   0.86807  436.735
 3946.00    0.88275   0.87281   -1.000
 3947.00    0.89036   0.87707   -1.000
 3948.00    0.88208   0.87947  407.419
 3949.00    0.88772   0.87984   -1.000
 3950.00    0.88262   0.87878  408.589
 3951.00    0.88338   0.87734  398.982
 3952.00    0.89576   0.87636   -1.000
 3953.00    0.91256   0.87524   -1.000
 3954.00    0.90221   0.87210   -1.000
 3955.00    0.88330   0.86555   -1.000
 3956.00    0.87998   0.85620   -1.000
 3957.00    0.87117   0.84548   -1.000
 3958.00    0.85479   0.83274   -1.000
 3959.00    0.85066   0.81499   -1.000
 3960.00    0.83892   0.79025   -1.000
 3961.00    0.80161   0.75912   -1.000
 3962.00    0.74837   0.72362   75.287
 3963.00    0.72182   0.68411   -1.000
 3964.00    0.68502   0.63742   -1.000
 3965.00    0.61186   0.58159   -1.000
 3966.00    0.51995   0.51882  123.978
 3967.00    0.40944   0.45837   -1.000
 3968.00    0.33700   0.41337   -1.000
 3969.00    0.33871   0.39512   -1.000
 3970.00    0.38983   0.40763   -1.000
 3971.00    0.46929   0.44677   -1.000
 3972.00    0.56310   0.50267   -1.000
 3973.00    0.65077   0.56471   -1.000
 3974.00    0.71388   0.62509   -1.000
 3975.00    0.75862   0.67928   -1.000
 3976.00    0.79599   0.72629   -1.000
 3977.00    0.82818   0.76619   -1.000
 3978.00    0.85421   0.79929   -1.000
 3979.00    0.87668   0.82514   -1.000
 3980.00    0.88984   0.84351   -1.000
 3981.00    0.88011   0.85603   -1.000
 3982.00    0.88674   0.86585   -1.000
 3983.00    0.90615   0.87587   -1.000
 3984.00    0.91550   0.88680   -1.000
 3985.00    0.91775   0.89759   -1.000
 3986.00    0.93003   0.90763   -1.000
 3987.00    0.95437   0.91695   -1.000
 3988.00    0.95345   0.92628   -1.000
 3989.00    0.94780   0.93556   -1.000
 3990.00    0.95680   0.94449   -1.000
 3991.00    0.96839   0.95251   -1.000
 3992.00    0.98664   0.95844   -1.000
 3993.00    0.99857   0.96089   -1.000
 3994.00    0.98283   0.95920   -1.000
 3995.00    0.95575   0.95471  345.996
 3996.00    0.93681   0.95032   -1.000
 3997.00    0.94629   0.94886  319.483
 3998.00    0.95309   0.95157  313.171
 3999.00    0.95424   0.95711  308.613
 4000.00    0.97037   0.96270  312.422
 4001.00    0.98215   0.96539   -1.000
 4002.00    0.99054   0.96354   -1.000
 4003.00    1.00325   0.95728   -1.000
 4004.00    0.97125   0.94995   -1.000
 4005.00    0.94046   0.94585  319.129
 4006.00    0.95329   0.94843  313.196
 4007.00    0.94675   0.95729   -1.000
 4008.00    0.98118   0.96844   -1.000
 4009.00    0.99381   0.97779   -1.000
 4010.00    0.98341   0.98341  311.582
 4011.00    0.97964   0.98589  310.073
 4012.00    0.97525   0.98713   -1.000
 4013.00    0.97502   0.98867   -1.000
 4014.00    0.98705   0.99122  310.865
 4015.00    0.98889   0.99452  310.469
 4016.00    0.99751   0.99834  306.256
 4017.00    0.99228   1.00243   -1.000
 4018.00    1.00749   1.00641  309.643
 4019.00    1.01505   1.00924  312.047
 4020.00    1.00909   1.00956  314.031
 4021.00    1.00703   1.00629  316.420
 4022.00    1.00372   0.99964  310.572
 4023.00    1.00592   0.99171   -1.000
 4024.00    1.01146   0.98579   -1.000
 4025.00    1.01430   0.98460   -1.000
 4026.00    1.01940   0.98757   -1.000
 4027.00    1.01732   0.99116   -1.000
 4028.00    1.01695   0.99139   -1.000
 4029.00    0.98316   0.98724  345.232
 4030.00    0.97547   0.98125  342.408
 4031.00    0.97354   0.97693  332.406
 4032.00    0.96368   0.97703   -1.000
 4033.00    0.96543   0.98198   -1.000
 4034.00    0.95858   0.99099   -1.000
 4035.00    0.98435   1.00253   -1.000
 4036.00    1.01530   1.01456  291.781
 4037.00    1.01843   1.02440  298.692
 4038.00    1.02467   1.02978  302.697
 4039.00    1.01609   1.03006   -1.000
 4040.00    0.99206   1.02633   -1.000
 4041.00    1.00000   1.01942   -1.000
 4042.00    0.99942   1.00853   -1.000
 4043.00    0.99430   0.99414  365.765
 4044.00    0.98051   0.97951  333.282
 4045.00    0.94637   0.97117   -1.000
 4046.00    0.94812   0.97360   -1.000
 4047.00    0.96776   0.98553   -1.000
 4048.00    0.98901   1.00084   -1.000
 4049.00    1.01018   1.01275  304.018
 4050.00    1.01824   1.01788  312.058
 4051.00    1.01339   1.01640  317.496
 4052.00    1.00472   1.01107  320.438
 4053.00    1.00677   1.00505  322.659
 4054.00    0.99774   1.00070  325.842
 4055.00    1.00308   0.99886  323.260
 4056.00    1.00886   0.99902  312.761
 4057.00    0.99944   1.00073  305.608
 4058.00    1.00849   1.00299  308.924
 4059.00    1.00777   1.00348  328.648
 4060.00    1.00894   0.99953  351.942
 4061.00    1.00525   0.98966   -1.000
 4062.00    0.97443   0.97624  335.861
 4063.00    0.95447   0.96333   -1.000
 4064.00    0.96574   0.95517  317.554
 4065.00    0.96825   0.95314   -1.000
 4066.00    0.97914   0.95625   -1.000
 4067.00    0.99830   0.96125   -1.000
 4068.00    0.99865   0.96444   -1.000
 4069.00    0.99934   0.96331   -1.000
 4070.00    0.99612   0.95804   -1.000
 4071.00    0.97661   0.95181   -1.000
 4072.00    0.98161   0.94769   -1.000
 4073.00    0.98924   0.94539   -1.000
 4074.00    0.99368   0.94160   -1.000
 4075.00    0.97302   0.93394   -1.000
 4076.00    0.95014   0.92460   -1.000
 4077.00    0.94015   0.91897   -1.000
 4078.00    0.93828   0.92151   -1.000
 4079.00    0.94306   0.93143  302.120
 4080.00    0.95718   0.94340   -1.000
 4081.00    0.95746   0.95104  317.569
 4082.00    0.96865   0.95153   -1.000
 4083.00    0.96000   0.94674   -1.000
 4084.00    0.96243   0.94116   -1.000
 4085.00    0.96322   0.93861   -1.000
 4086.00    0.96180   0.93960   -1.000
 4087.00    0.97196   0.94177   -1.000
 4088.00    0.98403   0.94144   -1.000
 4089.00    0.98037   0.93662   -1.000
 4090.00    0.96723   0.92735   -1.000
 4091.00    0.95627   0.91480   -1.000
 4092.00    0.96165   0.89932   -1.000
 4093.00    0.93107   0.87985   -1.000
 4094.00    0.91306   0.85532   -1.000
 4095.00    0.88478   0.82527   -1.000
 4096.00    0.85580   0.78977   -1.000
 4097.00    0.85118   0.74847   -1.000
 4098.00    0.82584   0.70126   -1.000
 4099.00    0.76738   0.65129   -1.000
 4100.00    0.68841   0.60702   -1.000
 4101.00    0.64425   0.58083   -1.000
 4102.00    0.63942   0.58226   -1.000
 4103.00    0.68642   0.61156   -1.000
 4104.00    0.75712   0.65904   -1.000
 4105.00    0.79882   0.71098   -1.000
 4106.00    0.83850   0.75702   -1.000
 4107.00    0.87274   0.79325   -1.000
 4108.00    0.87587   0.82069   -1.000
 4109.00    0.88887   0.84242   -1.000
 4110.00    0.91210   0.86152   -1.000
 4111.00    0.92765   0.87981   -1.000
 4112.00    0.93846   0.89788   -1.000
 4113.00    0.95336   0.91513   -1.000
 4114.00    0.96544   0.93037   -1.000
 4115.00    0.96594   0.94170   -1.000
 4116.00    0.97013   0.94792   -1.000
 4117.00    0.96866   0.94933   -1.000
 4118.00    0.96196   0.94829   -1.000
 4119.00    0.96513   0.94756   -1.000
 4120.00    0.95982   0.94880  314.725
 4121.00    0.96899   0.95207   -1.000
 4122.00    0.96949   0.95671   -1.000
 4123.00    0.96570   0.96199  311.289
 4124.00    0.99730   0.96653   -1.000
 4125.00    0.99325   0.96848   -1.000
 4126.00    0.99160   0.96677   -1.000
 4127.00    0.97874   0.96248   -1.000
 4128.00    0.97196   0.95785   -1.000
 4129.00    0.97127   0.95427   -1.000
 4130.00    0.98669   0.95173   -1.000
 4131.00    0.97892   0.95027   -1.000
 4132.00    0.96798   0.95151   -1.000
 4133.00    0.97456   0.95740   -1.000
 4134.00    0.98798   0.96854   -1.000
 4135.00    0.98724   0.98288  300.594
 4136.00    1.00190   0.99757  299.004
 4137.00    1.00464   1.00960  304.334
 4138.00    1.01422   1.01699  319.353
 4139.00    1.01702   1.01787  345.394
 4140.00    1.01346   1.01157  365.079
 4141.00    0.99914   0.99929  355.161
 4142.00    0.98730   0.98548  334.406
 4143.00    0.97644   0.97586  321.060
 4144.00    0.97247   0.97450  316.820
 4145.00    0.97611   0.98067  321.904
 4146.00    0.99658   0.98963  330.720
 4147.00    1.01072   0.99670   -1.000
 4148.00    1.00418   1.00025  333.628
 4149.00    0.99499   1.00154  331.619
 4150.00    1.00561   1.00201  334.218
 4151.00    1.02692   1.00169   -1.000
 4152.00    1.20646   0.99997   -1.000
 4153.00    1.28150   0.99714   -1.000
 4154.00    0.76223   0.99493   -1.000
 4155.00    0.76568   0.99525   -1.000
 4156.00    1.03924   0.99893   -1.000
 4157.00    1.03443   1.00500   -1.000
 4158.00    0.99986   1.01153   -1.000
 4159.00    1.00540   1.01666   -1.000
 4160.00    1.01279   1.01986   -1.000
 4161.00    1.02086   1.02184  312.767
 4162.00    1.02328   1.02376  317.504
 4163.00    1.01852   1.02585   -1.000
 4164.00    1.01213   1.02721   -1.000
 4165.00    0.99274   1.02667   -1.000
 4166.00    1.00496   1.02382   -1.000
 4167.00    1.00397   1.01913   -1.000
 4168.00    0.99527   1.01273   -1.000
 4169.00    0.99918   1.00350  364.055
 4170.00    0.98573   0.99062  367.009
 4171.00    0.97042   0.97614  354.864
 4172.00    0.96532   0.96473  341.940
 4173.00    0.96677   0.96073  340.612
 4174.00    0.95730   0.96400  342.506
 4175.00    0.96818   0.97055  341.323
 4176.00    0.97650   0.97606  336.235
 4177.00    0.98055   0.97953  332.810
 4178.00    0.97143   0.98274   -1.000
 4179.00    0.98009   0.98723   -1.000
 4180.00    0.98851   0.99239  323.105
 4181.00    1.00565   0.99683  317.303
 4182.00    1.00504   0.99996  317.301
 4183.00    0.98928   1.00205   -1.000
 4184.00    0.98382   1.00294   -1.000
 4185.00    1.00897   1.00191  334.886
 4186.00    0.98039   0.99925   -1.000
 4187.00    0.95926   0.99644   -1.000
 4188.00    0.95990   0.99547   -1.000
 4189.00    0.97770   0.99699   -1.000
 4190.00    0.98365   1.00046   -1.000
 4191.00    0.98900   1.00461   -1.000
 4192.00    1.01136   1.00777  334.341
 4193.00    1.00544   1.00778  345.927
 4194.00    1.01409   1.00299   -1.000
 4195.00    1.00947   0.99344   -1.000
 4196.00    0.98955   0.98111  349.864
 4197.00    0.95655   0.96910   -1.000
 4198.00    0.94912   0.96003   -1.000
 4199.00    0.95573   0.95535  340.965
 4200.00    0.96888   0.95503   -1.000
 4201.00    0.97658   0.95828   -1.000
 4202.00    0.97615   0.96437   -1.000
 4203.00    0.97880   0.97274  318.774
 4204.00    0.97735   0.98266  312.454
 4205.00    0.98327   0.99296   -1.000
 4206.00    0.98638   1.00218   -1.000
 4207.00    0.98946   1.00892   -1.000
 4208.00    0.99073   1.01283   -1.000
 4209.00    0.99418   1.01480   -1.000
 4210.00    0.99478   1.01614   -1.000
 4211.00    0.99499   1.01686   -1.000
 4212.00    0.99564   1.01538   -1.000
 4213.00    0.98984   1.01029   -1.000
 4214.00    0.96964   1.00257   -1.000
 4215.00    0.96986   0.99607   -1.000
 4216.00    0.97139   0.99474   -1.000
 4217.00    0.97688   0.99971   -1.000
 4218.00    0.99597   1.00819   -1.000
 4219.00    1.00194   1.01552   -1.000
 4220.00    1.00265   1.01783   -1.000
 4221.00    0.99051   1.01275   -1.000
 4222.00    0.98977   0.99963   -1.000
 4223.00    0.97772   0.97970  434.404
 4224.00    0.96802   0.95703   -1.000
 4225.00    0.92764   0.93822   -1.000
 4226.00    0.90288   0.93048   -1.000
 4227.00    0.90321   0.93732   -1.000
 4228.00    0.93650   0.95579   -1.000
 4229.00    0.96540   0.97690   -1.000
 4230.00    0.98971   0.99166  312.796
 4231.00    0.99516   0.99573  316.070
 4232.00    0.97872   0.99139   -1.000
 4233.00    0.97476   0.98418   -1.000
 4234.00    0.96648   0.97898   -1.000
 4235.00    0.95258   0.97758   -1.000
 4236.00    0.96045   0.97966   -1.000
 4237.00    0.97569   0.98409   -1.000
 4238.00    0.97541   0.98999   -1.000
 4239.00    0.97006   0.99627   -1.000
 4240.00    0.98789   1.00213   -1.000
 4241.00    0.99031   1.00690   -1.000
 4242.00    0.99209   1.01046   -1.000
 4243.00    0.99255   1.01209   -1.000
 4244.00    1.00153   1.01045   -1.000
 4245.00    0.99068   1.00476   -1.000
 4246.00    0.96585   0.99620   -1.000
 4247.00    0.94466   0.98792   -1.000
 4248.00    0.92927   0.98289   -1.000
 4249.00    0.92988   0.98214   -1.000
 4250.00    0.94563   0.98473   -1.000
 4251.00    0.95832   0.98841   -1.000
 4252.00    0.97341   0.99129   -1.000
 4253.00    0.97316   0.99245   -1.000
 4254.00    0.96454   0.99272   -1.000
 4255.00    0.95908   0.99287   -1.000
 4256.00    0.97215   0.99216   -1.000
 4257.00    0.97501   0.98901   -1.000
 4258.00    0.97059   0.98331   -1.000
 4259.00    0.96971   0.97806  308.456
 4260.00    0.96161   0.97763   -1.000
 4261.00    0.95851   0.98439   -1.000
 4262.00    0.96752   0.99692   -1.000
 4263.00    0.97963   1.01052   -1.000
 4264.00    0.99591   1.02074   -1.000
 4265.00    0.99539   1.02469   -1.000
 4266.00    0.97822   1.02192   -1.000
 4267.00    0.95671   1.01299   -1.000
 4268.00    0.95609   0.99912   -1.000
 4269.00    0.96808   0.98218   -1.000
 4270.00    0.95805   0.96523  359.803
 4271.00    0.92974   0.95192   -1.000
 4272.00    0.91286   0.94555   -1.000
 4273.00    0.92335   0.94732   -1.000
 4274.00    0.92830   0.95630   -1.000
 4275.00    0.95396   0.97000   -1.000
 4276.00    0.97112   0.98480   -1.000
 4277.00    0.97766   0.99657   -1.000
 4278.00    0.99074   1.00266   -1.000
 4279.00    0.97453   1.00307   -1.000
 4280.00    0.95204   1.00031   -1.000
 4281.00    0.95173   0.99691   -1.000
 4282.00    0.95665   0.99413   -1.000
 4283.00    0.95856   0.99115   -1.000
 4284.00    0.96428   0.98675   -1.000
 4285.00    0.94973   0.97973   -1.000
 4286.00    0.93469   0.96951   -1.000
 4287.00    0.93337   0.95687   -1.000
 4288.00    0.91048   0.94404   -1.000
 4289.00    0.90274   0.93482   -1.000
 4290.00    0.90221   0.93223   -1.000
 4291.00    0.90617   0.93583   -1.000
 4292.00    0.92548   0.94168   -1.000
 4293.00    0.93150   0.94507   -1.000
 4294.00    0.93812   0.94354  360.660
 4295.00    0.94094   0.93719  392.432
 4296.00    0.93719   0.92653   -1.000
 4297.00    0.91716   0.91233  426.597
 4298.00    0.87765   0.89584   -1.000
 4299.00    0.85051   0.88032   -1.000
 4300.00    0.84863   0.86930   -1.000
 4301.00    0.84215   0.86539   -1.000
 4302.00    0.84123   0.86831   -1.000
 4303.00    0.85457   0.87535   -1.000
 4304.00    0.87750   0.88219  434.993
 4305.00    0.87222   0.88499   -1.000
 4306.00    0.85011   0.88295   -1.000
 4307.00    0.82857   0.87896   -1.000
 4308.00    0.82249   0.87740   -1.000
 4309.00    0.83166   0.88091   -1.000
 4310.00    0.84619   0.88843   -1.000
 4311.00    0.85517   0.89750   -1.000
 4312.00    0.86978   0.90729   -1.000
 4313.00    0.88884   0.91985   -1.000
 4314.00    0.89677   0.93740   -1.000
 4315.00    0.93594   0.95959   -1.000
 4316.00    0.97035   0.98160   -1.000
 4317.00    0.98914   0.99792   -1.000
 4318.00    0.99003   1.00454   -1.000
 4319.00    0.97979   1.00118   -1.000
 4320.00    0.96140   0.98985   -1.000
 4321.00    0.95087   0.97287   -1.000
 4322.00    0.94133   0.95247   -1.000
 4323.00    0.92843   0.93158  345.608
 4324.00    0.89574   0.91483   -1.000
 4325.00    0.88350   0.90715   -1.000
 4326.00    0.90666   0.91010  281.667
 4327.00    0.92156   0.92011  283.178
 4328.00    0.94272   0.92998   -1.000
 4329.00    0.93875   0.93462  276.331
 4330.00    0.93670   0.93245  273.616
 4331.00    0.93360   0.92499  273.130
 4332.00    0.93846   0.91285   -1.000
 4333.00    0.92365   0.89441   -1.000
 4334.00    0.90863   0.86655   -1.000
 4335.00    0.86919   0.82670   -1.000
 4336.00    0.85347   0.77544   -1.000
 4337.00    0.79904   0.71805   -1.000
 4338.00    0.74153   0.66484   -1.000
 4339.00    0.67026   0.62755   -1.000
 4340.00    0.62940   0.61582   -1.000
 4341.00    0.64679   0.63195   -1.000
 4342.00    0.70731   0.67011   -1.000
 4343.00    0.78265   0.71942   -1.000
 4344.00    0.81688   0.76999   -1.000
 4345.00    0.86973   0.81548   -1.000
 4346.00    0.87784   0.85337   -1.000
 4347.00    0.90656   0.88203   -1.000
 4348.00    0.92352   0.90023   -1.000
 4349.00    0.93307   0.90822   -1.000
 4350.00    0.92268   0.90946   -1.000
 4351.00    0.90214   0.91040  293.021
 4352.00    0.90513   0.91670   -1.000
 4353.00    0.93048   0.93002  278.560
 4354.00    0.94927   0.94746  279.105
 4355.00    0.94548   0.96426   -1.000
 4356.00    0.96254   0.97729   -1.000
 4357.00    0.96027   0.98600   -1.000
 4358.00    0.94915   0.99229   -1.000
 4359.00    0.94561   0.99846   -1.000
 4360.00    0.95202   1.00597   -1.000
 4361.00    0.98364   1.01455   -1.000
 4362.00    1.00527   1.02289   -1.000
 4363.00    0.99215   1.02933   -1.000
 4364.00    0.99588   1.03197   -1.000
 4365.00    0.99808   1.02960   -1.000
 4366.00    0.99295   1.02244   -1.000
 4367.00    0.97654   1.01272   -1.000
 4368.00    0.96874   1.00334   -1.000
 4369.00    0.98217   0.99603   -1.000
 4370.00    0.98023   0.99037   -1.000
 4371.00    0.98564   0.98448  311.089
 4372.00    1.00046   0.97709   -1.000
 4373.00    0.98714   0.96943   -1.000
 4374.00    0.97674   0.96493   -1.000
 4375.00    0.95133   0.96691   -1.000
 4376.00    0.94478   0.97551   -1.000
 4377.00    0.96767   0.98684   -1.000
 4378.00    0.99743   0.99516  299.463
 4379.00    0.99044   0.99526  334.275
 4380.00    0.97934   0.98458  371.464
 4381.00    0.99349   0.96426   -1.000
 4382.00    0.96691   0.93994   -1.000
 4383.00    0.93784   0.91987   -1.000
 4384.00    0.91583   0.91168  295.740
 4385.00    0.93966   0.91666   -1.000
 4386.00    0.96993   0.93039   -1.000
 4387.00    0.98691   0.94586   -1.000
 4388.00    0.98857   0.95815   -1.000
 4389.00    0.98195   0.96628   -1.000
 4390.00    0.98713   0.97127   -1.000
 4391.00    0.98033   0.97428  297.053
 4392.00    0.98867   0.97536   -1.000
 4393.00    0.99229   0.97471   -1.000
 4394.00    0.97484   0.97431  273.381
 4395.00    0.96238   0.97623   -1.000
 4396.00    0.97287   0.98034  288.975
 4397.00    0.99552   0.98389  296.945
 4398.00    0.99021   0.98442  292.570
 4399.00    0.97861   0.98228  287.767
 4400.00    0.98662   0.97973  299.298
 4401.00    0.97604   0.97822  316.795
 4402.00    0.98376   0.97685  317.710
 4403.00    0.97962   0.97461  306.428
 4404.00    0.96711   0.97224  302.479
 4405.00    0.96225   0.97161   -1.000
 4406.00    0.96698   0.97397  287.308
 4407.00    0.98189   0.97924  275.017
 4408.00    0.98501   0.98673  266.132
 4409.00    0.99701   0.99572  263.857
 4410.00    0.99283   1.00429   -1.000
 4411.00    0.99900   1.00926   -1.000
 4412.00    1.01997   1.00773   -1.000
 4413.00    1.01389   0.99892   -1.000
 4414.00    0.97771   0.98609  283.629
 4415.00    0.95625   0.97531   -1.000
 4416.00    0.97439   0.97217  264.964
 4417.00    0.97549   0.97850  267.414
 4418.00    0.97402   0.99144   -1.000
 4419.00    0.99357   1.00535   -1.000
 4420.00    1.01165   1.01489  277.217
 4421.00    1.00023   1.01871   -1.000
 4422.00    0.98561   1.01857   -1.000
 4423.00    0.99089   1.01719   -1.000
 4424.00    1.00122   1.01626   -1.000
 4425.00    0.99510   1.01595   -1.000
 4426.00    0.98522   1.01614   -1.000
 4427.00    0.98942   1.01694   -1.000
 4428.00    0.99542   1.01813   -1.000
 4429.00    0.99854   1.01927   -1.000
 4430.00    0.98607   1.01945   -1.000
 4431.00    1.00058   1.01780   -1.000
 4432.00    1.01190   1.01418  299.379
 4433.00    0.99661   1.00968   -1.000
 4434.00    0.97731   1.00693   -1.000
 4435.00    0.97811   1.00896   -1.000
 4436.00    0.98134   1.01640   -1.000
 4437.00    1.01014   1.02658   -1.000
 4438.00    1.02634   1.03431  280.865
 4439.00    1.02494   1.03522   -1.000
 4440.00    1.01020   1.02830   -1.000
 4441.00    1.01508   1.01705  279.460
 4442.00    0.98308   1.00763   -1.000
 4443.00    0.96083   1.00515   -1.000
 4444.00    0.98402   1.01121   -1.000
 4445.00    1.00391   1.02246   -1.000
 4446.00    1.01830   1.03375   -1.000
 4447.00    1.03025   1.04118   -1.000
 4448.00    1.02320   1.04383   -1.000
 4449.00    1.02007   1.04302   -1.000
 4450.00    1.02543   1.04031   -1.000
 4451.00    1.02330   1.03621   -1.000
 4452.00    1.01160   1.03009   -1.000
 4453.00    1.01818   1.02185  293.193
 4454.00    1.01027   1.01342  288.408
 4455.00    0.97488   1.00745   -1.000
 4456.00    0.98862   1.00595   -1.000
 4457.00    0.99931   1.00832  293.883
 4458.00    1.01361   1.01264  295.752
 4459.00    1.01583   1.01680  288.836
 4460.00    1.00674   1.01979   -1.000
 4461.00    1.00443   1.02189   -1.000
 4462.00    0.99983   1.02364   -1.000
 4463.00    1.00731   1.02531   -1.000
 4464.00    1.01812   1.02608  275.752
 4465.00    1.01570   1.02475   -1.000
 4466.00    1.00994   1.02071   -1.000
 4467.00    1.00932   1.01494  277.102
 4468.00    0.99289   1.01015   -1.000
 4469.00    0.99639   1.00943   -1.000
 4470.00    1.00771   1.01430  252.368
 4471.00    1.02237   1.02419  250.767
 4472.00    1.03165   1.03678  251.142
 4473.00    1.04142   1.04910  248.821
 4474.00    1.03823   1.05875   -1.000
 4475.00    1.04237   1.06428   -1.000
 4476.00    1.04621   1.06490   -1.000
 4477.00    1.03894   1.05995   -1.000
 4478.00    1.03474   1.04933   -1.000
 4479.00    1.04873   1.03510   -1.000
 4480.00    1.03311   1.02188  262.172
 4481.00    1.01127   1.01566  252.785
 4482.00    1.00565   1.01967   -1.000
 4483.00    1.00951   1.03219   -1.000
 4484.00    1.03449   1.04755   -1.000
 4485.00    1.04027   1.05909   -1.000
 4486.00    1.03955   1.06285   -1.000
 4487.00    1.03554   1.05917   -1.000
 4488.00    1.02614   1.05183   -1.000
 4489.00    1.02663   1.04556   -1.000
 4490.00    1.02860   1.04350   -1.000
 4491.00    1.02968   1.04540   -1.000
 4492.00    1.03013   1.04925   -1.000
 4493.00    1.02771   1.05256   -1.000
 4494.00    1.01537   1.05462   -1.000
 4495.00    1.01644   1.05630   -1.000
 4496.00    1.02725   1.05805   -1.000
 4497.00    1.02997   1.05961   -1.000
 4498.00    1.03172   1.05987   -1.000
 4499.00    1.02564   1.05873   -1.000
 4500.00    1.01506   1.05763   -1.000
 4501.00    1.02048   1.05928   -1.000
 4502.00    1.04565   1.06500   -1.000
 4503.00    1.05323   1.07348   -1.000
 4504.00    1.04692   1.08155   -1.000
 4505.00    1.05371   1.08604   -1.000
 4506.00    1.06511   1.08637   -1.000
 4507.00    1.05570   1.08398   -1.000
 4508.00    1.04340   1.08178   -1.000
 4509.00    1.04385   1.08111   -1.000
 4510.00    1.05657   1.08132   -1.000
 4511.00    1.05786   1.08061   -1.000
 4512.00    1.04246   1.07750   -1.000
 4513.00    1.04394   1.07224   -1.000
 4514.00    1.04225   1.06618   -1.000
 4515.00    1.03793   1.06113   -1.000
 4516.00    1.04568   1.05795   -1.000
 4517.00    1.04217   1.05604   -1.000
 4518.00    1.02900   1.05467   -1.000
 4519.00    1.03253   1.05315   -1.000
 4520.00    1.04900   1.05110  261.153
 4521.00    1.04937   1.04866  263.480
 4522.00    1.02462   1.04580   -1.000
 4523.00    1.01475   1.04260   -1.000
 4524.00    1.02873   1.03888   -1.000
 4525.00    1.02236   1.03397   -1.000
 4526.00    1.02714   1.02776  283.736
 4527.00    1.03399   1.02087   -1.000
 4528.00    1.00739   1.01497  273.950
 4529.00    0.99949   1.01159   -1.000
 4530.00    1.00292   1.01041  282.501
 4531.00    1.00330   1.00983  290.376
 4532.00    1.00849   1.00827  283.949
 4533.00    1.00627   1.00684  266.979
 4534.00    0.99535   1.00839   -1.000
 4535.00    0.99730   1.01564   -1.000
 4536.00    1.01988   1.02808  250.751
 4537.00    1.03061   1.04209   -1.000
 4538.00    1.03161   1.05321   -1.000
 4539.00    1.04678   1.05849   -1.000
 4540.00    0.92290   1.05872   -1.000
 4541.00    0.16998   1.05632   -1.000
 4542.00   -0.02062   1.05388    0.000
 4543.00    0.13969   1.05217   -1.000
 4544.00    0.76233   1.05048   -1.000
 4545.00    0.34698   1.04763   -1.000
 4546.00    0.79801   1.04261   -1.000
 4547.00    1.07269   1.03533   -1.000
 4548.00    1.01104   1.02732   -1.000
 4549.00    1.00137   1.02113   -1.000
 4550.00    0.99699   1.01899   -1.000
 4551.00    1.00827   1.02050   -1.000
 4552.00    1.02744   1.02290  265.768
 4553.00    1.01606   1.02418  255.581
 4554.00    1.00717   1.02473   -1.000
 4555.00    1.00970   1.02684   -1.000
 4556.00    1.02713   1.03282  244.390
 4557.00    1.04792   1.04240  244.184
 4558.00    1.05454   1.05334  245.159
 4559.00    1.05585   1.06301  251.261
 4560.00    1.04930   1.06898   -1.000
 4561.00    1.04342   1.07002   -1.000
 4562.00    1.04020   1.06647   -1.000
 4563.00    1.03220   1.06060   -1.000
 4564.00    1.02363   1.05603   -1.000
 4565.00    1.02215   1.05517   -1.000
 4566.00    1.03477   1.05830   -1.000
 4567.00    1.05360   1.06313  252.392
 4568.00    1.06076   1.06619  257.661
 4569.00    1.05536   1.06549   -1.000
 4570.00    1.04388   1.06138   -1.000
 4571.00    1.02818   1.05651   -1.000
 4572.00    1.02236   1.05414   -1.000
 4573.00    1.03276   1.05581   -1.000
 4574.00    1.05168   1.05995  247.938
 4575.00    1.06301   1.06407  252.874
 4576.00    1.05059   1.06583   -1.000
 4577.00    1.04204   1.06396   -1.000
 4578.00    1.04750   1.05846   -1.000
 4579.00    1.04750   1.05001  259.352
 4580.00    1.04053   1.04010  257.991
 4581.00    1.04135   1.03076  259.045
 4582.00    1.03591   1.02392  259.807
 4583.00    1.02490   1.02120  255.368
 4584.00    1.03336   1.02323  248.719
 4585.00    1.03612   1.02877  244.359
 4586.00    1.02757   1.03597  244.925
 4587.00    1.04330   1.04250  248.895
 4588.00    1.03952   1.04699  253.551
 4589.00    1.03963   1.04907  257.238
 4590.00    1.04393   1.04926  256.830
 4591.00    1.03420   1.04875   -1.000
 4592.00    1.02931   1.04873   -1.000
 4593.00    1.03148   1.05019   -1.000
 4594.00    1.04590   1.05322  251.685
 4595.00    1.04834   1.05711  251.623
 4596.00    1.04900   1.06092   -1.000
 4597.00    1.05778   1.06359  255.993
 4598.00    1.05193   1.06447   -1.000
 4599.00    1.05529   1.06358  253.073
 4600.00    1.03415   1.06158   -1.000
 4601.00    1.04260   1.05937   -1.000
 4602.00    1.03898   1.05810   -1.000
 4603.00    1.03952   1.05823   -1.000
 4604.00    1.04663   1.05986   -1.000
 4605.00    1.05030   1.06297   -1.000
 4606.00    1.05584   1.06725   -1.000
 4607.00    1.06246   1.07209  236.938
 4608.00    1.06584   1.07654   -1.000
 4609.00    1.06532   1.07961   -1.000
 4610.00    1.07014   1.08054  243.603
 4611.00    1.06023   1.07961   -1.000
 4612.00    1.05429   1.07763   -1.000
 4613.00    1.06555   1.07527  239.696
 4614.00    1.06720   1.07288  241.469
 4615.00    1.06358   1.06992  242.871
 4616.00    1.06257   1.06640  242.121
 4617.00    1.05538   1.06278  239.390
 4618.00    1.04933   1.06030   -1.000
 4619.00    1.05296   1.06039  236.496
 4620.00    1.06441   1.06350  237.094
 4621.00    1.07370   1.06900  237.899
 4622.00    1.05602   1.07503   -1.000
 4623.00    1.05367   1.07956   -1.000
 4624.00    1.06956   1.08159   -1.000
 4625.00    1.06810   1.08090   -1.000
 4626.00    1.06360   1.07808   -1.000
 4627.00    1.05904   1.07433   -1.000
 4628.00    1.05575   1.07084   -1.000
 4629.00    1.04574   1.06893   -1.000
 4630.00    1.05391   1.06906   -1.000
 4631.00    1.06116   1.07037  245.498
 4632.00    1.05535   1.07122   -1.000
 4633.00    1.06187   1.07051  247.976
 4634.00    1.05836   1.06874   -1.000
 4635.00    1.05574   1.06725   -1.000
 4636.00    1.06137   1.06692  250.210
 4637.00    1.05753   1.06822   -1.000
 4638.00    1.05556   1.07101   -1.000
 4639.00    1.06365   1.07487   -1.000
 4640.00    1.07108   1.07923  239.481
 4641.00    1.07566   1.08306  244.624
 4642.00    1.06603   1.08497   -1.000
 4643.00    1.05751   1.08365   -1.000
 4644.00    1.06484   1.07899   -1.000
 4645.00    1.06078   1.07210   -1.000
 4646.00    1.04362   1.06506   -1.000
 4647.00    1.04341   1.06054   -1.000
 4648.00    1.04439   1.06013   -1.000
 4649.00    1.05766   1.06344  243.623
 4650.00    1.06779   1.06861  247.314
 4651.00    1.06581   1.07302  252.571
 4652.00    1.06585   1.07497  254.178
 4653.00    1.05748   1.07415   -1.000
 4654.00    1.04910   1.07177   -1.000
 4655.00    1.04540   1.07014   -1.000
 4656.00    1.04356   1.07143   -1.000
 4657.00    1.05577   1.07654   -1.000
 4658.00    1.06443   1.08436   -1.000
 4659.00    1.08595   1.09190  239.348
 4660.00    1.08377   1.09614   -1.000
 4661.00    1.07747   1.09576   -1.000
 4662.00    1.06627   1.09096   -1.000
 4663.00    1.07824   1.08293  260.934
 4664.00    1.06089   1.07293   -1.000
 4665.00    1.05188   1.06189  267.007
 4666.00    1.05130   1.05118  257.678
 4667.00    1.03929   1.04330  247.653
 4668.00    1.03564   1.04044  242.374
 4669.00    1.03379   1.04325  241.564
 4670.00    1.05358   1.05071  241.718
 4671.00    1.06973   1.06033  240.739
 4672.00    1.07142   1.06952  237.337
 4673.00    1.07406   1.07683  234.878
 4674.00    1.07037   1.08160  237.237
 4675.00    1.07787   1.08383  242.494
 4676.00    1.08419   1.08308  247.079
 4677.00    1.07222   1.07940  250.718
 4678.00    1.05927   1.07370   -1.000
 4679.00    1.05628   1.06764   -1.000
 4680.00    1.06248   1.06302  241.811
 4681.00    1.05680   1.06069  239.770
 4682.00    1.05430   1.06062  240.601
 4683.00    1.05925   1.06209  240.970
 4684.00    1.06276   1.06408  242.079
 4685.00    1.06764   1.06599  242.023
 4686.00    1.08005   1.06766  242.481
 4687.00    1.07889   1.06913  244.009
 4688.00    1.07405   1.07040  243.586
 4689.00    1.06797   1.07149  240.338
 4690.00    1.05935   1.07231   -1.000
 4691.00    1.06520   1.07305  231.474
 4692.00    1.06512   1.07409  229.669
 4693.00    1.06384   1.07537  232.385
 4694.00    1.07848   1.07635  239.472
 4695.00    1.08168   1.07634  245.599
 4696.00    1.07265   1.07462  246.986
 4697.00    1.07491   1.07076  245.758
 4698.00    1.07682   1.06532  248.445
 4699.00    1.07008   1.05905  252.178
 4700.00    1.06941   1.05268   -1.000
 4701.00    1.07164   1.04711   -1.000
 4702.00    1.05960   1.04325   -1.000
 4703.00    1.04789   1.04201  249.352
 4704.00    1.05277   1.04310  253.760
 4705.00    1.06942   1.04496   -1.000
 4706.00    1.06570   1.04604   -1.000
 4707.00    1.05375   1.04603  244.307
 4708.00    1.04914   1.04613  238.782
 4709.00    1.05575   1.04780  237.849
 4710.00    1.06748   1.05114   -1.000
 4711.00    1.07262   1.05524   -1.000
 4712.00    1.07119   1.05872  242.857
 4713.00    1.07334   1.06087  237.846
 4714.00    1.06831   1.06253  234.125
 4715.00    1.05909   1.06492  232.991
 4716.00    1.06498   1.06872  232.195
 4717.00    1.07524   1.07329  232.155
 4718.00    1.07716   1.07755  234.185
 4719.00    1.07598   1.08068  234.994
 4720.00    1.07443   1.08248  233.144
 4721.00    1.07352   1.08351  231.356
 4722.00    1.07992   1.08417  233.288
 4723.00    1.07691   1.08446  240.108
 4724.00    1.07026   1.08371   -1.000
 4725.00    1.06715   1.08102   -1.000
 4726.00    1.06371   1.07585   -1.000
 4727.00    1.05885   1.06876  247.815
 4728.00    1.05811   1.06138  245.599
 4729.00    1.05785   1.05551  242.818
 4730.00    1.06644   1.05225   -1.000
 4731.00    1.06224   1.05192  239.625
 4732.00    1.06018   1.05398  239.394
 4733.00    1.06987   1.05693  241.519
 4734.00    1.07760   1.05932   -1.000
 4735.00    1.07680   1.06051   -1.000
 4736.00    1.06207   1.06081  238.991
 4737.00    1.06008   1.06115  240.133
 4738.00    1.06767   1.06238  239.744
 4739.00    1.07613   1.06457  237.513
 4740.00    1.07860   1.06725  235.774
 4741.00    1.07405   1.07004  236.319
 4742.00    1.07226   1.07273  235.930
 4743.00    1.07273   1.07527  233.888
 4744.00    1.07778   1.07776  232.038
 4745.00    1.07712   1.08023  231.885
 4746.00    1.08117   1.08276  232.217
 4747.00    1.07835   1.08563  232.813
 4748.00    1.07387   1.08849   -1.000
 4749.00    1.08919   1.09084  237.377
 4750.00    1.08784   1.09220  239.228
 4751.00    1.07917   1.09180   -1.000
 4752.00    1.08474   1.08945  240.126
 4753.00    1.07945   1.08580  241.385
 4754.00    1.06568   1.08215   -1.000
 4755.00    1.06779   1.07989   -1.000
 4756.00    1.07294   1.07978  240.621
 4757.00    1.07753   1.08143  241.517
 4758.00    1.07401   1.08345  246.178
 4759.00    1.06080   1.08403   -1.000
 4760.00    1.06122   1.08157   -1.000
 4761.00    1.05913   1.07575   -1.000
 4762.00    1.05736   1.06785  252.821
 4763.00    1.05108   1.06049  250.452
 4764.00    1.04134   1.05608   -1.000
 4765.00    1.04278   1.05572   -1.000
 4766.00    1.05724   1.05926  239.088
 4767.00    1.07292   1.06543  240.154
 4768.00    1.07664   1.07255  242.294
 4769.00    1.07541   1.07896  242.892
 4770.00    1.07203   1.08346  239.105
 4771.00    1.06431   1.08619   -1.000
 4772.00    1.05898   1.08820   -1.000
 4773.00    1.07398   1.09067   -1.000
 4774.00    1.07792   1.09393   -1.000
 4775.00    1.08447   1.09702   -1.000
 4776.00    1.08793   1.09879  239.726
 4777.00    1.08187   1.09842   -1.000
 4778.00    1.06922   1.09619   -1.000
 4779.00    1.06366   1.09333   -1.000
 4780.00    1.06331   1.09096   -1.000
 4781.00    1.06724   1.08926   -1.000
 4782.00    1.06665   1.08764   -1.000
 4783.00    1.06260   1.08563   -1.000
 4784.00    1.07242   1.08310  248.906
 4785.00    1.07131   1.08041  248.270
 4786.00    1.06753   1.07834  246.906
 4787.00    1.06853   1.07772  245.026
 4788.00    1.06208   1.07888   -1.000
 4789.00    1.05851   1.08170   -1.000
 4790.00    1.06170   1.08599   -1.000
 4791.00    1.06541   1.09149   -1.000
 4792.00    1.06302   1.09777   -1.000
 4793.00    1.07316   1.10405   -1.000
 4794.00    1.08370   1.10923   -1.000
 4795.00    1.08002   1.11205   -1.000
 4796.00    1.07929   1.11178   -1.000
 4797.00    1.07936   1.10901   -1.000
 4798.00    1.07775   1.10523   -1.000
 4799.00    1.07618   1.10230   -1.000
 4800.00    1.07483   1.10126   -1.000
 4801.00    1.07678   1.10160   -1.000
 4802.00    1.08172   1.10189   -1.000
 4803.00    1.07941   1.10098   -1.000
 4804.00    1.06571   1.09877   -1.000
 4805.00    1.06386   1.09634   -1.000
 4806.00    1.07353   1.09497   -1.000
 4807.00    1.07890   1.09500   -1.000
 4808.00    1.08349   1.09604   -1.000
 4809.00    1.08335   1.09741   -1.000
 4810.00    1.07831   1.09847   -1.000
 4811.00    1.08378   1.09930   -1.000
 4812.00    1.08873   1.10063   -1.000
 4813.00    1.08484   1.10299   -1.000
 4814.00    1.07806   1.10628   -1.000
 4815.00    1.07363   1.10998   -1.000
 4816.00    1.08261   1.11326   -1.000
 4817.00    1.09147   1.11541   -1.000
 4818.00    1.09976   1.11607   -1.000
 4819.00    1.09306   1.11493   -1.000
 4820.00    1.08518   1.11144   -1.000
 4821.00    1.08014   1.10526   -1.000
 4822.00    1.07276   1.09711   -1.000
 4823.00    1.06246   1.08896   -1.000
 4824.00    1.06779   1.08357   -1.000
 4825.00    1.06944   1.08239   -1.000
 4826.00    1.07852   1.08444  238.849
 4827.00    1.08531   1.08753  239.527
 4828.00    1.08158   1.08950  241.206
 4829.00    1.07563   1.08950   -1.000
 4830.00    1.07449   1.08769   -1.000
 4831.00    1.08206   1.08485  233.932
 4832.00    1.08056   1.08223  233.594
 4833.00    1.07465   1.08058  234.284
 4834.00    1.06787   1.07986   -1.000
 4835.00    1.07473   1.07960  239.851
 4836.00    1.07060   1.07899  242.710
 4837.00    1.06452   1.07725   -1.000
 4838.00    1.05884   1.07406   -1.000
 4839.00    1.05684   1.06978   -1.000
 4840.00    1.06274   1.06528  238.176
 4841.00    1.06496   1.06155  235.274
 4842.00    1.06479   1.05898  232.422
 4843.00    1.06066   1.05729  233.441
 4844.00    1.05567   1.05589  237.963
 4845.00    1.06016   1.05399  240.167
 4846.00    1.05664   1.05045  238.783
 4847.00    1.04331   1.04481  236.332
 4848.00    1.03835   1.03804  236.576
 4849.00    1.03783   1.03118  238.238
 4850.00    1.03332   1.02417  242.141
 4851.00    1.02610   1.01559  249.460
 4852.00    1.02081   1.00344   -1.000
 4853.00    1.01477   0.98614   -1.000
 4854.00    1.00024   0.96352   -1.000
 4855.00    0.98486   0.93672   -1.000
 4856.00    0.97082   0.90631   -1.000
 4857.00    0.94806   0.87152   -1.000
 4858.00    0.91256   0.83112   -1.000
 4859.00    0.84995   0.78687   -1.000
 4860.00    0.76606   0.74613   -1.000
 4861.00    0.70951   0.71947   -1.000
 4862.00    0.73209   0.71559   -1.000
 4863.00    0.81165   0.73540   -1.000
 4864.00    0.88381   0.77272   -1.000
 4865.00    0.93363   0.81799   -1.000
 4866.00    0.96097   0.86218   -1.000
 4867.00    0.98274   0.89927   -1.000
 4868.00    0.99640   0.92663   -1.000
 4869.00    1.00979   0.94449   -1.000
 4870.00    1.01250   0.95500   -1.000
 4871.00    0.99387   0.96182   -1.000
 4872.00    0.99902   0.96908   -1.000
 4873.00    1.01383   0.97880   -1.000
 4874.00    1.02171   0.99049   -1.000
 4875.00    1.02473   1.00242   -1.000
 4876.00    1.02616   1.01339  237.849
 4877.00    1.02589   1.02358  240.809
 4878.00    1.03304   1.03339  243.884
 4879.00    1.03830   1.04246  244.380
 4880.00    1.04103   1.04966  244.310
 4881.00    1.04452   1.05379  246.647
 4882.00    1.04680   1.05481  249.584
 4883.00    1.05184   1.05368  249.805
 4884.00    1.05591   1.05174  248.777
 4885.00    1.05275   1.04988  250.023
 4886.00    1.05474   1.04820  254.575
 4887.00    1.06288   1.04639   -1.000
 4888.00    1.05118   1.04402  252.053
 4889.00    1.04320   1.04136  241.039
 4890.00    1.04043   1.04037  231.388
 4891.00    1.03025   1.04371   -1.000
 4892.00    1.03617   1.05310   -1.000
 4893.00    1.06055   1.06771  222.326
 4894.00    1.08511   1.08384  224.549
 4895.00    1.09038   1.09776  229.737
 4896.00    1.08238   1.10708   -1.000
 4897.00    1.07919   1.11104   -1.000
 4898.00    1.08094   1.11038   -1.000
 4899.00    1.08072   1.10709   -1.000
 4900.00    1.08155   1.10313   -1.000
 4901.00    1.08024   1.09992   -1.000
 4902.00    1.07526   1.09799   -1.000
 4903.00    1.07529   1.09768   -1.000
 4904.00    1.07751   1.09941   -1.000
 4905.00    1.08110   1.10245   -1.000
 4906.00    1.08186   1.10461   -1.000
 4907.00    1.07800   1.10389   -1.000
 4908.00    1.07409   1.09941   -1.000
 4909.00    1.06988   1.09228   -1.000
 4910.00    1.06301   1.08528   -1.000
 4911.00    1.07085   1.08162  230.915
 4912.00    1.08301   1.08269  230.166
 4913.00    1.08352   1.08733  234.124
 4914.00    1.08806   1.09263  244.385
 4915.00    1.09724   1.09486  257.287
 4916.00    1.10016   1.09072  265.764
 4917.00    1.08184   1.07919  263.727
 4918.00    1.05873   1.06233  254.452
 4919.00    1.04360   1.04448  247.435
 4920.00    1.02850   1.03046  245.294
 4921.00    1.03077   1.02332  243.932
 4922.00    1.04883   1.02341   -1.000
 4923.00    1.07092   1.02903   -1.000
 4924.00    1.06646   1.03905   -1.000
 4925.00    1.06025   1.05252  228.651
 4926.00    1.07162   1.06756  227.173
 4927.00    1.08265   1.08215  227.300
 4928.00    1.09240   1.09423  231.263
 4929.00    1.09603   1.10184  238.563
 4930.00    1.08689   1.10392   -1.000
 4931.00    1.07464   1.10055   -1.000
 4932.00    1.06944   1.09301   -1.000
 4933.00    1.06388   1.08416   -1.000
 4934.00    1.06199   1.07678   -1.000
 4935.00    1.06833   1.07211  252.706
 4936.00    1.07456   1.06920  247.545
 4937.00    1.08021   1.06706   -1.000
 4938.00    1.07105   1.06648  232.880
 4939.00    1.05780   1.06896  229.564
 4940.00    1.06508   1.07532  228.468
 4941.00    1.07445   1.08469  229.307
 4942.00    1.07354   1.09461   -1.000
 4943.00    1.08119   1.10263   -1.000
 4944.00    1.08656   1.10763   -1.000
 4945.00    1.08615   1.11007   -1.000
 4946.00    1.08743   1.11139   -1.000
 4947.00    1.08138   1.11296   -1.000
 4948.00    1.08313   1.11500   -1.000
 4949.00    1.09135   1.11686   -1.000
 4950.00    1.08985   1.11760   -1.000
 4951.00    1.09303   1.11666   -1.000
 4952.00    1.09725   1.11376   -1.000
 4953.00    1.08888   1.10850   -1.000
 4954.00    1.08372   1.10033   -1.000
 4955.00    1.07844   1.08894  249.378
 4956.00    1.05835   1.07605   -1.000
 4957.00    1.03840   1.06641   -1.000
 4958.00    1.03343   1.06424   -1.000
 4959.00    1.05439   1.07051   -1.000
 4960.00    1.08220   1.08197  235.428
 4961.00    1.08709   1.09380  239.209
 4962.00    1.08674   1.10216   -1.000
 4963.00    1.08841   1.10535   -1.000
 4964.00    1.08220   1.10380   -1.000
 4965.00    1.08152   1.09948   -1.000
 4966.00    1.07877   1.09476   -1.000
 4967.00    1.07023   1.09118   -1.000
 4968.00    1.07477   1.08948   -1.000
 4969.00    1.08213   1.08997  233.631
 4970.00    1.08812   1.09258  231.995
 4971.00    1.09015   1.09676  232.212
 4972.00    1.09007   1.10164  234.253
 4973.00    1.09018   1.10629   -1.000
 4974.00    1.09053   1.10950   -1.000
 4975.00    1.09227   1.11050   -1.000
 4976.00    1.08575   1.10899   -1.000
 4977.00    1.09055   1.10491   -1.000
 4978.00    1.09012   1.09822  261.295
 4979.00    1.07084   1.08897   -1.000
 4980.00    1.06540   1.07723  263.536
 4981.00    1.05752   1.06392  257.358
 4982.00    1.04308   1.05151  249.634
 4983.00    1.04283   1.04337  242.474
 4984.00    1.05474   1.04210   -1.000
 4985.00    1.06590   1.04781   -1.000
 4986.00    1.07166   1.05801   -1.000
 4987.00    1.06852   1.06902  245.680
 4988.00    1.06878   1.07727  244.686
 4989.00    1.07472   1.08113  242.984
 4990.00    1.07452   1.08130  242.398
 4991.00    1.06984   1.08005  241.775
 4992.00    1.07909   1.07942  240.523
 4993.00    1.08619   1.08047  240.549
 4994.00    1.07452   1.08290  242.872
 4995.00    1.07048   1.08545   -1.000
 4996.00    1.07715   1.08655  251.096
 4997.00    1.07589   1.08499  252.837
 4998.00    1.07129   1.08024  251.759
 4999.00    1.07148   1.07310  249.660
 5000.00    1.06396   1.06541  250.445
 5001.00    1.06140   1.05909  255.441
 5002.00    1.06367   1.05492  259.664
 5003.00    1.05919   1.05209  257.323
 5004.00    1.05530   1.04937  250.138
 5005.00    1.04925   1.04668  244.808
 5006.00    1.04719   1.04563  244.995
 5007.00    1.05578   1.04753  250.251
 5008.00    1.07207   1.05176   -1.000
 5009.00    1.07887   1.05589   -1.000
 5010.00    1.08002   1.05686   -1.000
 5011.00    1.06453   1.05322   -1.000
 5012.00    1.04451   1.04574  259.922
 5013.00    1.04348   1.03733  256.547
 5014.00    1.04334   1.03052   -1.000
 5015.00    1.04073   1.02622   -1.000
 5016.00    1.04934   1.02376   -1.000
 5017.00    1.05572   1.02245   -1.000
 5018.00    1.04948   1.02306   -1.000
 5019.00    1.05440   1.02668   -1.000
 5020.00    1.06576   1.03296   -1.000
 5021.00    1.07006   1.04069   -1.000
 5022.00    1.07190   1.04857   -1.000
 5023.00    1.08263   1.05593   -1.000
 5024.00    1.08278   1.06232   -1.000
 5025.00    1.07206   1.06689  244.794
 5026.00    1.06658   1.06946  240.678
 5027.00    1.06921   1.07100  237.023
 5028.00    1.07452   1.07245  233.705
 5029.00    1.08013   1.07443  232.526
 5030.00    1.08132   1.07738  236.375
 5031.00    1.08445   1.08099  245.000
 5032.00    1.08771   1.08406  252.039
 5033.00    1.08010   1.08495  254.510
 5034.00    1.07117   1.08235  256.453
 5035.00    1.06521   1.07653  263.026
 5036.00    1.06368   1.06833  273.725
 5037.00    1.06593   1.05883  279.471
 5038.00    1.06361   1.04839   -1.000
 5039.00    1.05087   1.03781   -1.000
 5040.00    1.05857   1.02993   -1.000
 5041.00    0.89892   1.02832   -1.000
 5042.00    0.36777   1.03491   -1.000
 5043.00   -0.00787   1.04855    0.000
 5044.00    0.07256   1.06505   -1.000
 5045.00    0.48404   1.07962   -1.000
 5046.00    0.95700   1.08839   -1.000
 5047.00    1.09442   1.08985  248.395
 5048.00    1.08373   1.08496  248.021
 5049.00    1.08015   1.07696  242.005
 5050.00    1.07135   1.06920  236.735
 5051.00    1.07186   1.06461  233.492
 5052.00    1.07658   1.06524  232.049
 5053.00    1.08499   1.07091   -1.000
 5054.00    1.09434   1.07891   -1.000
 5055.00    1.09512   1.08712  232.538
 5056.00    1.10073   1.09454  231.671
 5057.00    1.10296   1.10077  230.932
 5058.00    1.10182   1.10566  232.614
 5059.00    1.10146   1.10916  237.661
 5060.00    1.09458   1.11083   -1.000
 5061.00    1.09670   1.11009   -1.000
 5062.00    1.09843   1.10628  250.970
 5063.00    1.08764   1.09947  247.412
 5064.00    1.08204   1.09136  245.172
 5065.00    1.07758   1.08389  244.250
 5066.00    1.07636   1.07863  242.844
 5067.00    1.08444   1.07576  243.073
 5068.00    1.08664   1.07466   -1.000
 5069.00    1.08265   1.07446  244.443
 5070.00    1.08598   1.07432   -1.000
 5071.00    1.09120   1.07363   -1.000
 5072.00    1.09110   1.07269   -1.000
 5073.00    1.09027   1.07231   -1.000
 5074.00    1.08529   1.07263   -1.000
 5075.00    1.08218   1.07291  257.749
 5076.00    1.08458   1.07183   -1.000
 5077.00    1.08128   1.06830   -1.000
 5078.00    1.06998   1.06221  257.780
 5079.00    1.05873   1.05534  253.354
 5080.00    1.05986   1.05042  249.247
 5081.00    1.06749   1.04906   -1.000
 5082.00    1.06857   1.05157   -1.000
 5083.00    1.07229   1.05710   -1.000
 5084.00    1.07703   1.06452   -1.000
 5085.00    1.07723   1.07245  238.615
 5086.00    1.08541   1.07975  237.096
 5087.00    1.09341   1.08603  235.838
 5088.00    1.10776   1.09135   -1.000
 5089.00    1.14533   1.09584   -1.000
 5090.00    1.13649   1.09947   -1.000
 5091.00    1.10802   1.10227  235.231
 5092.00    1.10675   1.10407  240.309
 5093.00    1.10852   1.10409  245.853
 5094.00    1.12485   1.10124   -1.000
 5095.00    1.12281   1.09494   -1.000
 5096.00    1.10054   1.08595   -1.000
 5097.00    1.08903   1.07633   -1.000
 5098.00    1.08401   1.06882   -1.000
 5099.00    1.08181   1.06542   -1.000
 5100.00    1.09091   1.06674   -1.000
 5101.00    1.10292   1.07154   -1.000
 5102.00    1.09752   1.07714   -1.000
 5103.00    1.09283   1.08114   -1.000
 5104.00    1.09954   1.08204   -1.000
 5105.00    1.09565   1.07975   -1.000
 5106.00    1.07842   1.07533  249.731
 5107.00    1.07107   1.07070  246.934
 5108.00    1.07336   1.06767  243.630
 5109.00    1.07529   1.06741  240.662
 5110.00    1.07608   1.07026  238.149
 5111.00    1.08351   1.07578  236.500
 5112.00    1.09090   1.08264  234.561
 5113.00    1.09546   1.08966  232.340
 5114.00    1.10315   1.09590  231.867
 5115.00    1.10483   1.10103  233.916
 5116.00    1.10071   1.10481  237.295
 5117.00    1.09937   1.10692  241.074
 5118.00    1.10188   1.10696  246.308
 5119.00    1.11095   1.10445  253.328
 5120.00    1.11404   1.09940   -1.000
 5121.00    1.10323   1.09229   -1.000
 5122.00    1.09245   1.08405  255.289
 5123.00    1.08213   1.07573  253.908
 5124.00    1.07693   1.06868  253.444
 5125.00    1.07886   1.06354   -1.000
 5126.00    1.08459   1.06041   -1.000
 5127.00    1.08207   1.05886   -1.000
 5128.00    1.07497   1.05875   -1.000
 5129.00    1.08847   1.06005   -1.000
 5130.00    1.09960   1.06267   -1.000
 5131.00    1.09391   1.06619   -1.000
 5132.00    1.09150   1.06999   -1.000
 5133.00    1.08844   1.07350   -1.000
 5134.00    1.09251   1.07604   -1.000
 5135.00    1.09812   1.07688   -1.000
 5136.00    1.09142   1.07539   -1.000
 5137.00    1.08422   1.07185   -1.000
 5138.00    1.07299   1.06717  255.326
 5139.00    1.06661   1.06282  256.285
 5140.00    1.07627   1.05977   -1.000
 5141.00    1.08337   1.05825   -1.000
 5142.00    1.06931   1.05807   -1.000
 5143.00    1.07234   1.05892   -1.000
 5144.00    1.08870   1.06021   -1.000
 5145.00    1.09299   1.06123   -1.000
 5146.00    1.09511   1.06157   -1.000
 5147.00    1.10006   1.06159   -1.000
 5148.00    1.09825   1.06164   -1.000
 5149.00    1.09275   1.06126   -1.000
 5150.00    1.08380   1.06006   -1.000
 5151.00    1.07452   1.05826   -1.000
 5152.00    1.07508   1.05663   -1.000
 5153.00    1.08292   1.05660   -1.000
 5154.00    1.08923   1.05953   -1.000
 5155.00    1.09934   1.06588   -1.000
 5156.00    1.11022   1.07439   -1.000
 5157.00    1.11569   1.08320   -1.000
 5158.00    1.11939   1.09027   -1.000
 5159.00    1.11960   1.09423   -1.000
 5160.00    1.10769   1.09431   -1.000
 5161.00    1.09481   1.09021  262.976
 5162.00    1.08941   1.08146  288.394
 5163.00    1.08044   1.06724   -1.000
 5164.00    1.07886   1.04654   -1.000
 5165.00    1.06674   1.01998   -1.000
 5166.00    1.02520   0.99174   -1.000
 5167.00    0.99638   0.96725   -1.000
 5168.00    0.99698   0.95170   -1.000
 5169.00    1.01138   0.94525   -1.000
 5170.00    1.02375   0.94442   -1.000
 5171.00    1.02333   0.94728   -1.000
 5172.00    1.01852   0.95424   -1.000
 5173.00    1.02934   0.96860   -1.000
 5174.00    1.06078   0.99067   -1.000
 5175.00    1.08974   1.01641   -1.000
 5176.00    1.10288   1.04082   -1.000
 5177.00    1.11134   1.05870   -1.000
 5178.00    1.12060   1.06682   -1.000
 5179.00    1.10947   1.06373   -1.000
 5180.00    1.10293   1.04968   -1.000
 5181.00    1.08773   1.02759   -1.000
 5182.00    1.05381   1.00295   -1.000
 5183.00    1.03192   0.98417   -1.000
 5184.00    1.03088   0.97775   -1.000
 5185.00    1.05753   0.98479   -1.000
 5186.00    1.08191   1.00107   -1.000
 5187.00    1.09138   1.01925   -1.000
 5188.00    1.08721   1.03449   -1.000
 5189.00    1.08323   1.04427   -1.000
 5190.00    1.08731   1.04815   -1.000
 5191.00    1.07832   1.04762   -1.000
 5192.00    1.06545   1.04560   -1.000
 5193.00    1.05813   1.04416   -1.000
 5194.00    1.06109   1.04444   -1.000
 5195.00    1.07837   1.04643   -1.000
 5196.00    1.07737   1.05018   -1.000
 5197.00    1.07616   1.05588   -1.000
 5198.00    1.08813   1.06295   -1.000
 5199.00    1.09600   1.06977   -1.000
 5200.00    1.10060   1.07425   -1.000
 5201.00    1.09843   1.07442   -1.000
 5202.00    1.09517   1.06941   -1.000
 5203.00    1.08325   1.05981   -1.000
 5204.00    1.06431   1.04789   -1.000
 5205.00    1.06089   1.03642   -1.000
 5206.00    1.06173   1.02796   -1.000
 5207.00    1.05149   1.02396   -1.000
 5208.00    1.04992   1.02501   -1.000
 5209.00    1.06469   1.03125   -1.000
 5210.00    1.08515   1.04178   -1.000
 5211.00    1.10376   1.05471   -1.000
 5212.00    1.10785   1.06690   -1.000
 5213.00    1.10652   1.07563   -1.000
 5214.00    1.10678   1.07940   -1.000
 5215.00    1.10300   1.07934   -1.000
 5216.00    1.09627   1.07858   -1.000
 5217.00    1.09993   1.07991   -1.000
 5218.00    1.11133   1.08451   -1.000
 5219.00    1.11714   1.09101   -1.000
 5220.00    1.12224   1.09703   -1.000
 5221.00    1.12634   1.09957   -1.000
 5222.00    1.12509   1.09649   -1.000
 5223.00    1.11779   1.08692   -1.000
 5224.00    1.09722   1.07177   -1.000
 5225.00    1.07573   1.05446   -1.000
 5226.00    1.06243   1.04069   -1.000
 5227.00    1.05694   1.03468   -1.000
 5228.00    1.06776   1.03764   -1.000
 5229.00    1.09171   1.04602   -1.000
 5230.00    1.10728   1.05496   -1.000
 5231.00    1.10709   1.06062   -1.000
 5232.00    1.09168   1.06200   -1.000
 5233.00    1.07797   1.06132   -1.000
 5234.00    1.08703   1.06202   -1.000
 5235.00    1.10907   1.06648   -1.000
 5236.00    1.11647   1.07437   -1.000
 5237.00    1.12097   1.08393   -1.000
 5238.00    1.11833   1.09288   -1.000
 5239.00    1.11510   1.09991   -1.000
 5240.00    1.12006   1.10466   -1.000
 5241.00    1.12807   1.10746   -1.000
 5242.00    1.12577   1.10895   -1.000
 5243.00    1.11422   1.10948  243.223
 5244.00    1.11491   1.10849  245.495
 5245.00    1.11665   1.10519   -1.000
 5246.00    1.10856   1.09979  247.096
 5247.00    1.10177   1.09329  246.872
 5248.00    1.09939   1.08717   -1.000
 5249.00    1.10121   1.08243   -1.000
 5250.00    1.10268   1.07978   -1.000
 5251.00    1.09780   1.07930   -1.000
 5252.00    1.09751   1.08042   -1.000
 5253.00    1.10412   1.08241   -1.000
 5254.00    1.10510   1.08525   -1.000
 5255.00    1.10703   1.08950   -1.000
 5256.00    1.11309   1.09471   -1.000
 5257.00    1.12076   1.09943   -1.000
 5258.00    1.12032   1.10118   -1.000
 5259.00    1.11196   1.09779   -1.000
 5260.00    1.10438   1.08825   -1.000
 5261.00    1.09435   1.07324   -1.000
 5262.00    1.07960   1.05521   -1.000
 5263.00    1.06427   1.03723   -1.000
 5264.00    1.06008   1.02231   -1.000
 5265.00    1.06399   1.01244   -1.000
 5266.00    1.07379   1.00722   -1.000
 5267.00    1.06739   1.00463   -1.000
 5268.00    1.04959   1.00336   -1.000
 5269.00    1.03905   1.00352   -1.000
 5270.00    1.04534   1.00729   -1.000
 5271.00    1.06519   1.01510   -1.000
 5272.00    1.08675   1.02509   -1.000
 5273.00    1.08979   1.03547   -1.000
 5274.00    1.09409   1.04491   -1.000
 5275.00    1.09979   1.05415   -1.000
 5276.00    1.10744   1.06394   -1.000
 5277.00    1.11360   1.07387   -1.000
 5278.00    1.11992   1.08213   -1.000
 5279.00    1.11957   1.08627   -1.000
 5280.00    1.10071   1.08582   -1.000
 5281.00    1.09333   1.08205   -1.000
 5282.00    1.09639   1.07779   -1.000
 5283.00    1.09877   1.07622   -1.000
 5284.00    1.09927   1.07972   -1.000
 5285.00    1.10990   1.08811   -1.000
 5286.00    1.12374   1.09921   -1.000
 5287.00    1.13409   1.11005   -1.000
 5288.00    1.13428   1.11876   -1.000
 5289.00    1.12647   1.12471  224.396
 5290.00    1.12453   1.12776  227.141
 5291.00    1.12827   1.12812  232.382
 5292.00    1.13008   1.12623  240.620
 5293.00    1.12695   1.12195  248.004
 5294.00    1.12646   1.11518   -1.000
 5295.00    1.11984   1.10621   -1.000
 5296.00    1.10763   1.09614   -1.000
 5297.00    1.10576   1.08746   -1.000
 5298.00    1.10599   1.08231   -1.000
 5299.00    1.11070   1.08132   -1.000
 5300.00    1.11296   1.08407   -1.000
 5301.00    1.10702   1.08914   -1.000
 5302.00    1.11456   1.09561   -1.000
 5303.00    1.12846   1.10248   -1.000
 5304.00    1.13194   1.10834   -1.000
 5305.00    1.12803   1.11252   -1.000
 5306.00    1.12122   1.11501  221.148
 5307.00    1.11972   1.11658  220.922
 5308.00    1.12443   1.11838  221.912
 5309.00    1.12462   1.12052  222.978
 5310.00    1.12382   1.12244  224.407
 5311.00    1.12326   1.12289  226.482
 5312.00    1.13368   1.12087   -1.000
 5313.00    1.12812   1.11608   -1.000
 5314.00    1.11662   1.10916  227.937
 5315.00    1.11868   1.10175   -1.000
 5316.00    1.11112   1.09637   -1.000
 5317.00    1.11440   1.09482   -1.000
 5318.00    1.12259   1.09706   -1.000
 5319.00    1.11716   1.10079   -1.000
 5320.00    1.11373   1.10312  237.378
 5321.00    1.11003   1.10205  237.865
 5322.00    1.09996   1.09672  242.515
 5323.00    1.10042   1.08794   -1.000
 5324.00    1.10458   1.07698   -1.000
 5325.00    1.10858   1.06518   -1.000
 5326.00    1.09234   1.05344   -1.000
 5327.00    1.06603   1.04363   -1.000
 5328.00    1.06113   1.03922   -1.000
 5329.00    1.06939   1.04195   -1.000
 5330.00    1.09151   1.05132   -1.000
 5331.00    1.11308   1.06397   -1.000
 5332.00    1.11376   1.07625   -1.000
 5333.00    1.11388   1.08607   -1.000
 5334.00    1.12146   1.09231   -1.000
 5335.00    1.11935   1.09482   -1.000
 5336.00    1.11142   1.09424   -1.000
 5337.00    1.11013   1.09133   -1.000
 5338.00    1.10955   1.08696   -1.000
 5339.00    1.10472   1.08238   -1.000
 5340.00    1.10407   1.07954   -1.000
 5341.00    1.10754   1.07975   -1.000
 5342.00    1.10867   1.08299   -1.000
 5343.00    1.11444   1.08722   -1.000
 5344.00    1.11705   1.09040   -1.000
 5345.00    1.11093   1.09158   -1.000
 5346.00    1.10903   1.09099   -1.000
 5347.00    1.10910   1.08987   -1.000
 5348.00    1.10292   1.08951   -1.000
 5349.00    1.10510   1.09098   -1.000
 5350.00    1.11382   1.09461   -1.000
 5351.00    1.13149   1.09988   -1.000
 5352.00    1.12628   1.10575   -1.000
 5353.00    1.11821   1.11156  217.352
 5354.00    1.12318   1.11716  217.689
 5355.00    1.13065   1.12215  218.374
 5356.00    1.13572   1.12609  220.517
 5357.00    1.13114   1.12829  223.994
 5358.00    1.13002   1.12824  227.423
 5359.00    1.13107   1.12557  229.432
 5360.00    1.13323   1.12014   -1.000
 5361.00    1.12540   1.11253   -1.000
 5362.00    1.11597   1.10411   -1.000
 5363.00    1.11619   1.09639   -1.000
 5364.00    1.10961   1.09042   -1.000
 5365.00    1.10634   1.08625   -1.000
 5366.00    1.11046   1.08312   -1.000
 5367.00    1.11484   1.07965   -1.000
 5368.00    1.10854   1.07500   -1.000
 5369.00    1.09494   1.06934   -1.000
 5370.00    1.09051   1.06456   -1.000
 5371.00    1.08688   1.06348   -1.000
 5372.00    1.09705   1.06783   -1.000
 5373.00    1.11575   1.07731   -1.000
 5374.00    1.12527   1.08917   -1.000
 5375.00    1.13105   1.10038   -1.000
 5376.00    1.13272   1.10841   -1.000
 5377.00    1.12945   1.11222   -1.000
 5378.00    1.12691   1.11205   -1.000
 5379.00    1.12223   1.10908   -1.000
 5380.00    1.11846   1.10490   -1.000
 5381.00    1.11849   1.10100   -1.000
 5382.00    1.11552   1.09861   -1.000
 5383.00    1.11845   1.09854   -1.000
 5384.00    1.12528   1.10078   -1.000
 5385.00    1.12778   1.10441   -1.000
 5386.00    1.12446   1.10772   -1.000
 5387.00    1.12265   1.10931   -1.000
 5388.00    1.12501   1.10842   -1.000
 5389.00    1.12466   1.10515   -1.000
 5390.00    1.12936   1.10027   -1.000
 5391.00    1.12783   1.09465   -1.000
 5392.00    1.11943   1.08899   -1.000
 5393.00    1.11236   1.08372   -1.000
 5394.00    1.10908   1.07855   -1.000
 5395.00    1.11376   1.07348   -1.000
 5396.00    1.10473   1.06936   -1.000
 5397.00    1.09860   1.06738   -1.000
 5398.00    1.10314   1.06854   -1.000
 5399.00    1.11423   1.07204   -1.000
 5400.00    1.11794   1.07577   -1.000
 5401.00    1.11894   1.07747   -1.000
 5402.00    1.11780   1.07549   -1.000
 5403.00    1.10608   1.06978   -1.000
 5404.00    1.09337   1.06242   -1.000
 5405.00    1.08012   1.05621   -1.000
 5406.00    1.08316   1.05299   -1.000
 5407.00    1.09856   1.05306   -1.000
 5408.00    1.11326   1.05500   -1.000
 5409.00    1.10757   1.05794   -1.000
 5410.00    1.10500   1.06178   -1.000
 5411.00    1.10463   1.06646   -1.000
 5412.00    1.11080   1.07173   -1.000
 5413.00    1.11836   1.07696   -1.000
 5414.00    1.11716   1.08205   -1.000
 5415.00    1.11170   1.08725   -1.000
 5416.00    1.11313   1.09224   -1.000
 5417.00    1.11386   1.09653   -1.000
 5418.00    1.11916   1.09946   -1.000
 5419.00    1.12798   1.10064   -1.000
 5420.00    1.11679   1.10018   -1.000
 5421.00    1.11038   1.09825   -1.000
 5422.00    1.11235   1.09542   -1.000
 5423.00    1.10243   1.09273  226.875
 5424.00    1.10495   1.09110   -1.000
 5425.00    1.11598   1.09111   -1.000
 5426.00    1.11987   1.09165   -1.000
 5427.00    1.11604   1.09078   -1.000
 5428.00    1.10577   1.08794   -1.000
 5429.00    1.09510   1.08371   -1.000
 5430.00    1.08694   1.07972  242.615
 5431.00    1.09436   1.07687   -1.000
 5432.00    1.10115   1.07509   -1.000
 5433.00    1.09709   1.07469   -1.000
 5434.00    1.09921   1.07628   -1.000
 5435.00    1.09767   1.08068   -1.000
 5436.00    1.10624   1.08813   -1.000
 5437.00    1.12513   1.09753   -1.000
 5438.00    1.13490   1.10712   -1.000
 5439.00    1.12447   1.11496  222.484
 5440.00    1.12802   1.11990  227.865
 5441.00    1.13504   1.12118   -1.000
 5442.00    1.12252   1.11844  245.047
 5443.00    1.11446   1.11181  244.852
 5444.00    1.11051   1.10221  237.752
 5445.00    1.10378   1.09199   -1.000
 5446.00    1.09136   1.08418  227.977
 5447.00    1.09127   1.08132  227.724
 5448.00    1.10151   1.08396   -1.000
 5449.00    1.12073   1.09019   -1.000
 5450.00    1.13025   1.09709   -1.000
 5451.00    1.12900   1.10155   -1.000
 5452.00    1.12049   1.10179   -1.000
 5453.00    1.10881   1.09798   -1.000
 5454.00    1.09802   1.09231  229.512
 5455.00    1.07891   1.08799  227.479
 5456.00    1.07966   1.08772  229.626
 5457.00    1.10689   1.09151   -1.000
 5458.00    1.12186   1.09733   -1.000
 5459.00    1.12058   1.10223   -1.000
 5460.00    1.12542   1.10416   -1.000
 5461.00    1.13137   1.10282   -1.000
 5462.00    1.11959   1.09969   -1.000
 5463.00    1.11057   1.09704   -1.000
 5464.00    1.11768   1.09641   -1.000
 5465.00    1.12374   1.09807   -1.000
 5466.00    1.12724   1.10116   -1.000
 5467.00    1.12559   1.10464   -1.000
 5468.00    1.12549   1.10744   -1.000
 5469.00    1.12913   1.10873   -1.000
 5470.00    1.12725   1.10816   -1.000
 5471.00    1.12736   1.10565   -1.000
 5472.00    1.12592   1.10125   -1.000
 5473.00    1.11812   1.09518   -1.000
 5474.00    1.11010   1.08796   -1.000
 5475.00    1.11197   1.08082   -1.000
 5476.00    1.10155   1.07568   -1.000
 5477.00    1.10080   1.07399   -1.000
 5478.00    1.11019   1.07602   -1.000
 5479.00    1.12321   1.08045   -1.000
 5480.00    1.12377   1.08552   -1.000
 5481.00    1.12002   1.09044   -1.000
 5482.00    1.12147   1.09492   -1.000
 5483.00    1.12433   1.09909   -1.000
 5484.00    1.11042   1.10262  235.527
 5485.00    1.11001   1.10489  235.710
 5486.00    1.11918   1.10567   -1.000
 5487.00    1.12800   1.10535   -1.000
 5488.00    1.11664   1.10480   -1.000
 5489.00    1.11489   1.10470  231.910
 5490.00    1.12513   1.10529   -1.000
 5491.00    1.12218   1.10637   -1.000
 5492.00    1.12621   1.10746   -1.000
 5493.00    1.12634   1.10816   -1.000
 5494.00    1.12506   1.10812   -1.000
 5495.00    1.12065   1.10710   -1.000
 5496.00    1.10497   1.10531  233.056
 5497.00    1.09797   1.10322  236.677
 5498.00    1.10162   1.10120  237.504
 5499.00    1.10439   1.09920  235.760
 5500.00    1.09628   1.09685  235.073
 5501.00    1.09539   1.09431  237.874
 5502.00    1.10544   1.09200   -1.000
 5503.00    1.10567   1.08994   -1.000
 5504.00    1.11321   1.08806   -1.000
 5505.00    1.11566   1.08631   -1.000
 5506.00    1.10950   1.08507   -1.000
 5507.00    1.10583   1.08492   -1.000
 5508.00    1.10269   1.08573   -1.000
 5509.00    1.11295   1.08684   -1.000
 5510.00    1.12055   1.08740   -1.000
 5511.00    1.11706   1.08710   -1.000
 5512.00    1.11958   1.08649   -1.000
 5513.00    1.12118   1.08667   -1.000
 5514.00    1.11073   1.08862   -1.000
 5515.00    1.11085   1.09254   -1.000
 5516.00    1.12380   1.09802   -1.000
 5517.00    1.12363   1.10415   -1.000
 5518.00    1.12671   1.10988   -1.000
 5519.00    1.13351   1.11423   -1.000
 5520.00    1.12940   1.11668   -1.000
 5521.00    1.13256   1.11701   -1.000
 5522.00    1.12899   1.11519   -1.000
 5523.00    1.12118   1.11110   -1.000
 5524.00    1.12161   1.10468   -1.000
 5525.00    1.11770   1.09641   -1.000
 5526.00    1.10502   1.08769   -1.000
 5527.00    1.09755   1.08076   -1.000
 5528.00    1.09121   1.07764   -1.000
 5529.00    1.10206   1.07910   -1.000
 5530.00    1.11020   1.08385   -1.000
 5531.00    1.12074   1.08942   -1.000
 5532.00    1.12030   1.09367   -1.000
 5533.00    1.11123   1.09576   -1.000
 5534.00    1.11716   1.09642   -1.000
 5535.00    1.12216   1.09705   -1.000
 5536.00    1.12034   1.09871   -1.000
 5537.00    1.11702   1.10148   -1.000
 5538.00    1.12620   1.10488   -1.000
 5539.00    1.13743   1.10818   -1.000
 5540.00    1.14012   1.11058   -1.000
 5541.00    1.13016   1.11148   -1.000
 5542.00    1.12738   1.11098   -1.000
 5543.00    1.12297   1.10974   -1.000
 5544.00    1.11715   1.10874  226.994
 5545.00    1.12319   1.10870   -1.000
 5546.00    1.13214   1.10989   -1.000
 5547.00    1.12402   1.11216   -1.000
 5548.00    1.12405   1.11497  227.454
 5549.00    1.13656   1.11755   -1.000
 5550.00    1.13386   1.11929   -1.000
 5551.00    1.12668   1.11984  231.013
 5552.00    1.12142   1.11925  230.293
 5553.00    1.12125   1.11799  229.875
 5554.00    1.13098   1.11680   -1.000
 5555.00    1.13255   1.11619   -1.000
 5556.00    1.12623   1.11620  229.776
 5557.00    1.12678   1.11656  230.921
 5558.00    1.13047   1.11679   -1.000
 5559.00    1.13351   1.11638   -1.000
 5560.00    1.14120   1.11504   -1.000
 5561.00    1.13544   1.11279   -1.000
 5562.00    1.10979   1.11004  236.374
 5563.00    1.10933   1.10727  235.920
 5564.00    1.12031   1.10481   -1.000
 5565.00    1.11264   1.10276   -1.000
 5566.00    1.10845   1.10099  235.920
 5567.00    1.11738   1.09930   -1.000
 5568.00    1.11638   1.09755   -1.000
 5569.00    1.10944   1.09577   -1.000
 5570.00    1.11315   1.09409   -1.000
 5571.00    1.11832   1.09278   -1.000
 5572.00    1.04790   1.09224   -1.000
 5573.00    0.64061   1.09281   -1.000
 5574.00    0.15942   1.09441   -1.000
 5575.00   -0.00949   1.09673    0.000
 5576.00    0.46950   1.09955   -1.000
 5577.00    0.89180   1.10255   -1.000
 5578.00    1.04517   1.10527   -1.000
 5579.00    1.10055   1.10731  232.446
 5580.00    1.11319   1.10836  233.720
 5581.00    1.10693   1.10829  238.777
 5582.00    1.11973   1.10689   -1.000
 5583.00    1.12161   1.10375   -1.000
 5584.00    1.11045   1.09829   -1.000
 5585.00    1.09960   1.09034   -1.000
 5586.00    1.09896   1.08101   -1.000
 5587.00    1.09056   1.07235   -1.000
 5588.00    1.08598   1.06646   -1.000
 5589.00    1.08809   1.06457   -1.000
 5590.00    1.09250   1.06644   -1.000
 5591.00    1.10916   1.07066   -1.000
 5592.00    1.11166   1.07555   -1.000
 5593.00    1.10721   1.08008   -1.000
 5594.00    1.10827   1.08386   -1.000
 5595.00    1.11259   1.08668   -1.000
 5596.00    1.11638   1.08820   -1.000
 5597.00    1.11129   1.08815   -1.000
 5598.00    1.11001   1.08680   -1.000
 5599.00    1.10967   1.08460   -1.000
 5600.00    1.10324   1.08227   -1.000
 5601.00    1.10046   1.08118   -1.000
 5602.00    1.09912   1.08275   -1.000
 5603.00    1.10127   1.08770   -1.000
 5604.00    1.11289   1.09566   -1.000
 5605.00    1.11759   1.10517   -1.000
 5606.00    1.11972   1.11442  227.557
 5607.00    1.12429   1.12199  226.846
 5608.00    1.11678   1.12710  227.883
 5609.00    1.12102   1.12968  232.542
 5610.00    1.12913   1.12974  240.639
 5611.00    1.12549   1.12704  246.313
 5612.00    1.11433   1.12130  244.445
 5613.00    1.10896   1.11300  238.575
 5614.00    1.10228   1.10379  235.229
 5615.00    1.09608   1.09635  234.646
 5616.00    1.10834   1.09281   -1.000
 5617.00    1.11347   1.09354   -1.000
 5618.00    1.11781   1.09745   -1.000
 5619.00    1.13615   1.10258   -1.000
 5620.00    1.13226   1.10697   -1.000
 5621.00    1.12348   1.10932   -1.000
 5622.00    1.11697   1.10924  237.380
 5623.00    1.10658   1.10747  233.932
 5624.00    1.10637   1.10552  231.217
 5625.00    1.12081   1.10486   -1.000
 5626.00    1.12029   1.10635   -1.000
 5627.00    1.11926   1.10980  227.935
 5628.00    1.13278   1.11428   -1.000
 5629.00    1.13303   1.11854   -1.000
 5630.00    1.12867   1.12143  231.632
 5631.00    1.12501   1.12235  233.090
 5632.00    1.12577   1.12138  234.813
 5633.00    1.12166   1.11908  236.409
 5634.00    1.12651   1.11609   -1.000
 5635.00    1.13763   1.11299   -1.000
 5636.00    1.12897   1.11017   -1.000
 5637.00    1.11860   1.10782   -1.000
 5638.00    1.11773   1.10596   -1.000
 5639.00    1.12259   1.10453   -1.000
 5640.00    1.12577   1.10367   -1.000
 5641.00    1.12677   1.10355   -1.000
 5642.00    1.12732   1.10420   -1.000
 5643.00    1.12839   1.10548   -1.000
 5644.00    1.13169   1.10717   -1.000
 5645.00    1.12817   1.10894   -1.000
 5646.00    1.12740   1.11045   -1.000
 5647.00    1.12987   1.11146   -1.000
 5648.00    1.12401   1.11187   -1.000
 5649.00    1.11933   1.11182  230.425
 5650.00    1.12249   1.11144   -1.000
 5651.00    1.12277   1.11067   -1.000
 5652.00    1.11384   1.10917  239.123
 5653.00    1.12243   1.10644   -1.000
 5654.00    1.12716   1.10206   -1.000
 5655.00    1.11525   1.09598   -1.000
 5656.00    1.11004   1.08884   -1.000
 5657.00    1.10961   1.08219   -1.000
 5658.00    1.09570   1.07770   -1.000
 5659.00    1.11744   1.07620   -1.000
 5660.00    1.11318   1.07751   -1.000
 5661.00    1.11034   1.08082   -1.000
 5662.00    1.12144   1.08524   -1.000
 5663.00    1.12543   1.09003   -1.000
 5664.00    1.12181   1.09438   -1.000
 5665.00    1.13551   1.09772   -1.000
 5666.00    1.12985   1.09989   -1.000
 5667.00    1.11135   1.10119   -1.000
 5668.00    1.11721   1.10232   -1.000
 5669.00    1.11919   1.10393   -1.000
 5670.00    1.11996   1.10633   -1.000
 5671.00    1.11986   1.10931   -1.000
 5672.00    1.12987   1.11234   -1.000
 5673.00    1.12857   1.11486   -1.000
 5674.00    1.13485   1.11654   -1.000
 5675.00    1.13168   1.11735   -1.000
 5676.00    1.13662   1.11735   -1.000
 5677.00    1.13254   1.11652   -1.000
 5678.00    1.12702   1.11471   -1.000
 5679.00    1.12608   1.11172   -1.000
 5680.00    1.13330   1.10754   -1.000
 5681.00    1.12205   1.10265   -1.000
 5682.00    1.11796   1.09783   -1.000
 5683.00    1.11347   1.09403   -1.000
 5684.00    1.11044   1.09169   -1.000
 5685.00    1.11972   1.09062   -1.000
 5686.00    1.12129   1.09048   -1.000
 5687.00    1.11326   1.09111   -1.000
 5688.00    1.10652   1.09263   -1.000
 5689.00    1.10791   1.09522   -1.000
 5690.00    1.12485   1.09877   -1.000
 5691.00    1.12595   1.10287   -1.000
 5692.00    1.11593   1.10691  229.575
 5693.00    1.11813   1.11032  231.951
 5694.00    1.12163   1.11262  234.671
 5695.00    1.13007   1.11362   -1.000
 5696.00    1.12613   1.11323   -1.000
 5697.00    1.11870   1.11151  240.279
 5698.00    1.11673   1.10873  238.307
 5699.00    1.11647   1.10537   -1.000
 5700.00    1.11743   1.10209   -1.000
 5701.00    1.10935   1.09944   -1.000
 5702.00    1.12269   1.09760   -1.000
 5703.00    1.11438   1.09615   -1.000
 5704.00    1.11266   1.09433   -1.000
 5705.00    1.12202   1.09151   -1.000
 5706.00    1.10931   1.08742   -1.000
 5707.00    1.10174   1.08242   -1.000
 5708.00    1.09534   1.07755   -1.000
 5709.00    1.10437   1.07420   -1.000
 5710.00    1.10937   1.07353   -1.000
 5711.00    1.11357   1.07612   -1.000
 5712.00    1.10835   1.08155   -1.000
 5713.00    1.11448   1.08867   -1.000
 5714.00    1.12925   1.09600   -1.000
 5715.00    1.12856   1.10253   -1.000
 5716.00    1.12260   1.10779   -1.000
 5717.00    1.13060   1.11187   -1.000
 5718.00    1.12607   1.11521   -1.000
 5719.00    1.12627   1.11811  225.278
 5720.00    1.12999   1.12067  225.890
 5721.00    1.13252   1.12278  227.920
 5722.00    1.13092   1.12420  230.372
 5723.00    1.13996   1.12472   -1.000
 5724.00    1.13396   1.12417  230.621
 5725.00    1.12815   1.12272  229.252
 5726.00    1.12909   1.12080  230.069
 5727.00    1.12947   1.11895   -1.000
 5728.00    1.12235   1.11761  230.211
 5729.00    1.12395   1.11684  227.845
 5730.00    1.12927   1.11664   -1.000
 5731.00    1.13412   1.11699   -1.000
 5732.00    1.13392   1.11788   -1.000
 5733.00    1.13652   1.11930   -1.000
 5734.00    1.14041   1.12101   -1.000
 5735.00    1.12669   1.12271  228.492
 5736.00    1.13227   1.12403  228.807
 5737.00    1.13393   1.12477  229.351
 5738.00    1.12471   1.12495  228.689
 5739.00    1.12278   1.12470  228.524
 5740.00    1.12176   1.12420  226.666
 5741.00    1.12983   1.12370  225.516
 5742.00    1.13591   1.12337   -1.000
 5743.00    1.12892   1.12326  229.365
 5744.00    1.12681   1.12319  230.070
 5745.00    1.14283   1.12296   -1.000
 5746.00    1.13689   1.12250   -1.000
 5747.00    1.12788   1.12184  229.957
 5748.00    1.13465   1.12102   -1.000
 5749.00    1.12644   1.11972  235.116
 5750.00    1.12734   1.11763   -1.000
 5751.00    1.13319   1.11484   -1.000
 5752.00    1.12273   1.11196   -1.000
 5753.00    1.13146   1.11011   -1.000
 5754.00    1.13144   1.11009   -1.000
 5755.00    1.13383   1.11208   -1.000
 5756.00    1.12987   1.11528   -1.000
 5757.00    1.13544   1.11840   -1.000
 5758.00    1.15121   1.12027   -1.000
 5759.00    1.13875   1.12030   -1.000
 5760.00    1.12442   1.11876  228.219
 5761.00    1.12983   1.11675   -1.000
 5762.00    1.11843   1.11556  225.129
 5763.00    1.12288   1.11610  224.927
 5764.00    1.13118   1.11838   -1.000
 5765.00    1.13406   1.12166   -1.000
 5766.00    1.12426   1.12493  225.859
 5767.00    1.12827   1.12735  227.184
 5768.00    1.12930   1.12844  228.607
 5769.00    1.12942   1.12816  229.067
 5770.00    1.12920   1.12675  229.328
 5771.00    1.11950   1.12456  228.753
 5772.00    1.12237   1.12207  227.524
 5773.00    1.12430   1.11971  227.440
 5774.00    1.12052   1.11775  228.262
 5775.00    1.12290   1.11616  231.928
 5776.00    1.10633   1.11442  237.404
 5777.00    1.09737   1.11186  240.170
 5778.00    1.10194   1.10818  239.331
 5779.00    1.11309   1.10362   -1.000
 5780.00    1.11004   1.09907   -1.000
 5781.00    1.11852   1.09550   -1.000
 5782.00    1.11333   1.09361   -1.000
 5783.00    1.11805   1.09358   -1.000
 5784.00    1.12488   1.09515   -1.000
 5785.00    1.12333   1.09797   -1.000
 5786.00    1.12548   1.10145   -1.000
 5787.00    1.12784   1.10490   -1.000
 5788.00    1.13530   1.10778   -1.000
 5789.00    1.12986   1.10982   -1.000
 5790.00    1.12892   1.11123   -1.000
 5791.00    1.12795   1.11246   -1.000
 5792.00    1.12597   1.11391   -1.000
 5793.00    1.12925   1.11569   -1.000
 5794.00    1.12255   1.11753  226.733
 5795.00    1.12205   1.11902  223.626
 5796.00    1.11965   1.12000  220.545
 5797.00    1.12758   1.12070  220.385
 5798.00    1.14342   1.12145   -1.000
 5799.00    1.14622   1.12244   -1.000
 5800.00    1.13995   1.12360   -1.000
 5801.00    1.13364   1.12456  226.936
 5802.00    1.13263   1.12493  226.221
 5803.00    1.14658   1.12463   -1.000
 5804.00    1.14144   1.12394   -1.000
 5805.00    1.13647   1.12329   -1.000
 5806.00    1.13823   1.12307   -1.000
 5807.00    1.13802   1.12343   -1.000
 5808.00    1.13826   1.12429   -1.000
 5809.00    1.13854   1.12535   -1.000
 5810.00    1.14789   1.12625   -1.000
 5811.00    1.13540   1.12670  226.493
 5812.00    1.13223   1.12656  225.050
 5813.00    1.14312   1.12591   -1.000
 5814.00    1.14315   1.12504   -1.000
 5815.00    1.14658   1.12446   -1.000
 5816.00    1.14337   1.12463   -1.000
 5817.00    1.14472   1.12569   -1.000
 5818.00    1.14903   1.12750   -1.000
 5819.00    1.13696   1.12961  221.302
 5820.00    1.14138   1.13161  221.008
 5821.00    1.14290   1.13323  220.579
 5822.00    1.14808   1.13439   -1.000
 5823.00    1.14394   1.13517  220.509
 5824.00    1.15425   1.13570   -1.000
 5825.00    1.15642   1.13609   -1.000
 5826.00    1.14952   1.13639   -1.000
 5827.00    1.14660   1.13661  220.213
 5828.00    1.13810   1.13671  220.799
 5829.00    1.15151   1.13667   -1.000
 5830.00    1.14477   1.13645  222.540
 5831.00    1.14051   1.13602  221.682
 5832.00    1.15414   1.13543   -1.000
 5833.00    1.15709   1.13480   -1.000
 5834.00    1.14251   1.13434  222.622
 5835.00    1.14456   1.13420   -1.000
 5836.00    1.14840   1.13441   -1.000
 5837.00    1.15010   1.13484   -1.000
 5838.00    1.15151   1.13534   -1.000
 5839.00    1.14946   1.13573   -1.000
 5840.00    1.14392   1.13583  220.885
 5841.00    1.15079   1.13553   -1.000
 5842.00    1.15137   1.13474   -1.000
 5843.00    1.14684   1.13343   -1.000
 5844.00    1.14647   1.13168   -1.000
 5845.00    1.13807   1.12972  224.644
 5846.00    1.13888   1.12786   -1.000
 5847.00    1.14683   1.12622   -1.000
 5848.00    1.14614   1.12466   -1.000
 5849.00    1.14392   1.12283   -1.000
 5850.00    1.14133   1.12033   -1.000
 5851.00    1.13202   1.11702   -1.000
 5852.00    1.13020   1.11304   -1.000
 5853.00    1.12991   1.10869   -1.000
 5854.00    1.12944   1.10419   -1.000
 5855.00    1.14411   1.09979   -1.000
 5856.00    1.14261   1.09607   -1.000
 5857.00    1.12997   1.09375   -1.000
 5858.00    1.13338   1.09343   -1.000
 5859.00    1.14109   1.09526   -1.000
 5860.00    1.14077   1.09877   -1.000
 5861.00    1.14458   1.10308   -1.000
 5862.00    1.15789   1.10722   -1.000
 5863.00    1.15404   1.11037   -1.000
 5864.00    1.14830   1.11225   -1.000
 5865.00    1.15898   1.11306   -1.000
 5866.00    1.15246   1.11341   -1.000
 5867.00    1.15146   1.11396   -1.000
 5868.00    1.13228   1.11511   -1.000
 5869.00    1.15013   1.11674   -1.000
 5870.00    1.15765   1.11833   -1.000
 5871.00    1.13804   1.11919   -1.000
 5872.00    1.15120   1.11888   -1.000
 5873.00    1.14907   1.11743   -1.000
 5874.00    1.14744   1.11529   -1.000
 5875.00    1.14128   1.11302   -1.000
 5876.00    1.14535   1.11105   -1.000
 5877.00    1.14351   1.10946   -1.000
 5878.00    1.13817   1.10808   -1.000
 5879.00    1.14994   1.10656   -1.000
 5880.00    1.14675   1.10452   -1.000
 5881.00    1.14339   1.10170   -1.000
 5882.00    1.15326   1.09788   -1.000
 5883.00    1.16878   1.09273   -1.000
 5884.00    1.15897   1.08540   -1.000
 5885.00    1.14247   1.07445   -1.000
 5886.00    1.04511   1.05869  280.145
 5887.00    0.92038   1.03845   -1.000
 5888.00    0.90060   1.01666   -1.000
 5889.00    0.97455   0.99775   -1.000
 5890.00    1.04632   0.98535   -1.000
 5891.00    1.05858   0.98033   -1.000
 5892.00    1.01868   0.98055   -1.000
 5893.00    0.96341   0.98273   -1.000
 5894.00    0.94906   0.98496   -1.000
 5895.00    1.00412   0.98794   -1.000
 5896.00    1.05821   0.99374   -1.000
 5897.00    1.09248   1.00397   -1.000
 5898.00    1.11968   1.01855   -1.000
 5899.00    1.13167   1.03558   -1.000
 5900.00    1.13510   1.05247   -1.000
 5901.00    1.13891   1.06719   -1.000
 5902.00    1.14306   1.07874   -1.000
 5903.00    1.14263   1.08709   -1.000
 5904.00    1.14377   1.09277   -1.000
 5905.00    1.14146   1.09654   -1.000
 5906.00    1.13415   1.09908   -1.000
 5907.00    1.13176   1.10084   -1.000
 5908.00    1.13812   1.10200   -1.000
 5909.00    1.13485   1.10248   -1.000
 5910.00    1.13140   1.10204   -1.000
 5911.00    1.14765   1.10051   -1.000
 5912.00    1.14733   1.09807   -1.000
 5913.00    1.14087   1.09522   -1.000
 5914.00    1.14124   1.09269   -1.000
 5915.00    1.13436   1.09120   -1.000
 5916.00    1.13835   1.09115   -1.000
 5917.00    1.12895   1.09243   -1.000
 5918.00    1.12408   1.09456   -1.000
 5919.00    1.13603   1.09694   -1.000
 5920.00    1.13842   1.09907   -1.000
 5921.00    1.12680   1.10076   -1.000
 5922.00    1.13338   1.10207   -1.000
 5923.00    1.14080   1.10313   -1.000
 5924.00    1.14011   1.10394   -1.000
 5925.00    1.12998   1.10425   -1.000
 5926.00    1.13838   1.10379   -1.000
 5927.00    1.14133   1.10249   -1.000
 5928.00    1.14782   1.10071   -1.000
 5929.00    1.11822   1.09913   -1.000
 5930.00    1.12774   1.09825   -1.000
 5931.00    1.14743   1.09828   -1.000
 5932.00    1.14869   1.09906   -1.000
 5933.00    1.13606   1.10026   -1.000
 5934.00    1.14032   1.10162   -1.000
 5935.00    1.13266   1.10302   -1.000
 5936.00    1.12420   1.10425   -1.000
 5937.00    1.12612   1.10508   -1.000
 5938.00    1.12057   1.10521   -1.000
 5939.00    1.12805   1.10458   -1.000
 5940.00    1.12810   1.10343   -1.000
 5941.00    1.13222   1.10222   -1.000
 5942.00    1.13751   1.10134   -1.000
 5943.00    1.13664   1.10090   -1.000
 5944.00    1.12434   1.10071   -1.000
 5945.00    1.12351   1.10043   -1.000
 5946.00    1.12285   1.09988   -1.000
 5947.00    1.12567   1.09914   -1.000
 5948.00    1.14589   1.09847   -1.000
 5949.00    1.15018   1.09805   -1.000
 5950.00    1.14288   1.09793   -1.000
 5951.00    1.14105   1.09801   -1.000
 5952.00    1.12772   1.09804   -1.000
 5953.00    1.11298   1.09787   -1.000
 5954.00    1.11107   1.09753   -1.000
 5955.00    1.11854   1.09722   -1.000
 5956.00    1.12317   1.09729   -1.000
 5957.00    1.12384   1.09806   -1.000
 5958.00    1.13002   1.09967   -1.000
 5959.00    1.13735   1.10193   -1.000
 5960.00    1.13847   1.10437   -1.000
 5961.00    1.13924   1.10641   -1.000
 5962.00    1.13623   1.10760   -1.000
 5963.00    1.13294   1.10783   -1.000
 5964.00    1.13925   1.10731   -1.000
 5965.00    1.14248   1.10651   -1.000
 5966.00    1.14084   1.10592   -1.000
 5967.00    1.13322   1.10595   -1.000
 5968.00    1.12836   1.10666   -1.000
 5969.00    1.13085   1.10784   -1.000
 5970.00    1.13165   1.10901   -1.000
 5971.00    1.13734   1.10960   -1.000
 5972.00    1.13463   1.10919   -1.000
 5973.00    1.13779   1.10768   -1.000
 5974.00    1.13337   1.10534   -1.000
 5975.00    1.12088   1.10281   -1.000
 5976.00    1.11465   1.10081   -1.000
 5977.00    1.13065   1.09985   -1.000
 5978.00    1.14265   1.09996   -1.000
 5979.00    1.13459   1.10062   -1.000
 5980.00    1.13691   1.10108   -1.000
 5981.00    1.14521   1.10072   -1.000
 5982.00    1.12531   1.09945   -1.000
 5983.00    1.12700   1.09771   -1.000
 5984.00    1.13449   1.09624   -1.000
 5985.00    1.12079   1.09569   -1.000
 5986.00    1.11593   1.09625   -1.000
 5987.00    1.11369   1.09762   -1.000
 5988.00    1.11380   1.09934   -1.000
 5989.00    1.12599   1.10099   -1.000
 5990.00    1.12970   1.10246   -1.000
 5991.00    1.11956   1.10378   -1.000
 5992.00    1.12746   1.10499   -1.000
 5993.00    1.13776   1.10596   -1.000
 5994.00    1.14185   1.10645   -1.000
 5995.00    1.13920   1.10632   -1.000
 5996.00    1.12216   1.10564   -1.000
 5997.00    1.12435   1.10469   -1.000
 5998.00    1.13586   1.10374   -1.000
 5999.00    1.13444   1.10293   -1.000
 6000.00    1.13613   1.10221   -1.000
 6001.00    1.12828   1.10148   -1.000
 6002.00    1.11845   1.10063   -1.000
 6003.00    1.12335   1.09957   -1.000
 6004.00    1.12557   1.09825   -1.000
 6005.00    1.12534   1.09667   -1.000
 6006.00    1.11949   1.09503   -1.000
 6007.00    1.13144   1.09376   -1.000
 6008.00    1.12580   1.09326   -1.000
 6009.00    1.11511   1.09370   -1.000
 6010.00    1.11675   1.09483   -1.000
 6011.00    1.12875   1.09610   -1.000
 6012.00    1.12199   1.09701   -1.000
 6013.00    1.11577   1.09735   -1.000
 6014.00    1.12648   1.09719   -1.000
 6015.00    1.12577   1.09672   -1.000
 6016.00    1.12003   1.09601   -1.000
 6017.00    1.12004   1.09505   -1.000
 6018.00    1.11586   1.09384   -1.000
 6019.00    1.11928   1.09251   -1.000
 6020.00    1.11507   1.09134   -1.000
 6021.00    1.10562   1.09071   -1.000
 6022.00    1.12006   1.09093   -1.000
 6023.00    1.12782   1.09210   -1.000
 6024.00    1.11712   1.09416   -1.000
 6025.00    1.11724   1.09690   -1.000
 6026.00    1.11009   1.10000   -1.000
 6027.00    1.11297   1.10314   -1.000
 6028.00    1.12942   1.10607   -1.000
 6029.00    1.13330   1.10865   -1.000
 6030.00    1.13002   1.11081   -1.000
 6031.00    1.12584   1.11256   -1.000
 6032.00    1.12445   1.11395   -1.000
 6033.00    1.12719   1.11498   -1.000
 6034.00    1.11989   1.11565  230.145
 6035.00    1.11274   1.11586  230.520
 6036.00    1.12392   1.11555  231.078
 6037.00    1.12795   1.11469   -1.000
 6038.00    1.11791   1.11335  230.007
 6039.00    1.11432   1.11173  228.559
 6040.00    1.11879   1.11020  227.056
 6041.00    1.11511   1.10912  227.452
 6042.00    1.12221   1.10879   -1.000
 6043.00    1.12224   1.10933   -1.000
 6044.00    1.10956   1.11059  227.490
 6045.00    1.11086   1.11229  228.297
 6046.00    1.11541   1.11404  228.694
 6047.00    1.11910   1.11553  228.916
 6048.00    1.11822   1.11653  229.496
 6049.00    1.11883   1.11691  230.451
 6050.00    1.12059   1.11660  231.231
 6051.00    1.12477   1.11560   -1.000
 6052.00    1.12970   1.11399   -1.000
 6053.00    1.13157   1.11196   -1.000
 6054.00    1.12144   1.10990   -1.000
 6055.00    1.11589   1.10825  229.989
 6056.00    1.11159   1.10741  230.504
 6057.00    1.04950   1.10742   -1.000
 6058.00    0.98068   1.10800   -1.000
 6059.00    0.79367   1.10853   -1.000
 6060.00    0.43756   1.10838   -1.000
 6061.00    1.08868   1.10711  211.654
 6062.00    1.08657   1.10476   79.296
 6063.00    1.04273   1.10185   -1.000
 6064.00    0.99362   1.09933   -1.000
 6065.00    0.81217   1.09815   -1.000
 6066.00    0.34234   1.09884   -1.000
 6067.00    1.02023   1.10131   -1.000
 6068.00    1.14064   1.10491   -1.000
 6069.00    1.11510   1.10878  228.242
 6070.00    1.11506   1.11220  228.510
 6071.00    1.12137   1.11478  229.458
 6072.00    1.12333   1.11639  230.721
 6073.00    1.12317   1.11703  232.158
 6074.00    1.12338   1.11671  233.942
 6075.00    1.12267   1.11546  235.020
 6076.00    1.11721   1.11346  235.016
 6077.00    1.11728   1.11100  235.371
 6078.00    1.11915   1.10847   -1.000
 6079.00    1.11266   1.10613  235.797
 6080.00    1.10756   1.10413  235.602
 6081.00    1.10625   1.10245  235.243
 6082.00    1.11005   1.10113   -1.000
 6083.00    1.11376   1.10027   -1.000
 6084.00    1.10606   1.10003  234.655
 6085.00    1.10438   1.10045  236.077
 6086.00    1.11364   1.10135   -1.000
 6087.00    1.11302   1.10238   -1.000
 6088.00    1.11486   1.10322   -1.000
 6089.00    1.11232   1.10374   -1.000
 6090.00    1.11108   1.10404  232.160
 6091.00    1.11842   1.10441   -1.000
 6092.00    1.12053   1.10508   -1.000
 6093.00    1.11468   1.10615   -1.000
 6094.00    1.11049   1.10749  232.358
 6095.00    1.10917   1.10878  233.026
 6096.00    1.10500   1.10949  236.852
 6097.00    1.11471   1.10900  242.514
 6098.00    1.11426   1.10678  244.752
 6099.00    1.10776   1.10264  241.663
 6100.00    1.10774   1.09708   -1.000
 6101.00    1.09921   1.09135  234.277
 6102.00    1.09100   1.08709  234.173
 6103.00    1.09937   1.08559   -1.000
 6104.00    1.10430   1.08721   -1.000
 6105.00    1.09839   1.09129  235.229
 6106.00    1.10313   1.09653  234.548
 6107.00    1.10800   1.10166  233.705
 6108.00    1.09851   1.10590  233.479
 6109.00    1.10002   1.10896  232.249
 6110.00    1.11136   1.11096  232.155
 6111.00    1.11083   1.11215  233.369
 6112.00    1.10751   1.11281  234.664
 6113.00    1.11227   1.11311  235.049
 6114.00    1.11680   1.11307  236.879
 6115.00    1.11180   1.11253  240.483
 6116.00    1.10525   1.11114  243.319
 6117.00    1.10110   1.10849  245.013
 6118.00    1.10213   1.10425  243.898
 6119.00    1.10069   1.09850  239.725
 6120.00    1.09208   1.09193  237.566
 6121.00    1.08572   1.08581  238.179
 6122.00    1.07798   1.08155  239.251
 6123.00    1.08112   1.08008  238.683
 6124.00    1.10067   1.08137   -1.000
 6125.00    1.10158   1.08459   -1.000
 6126.00    1.09711   1.08855   -1.000
 6127.00    1.09819   1.09245  233.776
 6128.00    1.10545   1.09604   -1.000
 6129.00    1.10941   1.09938   -1.000
 6130.00    1.10909   1.10233  244.176
 6131.00    1.10566   1.10421  251.295
 6132.00    1.09931   1.10398  255.977
 6133.00    1.09612   1.10079  254.171
 6134.00    1.09763   1.09461  246.896
 6135.00    1.07918   1.08647  241.059
 6136.00    1.06884   1.07818  239.673
 6137.00    1.06889   1.07156  240.358
 6138.00    1.07573   1.06783   -1.000
 6139.00    1.07654   1.06729   -1.000
 6140.00    1.07891   1.06961   -1.000
 6141.00    1.08124   1.07409  235.219
 6142.00    1.08885   1.07981   -1.000
 6143.00    1.09042   1.08565  238.135
 6144.00    1.09990   1.09050   -1.000
 6145.00    1.10129   1.09355  240.764
 6146.00    1.09295   1.09463  240.383
 6147.00    1.09143   1.09420  239.194
 6148.00    1.09077   1.09310  237.832
 6149.00    1.09345   1.09213  238.355
 6150.00    1.08936   1.09172  240.393
 6151.00    1.09081   1.09179  241.202
 6152.00    1.08615   1.09192  241.513
 6153.00    1.09248   1.09158  243.074
 6154.00    1.09943   1.09042   -1.000
 6155.00    1.10033   1.08827   -1.000
 6156.00    1.09275   1.08499   -1.000
 6157.00    1.08597   1.08035  266.016
 6158.00    1.07984   1.07408  266.131
 6159.00    1.07862   1.06625   -1.000
 6160.00    1.06985   1.05766   -1.000
 6161.00    1.05535   1.04980  251.323
 6162.00    1.05990   1.04434   -1.000
 6163.00    1.05842   1.04232   -1.000
 6164.00    1.07251   1.04352   -1.000
 6165.00    1.08879   1.04667   -1.000
 6166.00    1.08990   1.05012   -1.000
 6167.00    1.08059   1.05281   -1.000
 6168.00    1.08443   1.05468   -1.000
 6169.00    1.07687   1.05648   -1.000
 6170.00    1.07444   1.05911   -1.000
 6171.00    1.08097   1.06297   -1.000
 6172.00    1.08651   1.06777   -1.000
 6173.00    1.08528   1.07281   -1.000
 6174.00    1.07849   1.07740  244.113
 6175.00    1.08179   1.08114  243.308
 6176.00    1.08346   1.08402  242.425
 6177.00    1.08283   1.08626  241.411
 6178.00    1.07742   1.08815  241.203
 6179.00    1.07796   1.08988  241.915
 6180.00    1.08458   1.09151  243.128
 6181.00    1.09127   1.09293  245.422
 6182.00    1.08030   1.09387  248.133
 6183.00    1.07279   1.09403   -1.000
 6184.00    1.07539   1.09317   -1.000
 6185.00    1.08299   1.09121  255.027
 6186.00    1.08741   1.08817  258.031
 6187.00    1.08057   1.08427  258.005
 6188.00    1.08117   1.07988  253.514
 6189.00    1.07555   1.07565  247.581
 6190.00    1.06609   1.07244  244.637
 6191.00    1.06020   1.07107  243.725
 6192.00    1.06813   1.07194  244.081
 6193.00    1.08359   1.07480   -1.000
 6194.00    1.09101   1.07881   -1.000
 6195.00    1.09733   1.08287   -1.000
 6196.00    1.09504   1.08611   -1.000
 6197.00    1.08742   1.08811  246.002
 6198.00    1.07749   1.08902  243.659
 6199.00    1.08260   1.08941  243.486
 6200.00    1.09115   1.08994  243.396
 6201.00    1.08088   1.09111  243.058
 6202.00    1.08113   1.09303  243.422
 6203.00    1.09178   1.09545  244.151
 6204.00    1.09393   1.09793  244.362
 6205.00    1.09496   1.10002  245.983
 6206.00    1.09560   1.10139  248.243
 6207.00    1.09401   1.10177  250.288
 6208.00    1.08792   1.10097  253.276
 6209.00    1.08524   1.09885  256.860
 6210.00    1.08608   1.09544  258.625
 6211.00    1.07091   1.09104   -1.000
 6212.00    1.06142   1.08619   -1.000
 6213.00    1.06830   1.08158  254.810
 6214.00    1.07291   1.07780  256.078
 6215.00    1.07418   1.07510  254.423
 6216.00    1.04997   1.07345   -1.000
 6217.00    0.96344   1.07263   -1.000
 6218.00    0.97268   1.07249   -1.000
 6219.00    1.07850   1.07300  259.385
 6220.00    1.07292   1.07416  251.332
 6221.00    1.07893   1.07582  252.172
 6222.00    1.08007   1.07763  252.651
 6223.00    1.07535   1.07907  254.939
 6224.00    1.08045   1.07962  258.891
 6225.00    1.08356   1.07885  262.911
 6226.00    1.07604   1.07654  264.587
 6227.00    1.07631   1.07279  262.059
 6228.00    1.07333   1.06814  257.651
 6229.00    1.06959   1.06355  252.917
 6230.00    1.07911   1.06015   -1.000
 6231.00    1.08675   1.05877   -1.000
 6232.00    1.09023   1.05958   -1.000
 6233.00    1.09117   1.06196   -1.000
 6234.00    1.07979   1.06478   -1.000
 6235.00    1.07525   1.06690   -1.000
 6236.00    1.08030   1.06769   -1.000
 6237.00    1.07940   1.06715   -1.000
 6238.00    1.08615   1.06570   -1.000
 6239.00    1.09082   1.06382   -1.000
 6240.00    1.07992   1.06174   -1.000
 6241.00    1.07155   1.05940   -1.000
 6242.00    1.06836   1.05674   -1.000
 6243.00    1.06665   1.05392   -1.000
 6244.00    1.06091   1.05151   -1.000
 6245.00    1.06256   1.05024   -1.000
 6246.00    1.06421   1.05068   -1.000
 6247.00    1.06509   1.05275   -1.000
 6248.00    1.06564   1.05566   -1.000
 6249.00    1.06354   1.05818  265.529
 6250.00    1.06855   1.05925   -1.000
 6251.00    1.06370   1.05847  266.609
 6252.00    1.05766   1.05625  269.289
 6253.00    1.06202   1.05349   -1.000
 6254.00    1.06509   1.05112   -1.000
 6255.00    1.06358   1.04974   -1.000
 6256.00    1.06195   1.04959   -1.000
 6257.00    1.05832   1.05068   -1.000
 6258.00    1.06075   1.05290   -1.000
 6259.00    1.06752   1.05611   -1.000
 6260.00    1.06303   1.06001  255.386
 6261.00    1.06128   1.06417  255.955
 6262.00    1.06573   1.06813  254.283
 6263.00    1.06331   1.07149  253.420
 6264.00    1.06719   1.07406  254.726
 6265.00    1.06151   1.07580  255.409
 6266.00    1.06208   1.07675  254.718
 6267.00    1.06626   1.07693  253.914
 6268.00    1.06885   1.07636  253.821
 6269.00    1.07361   1.07511  255.048
 6270.00    1.06078   1.07327  257.078
 6271.00    1.04438   1.07078   -1.000
 6272.00    1.02328   1.06744   -1.000
 6273.00    1.01127   1.06297   -1.000
 6274.00    1.00904   1.05737   -1.000
 6275.00    1.01195   1.05105   -1.000
 6276.00    1.01594   1.04486   -1.000
 6277.00    1.01534   1.03983   -1.000
 6278.00    1.01726   1.03685   -1.000
 6279.00    1.01339   1.03641   -1.000
 6280.00    1.01373   1.03852   -1.000
 6281.00    1.02153   1.04270   -1.000
 6282.00    1.03106   1.04818   -1.000
 6283.00    1.04744   1.05409  251.764
 6284.00    1.06026   1.05963  252.078
 6285.00    1.05898   1.06419  253.883
 6286.00    1.05098   1.06741   -1.000
 6287.00    1.04562   1.06919   -1.000
 6288.00    1.05063   1.06963   -1.000
 6289.00    1.05868   1.06905  257.966
 6290.00    1.06504   1.06790  259.046
 6291.00    1.06747   1.06655  261.075
 6292.00    1.08071   1.06518   -1.000
 6293.00    1.09724   1.06375   -1.000
 6294.00    1.09682   1.06208   -1.000
 6295.00    1.05021   1.06002  260.303
 6296.00    0.89208   1.05762   -1.000
 6297.00    0.66427   1.05511   -1.000
 6298.00    0.60890   1.05283   -1.000
 6299.00    0.76730   1.05121   -1.000
 6300.00    0.95406   1.05066   -1.000
 6301.00    1.02903   1.05152   -1.000
 6302.00    1.06044   1.05392  252.091
 6303.00    1.06976   1.05763   -1.000
 6304.00    1.06489   1.06206  250.883
 6305.00    1.06541   1.06643  252.336
 6306.00    1.06226   1.07007  253.795
 6307.00    1.06806   1.07259  254.733
 6308.00    1.06838   1.07389  255.471
 6309.00    1.06044   1.07410  256.495
 6310.00    1.06433   1.07340  258.474
 6311.00    1.06930   1.07193  258.811
 6312.00    1.06491   1.06981  258.536
 6313.00    1.06789   1.06720  258.538
 6314.00    1.06755   1.06440  258.415
 6315.00    1.05958   1.06184  256.460
 6316.00    1.05315   1.06007  253.438
 6317.00    1.05518   1.05957  251.639
 6318.00    1.06940   1.06061   -1.000
 6319.00    1.07297   1.06314   -1.000
 6320.00    1.07327   1.06679  248.610
 6321.00    1.07662   1.07100  248.144
 6322.00    1.07899   1.07523  247.592
 6323.00    1.08773   1.07902   -1.000
 6324.00    1.08489   1.08208  247.203
 6325.00    1.08353   1.08425  247.355
 6326.00    1.09700   1.08555   -1.000
 6327.00    1.09303   1.08610  246.303
 6328.00    1.08574   1.08608  246.392
 6329.00    1.08386   1.08560  247.117
 6330.00    1.08173   1.08461  249.861
 6331.00    1.07434   1.08298  253.926
 6332.00    1.07420   1.08058  252.914
 6333.00    1.07800   1.07753  250.448
 6334.00    1.07077   1.07429  247.788
 6335.00    1.06758   1.07160  245.683
 6336.00    1.07454   1.07019  244.594
 6337.00    1.08115   1.07044   -1.000
 6338.00    1.08681   1.07216   -1.000
 6339.00    1.08649   1.07468   -1.000
 6340.00    1.08862   1.07712   -1.000
 6341.00    1.09206   1.07872   -1.000
 6342.00    1.08766   1.07912   -1.000
 6343.00    1.07756   1.07845  242.483
 6344.00    1.07973   1.07728  242.037
 6345.00    1.08430   1.07643   -1.000
 6346.00    1.08821   1.07663   -1.000
 6347.00    1.09520   1.07820   -1.000
 6348.00    1.09530   1.08092   -1.000
 6349.00    1.09976   1.08410   -1.000
 6350.00    1.09857   1.08686   -1.000
 6351.00    1.09260   1.08850  249.109
 6352.00    1.10422   1.08874   -1.000
 6353.00    1.10608   1.08773   -1.000
 6354.00    1.08987   1.08588  253.300
 6355.00    1.08356   1.08363  253.325
 6356.00    1.08967   1.08133   -1.000
 6357.00    1.08439   1.07917  251.736
 6358.00    1.06817   1.07725  251.258
 6359.00    1.02772   1.07559   -1.000
 6360.00    0.95405   1.07423   -1.000
 6361.00    0.91018   1.07325   -1.000
 6362.00    0.94987   1.07272   -1.000
 6363.00    1.01439   1.07272   -1.000
 6364.00    1.05280   1.07322   -1.000
 6365.00    1.07493   1.07404  242.414
 6366.00    1.07585   1.07490  242.195
 6367.00    1.07797   1.07553  241.242
 6368.00    1.08406   1.07589   -1.000
 6369.00    1.08213   1.07617  241.534
 6370.00    1.08022   1.07672  241.830
 6371.00    1.07353   1.07784  242.547
 6372.00    1.07760   1.07949  243.621
 6373.00    1.08758   1.08129  245.071
 6374.00    1.07939   1.08271  246.445
 6375.00    1.06753   1.08333  246.988
 6376.00    1.06299   1.08302   -1.000
 6377.00    1.06768   1.08197  247.510
 6378.00    1.07607   1.08055  247.136
 6379.00    1.07181   1.07916  247.253
 6380.00    1.06267   1.07807  248.265
 6381.00    1.06208   1.07748  248.433
 6382.00    1.06445   1.07745  248.616
 6383.00    1.06239   1.07801  249.458
 6384.00    1.05167   1.07904   -1.000
 6385.00    1.04566   1.08032   -1.000
 6386.00    1.04631   1.08151   -1.000
 6387.00    1.04055   1.08223   -1.000
 6388.00    1.03386   1.08213   -1.000
 6389.00    1.02757   1.08105   -1.000
 6390.00    1.02159   1.07907   -1.000
 6391.00    1.01535   1.07659   -1.000
 6392.00    1.01091   1.07425   -1.000
 6393.00    1.00532   1.07264   -1.000
 6394.00    1.00128   1.07199   -1.000
 6395.00    1.00709   1.07202   -1.000
 6396.00    1.00729   1.07211   -1.000
 6397.00    0.99102   1.07179   -1.000
 6398.00    0.97353   1.07106   -1.000
 6399.00    0.96473   1.07045   -1.000
 6400.00    0.96546   1.07063   -1.000
 6401.00    0.97095   1.07191   -1.000
 6402.00    0.97227   1.07399   -1.000
 6403.00    0.97151   1.07610   -1.000
 6404.00    0.96856   1.07743   -1.000
 6405.00    0.95907   1.07754   -1.000
 6406.00    0.94591   1.07656   -1.000
 6407.00    0.93850   1.07500   -1.000
 6408.00    0.93598   1.07345   -1.000
 6409.00    0.92803   1.07234   -1.000
 6410.00    0.91905   1.07184   -1.000
 6411.00    0.91529   1.07191   -1.000
 6412.00    0.91323   1.07239   -1.000
 6413.00    0.91597   1.07305   -1.000
 6414.00    0.90863   1.07366   -1.000
 6415.00    0.89569   1.07399   -1.000
 6416.00    0.89181   1.07389   -1.000
 6417.00    0.88527   1.07336   -1.000
 6418.00    0.87154   1.07259   -1.000
 6419.00    0.85644   1.07204   -1.000
 6420.00    0.84408   1.07230   -1.000
 6421.00    0.83607   1.07379   -1.000
 6422.00    0.83358   1.07656   -1.000
 6423.00    0.83524   1.08013   -1.000
 6424.00    0.83173   1.08367   -1.000
 6425.00    0.82269   1.08625   -1.000
 6426.00    0.45987   1.08719   -1.000
 6427.00    0.00000   1.08622   -2.000
 6428.00    0.00000   1.08366   -2.000
