###################################################################
## OUTPUT of StarlightChains_v04.for    [Cid@UFSC - 01/Apr/2007] ##
###################################################################

## Some input info
NGC2808_b_1.cxt                          [arq_obs]
Base.BC03.N                              [arq_base]
NGC2808_b_1.msk                          [arq_masks]
StCv04.C99.config                        [arq_config]
   45                                    [N_base]
    0                                    [N_YAV_components = # of components with extra extinction!]
    0                                    [i_FitPowerLaw (1/0 = Yes/No)]
-9.99                                    [alpha_PowerLaw]
CCM                                      [red_law_option]
 1.458241                                [q_norm = A(l_norm)/A(V)]

## (Re)Sampling Parameters
 3359.00                                 [l_ini (A)]
 6428.00                                 [l_fin (A)]
    1.00                                 [dl    (A)]     (OBS: dl_cushion =    50.00 A)

## Normalization info
 4020.00                                 [l_norm (A) - for base]
 4010.00                                 [llow_norm (A) - window for f_obs]
 4060.00                                 [lupp_norm (A) - window for f_obs]
3.144042E-14                             [fobs_norm (in input units)]

## S/N
 4730.00                                 [llow_SN (A) - window for S/N]
 4780.00                                 [lupp_SN (A) - window for S/N]
  65.329                                 [S/N in S/N window]
  51.114                                 [S/N in norm. window]
 151.759                                 [S/N_err in S/N window]
 118.738                                 [S/N_err in norm. window]
  1.0000                                 [fscale_chi2]

## etc...
  2147483641                             [idum_orig]
  3069                                   [NOl_eff]
  1146                                   [Nl_eff]
  1923    NSIGMA                         [Ntot_cliped & clip_method]
  1371720                                [Nglobal_steps]
   7                                     [N_chains]
   6                                     [NEX0s_base = N_base in EX0s-fits]
 0   0   1      256   2.0   2.496E+02    [Clip-Bug, RC-Crash & Burn-In warning-flags, n_censored_weights, wei_nsig_threshold & wei_limit]
    23     23.269     23.265      0.004  [idt_all, wdt_TotTime, wdt_UsrTime & wdt_SysTime (sec)]

## Synthesis Results - Best model ##

 2.48113E+00                             [chi2/Nl_eff]
     1.37839                             [adev (%)]

   102.98358                             [sum-of-x (%)]
 8.99017E-14                             [Flux_tot (units of input spectrum!)]
 1.02868E-09                             [Mini_tot (???)]
 5.50825E-10                             [Mcor_tot (???)]

  -1.03                                  [v0_min  (km/s)]
  86.68                                  [vd_min  (km/s)]
 0.7604                                  [AV_min  (mag)]
 0.0000                                  [YAV_min (mag)]

# j     x_j(%)      Mini_j(%)     Mcor_j(%)     age_j(yr)     Z_j      (L/M)_j    YAV?  Mstars   component_j        a/Fe...       SSP_chi2r SSP_adev(%)   SSP_AV   SSP_x(%)
  1      0.0000     0.0000E+00    0.0000E+00    1.000000E+06  0.00400  1.114E-02    0   1.0000   age020_m42            0.0000     3.6028E+02    13.8275   4.0000    83.6288
  2     19.9327     4.1531E-02    7.7552E-02    3.160000E+06  0.00400  4.073E-02    0   0.9999   age045_m42            0.0000     9.3397E+01     6.9184   3.2030    95.2623
  3      0.0000     0.0000E+00    0.0000E+00    5.010000E+06  0.00400  2.534E-02    0   0.9488   age055_m42            0.0000     1.6781E+02     9.8733   3.6172    88.8559
  4      2.6796     1.7892E-02    2.9611E-02    1.000000E+07  0.00400  1.271E-02    0   0.8862   age070_m42            0.0000     1.5731E+02     9.5307   2.8389    92.3541
  5      0.0000     0.0000E+00    0.0000E+00    2.512000E+07  0.00400  5.070E-03    0   0.8174   age090_m42            0.0000     1.3428E+02     8.8619   2.7014    94.0568
  6      0.0000     0.0000E+00    0.0000E+00    4.000000E+07  0.00400  3.505E-03    0   0.7851   age104_m42            0.0000     8.6853E+01     7.0247   2.3688    97.2331
  7      0.0000     0.0000E+00    0.0000E+00    1.015200E+08  0.00400  2.268E-03    0   0.7207   age116_m42            0.0000     3.3850E+02     9.7020   2.3135   107.3704
  8      0.0000     0.0000E+00    0.0000E+00    2.861200E+08  0.00400  1.079E-03    0   0.6613   age125_m42            0.0000     3.6340E+02    10.3663   1.8065   110.0559
  9      0.0000     0.0000E+00    0.0000E+00    6.405400E+08  0.00400  5.077E-04    0   0.6197   age132_m42            0.0000     3.8621E+02    10.7575   1.4397   114.3276
 10      0.0000     0.0000E+00    0.0000E+00    9.047900E+08  0.00400  3.535E-04    0   0.6024   age135_m42            0.0000     2.5099E+02     8.7487   1.2031   113.3640
 11      0.0000     0.0000E+00    0.0000E+00    1.434000E+09  0.00400  1.910E-04    0   0.5716   age139_m42            0.0000     1.1675E+02     6.4044   0.6648   111.9767
 12     51.1354     4.4200E+01    4.5094E+01    2.500000E+09  0.00400  9.818E-05    0   0.5463   age150_m42            0.0000     3.3490E+01     3.8980   0.3878   107.0961
 13     25.9139     4.6612E+01    4.5509E+01    5.000000E+09  0.00400  4.718E-05    0   0.5228   age161_m42            0.0000     2.9428E+01     3.6922   0.2241   103.5586
 14      0.0000     0.0000E+00    0.0000E+00    1.100000E+10  0.00400  2.205E-05    0   0.4980   age185_m42            0.0000     8.2226E+01     5.7257  -0.0549   101.5493
 15      0.0000     0.0000E+00    0.0000E+00    1.300000E+10  0.00400  1.883E-05    0   0.4927   age193_m42            0.0000     9.1716E+01     6.0269  -0.0727   101.4008
 16      0.0000     0.0000E+00    0.0000E+00    1.000000E+06  0.02000  1.989E-02    0   1.0000   age020_m62            0.0000     3.4885E+02    13.5275   4.0000    83.8576
 17      0.0000     0.0000E+00    0.0000E+00    3.160000E+06  0.02000  3.772E-02    0   0.9858   age045_m62            0.0000     2.9330E+02    12.6030   3.9941    84.1080
 18      0.0000     0.0000E+00    0.0000E+00    5.010000E+06  0.02000  3.227E-02    0   0.9342   age055_m62            0.0000     1.2959E+02     8.5200   3.4619    91.7608
 19      0.0000     0.0000E+00    0.0000E+00    1.000000E+07  0.02000  1.011E-02    0   0.8751   age070_m62            0.0000     3.6511E+02    14.2116   2.8626    88.5497
 20      0.0000     0.0000E+00    0.0000E+00    2.512000E+07  0.02000  4.206E-03    0   0.8099   age090_m62            0.0000     2.5745E+02    12.0990   2.7753    89.7923
 21      0.0000     0.0000E+00    0.0000E+00    4.000000E+07  0.02000  3.373E-03    0   0.7799   age104_m62            0.0000     1.1169E+02     7.3030   2.5625    98.9447
 22      0.0000     0.0000E+00    0.0000E+00    1.015200E+08  0.02000  1.878E-03    0   0.7221   age116_m62            0.0000     2.9183E+02     9.1638   2.3437   107.7112
 23      0.0000     0.0000E+00    0.0000E+00    2.861200E+08  0.02000  8.869E-04    0   0.6700   age125_m62            0.0000     5.9262E+02    13.1904   1.7929   115.7154
 24      0.0000     0.0000E+00    0.0000E+00    6.405400E+08  0.02000  3.657E-04    0   0.6322   age132_m62            0.0000     3.9116E+02    11.2612   1.0843   119.6473
 25      0.0000     0.0000E+00    0.0000E+00    9.047900E+08  0.02000  2.312E-04    0   0.6152   age135_m62            0.0000     2.2207E+02     8.6195   0.7190   118.0799
 26      0.0000     0.0000E+00    0.0000E+00    1.434000E+09  0.02000  1.168E-04    0   0.5865   age139_m62            0.0000     6.7965E+01     5.2109   0.3124   111.6606
 27      0.0000     0.0000E+00    0.0000E+00    2.500000E+09  0.02000  5.505E-05    0   0.5610   age150_m62            0.0000     8.0256E+01     5.9077  -0.0708   108.6237
 28      0.0000     0.0000E+00    0.0000E+00    5.000000E+09  0.02000  2.596E-05    0   0.5353   age161_m62            0.0000     1.9034E+02     8.5787  -0.4269   108.8870
 29      0.0000     0.0000E+00    0.0000E+00    1.100000E+10  0.02000  1.169E-05    0   0.5103   age185_m62            0.0000     3.4530E+02    11.2003  -0.8199   110.7541
 30      0.0000     0.0000E+00    0.0000E+00    1.300000E+10  0.02000  9.691E-06    0   0.5047   age193_m62            0.0000     3.7755E+02    11.6503  -0.8696   111.0501
 31      0.0000     0.0000E+00    0.0000E+00    1.000000E+06  0.05000  2.651E-02    0   0.9998   age020_m72            0.0000     3.2384E+02    12.9442   4.0000    84.7710
 32      0.0000     0.0000E+00    0.0000E+00    3.160000E+06  0.05000  4.817E-02    0   0.9577   age045_m72            0.0000     2.0742E+02    10.7310   3.8470    87.3553
 33      0.0000     0.0000E+00    0.0000E+00    5.010000E+06  0.05000  3.101E-02    0   0.9147   age055_m72            0.0000     1.9363E+02    10.4756   3.4856    89.9598
 34      0.0000     0.0000E+00    0.0000E+00    1.000000E+07  0.05000  8.954E-03    0   0.8524   age070_m72            0.0000     1.9676E+02    10.3439   3.7200    88.7056
 35      0.0000     0.0000E+00    0.0000E+00    2.512000E+07  0.05000  4.207E-03    0   0.7902   age090_m72            0.0000     1.0796E+02     7.6381   3.2609    94.6230
 36      0.0000     0.0000E+00    0.0000E+00    4.000000E+07  0.05000  3.198E-03    0   0.7618   age104_m72            0.0000     1.7254E+02     7.1557   2.7146   103.3043
 37      0.0000     0.0000E+00    0.0000E+00    1.015200E+08  0.05000  1.716E-03    0   0.7092   age116_m72            0.0000     3.4605E+02     9.9399   2.4199   108.1118
 38      0.0000     0.0000E+00    0.0000E+00    2.861200E+08  0.05000  7.047E-04    0   0.6618   age125_m72            0.0000     5.6362E+02    13.0489   1.5685   116.4130
 39      0.0000     0.0000E+00    0.0000E+00    6.405400E+08  0.05000  2.633E-04    0   0.6253   age132_m72            0.0000     2.9741E+02     9.9902   0.7015   118.8136
 40      0.0000     0.0000E+00    0.0000E+00    9.047900E+08  0.05000  1.484E-04    0   0.6088   age135_m72            0.0000     1.2581E+02     7.1517   0.2193   113.2835
 41      2.0652     2.2392E+00    2.4451E+00    1.434000E+09  0.05000  7.827E-05    0   0.5847   age139_m72            0.0000     1.2790E+02     7.3926  -0.1852   109.6026
 42      0.0000     0.0000E+00    0.0000E+00    2.500000E+09  0.05000  3.759E-05    0   0.5583   age150_m72            0.0000     2.1014E+02     9.0959  -0.5197   108.8651
 43      1.2568     6.8898E+00    6.8451E+00    5.000000E+09  0.05000  1.548E-05    0   0.5320   age161_m72            0.0000     3.4303E+02    11.1268  -0.9605   108.9507
 44      0.0000     0.0000E+00    0.0000E+00    1.100000E+10  0.05000  6.532E-06    0   0.5070   age185_m72            0.0000     6.2932E+02    14.6317  -1.0000   101.5250
 45      0.0000     0.0000E+00    0.0000E+00    1.300000E+10  0.05000  5.316E-06    0   0.5018   age193_m72            0.0000     7.9108E+02    16.7143  -1.0000    98.8511


## Synthesis Results - Average & Chains ##

# j      x_j: min, <> & last-chain-values for 1 ...  7 chains
  1      0.0000      0.9207      0.6734      0.6574      0.9423      0.7017      0.8253      0.8705      0.8460
  2     19.9327     17.4207     18.3397     18.0560     17.8317     17.7547     17.7769     17.9554     18.0873
  3      0.0000      0.0276      0.0000      0.0000      0.0000      0.0942      0.0000      0.0000      0.0000
  4      2.6796      3.0034      2.9034      2.8155      2.8838      3.0003      3.1673      2.9716      3.0370
  5      0.0000      0.0392      0.0000      0.0275      0.0000      0.0510      0.0000      0.0000      0.0000
  6      0.0000      0.0280      0.0000      0.0000      0.0000      0.0000      0.0000      0.0000      0.0000
  7      0.0000      0.0359      0.0000      0.0044      0.0003      0.0000      0.0000      0.0000      0.0000
  8      0.0000      0.0153      0.0000      0.0000      0.0000      0.0000      0.0000      0.0000      0.0000
  9      0.0000      0.0224      0.0000      0.0000      0.0480      0.0000      0.0000      0.0000      0.0000
 10      0.0000      0.0422      0.0401      0.0000      0.0000      0.0000      0.0000      0.0000      0.0769
 11      0.0000      0.0609      0.0212      0.0000      0.0844      0.0000      0.0525      0.0000      0.0000
 12     51.1354     55.2521     55.3244     55.5016     55.2435     55.5193     55.9797     54.8353     55.3580
 13     25.9139     22.6253     22.7530     22.8990     23.0178     22.7180     22.5542     22.8949     22.8729
 14      0.0000      0.0630      0.0000      0.0241      0.0298      0.0000      0.0000      0.0877      0.0000
 15      0.0000      0.0607      0.0341      0.0912      0.2175      0.3885      0.0000      0.0000      0.0000
 16      0.0000      0.0054      0.0000      0.0000      0.0000      0.0364      0.0000      0.0000      0.0000
 17      0.0000      0.0129      0.0000      0.0000      0.0000      0.0124      0.0000      0.0106      0.0000
 18      0.0000      0.0412      0.0000      0.2677      0.0249      0.0000      0.0000      0.0000      0.0000
 19      0.0000      0.0198      0.0000      0.0000      0.0000      0.0000      0.0042      0.0000      0.0000
 20      0.0000      0.0087      0.0000      0.0000      0.0000      0.0047      0.0000      0.0000      0.0000
 21      0.0000      0.0133      0.0000      0.0000      0.0000      0.0211      0.0000      0.0000      0.0000
 22      0.0000      0.0141      0.0000      0.0000      0.0000      0.0057      0.0000      0.0000      0.0000
 23      0.0000      0.0064      0.0000      0.0000      0.0000      0.0000      0.0000      0.0000      0.0000
 24      0.0000      0.0121      0.0000      0.0000      0.0000      0.0000      0.0000      0.0000      0.0000
 25      0.0000      0.0294      0.0000      0.0000      0.0000      0.0000      0.0000      0.0000      0.0000
 26      0.0000      0.1194      0.0000      0.0000      0.0669      0.0000      0.0000      0.2046      0.0000
 27      0.0000      0.3077      0.6032      0.0000      0.4420      0.4138      0.0000      0.6302      0.1421
 28      0.0000      0.0439      0.0000      0.0004      0.0000      0.0000      0.0000      0.0000      0.0225
 29      0.0000      0.0169      0.0000      0.0332      0.0000      0.0000      0.0000      0.0000      0.0058
 30      0.0000      0.0220      0.0045      0.0655      0.0000      0.0233      0.0000      0.0782      0.0000
 31      0.0000      0.0056      0.0000      0.0000      0.0000      0.0134      0.0000      0.0000      0.0000
 32      0.0000      0.0201      0.0000      0.0000      0.0000      0.0000      0.0000      0.0000      0.0000
 33      0.0000      0.0217      0.0000      0.0000      0.0000      0.0000      0.0000      0.0000      0.0000
 34      0.0000      0.0087      0.0000      0.0000      0.0000      0.0000      0.0000      0.0000      0.0000
 35      0.0000      0.0092      0.0000      0.0000      0.0000      0.0000      0.0000      0.0000      0.0000
 36      0.0000      0.0144      0.0000      0.0000      0.0003      0.0000      0.0000      0.0000      0.0000
 37      0.0000      0.0117      0.0000      0.0000      0.0000      0.0000      0.0000      0.0000      0.0000
 38      0.0000      0.0098      0.0000      0.0000      0.0000      0.0000      0.0000      0.0000      0.0000
 39      0.0000      0.0288      0.0000      0.0000      0.0000      0.0000      0.0000      0.0000      0.0000
 40      0.0000      0.0784      0.0252      0.0000      0.0000      0.0000      0.1903      0.0000      0.0000
 41      2.0652      1.4512      1.1380      1.0020      1.1059      1.4054      1.3762      1.4390      1.4595
 42      0.0000      0.1101      0.2683      0.5096      0.3179      0.0000      0.0000      0.0588      0.0000
 43      1.2568      0.4901      0.5241      0.7380      0.3964      0.3895      0.5385      0.6080      0.4649
 44      0.0000      0.1205      0.0000      0.0352      0.0333      0.0652      0.1735      0.0996      0.2541
 45      0.0000      0.3432      0.4036      0.2805      0.2720      0.3782      0.3629      0.2455      0.3386

# j      m_j: min, <> & last-chain-values for 1 ...  7 chains
  1  0.0000E+00  1.2908E-02  9.4924E-03  9.2103E-03  1.3436E-02  9.8175E-03  1.1583E-02  1.2278E-02  1.1809E-02
  2  7.7552E-02  6.6790E-02  7.0704E-02  6.9184E-02  6.9535E-02  6.7931E-02  6.8234E-02  6.9256E-02  6.9049E-02
  3  0.0000E+00  1.6149E-04  0.0000E+00  0.0000E+00  0.0000E+00  5.4974E-04  0.0000E+00  0.0000E+00  0.0000E+00
  4  2.9611E-02  3.2704E-02  3.1791E-02  3.0639E-02  3.1938E-02  3.2603E-02  3.4528E-02  3.2554E-02  3.2929E-02
  5  0.0000E+00  9.8667E-04  0.0000E+00  6.9146E-04  0.0000E+00  1.2808E-03  0.0000E+00  0.0000E+00  0.0000E+00
  6  0.0000E+00  9.7833E-04  0.0000E+00  0.0000E+00  0.0000E+00  0.0000E+00  0.0000E+00  0.0000E+00  0.0000E+00
  7  0.0000E+00  1.7834E-03  0.0000E+00  2.1873E-04  1.6928E-05  0.0000E+00  0.0000E+00  0.0000E+00  0.0000E+00
  8  0.0000E+00  1.4670E-03  0.0000E+00  0.0000E+00  0.0000E+00  0.0000E+00  0.0000E+00  0.0000E+00  0.0000E+00
  9  0.0000E+00  4.2754E-03  0.0000E+00  0.0000E+00  9.3065E-03  0.0000E+00  0.0000E+00  0.0000E+00  0.0000E+00
 10  0.0000E+00  1.1227E-02  1.0723E-02  0.0000E+00  0.0000E+00  0.0000E+00  0.0000E+00  0.0000E+00  2.0385E-02
 11  0.0000E+00  2.8449E-02  9.9859E-03  0.0000E+00  4.0122E-02  0.0000E+00  2.4583E-02  0.0000E+00  0.0000E+00
 12  4.5094E+01  4.8013E+01  4.8343E+01  4.8201E+01  4.8826E+01  4.8146E+01  4.8701E+01  4.7939E+01  4.7899E+01
 13  4.5509E+01  3.9154E+01  3.9593E+01  3.9603E+01  4.0514E+01  3.9233E+01  3.9076E+01  3.9860E+01  3.9413E+01
 14  0.0000E+00  2.2229E-01  0.0000E+00  8.4876E-02  1.0679E-01  0.0000E+00  0.0000E+00  3.1107E-01  0.0000E+00
 15  0.0000E+00  2.4797E-01  1.4009E-01  3.7237E-01  9.0388E-01  1.5845E+00  0.0000E+00  0.0000E+00  0.0000E+00
 16  0.0000E+00  4.2593E-05  0.0000E+00  0.0000E+00  0.0000E+00  2.8528E-04  0.0000E+00  0.0000E+00  0.0000E+00
 17  0.0000E+00  5.2586E-05  0.0000E+00  0.0000E+00  0.0000E+00  5.0549E-05  0.0000E+00  4.3464E-05  0.0000E+00
 18  0.0000E+00  1.8614E-04  0.0000E+00  1.2094E-03  1.1443E-04  0.0000E+00  0.0000E+00  0.0000E+00  0.0000E+00
 19  0.0000E+00  2.6807E-04  0.0000E+00  0.0000E+00  0.0000E+00  0.0000E+00  5.6853E-05  0.0000E+00  0.0000E+00
 20  0.0000E+00  2.6026E-04  0.0000E+00  0.0000E+00  0.0000E+00  1.4253E-04  0.0000E+00  0.0000E+00  0.0000E+00
 21  0.0000E+00  4.8038E-04  0.0000E+00  0.0000E+00  0.0000E+00  7.6008E-04  0.0000E+00  0.0000E+00  0.0000E+00
 22  0.0000E+00  8.4397E-04  0.0000E+00  0.0000E+00  0.0000E+00  3.4205E-04  0.0000E+00  0.0000E+00  0.0000E+00
 23  0.0000E+00  7.5410E-04  0.0000E+00  0.0000E+00  0.0000E+00  0.0000E+00  0.0000E+00  0.0000E+00  0.0000E+00
 24  0.0000E+00  3.2538E-03  0.0000E+00  0.0000E+00  0.0000E+00  0.0000E+00  0.0000E+00  0.0000E+00  0.0000E+00
 25  0.0000E+00  1.2225E-02  0.0000E+00  0.0000E+00  0.0000E+00  0.0000E+00  0.0000E+00  0.0000E+00  0.0000E+00
 26  0.0000E+00  9.3645E-02  0.0000E+00  0.0000E+00  5.3364E-02  0.0000E+00  0.0000E+00  1.6140E-01  0.0000E+00
 27  0.0000E+00  4.8965E-01  9.6538E-01  0.0000E+00  7.1545E-01  6.5729E-01  0.0000E+00  1.0091E+00  2.2519E-01
 28  0.0000E+00  1.4153E-01  0.0000E+00  1.3836E-03  0.0000E+00  0.0000E+00  0.0000E+00  0.0000E+00  7.2293E-02
 29  0.0000E+00  1.1543E-01  0.0000E+00  2.2638E-01  0.0000E+00  0.0000E+00  0.0000E+00  0.0000E+00  3.9377E-02
 30  0.0000E+00  1.7875E-01  3.7093E-02  5.3216E-01  0.0000E+00  1.8947E-01  0.0000E+00  6.4007E-01  0.0000E+00
 31  0.0000E+00  3.3228E-05  0.0000E+00  0.0000E+00  0.0000E+00  7.8642E-05  0.0000E+00  0.0000E+00  0.0000E+00
 32  0.0000E+00  6.2503E-05  0.0000E+00  0.0000E+00  0.0000E+00  0.0000E+00  0.0000E+00  0.0000E+00  0.0000E+00
 33  0.0000E+00  9.9961E-05  0.0000E+00  0.0000E+00  0.0000E+00  0.0000E+00  0.0000E+00  0.0000E+00  0.0000E+00
 34  0.0000E+00  1.2991E-04  0.0000E+00  0.0000E+00  0.0000E+00  0.0000E+00  0.0000E+00  0.0000E+00  0.0000E+00
 35  0.0000E+00  2.6963E-04  0.0000E+00  0.0000E+00  0.0000E+00  0.0000E+00  0.0000E+00  0.0000E+00  0.0000E+00
 36  0.0000E+00  5.3750E-04  0.0000E+00  0.0000E+00  1.0548E-05  0.0000E+00  0.0000E+00  0.0000E+00  0.0000E+00
 37  0.0000E+00  7.5341E-04  0.0000E+00  0.0000E+00  0.0000E+00  0.0000E+00  0.0000E+00  0.0000E+00  0.0000E+00
 38  0.0000E+00  1.4366E-03  0.0000E+00  0.0000E+00  0.0000E+00  0.0000E+00  0.0000E+00  0.0000E+00  0.0000E+00
 39  0.0000E+00  1.0674E-02  0.0000E+00  0.0000E+00  0.0000E+00  0.0000E+00  0.0000E+00  0.0000E+00  0.0000E+00
 40  0.0000E+00  5.0249E-02  1.6263E-02  0.0000E+00  0.0000E+00  0.0000E+00  1.2208E-01  0.0000E+00  0.0000E+00
 41  2.4451E+00  1.6931E+00  1.3350E+00  1.1683E+00  1.3123E+00  1.6362E+00  1.6073E+00  1.6890E+00  1.6955E+00
 42  0.0000E+00  2.5548E-01  6.2578E-01  1.1814E+00  7.5002E-01  0.0000E+00  0.0000E+00  1.3718E-01  0.0000E+00
 43  6.8451E+00  2.6307E+00  2.8286E+00  3.9587E+00  2.1641E+00  2.0864E+00  2.8934E+00  3.2828E+00  2.4842E+00
 44  0.0000E+00  1.4603E+00  0.0000E+00  4.2635E-01  4.1035E-01  7.8894E-01  2.1054E+00  1.2147E+00  3.0665E+00
 45  0.0000E+00  5.0598E+00  5.9828E+00  4.1331E+00  4.0787E+00  5.5639E+00  5.3561E+00  3.6414E+00  4.9708E+00

# AV, chi2 & Mass for <> & i_chain = 1 ...  7 solutions
AV       0.7604      0.7562      0.7584      0.7556      0.7613      0.7565      0.7589      0.7571      0.7621
chi2 2.4811E+00  2.5222E+00  2.5063E+00  2.5059E+00  2.5112E+00  2.5134E+00  2.5107E+00  2.5101E+00  2.5091E+00
Mass 5.5083E-10  5.5585E-10  5.5445E-10  5.5576E-10  5.5025E-10  5.5721E-10  5.5725E-10  5.5320E-10  5.6271E-10
  -0.99                                  [v0_min (km/s) before EX0s...]
  86.32                                  [vd_min (km/s) before EX0s...]


## Synthetic spectrum (Best Model) ##l_obs f_obs f_syn wei
 3070    [Nl_obs]
 3359.00    0.27942   0.51645   -1.000
 3360.00    0.26790   0.49468   -1.000
 3361.00    0.26265   0.49219   -1.000
 3362.00    0.27853   0.51126   -1.000
 3363.00    0.30975   0.54032   -1.000
 3364.00    0.33149   0.56237   -1.000
 3365.00    0.33589   0.56647   -1.000
 3366.00    0.34116   0.55338   -1.000
 3367.00    0.34078   0.53245   -1.000
 3368.00    0.33385   0.51487   -1.000
 3369.00    0.32017   0.50532   -1.000
 3370.00    0.32890   0.50129   -1.000
 3371.00    0.32551   0.49863   -1.000
 3372.00    0.32141   0.49931   -1.000
 3373.00    0.33279   0.51032   -1.000
 3374.00    0.34744   0.53299   -1.000
 3375.00    0.35943   0.55993   -1.000
 3376.00    0.37975   0.57702   -1.000
 3377.00    0.40793   0.57440   -1.000
 3378.00    0.40167   0.55601   -1.000
 3379.00    0.39709   0.53499   -1.000
 3380.00    0.39291   0.52488   -1.000
 3381.00    0.39504   0.52985   -1.000
 3382.00    0.40164   0.54445   -1.000
 3383.00    0.39689   0.55975   -1.000
 3384.00    0.40618   0.57223   -1.000
 3385.00    0.41626   0.58296   -1.000
 3386.00    0.42098   0.59017   -1.000
 3387.00    0.43081   0.59138   -1.000
 3388.00    0.43153   0.58830   -1.000
 3389.00    0.44029   0.58378   -1.000
 3390.00    0.44575   0.57771   -1.000
 3391.00    0.44049   0.56865   -1.000
 3392.00    0.44082   0.55893   -1.000
 3393.00    0.43954   0.55564   -1.000
 3394.00    0.44051   0.56420   -1.000
 3395.00    0.45518   0.58194   -1.000
 3396.00    0.47558   0.60198   -1.000
 3397.00    0.48880   0.61829   -1.000
 3398.00    0.49115   0.62687   -1.000
 3399.00    0.49737   0.62567   -1.000
 3400.00    0.50752   0.61606   -1.000
 3401.00    0.50799   0.60143   -1.000
 3402.00    0.49575   0.58559   -1.000
 3403.00    0.48212   0.57347   -1.000
 3404.00    0.48406   0.56761   36.403
 3405.00    0.47365   0.56451   -1.000
 3406.00    0.47138   0.55950   -1.000
 3407.00    0.47133   0.55291   37.668
 3408.00    0.46816   0.54992   37.760
 3409.00    0.46256   0.55427   -1.000
 3410.00    0.47160   0.56236   -1.000
 3411.00    0.48637   0.56641   36.513
 3412.00    0.48808   0.56310   37.918
 3413.00    0.48088   0.55626   38.409
 3414.00    0.47458   0.55311   38.096
 3415.00    0.47276   0.55735   -1.000
 3416.00    0.47687   0.56857   -1.000
 3417.00    0.49241   0.58380   33.615
 3418.00    0.50273   0.59972   -1.000
 3419.00    0.51053   0.61208   -1.000
 3420.00    0.51659   0.61676   -1.000
 3421.00    0.53056   0.61289   32.420
 3422.00    0.51750   0.60479   33.334
 3423.00    0.50331   0.59739   -1.000
 3424.00    0.50919   0.59357   32.687
 3425.00    0.51590   0.59388   31.995
 3426.00    0.52623   0.59888   40.661
 3427.00    0.53748   0.60986   -1.000
 3428.00    0.53850   0.62585   -1.000
 3429.00    0.54663   0.63842   -1.000
 3430.00    0.55853   0.63917   -1.000
 3431.00    0.55256   0.62767   -1.000
 3432.00    0.54469   0.61217   31.953
 3433.00    0.54171   0.60258   40.659
 3434.00    0.53229   0.60228   -1.000
 3435.00    0.53846   0.60723   -1.000
 3436.00    0.54299   0.60896   32.132
 3437.00    0.52956   0.60214   33.755
 3438.00    0.51680   0.58523   35.950
 3439.00    0.50217   0.56061   38.486
 3440.00    0.48316   0.53379   39.653
 3441.00    0.46750   0.51403   39.647
 3442.00    0.46666   0.50772   39.113
 3443.00    0.46639   0.51366   37.392
 3444.00    0.47726   0.52621   35.332
 3445.00    0.50016   0.54192   33.562
 3446.00    0.52707   0.56122   41.992
 3447.00    0.54466   0.58376   -1.000
 3448.00    0.55582   0.60483   -1.000
 3449.00    0.56404   0.61704   -1.000
 3450.00    0.55942   0.61499   -1.000
 3451.00    0.56029   0.60122   -1.000
 3452.00    0.56681   0.58429   -1.000
 3453.00    0.55941   0.57452   -1.000
 3454.00    0.55529   0.57526   -1.000
 3455.00    0.56339   0.58135   -1.000
 3456.00    0.56949   0.58405   -1.000
 3457.00    0.57343   0.57784   96.572
 3458.00    0.55773   0.56532   31.980
 3459.00    0.54614   0.55204   32.250
 3460.00    0.54526   0.54319   41.491
 3461.00    0.53666   0.54438  249.632
 3462.00    0.54916   0.55710  249.632
 3463.00    0.57020   0.57304  249.632
 3464.00    0.59048   0.58225  249.632
 3465.00    0.58306   0.58458  249.632
 3466.00    0.57827   0.58588  249.632
 3467.00    0.59164   0.59111  249.632
 3468.00    0.59677   0.59925  249.632
 3469.00    0.59412   0.60618  249.632
 3470.00    0.60838   0.60798  249.632
 3471.00    0.61613   0.60271   -1.000
 3472.00    0.59966   0.59065  249.632
 3473.00    0.58719   0.57310   95.647
 3474.00    0.56077   0.55277   32.443
 3475.00    0.54224   0.53739   33.160
 3476.00    0.52487   0.53465   42.389
 3477.00    0.52678   0.54504   -1.000
 3478.00    0.56259   0.56198  249.632
 3479.00    0.59860   0.57777   -1.000
 3480.00    0.61155   0.58703   -1.000
 3481.00    0.61261   0.58798   -1.000
 3482.00    0.61099   0.58247   -1.000
 3483.00    0.60482   0.57647   -1.000
 3484.00    0.60443   0.57759   -1.000
 3485.00    0.60636   0.58837   -1.000
 3486.00    0.61749   0.60228   -1.000
 3487.00    0.62896   0.60726   -1.000
 3488.00    0.63330   0.59821   -1.000
 3489.00    0.60505   0.58084   -1.000
 3490.00    0.56555   0.56695  249.632
 3491.00    0.56335   0.56402  249.632
 3492.00    0.57800   0.56828  249.632
 3493.00    0.58611   0.57102   -1.000
 3494.00    0.58539   0.56670   -1.000
 3495.00    0.58107   0.55789   -1.000
 3496.00    0.56245   0.55345  249.632
 3497.00    0.57305   0.56148   -1.000
 3498.00    0.58576   0.57976  249.632
 3499.00    0.60071   0.59603  249.632
 3500.00    0.61211   0.60338  249.632
 3501.00    0.62162   0.60561   -1.000
 3502.00    0.63202   0.60827   -1.000
 3503.00    0.64005   0.61043   -1.000
 3504.00    0.63569   0.60715   -1.000
 3505.00    0.62997   0.59961   -1.000
 3506.00    0.61792   0.59418   -1.000
 3507.00    0.62070   0.59312   -1.000
 3508.00    0.63223   0.59280   -1.000
 3509.00    0.62772   0.58868   -1.000
 3510.00    0.61405   0.58083   -1.000
 3511.00    0.60887   0.57236   -1.000
 3512.00    0.60211   0.56487   -1.000
 3513.00    0.58943   0.55965   -1.000
 3514.00    0.57894   0.56184   -1.000
 3515.00    0.58560   0.57477  249.632
 3516.00    0.60273   0.59468  249.632
 3517.00    0.61525   0.61205  249.632
 3518.00    0.62694   0.61786  249.632
 3519.00    0.62496   0.61031   -1.000
 3520.00    0.60549   0.59403   -1.000
 3521.00    0.58230   0.57666  249.632
 3522.00    0.57703   0.56142   90.936
 3523.00    0.56514   0.54692   32.169
 3524.00    0.54530   0.53460   32.951
 3525.00    0.53385   0.52978   43.529
 3526.00    0.53283   0.53832  249.632
 3527.00    0.55567   0.55923  249.632
 3528.00    0.58536   0.58336  249.632
 3529.00    0.60704   0.60077  249.632
 3530.00    0.62148   0.60748   -1.000
 3531.00    0.61415   0.60750  249.632
 3532.00    0.60471   0.60735  249.632
 3533.00    0.60022   0.61049  249.632
 3534.00    0.60634   0.61565  249.632
 3535.00    0.62201   0.62021  249.632
 3536.00    0.62465   0.62390  249.632
 3537.00    0.62519   0.62864  249.632
 3538.00    0.63214   0.63484  249.632
 3539.00    0.64351   0.63925  249.632
 3540.00    0.64053   0.63879  249.632
 3541.00    0.62920   0.63617  249.632
 3542.00    0.62293   0.63667   -1.000
 3543.00    0.62624   0.64092   -1.000
 3544.00    0.63007   0.64537   -1.000
 3545.00    0.63058   0.64595   -1.000
 3546.00    0.62887   0.64318   -1.000
 3547.00    0.62673   0.64107   -1.000
 3548.00    0.62377   0.64196   -1.000
 3549.00    0.62499   0.64465   -1.000
 3550.00    0.62683   0.64552   -1.000
 3551.00    0.62387   0.64237   -1.000
 3552.00    0.60945   0.63559   -1.000
 3553.00    0.60177   0.62878   -1.000
 3554.00    0.59718   0.62525   -1.000
 3555.00    0.60235   0.62507   -1.000
 3556.00    0.61022   0.62590   -1.000
 3557.00    0.60101   0.62482   -1.000
 3558.00    0.59295   0.62176   -1.000
 3559.00    0.59882   0.62028   -1.000
 3560.00    0.60221   0.62433   -1.000
 3561.00    0.60937   0.63305   -1.000
 3562.00    0.61115   0.63780   -1.000
 3563.00    0.61031   0.62808   87.602
 3564.00    0.59270   0.60242   32.557
 3565.00    0.55983   0.57507   33.389
 3566.00    0.53447   0.55914   33.049
 3567.00    0.53037   0.55358   33.246
 3568.00    0.52759   0.54928   34.244
 3569.00    0.52366   0.54036   34.354
 3570.00    0.51588   0.53215   33.121
 3571.00    0.51838   0.53261   43.484
 3572.00    0.53817   0.54081  249.632
 3573.00    0.55242   0.55011  249.632
 3574.00    0.55537   0.55603  249.632
 3575.00    0.56237   0.55936  249.632
 3576.00    0.57476   0.56196   -1.000
 3577.00    0.57620   0.56178   89.880
 3578.00    0.56568   0.55443   34.010
 3579.00    0.54989   0.53871   36.491
 3580.00    0.52857   0.52080   37.959
 3581.00    0.51240   0.50883   38.163
 3582.00    0.50117   0.50514   38.559
 3583.00    0.50510   0.50470   39.632
 3584.00    0.51113   0.49995   40.722
 3585.00    0.49677   0.49116   40.465
 3586.00    0.48633   0.48615   38.361
 3587.00    0.48956   0.49060   36.373
 3588.00    0.50260   0.50545   34.131
 3589.00    0.52059   0.52785   43.630
 3590.00    0.54713   0.55305  249.632
 3591.00    0.57112   0.57427  249.632
 3592.00    0.58630   0.58689  249.632
 3593.00    0.59367   0.59240  249.632
 3594.00    0.59734   0.59714  249.632
 3595.00    0.60320   0.60618  249.632
 3596.00    0.61185   0.61863  247.398
 3597.00    0.62577   0.63111  241.670
 3598.00    0.63577   0.64098  239.825
 3599.00    0.64147   0.64501  245.385
 3600.00    0.64343   0.63964  249.632
 3601.00    0.62959   0.62385  249.632
 3602.00    0.61163   0.60238  249.632
 3603.00    0.59342   0.58365  249.632
 3604.00    0.58605   0.57424   -1.000
 3605.00    0.58316   0.57393  249.632
 3606.00    0.58281   0.57533  249.632
 3607.00    0.58470   0.57170   -1.000
 3608.00    0.57420   0.56335   -1.000
 3609.00    0.55794   0.55777  249.632
 3610.00    0.55819   0.56099  249.632
 3611.00    0.56754   0.56971  249.632
 3612.00    0.58056   0.57872  249.632
 3613.00    0.58418   0.58741  249.632
 3614.00    0.59263   0.59707  249.632
 3615.00    0.60675   0.60439  249.632
 3616.00    0.60081   0.60017  249.632
 3617.00    0.57862   0.58138   83.429
 3618.00    0.55635   0.56194   43.846
 3619.00    0.53549   0.55734   -1.000
 3620.00    0.55665   0.57011   -1.000
 3621.00    0.59136   0.59071  249.632
 3622.00    0.61066   0.60886  249.015
 3623.00    0.62424   0.62202  243.963
 3624.00    0.62747   0.63523  234.441
 3625.00    0.63521   0.65320   -1.000
 3626.00    0.65412   0.67249   -1.000
 3627.00    0.66946   0.68357   -1.000
 3628.00    0.66533   0.67636  249.632
 3629.00    0.64795   0.64837  249.632
 3630.00    0.61100   0.61111  249.632
 3631.00    0.57128   0.58208  249.632
 3632.00    0.55702   0.57265   -1.000
 3633.00    0.57284   0.58036  249.632
 3634.00    0.59581   0.59438  249.632
 3635.00    0.60435   0.60571  249.632
 3636.00    0.60538   0.61411  245.739
 3637.00    0.62096   0.62514  235.600
 3638.00    0.64144   0.64022  230.185
 3639.00    0.65805   0.65450  231.938
 3640.00    0.66258   0.65991  238.508
 3641.00    0.65259   0.65258  248.156
 3642.00    0.63747   0.63555  249.632
 3643.00    0.62256   0.61641  249.632
 3644.00    0.60828   0.60218  249.632
 3645.00    0.59422   0.59416  249.632
 3646.00    0.59261   0.58933  249.632
 3647.00    0.59190   0.58666  249.632
 3648.00    0.58614   0.58783  249.632
 3649.00    0.58729   0.59468  249.632
 3650.00    0.60496   0.60751  243.801
 3651.00    0.62209   0.62469  234.992
 3652.00    0.63576   0.64225  230.091
 3653.00    0.65282   0.65653  227.718
 3654.00    0.66112   0.66622  226.358
 3655.00    0.66166   0.67362   -1.000
 3656.00    0.66537   0.68155   -1.000
 3657.00    0.67262   0.68898   -1.000
 3658.00    0.68525   0.69329  218.711
 3659.00    0.68277   0.69323  219.493
 3660.00    0.67880   0.68903  221.945
 3661.00    0.67118   0.68169  224.799
 3662.00    0.66421   0.67321  227.980
 3663.00    0.66643   0.66618  228.171
 3664.00    0.66555   0.66292  226.300
 3665.00    0.66673   0.66270  228.023
 3666.00    0.66715   0.66174  232.158
 3667.00    0.66489   0.65670  235.737
 3668.00    0.65271   0.64893  239.173
 3669.00    0.64067   0.64577  234.953
 3670.00    0.64210   0.65183  227.396
 3671.00    0.65698   0.66408  224.151
 3672.00    0.66595   0.67487  223.660
 3673.00    0.66983   0.67842  223.808
 3674.00    0.66597   0.67432  226.468
 3675.00    0.66146   0.66411  233.622
 3676.00    0.65760   0.64989  240.843
 3677.00    0.64478   0.63468  247.761
 3678.00    0.63628   0.62213   -1.000
 3679.00    0.62431   0.61581  248.855
 3680.00    0.62240   0.61675  242.006
 3681.00    0.63220   0.62327  236.613
 3682.00    0.64432   0.63101   -1.000
 3683.00    0.64762   0.63420   -1.000
 3684.00    0.64263   0.62851   -1.000
 3685.00    0.62748   0.61461   -1.000
 3686.00    0.61250   0.60138  249.632
 3687.00    0.60468   0.59919  249.632
 3688.00    0.60943   0.61212  235.393
 3689.00    0.63128   0.63494  222.740
 3690.00    0.65647   0.65729  218.985
 3691.00    0.67879   0.67041  222.275
 3692.00    0.68682   0.67352  227.471
 3693.00    0.67690   0.67145  229.114
 3694.00    0.67539   0.66760  227.687
 3695.00    0.67229   0.66344  225.376
 3696.00    0.66679   0.66206  220.956
 3697.00    0.67680   0.66900  214.198
 3698.00    0.68832   0.68599  209.684
 3699.00    0.70287   0.70587  209.256
 3700.00    0.71267   0.71509  215.282
 3701.00    0.70834   0.70312  228.797
 3702.00    0.68472   0.66967   -1.000
 3703.00    0.64482   0.62675   -1.000
 3704.00    0.61165   0.59051   -1.000
 3705.00    0.58963   0.57316   -1.000
 3706.00    0.58748   0.57559   -1.000
 3707.00    0.60446   0.58812   -1.000
 3708.00    0.61679   0.60009   -1.000
 3709.00    0.62209   0.60669   -1.000
 3710.00    0.62638   0.61109   -1.000
 3711.00    0.63409   0.62135  218.615
 3712.00    0.65082   0.64302  209.967
 3713.00    0.68623   0.67247  206.444
 3714.00    0.72429   0.70063   -1.000
 3715.00    0.74009   0.71838   -1.000
 3716.00    0.73721   0.71972   -1.000
 3717.00    0.72091   0.70175   -1.000
 3718.00    0.68089   0.66325   -1.000
 3719.00    0.62183   0.60937   78.089
 3720.00    0.56451   0.55873   46.867
 3721.00    0.53031   0.53208  249.632
 3722.00    0.53890   0.53934  249.632
 3723.00    0.58167   0.57562  236.066
 3724.00    0.64199   0.62306   -1.000
 3725.00    0.68255   0.65963   -1.000
 3726.00    0.69435   0.67653   -1.000
 3727.00    0.68817   0.68297  240.003
 3728.00    0.67903   0.68798  238.230
 3729.00    0.68496   0.68897  243.740
 3730.00    0.68533   0.67524   -1.000
 3731.00    0.65969   0.63893   74.713
 3732.00    0.61650   0.58508   33.007
 3733.00    0.55328   0.52926   36.063
 3734.00    0.50154   0.48974   36.237
 3735.00    0.48654   0.47966   33.795
 3736.00    0.50700   0.50171   46.165
 3737.00    0.55290   0.54834  249.632
 3738.00    0.60678   0.60668  246.797
 3739.00    0.65316   0.66049  237.234
 3740.00    0.68627   0.69526  239.808
 3741.00    0.69580   0.70545  249.632
 3742.00    0.69003   0.69469  249.632
 3743.00    0.67080   0.67092  249.632
 3744.00    0.64425   0.64229  249.632
 3745.00    0.61650   0.61235   76.067
 3746.00    0.58683   0.57968   32.919
 3747.00    0.56109   0.54263   34.428
 3748.00    0.52793   0.50661   50.785
 3749.00    0.50081   0.48815   -1.000
 3750.00    0.51288   0.50171   -1.000
 3751.00    0.56961   0.54599   -1.000
 3752.00    0.63867   0.60622   -1.000
 3753.00    0.69029   0.66524   -1.000
 3754.00    0.73003   0.70910   -1.000
 3755.00    0.75379   0.72777   -1.000
 3756.00    0.74170   0.71767   -1.000
 3757.00    0.70513   0.68813   -1.000
 3758.00    0.66372   0.65867  249.632
 3759.00    0.64216   0.64532  249.632
 3760.00    0.66368   0.64984   -1.000
 3761.00    0.68983   0.66291   -1.000
 3762.00    0.69986   0.67620   -1.000
 3763.00    0.69989   0.68494   -1.000
 3764.00    0.70258   0.68544   -1.000
 3765.00    0.70642   0.67552   -1.000
 3766.00    0.68734   0.65640   -1.000
 3767.00    0.66377   0.63156   -1.000
 3768.00    0.65267   0.60486   -1.000
 3769.00    0.63600   0.58195   -1.000
 3770.00    0.61786   0.57209   -1.000
 3771.00    0.62748   0.58379   -1.000
 3772.00    0.66425   0.61536   -1.000
 3773.00    0.70192   0.65293   -1.000
 3774.00    0.72283   0.68419   -1.000
 3775.00    0.72644   0.70749   -1.000
 3776.00    0.73590   0.72727  217.584
 3777.00    0.75931   0.74793  212.850
 3778.00    0.78049   0.77018  206.453
 3779.00    0.79421   0.79137  202.963
 3780.00    0.80561   0.80820  201.692
 3781.00    0.81898   0.81879  200.973
 3782.00    0.82592   0.82305  202.804
 3783.00    0.82511   0.82005  209.838
 3784.00    0.81921   0.80710   -1.000
 3785.00    0.79636   0.78334   -1.000
 3786.00    0.75795   0.75440  246.701
 3787.00    0.73346   0.72954  249.363
 3788.00    0.72541   0.71498   -1.000
 3789.00    0.72303   0.71039   -1.000
 3790.00    0.73066   0.71037   -1.000
 3791.00    0.73027   0.70717   -1.000
 3792.00    0.71520   0.69399   -1.000
 3793.00    0.69729   0.66894   -1.000
 3794.00    0.66742   0.63433   -1.000
 3795.00    0.63384   0.59443   -1.000
 3796.00    0.60282   0.55427   -1.000
 3797.00    0.56427   0.52308   -1.000
 3798.00    0.54236   0.51616   -1.000
 3799.00    0.56859   0.54321   -1.000
 3800.00    0.62435   0.59637   -1.000
 3801.00    0.68477   0.65763   -1.000
 3802.00    0.73392   0.71002   -1.000
 3803.00    0.76204   0.74454   -1.000
 3804.00    0.77475   0.75995   -1.000
 3805.00    0.77513   0.76024   -1.000
 3806.00    0.76223   0.75555  237.967
 3807.00    0.75507   0.75930  230.357
 3808.00    0.76921   0.77617  223.819
 3809.00    0.79340   0.79777  224.064
 3810.00    0.80780   0.80955  231.511
 3811.00    0.80061   0.80119  244.930
 3812.00    0.77655   0.77383  249.632
 3813.00    0.74474   0.73866  249.632
 3814.00    0.71039   0.71114  249.632
 3815.00    0.69744   0.70177  249.632
 3816.00    0.71013   0.70876  249.632
 3817.00    0.72799   0.71793  249.632
 3818.00    0.73088   0.71555   -1.000
 3819.00    0.71303   0.70041   -1.000
 3820.00    0.68895   0.68439  249.632
 3821.00    0.68752   0.67915  249.632
 3822.00    0.70200   0.68032   -1.000
 3823.00    0.69949   0.67422   74.021
 3824.00    0.67271   0.65585   33.560
 3825.00    0.64333   0.63332   33.875
 3826.00    0.62672   0.61735   33.467
 3827.00    0.62985   0.61061   32.917
 3828.00    0.63662   0.60795   32.750
 3829.00    0.64112   0.60168   33.595
 3830.00    0.63728   0.58596   35.596
 3831.00    0.61030   0.55824   37.795
 3832.00    0.57132   0.52124   38.159
 3833.00    0.53510   0.48316   37.053
 3834.00    0.50858   0.45569   35.816
 3835.00    0.50469   0.44686   35.652
 3836.00    0.51975   0.45604   36.481
 3837.00    0.54083   0.47668   36.749
 3838.00    0.55698   0.50293   35.470
 3839.00    0.57104   0.53456   52.395
 3840.00    0.60231   0.57404   -1.000
 3841.00    0.64937   0.61979   -1.000
 3842.00    0.70038   0.66535   -1.000
 3843.00    0.73395   0.70316   -1.000
 3844.00    0.74437   0.72943   -1.000
 3845.00    0.75252   0.74671  249.632
 3846.00    0.76138   0.75916  249.632
 3847.00    0.76858   0.76726  249.632
 3848.00    0.76717   0.76899  249.632
 3849.00    0.75291   0.76711   -1.000
 3850.00    0.74300   0.76803   -1.000
 3851.00    0.75039   0.77483   -1.000
 3852.00    0.76620   0.78331   -1.000
 3853.00    0.77435   0.78530  249.632
 3854.00    0.77063   0.77764  249.632
 3855.00    0.75688   0.76410  249.632
 3856.00    0.74450   0.74844   68.460
 3857.00    0.73614   0.73227   32.294
 3858.00    0.71348   0.71853   33.215
 3859.00    0.68753   0.71382   50.594
 3860.00    0.68900   0.72448   -1.000
 3861.00    0.72904   0.74787   -1.000
 3862.00    0.77972   0.77278  249.632
 3863.00    0.80259   0.78762   -1.000
 3864.00    0.79553   0.79061  249.632
 3865.00    0.78983   0.78799  249.632
 3866.00    0.78457   0.78563  249.632
 3867.00    0.77921   0.78514  249.632
 3868.00    0.77620   0.78285  249.632
 3869.00    0.76276   0.77265   69.113
 3870.00    0.73823   0.75293   49.888
 3871.00    0.71721   0.73013  249.632
 3872.00    0.70681   0.71681  249.632
 3873.00    0.71301   0.72135  249.632
 3874.00    0.74337   0.73980  248.672
 3875.00    0.76976   0.75503   -1.000
 3876.00    0.75959   0.75301  249.632
 3877.00    0.72816   0.73645  249.632
 3878.00    0.70749   0.71953  249.632
 3879.00    0.70507   0.71194  249.632
 3880.00    0.71167   0.71081  249.632
 3881.00    0.70549   0.70825  249.632
 3882.00    0.69261   0.70065  249.632
 3883.00    0.69619   0.68738  249.632
 3884.00    0.70048   0.66544   -1.000
 3885.00    0.67763   0.63065   -1.000
 3886.00    0.63400   0.58578   -1.000
 3887.00    0.59207   0.54421   -1.000
 3888.00    0.57079   0.52158   -1.000
 3889.00    0.57609   0.52849   -1.000
 3890.00    0.61687   0.56387   -1.000
 3891.00    0.67461   0.61403   -1.000
 3892.00    0.71895   0.65940   -1.000
 3893.00    0.74197   0.68922   -1.000
 3894.00    0.74780   0.70694   -1.000
 3895.00    0.75322   0.72149   -1.000
 3896.00    0.77593   0.73680   -1.000
 3897.00    0.78725   0.74943   -1.000
 3898.00    0.78398   0.75687   -1.000
 3899.00    0.78624   0.76260   -1.000
 3900.00    0.79625   0.77070   -1.000
 3901.00    0.80400   0.77926   -1.000
 3902.00    0.80443   0.78228   -1.000
 3903.00    0.79644   0.77662   -1.000
 3904.00    0.78093   0.76693   -1.000
 3905.00    0.76518   0.76269  224.012
 3906.00    0.76175   0.77159  209.795
 3907.00    0.77891   0.79461   -1.000
 3908.00    0.81240   0.82434  196.189
 3909.00    0.84236   0.84958  194.418
 3910.00    0.85988   0.86473  192.859
 3911.00    0.86471   0.86988  193.186
 3912.00    0.85983   0.86639  196.272
 3913.00    0.85127   0.85715  200.625
 3914.00    0.83821   0.84666  204.438
 3915.00    0.83177   0.83807  207.055
 3916.00    0.82804   0.83124  211.231
 3917.00    0.81676   0.82334  218.835
 3918.00    0.80124   0.81203  228.951
 3919.00    0.78305   0.79834   -1.000
 3920.00    0.76626   0.78681   -1.000
 3921.00    0.76146   0.78232   -1.000
 3922.00    0.76925   0.78473   -1.000
 3923.00    0.77476   0.78773   -1.000
 3924.00    0.76772   0.78281   -1.000
 3925.00    0.74420   0.76431   -1.000
 3926.00    0.70858   0.73138   72.154
 3927.00    0.66135   0.68622   37.580
 3928.00    0.60610   0.63256   44.032
 3929.00    0.54486   0.57263   51.750
 3930.00    0.47182   0.50731   60.983
 3931.00    0.39439   0.44058   69.402
 3932.00    0.32673   0.38193   -1.000
 3933.00    0.29235   0.34817   -1.000
 3934.00    0.30184   0.35363   55.568
 3935.00    0.34598   0.39721   45.771
 3936.00    0.41613   0.46385   37.998
 3937.00    0.49349   0.53725   55.450
 3938.00    0.56679   0.60556   -1.000
 3939.00    0.62827   0.66219   -1.000
 3940.00    0.66732   0.70334   -1.000
 3941.00    0.68754   0.72770   -1.000
 3942.00    0.69561   0.73911   -1.000
 3943.00    0.69996   0.74547   -1.000
 3944.00    0.71331   0.75458   -1.000
 3945.00    0.74456   0.76896   -1.000
 3946.00    0.78053   0.78418  216.403
 3947.00    0.79380   0.79503  211.967
 3948.00    0.79255   0.80215  204.458
 3949.00    0.79930   0.80846  201.124
 3950.00    0.81471   0.81362  203.052
 3951.00    0.82125   0.81675  203.148
 3952.00    0.82008   0.81990  198.781
 3953.00    0.82534   0.82431  196.911
 3954.00    0.83404   0.82627  201.382
 3955.00    0.82883   0.82133  207.070
 3956.00    0.80947   0.81201  207.227
 3957.00    0.79863   0.80475  207.177
 3958.00    0.80446   0.79851  219.434
 3959.00    0.79633   0.78382   -1.000
 3960.00    0.75699   0.75387  249.632
 3961.00    0.70492   0.71231  249.632
 3962.00    0.66101   0.66905   66.859
 3963.00    0.62346   0.62736   35.451
 3964.00    0.58010   0.58039   42.472
 3965.00    0.51459   0.51952   52.270
 3966.00    0.42707   0.44513   61.351
 3967.00    0.34349   0.37351   62.725
 3968.00    0.29118   0.32710   54.948
 3969.00    0.29157   0.32070   45.175
 3970.00    0.33870   0.35404   37.438
 3971.00    0.41487   0.41504   55.487
 3972.00    0.50156   0.48768   -1.000
 3973.00    0.58085   0.56043   -1.000
 3974.00    0.64886   0.62712   -1.000
 3975.00    0.70514   0.68524   -1.000
 3976.00    0.74487   0.73487  197.937
 3977.00    0.78386   0.77732  187.427
 3978.00    0.82016   0.81394  180.881
 3979.00    0.84924   0.84184  180.369
 3980.00    0.87238   0.85688  182.694
 3981.00    0.87397   0.86010  184.069
 3982.00    0.86311   0.85946  181.507
 3983.00    0.86381   0.86335  177.771
 3984.00    0.88359   0.87316  174.557
 3985.00    0.90246   0.88487  171.497
 3986.00    0.91288   0.89586  168.943
 3987.00    0.92288   0.90674  168.371
 3988.00    0.93087   0.91802  168.255
 3989.00    0.93478   0.92853  165.838
 3990.00    0.93702   0.93827  161.848
 3991.00    0.94648   0.94830  160.586
 3992.00    0.96204   0.95684  163.514
 3993.00    0.96254   0.95913  167.429
 3994.00    0.95240   0.95227  170.993
 3995.00    0.93581   0.93856  173.421
 3996.00    0.91924   0.92509  172.346
 3997.00    0.90846   0.92003  166.445
 3998.00    0.91613   0.92723  159.651
 3999.00    0.94461   0.94360  155.601
 4000.00    0.96796   0.96195  153.281
 4001.00    0.98346   0.97388  153.483
 4002.00    0.99576   0.97314  159.962
 4003.00    0.98823   0.95828   -1.000
 4004.00    0.95458   0.93500  173.922
 4005.00    0.91888   0.91641  168.210
 4006.00    0.91828   0.91631  159.771
 4007.00    0.94800   0.93532  155.468
 4008.00    0.97024   0.96114  153.659
 4009.00    0.98350   0.98129  152.537
 4010.00    0.99747   0.99150  152.796
 4011.00    0.99557   0.99467  153.802
 4012.00    0.99047   0.99571  153.702
 4013.00    0.99539   0.99790  152.023
 4014.00    0.99813   1.00110  151.458
 4015.00    1.00059   1.00353  153.100
 4016.00    1.00492   1.00523  153.775
 4017.00    0.99936   1.00827  152.204
 4018.00    1.00155   1.01404  151.086
 4019.00    1.00978   1.02048  152.369
 4020.00    1.00928   1.02370  154.020
 4021.00    1.00429   1.02143   -1.000
 4022.00    1.00000   1.01461   -1.000
 4023.00    0.99204   1.00631   -1.000
 4024.00    0.98506   1.00137   -1.000
 4025.00    0.99684   1.00484  145.805
 4026.00    1.02023   1.01596  144.899
 4027.00    1.03580   1.02498  148.464
 4028.00    1.03522   1.01998  156.588
 4029.00    1.00578   0.99838  165.537
 4030.00    0.96358   0.96898  170.096
 4031.00    0.93639   0.94431  170.047
 4032.00    0.92926   0.93341  166.165
 4033.00    0.94011   0.93841  159.293
 4034.00    0.96117   0.95723  151.360
 4035.00    0.98906   0.98603  144.922
 4036.00    1.02181   1.01909  142.021
 4037.00    1.04880   1.04694  143.245
 4038.00    1.05816   1.06031  146.550
 4039.00    1.05098   1.05814  149.163
 4040.00    1.03426   1.04833  150.324
 4041.00    1.02008   1.03668   -1.000
 4042.00    1.01688   1.01961  165.219
 4043.00    0.99719   0.99046  180.081
 4044.00    0.94212   0.95379  183.548
 4045.00    0.89277   0.92950   -1.000
 4046.00    0.89514   0.93361   -1.000
 4047.00    0.94850   0.96316  149.773
 4048.00    1.00467   1.00091  146.796
 4049.00    1.02727   1.02965  146.439
 4050.00    1.03420   1.04230  148.943
 4051.00    1.03199   1.04016  153.001
 4052.00    1.02039   1.02795  156.208
 4053.00    1.00627   1.01247  158.040
 4054.00    0.99400   1.00049  159.187
 4055.00    0.99060   0.99356  160.550
 4056.00    0.99304   0.99006  160.505
 4057.00    0.98977   0.99119  156.592
 4058.00    0.99079   0.99932  152.087
 4059.00    1.00517   1.01117  151.822
 4060.00    1.02022   1.01530  158.569
 4061.00    1.01667   1.00209  170.144
 4062.00    0.97648   0.97519  174.880
 4063.00    0.93080   0.94836   -1.000
 4064.00    0.92124   0.93443  162.572
 4065.00    0.94727   0.93639  158.461
 4066.00    0.97164   0.94921  153.741
 4067.00    0.98242   0.96615  150.226
 4068.00    1.00058   0.98015  152.136
 4069.00    1.01529   0.98307   -1.000
 4070.00    1.00322   0.97277   -1.000
 4071.00    0.97563   0.95851  158.263
 4072.00    0.96218   0.95238  154.777
 4073.00    0.97827   0.95502   -1.000
 4074.00    0.99205   0.95391   -1.000
 4075.00    0.97155   0.93912   -1.000
 4076.00    0.92944   0.91614  178.375
 4077.00    0.89734   0.90117  169.033
 4078.00    0.90489   0.90744  157.267
 4079.00    0.94534   0.93404  149.441
 4080.00    0.98616   0.96660  148.454
 4081.00    1.00931   0.98747  152.367
 4082.00    1.00987   0.98945  156.247
 4083.00    0.99448   0.97917  156.236
 4084.00    0.97705   0.97023  152.328
 4085.00    0.97802   0.97305  146.752
 4086.00    1.00168   0.98846  141.547
 4087.00    1.02831   1.00882  139.573
 4088.00    1.04323   1.02330  141.418
 4089.00    1.04323   1.02550  144.261
 4090.00    1.03335   1.01702  146.428
 4091.00    1.02096   1.00459  147.304
 4092.00    1.00985   0.99239  148.687
 4093.00    1.00609   0.97853   -1.000
 4094.00    0.99593   0.95894   -1.000
 4095.00    0.96679   0.93239   -1.000
 4096.00    0.93940   0.90121   -1.000
 4097.00    0.91671   0.86594   -1.000
 4098.00    0.88903   0.82288   -1.000
 4099.00    0.84514   0.76962   -1.000
 4100.00    0.77720   0.71427   -1.000
 4101.00    0.71650   0.67736   -1.000
 4102.00    0.70958   0.67808   -1.000
 4103.00    0.76104   0.71824   -1.000
 4104.00    0.83575   0.78052   -1.000
 4105.00    0.89743   0.84077   -1.000
 4106.00    0.93365   0.88459   -1.000
 4107.00    0.95100   0.91100   -1.000
 4108.00    0.95250   0.92515   -1.000
 4109.00    0.94612   0.93351  160.718
 4110.00    0.94746   0.94196  157.794
 4111.00    0.96010   0.95371  154.626
 4112.00    0.97793   0.96919  152.123
 4113.00    0.99443   0.98726  150.222
 4114.00    1.00582   1.00514  149.888
 4115.00    1.01649   1.01760  151.914
 4116.00    1.02250   1.02014  156.177
 4117.00    1.01364   1.01312  159.773
 4118.00    0.99647   1.00223  159.595
 4119.00    0.98314   0.99413  157.701
 4120.00    0.98018   0.99186  156.988
 4121.00    0.98485   0.99404  156.234
 4122.00    0.99212   0.99858  153.948
 4123.00    1.00457   1.00527  152.319
 4124.00    1.01751   1.01291  153.154
 4125.00    1.02593   1.01705  155.914
 4126.00    1.02123   1.01387  158.258
 4127.00    1.00066   1.00531  159.266
 4128.00    0.98696   0.99674  160.678
 4129.00    0.98758   0.99003  164.286
 4130.00    0.98430   0.98165  169.558
 4131.00    0.97217   0.96976  172.409
 4132.00    0.95987   0.96032  169.566
 4133.00    0.95676   0.96251  162.274
 4134.00    0.97091   0.97978  155.526
 4135.00    0.99528   1.00685  151.836
 4136.00    1.02014   1.03482  149.466
 4137.00    1.03885   1.05734   -1.000
 4138.00    1.04855   1.07206   -1.000
 4139.00    1.05775   1.07605   -1.000
 4140.00    1.05868   1.06460  165.712
 4141.00    1.02505   1.03774  177.243
 4142.00    0.97296   1.00530   -1.000
 4143.00    0.94248   0.98301   -1.000
 4144.00    0.94530   0.98255   -1.000
 4145.00    0.97697   1.00084   -1.000
 4146.00    1.01088   1.02260  158.017
 4147.00    1.02504   1.03509  161.868
 4148.00    1.02111   1.03707   -1.000
 4149.00    1.01197   1.03532   -1.000
 4150.00    1.00982   1.03488   -1.000
 4151.00    1.00848   1.03419   -1.000
 4152.00    1.04181   1.02918  166.872
 4153.00    1.11362   1.01961   -1.000
 4154.00    1.05605   1.01061   -1.000
 4155.00    0.90240   1.00847   -1.000
 4156.00    0.90353   1.01537   -1.000
 4157.00    1.00146   1.02873   -1.000
 4158.00    1.03348   1.04391  158.513
 4159.00    1.03260   1.05661   -1.000
 4160.00    1.03901   1.06520   -1.000
 4161.00    1.04457   1.07139   -1.000
 4162.00    1.05118   1.07721   -1.000
 4163.00    1.05231   1.08202   -1.000
 4164.00    1.04600   1.08308   -1.000
 4165.00    1.03910   1.07837   -1.000
 4166.00    1.02718   1.06948   -1.000
 4167.00    1.01922   1.06063   -1.000
 4168.00    1.02280   1.05342   -1.000
 4169.00    1.02585   1.04271   -1.000
 4170.00    1.01314   1.02177  176.066
 4171.00    0.97632   0.99210   -1.000
 4172.00    0.94058   0.96568   -1.000
 4173.00    0.92919   0.95623   -1.000
 4174.00    0.94384   0.96607   -1.000
 4175.00    0.96760   0.98416   -1.000
 4176.00    0.97660   0.99823   -1.000
 4177.00    0.97254   1.00612   -1.000
 4178.00    0.97366   1.01336   -1.000
 4179.00    0.98930   1.02241   -1.000
 4180.00    1.00719   1.02924   -1.000
 4181.00    1.00650   1.03055   -1.000
 4182.00    0.99865   1.02954   -1.000
 4183.00    1.00498   1.03145   -1.000
 4184.00    1.01412   1.03543   -1.000
 4185.00    1.01681   1.03558   -1.000
 4186.00    1.00607   1.02970   -1.000
 4187.00    0.99100   1.02285   -1.000
 4188.00    0.99136   1.02176   -1.000
 4189.00    1.00128   1.02772   -1.000
 4190.00    1.00343   1.03739   -1.000
 4191.00    1.00682   1.04826   -1.000
 4192.00    1.02658   1.05812   -1.000
 4193.00    1.04130   1.06181   -1.000
 4194.00    1.03319   1.05405   -1.000
 4195.00    1.01451   1.03473   -1.000
 4196.00    0.99426   1.00963   -1.000
 4197.00    0.97332   0.98652   -1.000
 4198.00    0.95476   0.97074   -1.000
 4199.00    0.94990   0.96413   -1.000
 4200.00    0.95868   0.96550  169.016
 4201.00    0.96769   0.97180  167.039
 4202.00    0.97438   0.98104  165.155
 4203.00    0.98097   0.99368  162.880
 4204.00    0.98479   1.01014   -1.000
 4205.00    0.99190   1.02899   -1.000
 4206.00    1.00442   1.04727   -1.000
 4207.00    1.01680   1.06118   -1.000
 4208.00    1.02538   1.06834   -1.000
 4209.00    1.02847   1.07036   -1.000
 4210.00    1.02797   1.07181   -1.000
 4211.00    1.03179   1.07460   -1.000
 4212.00    1.03742   1.07430   -1.000
 4213.00    1.03236   1.06466   -1.000
 4214.00    1.01190   1.04631   -1.000
 4215.00    0.98480   1.02895   -1.000
 4216.00    0.97935   1.02392   -1.000
 4217.00    1.00161   1.03521   -1.000
 4218.00    1.03164   1.05635   -1.000
 4219.00    1.05373   1.07563   -1.000
 4220.00    1.06346   1.08380   -1.000
 4221.00    1.05862   1.07592   -1.000
 4222.00    1.03825   1.04954  168.239
 4223.00    1.00397   1.00584  188.249
 4224.00    0.95555   0.95282  208.476
 4225.00    0.89282   0.90618   -1.000
 4226.00    0.83967   0.88502   -1.000
 4227.00    0.84965   0.90118   -1.000
 4228.00    0.91938   0.94735   -1.000
 4229.00    0.99521   0.99904  147.832
 4230.00    1.04236   1.03340  149.294
 4231.00    1.04916   1.04309  153.090
 4232.00    1.02749   1.03499  155.735
 4233.00    1.00528   1.02096   -1.000
 4234.00    0.99571   1.00934   -1.000
 4235.00    0.98989   1.00265  162.313
 4236.00    0.98673   1.00103   -1.000
 4237.00    0.99031   1.00521   -1.000
 4238.00    0.99392   1.01532   -1.000
 4239.00    0.99715   1.02906   -1.000
 4240.00    1.01586   1.04279   -1.000
 4241.00    1.03630   1.05415   -1.000
 4242.00    1.03831   1.06312   -1.000
 4243.00    1.04703   1.06986   -1.000
 4244.00    1.05887   1.07171  149.549
 4245.00    1.04836   1.06438   -1.000
 4246.00    1.01865   1.04743   -1.000
 4247.00    0.99109   1.02707   -1.000
 4248.00    0.97782   1.01202   -1.000
 4249.00    0.97595   1.00737   -1.000
 4250.00    0.97667   1.01249   -1.000
 4251.00    0.98768   1.02231   -1.000
 4252.00    1.00878   1.02954   -1.000
 4253.00    1.01395   1.02984   -1.000
 4254.00    1.00583   1.02733   -1.000
 4255.00    1.00746   1.02950   -1.000
 4256.00    1.02422   1.03544  153.354
 4257.00    1.03552   1.03543  160.911
 4258.00    1.02148   1.02317  167.283
 4259.00    0.98746   1.00554   -1.000
 4260.00    0.96968   0.99789   -1.000
 4261.00    0.98373   1.01013   -1.000
 4262.00    1.01512   1.03821   -1.000
 4263.00    1.04660   1.06863   -1.000
 4264.00    1.06692   1.08938   -1.000
 4265.00    1.07284   1.09613   -1.000
 4266.00    1.06765   1.09053   -1.000
 4267.00    1.05302   1.07531   -1.000
 4268.00    1.03640   1.05150   -1.000
 4269.00    1.01856   1.02032  175.724
 4270.00    0.98303   0.98648  181.422
 4271.00    0.94189   0.95848   -1.000
 4272.00    0.92749   0.94451   -1.000
 4273.00    0.94080   0.94724  168.753
 4274.00    0.95712   0.96419  159.063
 4275.00    0.98162   0.99172  150.367
 4276.00    1.01681   1.02399  147.409
 4277.00    1.04561   1.05068  151.294
 4278.00    1.04781   1.06232   -1.000
 4279.00    1.02589   1.05853   -1.000
 4280.00    1.00678   1.04797   -1.000
 4281.00    0.99922   1.03979   -1.000
 4282.00    1.00148   1.03620   -1.000
 4283.00    1.00695   1.03313   -1.000
 4284.00    1.00620   1.02654   -1.000
 4285.00    0.99424   1.01541   -1.000
 4286.00    0.98230   0.99968   -1.000
 4287.00    0.96918   0.97925  181.253
 4288.00    0.94409   0.95617  185.342
 4289.00    0.91103   0.93779   -1.000
 4290.00    0.89598   0.93404   -1.000
 4291.00    0.91995   0.94712   -1.000
 4292.00    0.96370   0.96699  162.362
 4293.00    0.98819   0.98007  164.665
 4294.00    0.98542   0.97995  168.026
 4295.00    0.97542   0.96819  174.596
 4296.00    0.96619   0.94748  187.209
 4297.00    0.94164   0.91837   -1.000
 4298.00    0.89747   0.88356  210.131
 4299.00    0.85228   0.85143  207.187
 4300.00    0.83358   0.83119  202.606
 4301.00    0.84252   0.82605  199.597
 4302.00    0.85395   0.83280   -1.000
 4303.00    0.86713   0.84578   -1.000
 4304.00    0.87814   0.85802   -1.000
 4305.00    0.87861   0.86169   -1.000
 4306.00    0.86625   0.85333  218.215
 4307.00    0.84330   0.83885  217.680
 4308.00    0.82516   0.83036  208.634
 4309.00    0.83210   0.83689  195.739
 4310.00    0.86342   0.85727  184.635
 4311.00    0.89553   0.88349  176.516
 4312.00    0.91578   0.91101  167.553
 4313.00    0.92813   0.94304  154.723
 4314.00    0.95233   0.98473   -1.000
 4315.00    0.99905   1.03484   -1.000
 4316.00    1.05165   1.08295   -1.000
 4317.00    1.08592   1.11620   -1.000
 4318.00    1.09796   1.12846   -1.000
 4319.00    1.09152   1.12233   -1.000
 4320.00    1.07364   1.10346   -1.000
 4321.00    1.06009   1.07440  156.893
 4322.00    1.03828   1.03548  170.125
 4323.00    1.00134   0.99124  180.586
 4324.00    0.95629   0.95439  176.048
 4325.00    0.92358   0.94090   -1.000
 4326.00    0.93656   0.95846   -1.000
 4327.00    0.98865   0.99784  140.225
 4328.00    1.04051   1.03797  139.687
 4329.00    1.06332   1.06296  139.533
 4330.00    1.06236   1.07195  137.696
 4331.00    1.05874   1.07330  135.846
 4332.00    1.05590   1.07286  135.147
 4333.00    1.05391   1.06851  136.456
 4334.00    1.05288   1.05276  142.700
 4335.00    1.04262   1.01753   -1.000
 4336.00    1.00396   0.95899   -1.000
 4337.00    0.93575   0.88340   -1.000
 4338.00    0.86171   0.80813   -1.000
 4339.00    0.79218   0.75489   -1.000
 4340.00    0.74927   0.74055  168.794
 4341.00    0.77462   0.76884  155.917
 4342.00    0.85297   0.82637   -1.000
 4343.00    0.92676   0.89082   -1.000
 4344.00    0.97554   0.94688   -1.000
 4345.00    1.00882   0.99151  140.284
 4346.00    1.03008   1.02717  138.312
 4347.00    1.04326   1.05390  137.634
 4348.00    1.05990   1.06709  142.456
 4349.00    1.06878   1.06153  152.301
 4350.00    1.04584   1.03973  158.184
 4351.00    1.00648   1.01586  154.740
 4352.00    0.99505   1.00712  147.761
 4353.00    1.02138   1.02005  142.379
 4354.00    1.05387   1.04681  138.925
 4355.00    1.07789   1.07382  137.880
 4356.00    1.09606   1.09210  139.830
 4357.00    1.10055   1.10051  142.155
 4358.00    1.08493   1.10329   -1.000
 4359.00    1.07087   1.10685   -1.000
 4360.00    1.08382   1.11579   -1.000
 4361.00    1.10451   1.12939   -1.000
 4362.00    1.11457   1.14324   -1.000
 4363.00    1.11977   1.15374   -1.000
 4364.00    1.12951   1.15840   -1.000
 4365.00    1.13189   1.15420   -1.000
 4366.00    1.11529   1.14071   -1.000
 4367.00    1.09047   1.12291   -1.000
 4368.00    1.07523   1.10747   -1.000
 4369.00    1.07779   1.09725   -1.000
 4370.00    1.08773   1.09004  141.171
 4371.00    1.09222   1.08087  145.323
 4372.00    1.08480   1.06595  151.318
 4373.00    1.06115   1.04689  153.647
 4374.00    1.02799   1.03236  149.497
 4375.00    1.01732   1.03280  142.304
 4376.00    1.03984   1.05040  138.024
 4377.00    1.07731   1.07571  137.736
 4378.00    1.10403   1.09499  139.665
 4379.00    1.11038   1.09815  144.755
 4380.00    1.10329   1.07983  157.320
 4381.00    1.07903   1.03993   -1.000
 4382.00    1.02059   0.98773   -1.000
 4383.00    0.95167   0.94356  173.258
 4384.00    0.92673   0.92878  156.616
 4385.00    0.96365   0.94809  147.956
 4386.00    1.02505   0.98501   -1.000
 4387.00    1.05932   1.01798   -1.000
 4388.00    1.06342   1.03700   -1.000
 4389.00    1.06011   1.04529  146.855
 4390.00    1.06262   1.05058  143.618
 4391.00    1.07390   1.05705  143.021
 4392.00    1.09263   1.06290   -1.000
 4393.00    1.09405   1.06479   -1.000
 4394.00    1.07222   1.06515  141.789
 4395.00    1.06204   1.07080  136.650
 4396.00    1.08402   1.08280  136.456
 4397.00    1.10617   1.09250  140.516
 4398.00    1.10534   1.09134  145.181
 4399.00    1.08630   1.08135  145.627
 4400.00    1.06276   1.07196  143.165
 4401.00    1.06383   1.06797  145.349
 4402.00    1.08597   1.06446  152.852
 4403.00    1.07704   1.05495  157.036
 4404.00    1.03955   1.04189  153.867
 4405.00    1.02657   1.03434  150.412
 4406.00    1.04183   1.03724  148.848
 4407.00    1.05332   1.04856  144.697
 4408.00    1.05163   1.06580  138.604
 4409.00    1.06300   1.08909   -1.000
 4410.00    1.09821   1.11549   -1.000
 4411.00    1.12966   1.13522  132.602
 4412.00    1.14467   1.13798  138.924
 4413.00    1.12945   1.12115  145.185
 4414.00    1.08844   1.09254  146.439
 4415.00    1.05460   1.06781  142.654
 4416.00    1.05006   1.06181  136.940
 4417.00    1.06438   1.07851  132.405
 4418.00    1.08706   1.10885   -1.000
 4419.00    1.11167   1.13743   -1.000
 4420.00    1.12147   1.15186   -1.000
 4421.00    1.11104   1.15046   -1.000
 4422.00    1.09669   1.14181   -1.000
 4423.00    1.09215   1.13510   -1.000
 4424.00    1.09931   1.13263   -1.000
 4425.00    1.10014   1.13168   -1.000
 4426.00    1.09179   1.13082   -1.000
 4427.00    1.08362   1.13141   -1.000
 4428.00    1.08606   1.13398   -1.000
 4429.00    1.09198   1.13704   -1.000
 4430.00    1.09873   1.13879   -1.000
 4431.00    1.10694   1.13731   -1.000
 4432.00    1.10695   1.13018   -1.000
 4433.00    1.08734   1.11687   -1.000
 4434.00    1.05561   1.10321   -1.000
 4435.00    1.04015   1.10052   -1.000
 4436.00    1.06637   1.11579   -1.000
 4437.00    1.11760   1.14326   -1.000
 4438.00    1.15519   1.16780  130.227
 4439.00    1.16110   1.17556  135.876
 4440.00    1.14479   1.16244   -1.000
 4441.00    1.11465   1.13633   -1.000
 4442.00    1.07892   1.11335   -1.000
 4443.00    1.06042   1.10796   -1.000
 4444.00    1.07349   1.12329   -1.000
 4445.00    1.10865   1.14951   -1.000
 4446.00    1.13307   1.17251   -1.000
 4447.00    1.13427   1.18451   -1.000
 4448.00    1.13464   1.18661   -1.000
 4449.00    1.13566   1.18355   -1.000
 4450.00    1.12879   1.17841   -1.000
 4451.00    1.12770   1.17032   -1.000
 4452.00    1.13132   1.15537   -1.000
 4453.00    1.11628   1.13176  146.979
 4454.00    1.08318   1.10535   -1.000
 4455.00    1.06359   1.08692   -1.000
 4456.00    1.07094   1.08239  142.756
 4457.00    1.08419   1.08783  143.344
 4458.00    1.09087   1.09501  144.605
 4459.00    1.08973   1.09966  145.996
 4460.00    1.08219   1.10319   -1.000
 4461.00    1.07440   1.10931   -1.000
 4462.00    1.08718   1.12037   -1.000
 4463.00    1.11389   1.13495   -1.000
 4464.00    1.13479   1.14801  134.443
 4465.00    1.13763   1.15450   -1.000
 4466.00    1.12603   1.15256   -1.000
 4467.00    1.11386   1.14451   -1.000
 4468.00    1.10054   1.13646   -1.000
 4469.00    1.09674   1.13581   -1.000
 4470.00    1.11316   1.14656   -1.000
 4471.00    1.13797   1.16664   -1.000
 4472.00    1.15922   1.18980   -1.000
 4473.00    1.18502   1.20972   -1.000
 4474.00    1.19997   1.22281   -1.000
 4475.00    1.19705   1.22923   -1.000
 4476.00    1.20010   1.23070   -1.000
 4477.00    1.20783   1.22683   -1.000
 4478.00    1.20295   1.21445  132.121
 4479.00    1.18073   1.19219  136.669
 4480.00    1.15078   1.16583  136.867
 4481.00    1.12553   1.14782   -1.000
 4482.00    1.11984   1.14831   -1.000
 4483.00    1.14430   1.16716   -1.000
 4484.00    1.17648   1.19464  122.929
 4485.00    1.19893   1.21754   -1.000
 4486.00    1.21482   1.22609  129.152
 4487.00    1.20804   1.21868  132.861
 4488.00    1.17775   1.20232   -1.000
 4489.00    1.14714   1.18789   -1.000
 4490.00    1.14224   1.18350   -1.000
 4491.00    1.15974   1.18927   -1.000
 4492.00    1.18031   1.19805   -1.000
 4493.00    1.18082   1.20217   -1.000
 4494.00    1.16587   1.20042   -1.000
 4495.00    1.15226   1.19858   -1.000
 4496.00    1.15526   1.20184   -1.000
 4497.00    1.16952   1.20955   -1.000
 4498.00    1.18936   1.21715   -1.000
 4499.00    1.19730   1.22093   -1.000
 4500.00    1.18130   1.22195   -1.000
 4501.00    1.17710   1.22615   -1.000
 4502.00    1.19392   1.23876   -1.000
 4503.00    1.22137   1.25786   -1.000
 4504.00    1.24426   1.27581   -1.000
 4505.00    1.24715   1.28544   -1.000
 4506.00    1.23975   1.28497   -1.000
 4507.00    1.23180   1.27856   -1.000
 4508.00    1.22544   1.27283   -1.000
 4509.00    1.22634   1.27144   -1.000
 4510.00    1.23378   1.27226   -1.000
 4511.00    1.23276   1.27035   -1.000
 4512.00    1.21738   1.26307   -1.000
 4513.00    1.20428   1.25206   -1.000
 4514.00    1.19786   1.24107   -1.000
 4515.00    1.20109   1.23332   -1.000
 4516.00    1.20283   1.22943   -1.000
 4517.00    1.19504   1.22724   -1.000
 4518.00    1.18815   1.22510   -1.000
 4519.00    1.19404   1.22406   -1.000
 4520.00    1.20444   1.22483   -1.000
 4521.00    1.20192   1.22494   -1.000
 4522.00    1.18612   1.22095   -1.000
 4523.00    1.16949   1.21215   -1.000
 4524.00    1.16684   1.20032   -1.000
 4525.00    1.16136   1.18603   -1.000
 4526.00    1.14119   1.16838   -1.000
 4527.00    1.12507   1.14870   -1.000
 4528.00    1.11641   1.13243  138.967
 4529.00    1.11344   1.12557  136.424
 4530.00    1.12480   1.12853  135.177
 4531.00    1.14117   1.13485  137.585
 4532.00    1.14208   1.13631  142.121
 4533.00    1.12369   1.13125  142.377
 4534.00    1.09905   1.12746   -1.000
 4535.00    1.10101   1.13558   -1.000
 4536.00    1.13792   1.15959   -1.000
 4537.00    1.19076   1.19247  123.052
 4538.00    1.21405   1.22095  125.567
 4539.00    1.20411   1.23523   -1.000
 4540.00    1.23686   1.23573  125.723
 4541.00    1.00059   1.23054   -1.000
 4542.00    0.29349   1.22674   -1.000
 4543.00   -0.03751   1.22501    0.000
 4544.00    0.22717   1.22202   -1.000
 4545.00    0.70682   1.21598   -1.000
 4546.00    0.48548   1.20735   -1.000
 4547.00    0.85190   1.19596   -1.000
 4548.00    1.16101   1.18232   93.660
 4549.00    1.14025   1.17104   -1.000
 4550.00    1.14142   1.16833   -1.000
 4551.00    1.16117   1.17417  132.443
 4552.00    1.17191   1.18069  133.961
 4553.00    1.15713   1.18104   -1.000
 4554.00    1.14087   1.17745   -1.000
 4555.00    1.14725   1.17845   -1.000
 4556.00    1.17249   1.19039  120.701
 4557.00    1.20341   1.21181  120.564
 4558.00    1.22458   1.23522  120.775
 4559.00    1.23166   1.25399   -1.000
 4560.00    1.23152   1.26510   -1.000
 4561.00    1.23033   1.26718   -1.000
 4562.00    1.21939   1.25974   -1.000
 4563.00    1.19663   1.24567   -1.000
 4564.00    1.18074   1.23228   -1.000
 4565.00    1.18647   1.22758   -1.000
 4566.00    1.20534   1.23429   -1.000
 4567.00    1.22810   1.24778   -1.000
 4568.00    1.24242   1.25887  123.181
 4569.00    1.24327   1.26029  126.432
 4570.00    1.22103   1.25136   -1.000
 4571.00    1.19128   1.23881   -1.000
 4572.00    1.19125   1.23254   -1.000
 4573.00    1.21173   1.23766   -1.000
 4574.00    1.22486   1.24978   -1.000
 4575.00    1.23174   1.25992   -1.000
 4576.00    1.23228   1.26293   -1.000
 4577.00    1.22443   1.25826   -1.000
 4578.00    1.21235   1.24663   -1.000
 4579.00    1.19833   1.22938   -1.000
 4580.00    1.17652   1.21034   -1.000
 4581.00    1.16886   1.19464   -1.000
 4582.00    1.17593   1.18589  127.794
 4583.00    1.17743   1.18452  128.499
 4584.00    1.17556   1.18880  127.496
 4585.00    1.18178   1.19643  124.559
 4586.00    1.19544   1.20620  121.697
 4587.00    1.21218   1.21750  120.807
 4588.00    1.22546   1.22862  122.038
 4589.00    1.22885   1.23623  124.212
 4590.00    1.22077   1.23738  126.447
 4591.00    1.20819   1.23259   -1.000
 4592.00    1.19566   1.22617   -1.000
 4593.00    1.19087   1.22309   -1.000
 4594.00    1.19664   1.22526   -1.000
 4595.00    1.20629   1.23103   -1.000
 4596.00    1.22007   1.23766  124.308
 4597.00    1.22715   1.24288  124.997
 4598.00    1.22868   1.24494  126.144
 4599.00    1.22632   1.24289  126.728
 4600.00    1.21068   1.23783   -1.000
 4601.00    1.19956   1.23268   -1.000
 4602.00    1.20291   1.23032   -1.000
 4603.00    1.21143   1.23162   -1.000
 4604.00    1.21745   1.23576  123.088
 4605.00    1.22615   1.24186  120.945
 4606.00    1.23444   1.24993  118.385
 4607.00    1.24401   1.26018  116.656
 4608.00    1.26061   1.27145  116.645
 4609.00    1.27627   1.28057  117.974
 4610.00    1.27535   1.28407  119.399
 4611.00    1.26024   1.28118   -1.000
 4612.00    1.24617   1.27540   -1.000
 4613.00    1.24445   1.27057   -1.000
 4614.00    1.24378   1.26797   -1.000
 4615.00    1.24443   1.26625   -1.000
 4616.00    1.24234   1.26344   -1.000
 4617.00    1.24091   1.25919  120.004
 4618.00    1.24054   1.25544  119.130
 4619.00    1.24236   1.25550  117.425
 4620.00    1.24712   1.26132  116.851
 4621.00    1.26463   1.27132  117.087
 4622.00    1.27459   1.28086  117.342
 4623.00    1.27103   1.28577  118.180
 4624.00    1.26239   1.28567   -1.000
 4625.00    1.25755   1.28273   -1.000
 4626.00    1.25547   1.27862   -1.000
 4627.00    1.25167   1.27439   -1.000
 4628.00    1.24814   1.27081   -1.000
 4629.00    1.24532   1.26918   -1.000
 4630.00    1.24731   1.27066   -1.000
 4631.00    1.25812   1.27435  119.539
 4632.00    1.25882   1.27664  121.005
 4633.00    1.25196   1.27427   -1.000
 4634.00    1.25106   1.26806  121.942
 4635.00    1.25180   1.26148  123.411
 4636.00    1.24534   1.25678  124.247
 4637.00    1.23929   1.25415  124.240
 4638.00    1.23481   1.25406  122.647
 4639.00    1.23379   1.25759   -1.000
 4640.00    1.23699   1.26518   -1.000
 4641.00    1.25597   1.27495  117.755
 4642.00    1.27310   1.28251  119.514
 4643.00    1.27154   1.28297  122.607
 4644.00    1.26349   1.27438  126.050
 4645.00    1.24374   1.25900  127.404
 4646.00    1.21720   1.24177   -1.000
 4647.00    1.20804   1.22937   -1.000
 4648.00    1.22453   1.22766  121.021
 4649.00    1.23910   1.23677  120.435
 4650.00    1.24666   1.25075  120.221
 4651.00    1.25254   1.26215  121.190
 4652.00    1.24488   1.26654   -1.000
 4653.00    1.23553   1.26388   -1.000
 4654.00    1.22441   1.25694   -1.000
 4655.00    1.21507   1.25066   -1.000
 4656.00    1.22053   1.25100   -1.000
 4657.00    1.24054   1.26189   -1.000
 4658.00    1.27050   1.28151  113.417
 4659.00    1.29333   1.30212  114.459
 4660.00    1.30170   1.31435  116.929
 4661.00    1.29301   1.31407   -1.000
 4662.00    1.27538   1.30342   -1.000
 4663.00    1.26535   1.28702   -1.000
 4664.00    1.26729   1.26760  126.123
 4665.00    1.26063   1.24545  131.507
 4666.00    1.22586   1.22148  133.067
 4667.00    1.18687   1.20100  129.984
 4668.00    1.17331   1.19185  124.830
 4669.00    1.18968   1.19827  120.944
 4670.00    1.21951   1.21676  119.583
 4671.00    1.24661   1.23912  119.508
 4672.00    1.26183   1.25786  119.453
 4673.00    1.26265   1.27059  118.263
 4674.00    1.26480   1.27925  116.515
 4675.00    1.27189   1.28585  116.480
 4676.00    1.27857   1.28890  118.546
 4677.00    1.28136   1.28468  120.992
 4678.00    1.27174   1.27281  123.093
 4679.00    1.25987   1.25773  124.501
 4680.00    1.24531   1.24554  123.646
 4681.00    1.23700   1.23980  120.872
 4682.00    1.24013   1.24066  118.879
 4683.00    1.25175   1.24638  118.801
 4684.00    1.26754   1.25398  118.975
 4685.00    1.27807   1.26051  119.485
 4686.00    1.27686   1.26459  119.678
 4687.00    1.27673   1.26665  119.676
 4688.00    1.27417   1.26754  120.322
 4689.00    1.27008   1.26758  120.748
 4690.00    1.26642   1.26703  119.729
 4691.00    1.26829   1.26663  118.007
 4692.00    1.27443   1.26816  115.582
 4693.00    1.28232   1.27256  113.812
 4694.00    1.29191   1.27828  113.878
 4695.00    1.30703   1.28224  116.503
 4696.00    1.31363   1.28161   -1.000
 4697.00    1.29553   1.27464  122.019
 4698.00    1.26793   1.26203  121.602
 4699.00    1.25978   1.24737  121.992
 4700.00    1.26662   1.23382   -1.000
 4701.00    1.26406   1.22287   -1.000
 4702.00    1.24931   1.21533   -1.000
 4703.00    1.23935   1.21312  121.286
 4704.00    1.24743   1.21703   -1.000
 4705.00    1.25843   1.22350   -1.000
 4706.00    1.25402   1.22649   -1.000
 4707.00    1.23573   1.22398  125.769
 4708.00    1.21964   1.22029  122.770
 4709.00    1.21813   1.22164  119.288
 4710.00    1.23973   1.22998  117.594
 4711.00    1.26927   1.24187  118.184
 4712.00    1.28365   1.25197   -1.000
 4713.00    1.28214   1.25654  120.780
 4714.00    1.27094   1.25708  118.923
 4715.00    1.26395   1.25903  116.577
 4716.00    1.26950   1.26631  115.484
 4717.00    1.28448   1.27778  115.025
 4718.00    1.29761   1.28869  114.632
 4719.00    1.29692   1.29564  115.274
 4720.00    1.29422   1.29831  116.159
 4721.00    1.29445   1.29859  115.842
 4722.00    1.28689   1.29861  114.696
 4723.00    1.28496   1.29929  114.517
 4724.00    1.29618   1.29935  116.684
 4725.00    1.30086   1.29565  120.789
 4726.00    1.28386   1.28568  123.998
 4727.00    1.26379   1.27012  124.291
 4728.00    1.24885   1.25363  123.160
 4729.00    1.24544   1.24172  122.110
 4730.00    1.25298   1.23690  120.762
 4731.00    1.26213   1.23838  119.607
 4732.00    1.26146   1.24419  118.848
 4733.00    1.26475   1.25142  118.188
 4734.00    1.27091   1.25678  118.996
 4735.00    1.27482   1.25883  119.453
 4736.00    1.26976   1.25892  118.284
 4737.00    1.26351   1.25961  117.930
 4738.00    1.27672   1.26261  118.495
 4739.00    1.28436   1.26742  118.788
 4740.00    1.28169   1.27207  118.087
 4741.00    1.27503   1.27554  116.856
 4742.00    1.27917   1.27886  116.729
 4743.00    1.29131   1.28276  116.889
 4744.00    1.29414   1.28659  116.240
 4745.00    1.29126   1.28963  115.117
 4746.00    1.29324   1.29244  114.652
 4747.00    1.29364   1.29646  114.746
 4748.00    1.30057   1.30219  114.851
 4749.00    1.30829   1.30828  115.509
 4750.00    1.30699   1.31258  116.726
 4751.00    1.30218   1.31254  117.796
 4752.00    1.30159   1.30682  118.640
 4753.00    1.28918   1.29686  118.666
 4754.00    1.27820   1.28658  118.956
 4755.00    1.27194   1.28019  119.756
 4756.00    1.27088   1.27943  120.070
 4757.00    1.27152   1.28335  119.318
 4758.00    1.27349   1.28922  118.904
 4759.00    1.27574   1.29364  120.295
 4760.00    1.27383   1.29261  123.087
 4761.00    1.26573   1.28325  125.042
 4762.00    1.25015   1.26659  125.533
 4763.00    1.23437   1.24814  125.353
 4764.00    1.22735   1.23507  124.606
 4765.00    1.23547   1.23087  123.060
 4766.00    1.24441   1.23564  120.491
 4767.00    1.25361   1.24769  118.560
 4768.00    1.27311   1.26408  118.354
 4769.00    1.28861   1.27965  119.205
 4770.00    1.29160   1.28948  120.265
 4771.00    1.28209   1.29268  119.426
 4772.00    1.27337   1.29344   -1.000
 4773.00    1.27825   1.29659  115.884
 4774.00    1.29377   1.30382  115.802
 4775.00    1.30782   1.31227  116.100
 4776.00    1.31038   1.31775  116.769
 4777.00    1.30639   1.31808  117.969
 4778.00    1.29439   1.31374   -1.000
 4779.00    1.28446   1.30729   -1.000
 4780.00    1.28271   1.30129   -1.000
 4781.00    1.28592   1.29671  120.600
 4782.00    1.28578   1.29241  120.784
 4783.00    1.27667   1.28750  121.073
 4784.00    1.27993   1.28230  122.113
 4785.00    1.27405   1.27737  122.945
 4786.00    1.26239   1.27346  122.998
 4787.00    1.25706   1.27156  122.486
 4788.00    1.25742   1.27270  121.756
 4789.00    1.25258   1.27703   -1.000
 4790.00    1.26286   1.28453   -1.000
 4791.00    1.27231   1.29521   -1.000
 4792.00    1.28423   1.30854   -1.000
 4793.00    1.30331   1.32298  113.367
 4794.00    1.31886   1.33559  114.189
 4795.00    1.32391   1.34305  116.268
 4796.00    1.31819   1.34288   -1.000
 4797.00    1.30393   1.33565   -1.000
 4798.00    1.28682   1.32525   -1.000
 4799.00    1.27395   1.31681   -1.000
 4800.00    1.27640   1.31442   -1.000
 4801.00    1.28697   1.31839   -1.000
 4802.00    1.30231   1.32484   -1.000
 4803.00    1.30408   1.32836   -1.000
 4804.00    1.29470   1.32651   -1.000
 4805.00    1.28444   1.32081   -1.000
 4806.00    1.28465   1.31510   -1.000
 4807.00    1.28634   1.31210   -1.000
 4808.00    1.29180   1.31242   -1.000
 4809.00    1.29101   1.31549   -1.000
 4810.00    1.28931   1.31979   -1.000
 4811.00    1.30014   1.32383   -1.000
 4812.00    1.30945   1.32765  115.786
 4813.00    1.30882   1.33222   -1.000
 4814.00    1.31462   1.33780   -1.000
 4815.00    1.31369   1.34400   -1.000
 4816.00    1.31347   1.34984   -1.000
 4817.00    1.31789   1.35421   -1.000
 4818.00    1.31965   1.35638   -1.000
 4819.00    1.32169   1.35614   -1.000
 4820.00    1.32094   1.35251   -1.000
 4821.00    1.31938   1.34319   -1.000
 4822.00    1.30410   1.32748   -1.000
 4823.00    1.28335   1.30958   -1.000
 4824.00    1.27823   1.29728  115.843
 4825.00    1.28528   1.29622  115.851
 4826.00    1.30199   1.30406  117.070
 4827.00    1.30877   1.31310  117.950
 4828.00    1.29925   1.31755  118.069
 4829.00    1.29631   1.31652   -1.000
 4830.00    1.29602   1.31228  119.327
 4831.00    1.29159   1.30659  117.832
 4832.00    1.29077   1.30151  116.172
 4833.00    1.29376   1.29963  115.517
 4834.00    1.30731   1.30181  115.594
 4835.00    1.31506   1.30623  116.081
 4836.00    1.31551   1.30959  117.463
 4837.00    1.31368   1.30915  119.484
 4838.00    1.30152   1.30409  119.989
 4839.00    1.28294   1.29558  119.774
 4840.00    1.27452   1.28678  119.239
 4841.00    1.27660   1.28103  118.402
 4842.00    1.28154   1.27994  117.275
 4843.00    1.29071   1.28261  115.559
 4844.00    1.29817   1.28721  114.707
 4845.00    1.30238   1.29216  116.454
 4846.00    1.30955   1.29489  118.365
 4847.00    1.30267   1.29279  118.708
 4848.00    1.28364   1.28724  117.348
 4849.00    1.27612   1.28270  116.776
 4850.00    1.27941   1.28128  117.270
 4851.00    1.28574   1.28028  118.215
 4852.00    1.28969   1.27409  121.241
 4853.00    1.27581   1.25901  124.760
 4854.00    1.24811   1.23508  125.252
 4855.00    1.21948   1.20680  124.129
 4856.00    1.20692   1.17897   -1.000
 4857.00    1.20140   1.14979   -1.000
 4858.00    1.17198   1.11069   -1.000
 4859.00    1.09232   1.05445   -1.000
 4860.00    0.97896   0.98963  154.266
 4861.00    0.90748   0.94028   -1.000
 4862.00    0.93689   0.92937  131.956
 4863.00    1.02881   0.96181   -1.000
 4864.00    1.11402   1.02089   -1.000
 4865.00    1.16966   1.08472   -1.000
 4866.00    1.20303   1.13874   -1.000
 4867.00    1.22124   1.17770   -1.000
 4868.00    1.23207   1.20060   -1.000
 4869.00    1.23473   1.20775   -1.000
 4870.00    1.21968   1.20181  128.360
 4871.00    1.19706   1.19045  125.142
 4872.00    1.19503   1.18480  122.669
 4873.00    1.21899   1.19269  121.498
 4874.00    1.24047   1.21111   -1.000
 4875.00    1.24726   1.23068  120.340
 4876.00    1.24978   1.24461  118.847
 4877.00    1.25280   1.25430  117.474
 4878.00    1.25888   1.26500  118.068
 4879.00    1.27274   1.27814  119.874
 4880.00    1.28373   1.28973  120.852
 4881.00    1.27817   1.29493  120.649
 4882.00    1.27054   1.29243   -1.000
 4883.00    1.26861   1.28556  122.730
 4884.00    1.27041   1.27730  123.647
 4885.00    1.25729   1.26907  123.230
 4886.00    1.24979   1.26198  122.952
 4887.00    1.25295   1.25632  124.388
 4888.00    1.25459   1.25054  127.001
 4889.00    1.24277   1.24229  126.886
 4890.00    1.22217   1.23300  122.555
 4891.00    1.22191   1.23066  116.946
 4892.00    1.25049   1.24402  113.100
 4893.00    1.29518   1.27444  110.759
 4894.00    1.32773   1.31257  109.935
 4895.00    1.34327   1.34497  110.036
 4896.00    1.34712   1.36457  112.014
 4897.00    1.34997   1.37086  114.656
 4898.00    1.34712   1.36707  116.212
 4899.00    1.32118   1.35744   -1.000
 4900.00    1.30746   1.34665   -1.000
 4901.00    1.30711   1.33763   -1.000
 4902.00    1.30803   1.33119   -1.000
 4903.00    1.29969   1.32742   -1.000
 4904.00    1.30514   1.32831   -1.000
 4905.00    1.32706   1.33528  113.641
 4906.00    1.34167   1.34431  116.083
 4907.00    1.33535   1.34758  119.366
 4908.00    1.31896   1.34051   -1.000
 4909.00    1.29527   1.32451   -1.000
 4910.00    1.27716   1.30727   -1.000
 4911.00    1.28459   1.29753  116.428
 4912.00    1.29879   1.30021  114.900
 4913.00    1.30499   1.31276  113.791
 4914.00    1.32092   1.32796  114.040
 4915.00    1.33660   1.33756  117.382
 4916.00    1.34063   1.33420  123.427
 4917.00    1.31869   1.31321  129.533
 4918.00    1.27050   1.27748  131.925
 4919.00    1.22802   1.23778  128.665
 4920.00    1.20378   1.20833  124.027
 4921.00    1.21060   1.19831  121.681
 4922.00    1.23806   1.20642   -1.000
 4923.00    1.26098   1.22423   -1.000
 4924.00    1.26755   1.24435  117.131
 4925.00    1.27183   1.26575  114.844
 4926.00    1.30076   1.28934  113.590
 4927.00    1.32823   1.31375  112.764
 4928.00    1.34191   1.33556  112.067
 4929.00    1.34559   1.35062  112.840
 4930.00    1.35380   1.35613  115.569
 4931.00    1.34876   1.35040  119.612
 4932.00    1.32359   1.33436  120.684
 4933.00    1.28961   1.31347   -1.000
 4934.00    1.27016   1.29650   -1.000
 4935.00    1.27842   1.28807  121.296
 4936.00    1.29445   1.28492  124.729
 4937.00    1.28299   1.27964  124.478
 4938.00    1.26164   1.27128  120.753
 4939.00    1.25246   1.26824  116.806
 4940.00    1.27962   1.27794  114.359
 4941.00    1.31400   1.29985  113.128
 4942.00    1.32940   1.32514  113.013
 4943.00    1.33631   1.34410  113.700
 4944.00    1.34244   1.35303  114.056
 4945.00    1.34119   1.35412  113.251
 4946.00    1.33331   1.35288  111.951
 4947.00    1.33166   1.35425  111.432
 4948.00    1.34293   1.36003  110.992
 4949.00    1.35012   1.36744  111.383
 4950.00    1.35212   1.37209  112.124
 4951.00    1.35428   1.37172  113.333
 4952.00    1.34813   1.36720  114.734
 4953.00    1.34731   1.35942  117.509
 4954.00    1.33938   1.34653  123.078
 4955.00    1.31901   1.32500  128.345
 4956.00    1.27740   1.29447  127.123
 4957.00    1.23382   1.26457   -1.000
 4958.00    1.23262   1.25148  115.897
 4959.00    1.27227   1.26310  114.468
 4960.00    1.31456   1.29245  114.771
 4961.00    1.33208   1.32281  115.631
 4962.00    1.33640   1.34245  116.928
 4963.00    1.33563   1.34872  119.227
 4964.00    1.32383   1.34427   -1.000
 4965.00    1.30446   1.33335   -1.000
 4966.00    1.29330   1.32069   -1.000
 4967.00    1.29286   1.31045  120.157
 4968.00    1.29193   1.30509  118.934
 4969.00    1.30108   1.30531  117.655
 4970.00    1.30938   1.31096  116.270
 4971.00    1.31714   1.32056  115.121
 4972.00    1.32486   1.33192  114.546
 4973.00    1.33422   1.34250  115.129
 4974.00    1.33923   1.35020  116.282
 4975.00    1.34296   1.35302  117.807
 4976.00    1.34079   1.35051  119.681
 4977.00    1.33204   1.34311  121.242
 4978.00    1.31522   1.33163  122.920
 4979.00    1.30702   1.31623  126.579
 4980.00    1.29059   1.29567  130.728
 4981.00    1.26303   1.26910  131.462
 4982.00    1.23047   1.23988  129.378
 4983.00    1.22507   1.21723  125.922
 4984.00    1.23574   1.21098  121.985
 4985.00    1.25259   1.22428  118.813
 4986.00    1.28061   1.25038   -1.000
 4987.00    1.30342   1.27787  119.893
 4988.00    1.31529   1.29732  121.231
 4989.00    1.30708   1.30445  121.484
 4990.00    1.29145   1.30181  120.579
 4991.00    1.28976   1.29597  119.967
 4992.00    1.30098   1.29288  119.840
 4993.00    1.30558   1.29460  119.316
 4994.00    1.30918   1.29998  118.714
 4995.00    1.31206   1.30658  119.217
 4996.00    1.32207   1.31156  120.680
 4997.00    1.31806   1.31162  122.997
 4998.00    1.30706   1.30402  124.705
 4999.00    1.28272   1.28894  125.032
 5000.00    1.26761   1.27117  124.042
 5001.00    1.27365   1.25724  123.156
 5002.00    1.28340   1.25091   -1.000
 5003.00    1.28493   1.24966   -1.000
 5004.00    1.28199   1.24715   -1.000
 5005.00    1.26014   1.24017  126.068
 5006.00    1.23293   1.23292  122.312
 5007.00    1.24966   1.23406  120.611
 5008.00    1.29262   1.24615   -1.000
 5009.00    1.31406   1.26189   -1.000
 5010.00    1.30901   1.27011   -1.000
 5011.00    1.28600   1.26382  132.996
 5012.00    1.25349   1.24573  132.942
 5013.00    1.22653   1.22481  130.330
 5014.00    1.21707   1.21071  127.560
 5015.00    1.23264   1.20648  126.685
 5016.00    1.26021   1.20901   -1.000
 5017.00    1.26238   1.21364   -1.000
 5018.00    1.25485   1.21892   -1.000
 5019.00    1.26917   1.22677   -1.000
 5020.00    1.28199   1.23725   -1.000
 5021.00    1.28836   1.24734   -1.000
 5022.00    1.28521   1.25530   -1.000
 5023.00    1.29072   1.26227   -1.000
 5024.00    1.29820   1.27050  122.631
 5025.00    1.30124   1.27866  123.229
 5026.00    1.29934   1.28278  122.363
 5027.00    1.29607   1.28296  120.219
 5028.00    1.30244   1.28335  118.414
 5029.00    1.31487   1.28767  116.524
 5030.00    1.33032   1.29707   -1.000
 5031.00    1.33447   1.30966  115.057
 5032.00    1.34460   1.32117  118.227
 5033.00    1.35302   1.32617  122.826
 5034.00    1.33270   1.32054  125.307
 5035.00    1.29718   1.30481  125.979
 5036.00    1.27939   1.28512  127.363
 5037.00    1.28194   1.26632  131.869
 5038.00    1.27693   1.24830   -1.000
 5039.00    1.24618   1.22725  138.143
 5040.00    1.20731   1.20499  132.371
 5041.00    1.19057   1.19286  124.380
 5042.00    1.24292   1.20123   -1.000
 5043.00    0.85281   1.23065   -1.000
 5044.00    0.33112   1.27031   -1.000
 5045.00    0.01966   1.30546   -1.000
 5046.00    0.65044   1.32646   -1.000
 5047.00    1.27875   1.32972   -1.000
 5048.00    1.32395   1.31760  132.308
 5049.00    1.29635   1.29685  123.635
 5050.00    1.28583   1.27708  121.658
 5051.00    1.28685   1.26658  118.611
 5052.00    1.30068   1.26954   -1.000
 5053.00    1.33106   1.28441   -1.000
 5054.00    1.35826   1.30458   -1.000
 5055.00    1.36868   1.32206   -1.000
 5056.00    1.37441   1.33449   -1.000
 5057.00    1.37119   1.34325  114.961
 5058.00    1.36793   1.35006  114.274
 5059.00    1.36715   1.35545  114.219
 5060.00    1.36773   1.35857  115.564
 5061.00    1.37123   1.35769  118.699
 5062.00    1.36645   1.35084  122.855
 5063.00    1.34555   1.33644  124.684
 5064.00    1.31456   1.31655  123.543
 5065.00    1.29112   1.29843  121.698
 5066.00    1.30586   1.28780  121.116
 5067.00    1.32352   1.28581   -1.000
 5068.00    1.32136   1.28852   -1.000
 5069.00    1.32437   1.29196   -1.000
 5070.00    1.33834   1.29416   -1.000
 5071.00    1.33739   1.29397   -1.000
 5072.00    1.32758   1.29150   -1.000
 5073.00    1.32830   1.28928   -1.000
 5074.00    1.32951   1.28992   -1.000
 5075.00    1.33517   1.29254   -1.000
 5076.00    1.33410   1.29293   -1.000
 5077.00    1.32650   1.28633   -1.000
 5078.00    1.30227   1.27144   -1.000
 5079.00    1.26261   1.25182  129.336
 5080.00    1.24755   1.23596  126.549
 5081.00    1.26350   1.23054   -1.000
 5082.00    1.28899   1.23579   -1.000
 5083.00    1.30137   1.24833   -1.000
 5084.00    1.30797   1.26405   -1.000
 5085.00    1.33270   1.28086   -1.000
 5086.00    1.35148   1.29647   -1.000
 5087.00    1.35600   1.30846   -1.000
 5088.00    1.35539   1.31659   -1.000
 5089.00    1.35602   1.32235   -1.000
 5090.00    1.36667   1.32762   -1.000
 5091.00    1.37105   1.33363   -1.000
 5092.00    1.37036   1.34019   -1.000
 5093.00    1.37569   1.34504   -1.000
 5094.00    1.38053   1.34419   -1.000
 5095.00    1.37448   1.33417   -1.000
 5096.00    1.35656   1.31510   -1.000
 5097.00    1.32795   1.29218   -1.000
 5098.00    1.30416   1.27296   -1.000
 5099.00    1.29907   1.26418   -1.000
 5100.00    1.31650   1.26797   -1.000
 5101.00    1.34251   1.28127   -1.000
 5102.00    1.35539   1.29649   -1.000
 5103.00    1.35676   1.30596   -1.000
 5104.00    1.35382   1.30680   -1.000
 5105.00    1.34105   1.29975   -1.000
 5106.00    1.31698   1.28797   -1.000
 5107.00    1.29910   1.27555  124.076
 5108.00    1.29508   1.26688   -1.000
 5109.00    1.29892   1.26514   -1.000
 5110.00    1.30201   1.27104   -1.000
 5111.00    1.31621   1.28304   -1.000
 5112.00    1.33728   1.29826   -1.000
 5113.00    1.35402   1.31305   -1.000
 5114.00    1.36356   1.32582   -1.000
 5115.00    1.36956   1.33619   -1.000
 5116.00    1.37653   1.34439   -1.000
 5117.00    1.38306   1.34973   -1.000
 5118.00    1.38491   1.35064   -1.000
 5119.00    1.38381   1.34589   -1.000
 5120.00    1.37138   1.33518   -1.000
 5121.00    1.35172   1.31997   -1.000
 5122.00    1.32945   1.30239   -1.000
 5123.00    1.30566   1.28492  126.724
 5124.00    1.29384   1.26996  126.041
 5125.00    1.29805   1.26013   -1.000
 5126.00    1.30762   1.25577   -1.000
 5127.00    1.30519   1.25518   -1.000
 5128.00    1.30461   1.25623   -1.000
 5129.00    1.30816   1.25884   -1.000
 5130.00    1.31129   1.26401   -1.000
 5131.00    1.32614   1.27208   -1.000
 5132.00    1.33438   1.28175   -1.000
 5133.00    1.34150   1.29090   -1.000
 5134.00    1.35716   1.29783   -1.000
 5135.00    1.36233   1.30062   -1.000
 5136.00    1.34649   1.29758   -1.000
 5137.00    1.32265   1.28824   -1.000
 5138.00    1.29739   1.27561  124.239
 5139.00    1.28754   1.26397  124.961
 5140.00    1.29145   1.25709   -1.000
 5141.00    1.29242   1.25538   -1.000
 5142.00    1.28938   1.25703   -1.000
 5143.00    1.28713   1.26054   -1.000
 5144.00    1.29918   1.26468   -1.000
 5145.00    1.31654   1.26780   -1.000
 5146.00    1.32066   1.26842   -1.000
 5147.00    1.31811   1.26701   -1.000
 5148.00    1.32482   1.26640   -1.000
 5149.00    1.32990   1.26759   -1.000
 5150.00    1.32157   1.26736   -1.000
 5151.00    1.30243   1.26370   -1.000
 5152.00    1.28609   1.25828   -1.000
 5153.00    1.29840   1.25500   -1.000
 5154.00    1.31896   1.25818   -1.000
 5155.00    1.33590   1.26955   -1.000
 5156.00    1.36190   1.28751   -1.000
 5157.00    1.38123   1.30693   -1.000
 5158.00    1.38430   1.32309   -1.000
 5159.00    1.38293   1.33280   -1.000
 5160.00    1.38849   1.33531   -1.000
 5161.00    1.38460   1.33088   -1.000
 5162.00    1.37569   1.31939   -1.000
 5163.00    1.36555   1.29906   -1.000
 5164.00    1.34426   1.26672   -1.000
 5165.00    1.29464   1.21978   -1.000
 5166.00    1.21366   1.16276   -1.000
 5167.00    1.14537   1.11113   -1.000
 5168.00    1.12579   1.07991   -1.000
 5169.00    1.16929   1.07417   -1.000
 5170.00    1.21001   1.07998   -1.000
 5171.00    1.19543   1.08089   -1.000
 5172.00    1.14510   1.07860   -1.000
 5173.00    1.14710   1.08709   -1.000
 5174.00    1.22199   1.12065   -1.000
 5175.00    1.29706   1.17370   -1.000
 5176.00    1.34071   1.22745   -1.000
 5177.00    1.36243   1.26736   -1.000
 5178.00    1.36368   1.28657   -1.000
 5179.00    1.36163   1.28480   -1.000
 5180.00    1.34681   1.26172   -1.000
 5181.00    1.30653   1.21753   -1.000
 5182.00    1.24161   1.16201   -1.000
 5183.00    1.16957   1.11353   -1.000
 5184.00    1.15848   1.09461   -1.000
 5185.00    1.22512   1.11336   -1.000
 5186.00    1.29703   1.15828   -1.000
 5187.00    1.33054   1.20759   -1.000
 5188.00    1.33649   1.24300   -1.000
 5189.00    1.33377   1.26102   -1.000
 5190.00    1.32431   1.26456   -1.000
 5191.00    1.29741   1.25796   -1.000
 5192.00    1.26391   1.24728  127.692
 5193.00    1.26047   1.23978  125.778
 5194.00    1.28649   1.23905   -1.000
 5195.00    1.30522   1.24540   -1.000
 5196.00    1.31717   1.25615   -1.000
 5197.00    1.33066   1.27024   -1.000
 5198.00    1.34059   1.28700   -1.000
 5199.00    1.35471   1.30326   -1.000
 5200.00    1.36789   1.31421   -1.000
 5201.00    1.36009   1.31558   -1.000
 5202.00    1.34920   1.30488   -1.000
 5203.00    1.32952   1.28317   -1.000
 5204.00    1.29482   1.25482   -1.000
 5205.00    1.26877   1.22653   -1.000
 5206.00    1.26994   1.20470   -1.000
 5207.00    1.27025   1.19319   -1.000
 5208.00    1.26781   1.19258   -1.000
 5209.00    1.27207   1.20284   -1.000
 5210.00    1.29414   1.22421   -1.000
 5211.00    1.33544   1.25415   -1.000
 5212.00    1.36998   1.28651   -1.000
 5213.00    1.38829   1.31115   -1.000
 5214.00    1.38343   1.32156   -1.000
 5215.00    1.35375   1.31826   -1.000
 5216.00    1.33401   1.31017  117.327
 5217.00    1.34317   1.30840   -1.000
 5218.00    1.36485   1.31781   -1.000
 5219.00    1.38376   1.33587   -1.000
 5220.00    1.40157   1.35418   -1.000
 5221.00    1.40786   1.36563   -1.000
 5222.00    1.40028   1.36488   -1.000
 5223.00    1.38446   1.34946   -1.000
 5224.00    1.34689   1.31977   -1.000
 5225.00    1.29524   1.28103  130.769
 5226.00    1.25235   1.24525  123.646
 5227.00    1.24474   1.22772  118.483
 5228.00    1.28710   1.23466   -1.000
 5229.00    1.34395   1.26010   -1.000
 5230.00    1.37627   1.28727   -1.000
 5231.00    1.37891   1.30330   -1.000
 5232.00    1.36297   1.30511   -1.000
 5233.00    1.34500   1.29907   -1.000
 5234.00    1.33895   1.29602   -1.000
 5235.00    1.35746   1.30355   -1.000
 5236.00    1.38529   1.32139   -1.000
 5237.00    1.40105   1.34268   -1.000
 5238.00    1.40743   1.36066   -1.000
 5239.00    1.40550   1.37132   -1.000
 5240.00    1.41054   1.37540   -1.000
 5241.00    1.41366   1.37566   -1.000
 5242.00    1.40844   1.37507   -1.000
 5243.00    1.40657   1.37534   -1.000
 5244.00    1.41385   1.37562   -1.000
 5245.00    1.40787   1.37234   -1.000
 5246.00    1.37764   1.36242  121.424
 5247.00    1.35062   1.34772  121.644
 5248.00    1.33853   1.33270  122.409
 5249.00    1.34233   1.32199  121.878
 5250.00    1.33573   1.31688  120.216
 5251.00    1.33127   1.31666  119.005
 5252.00    1.35082   1.31978   -1.000
 5253.00    1.35932   1.32434   -1.000
 5254.00    1.35829   1.32931   -1.000
 5255.00    1.36290   1.33627  112.335
 5256.00    1.38037   1.34781   -1.000
 5257.00    1.40469   1.36215   -1.000
 5258.00    1.42345   1.37374   -1.000
 5259.00    1.42941   1.37471   -1.000
 5260.00    1.40199   1.36031   -1.000
 5261.00    1.36447   1.33078   -1.000
 5262.00    1.32616   1.29147   -1.000
 5263.00    1.28746   1.25089   -1.000
 5264.00    1.26078   1.21783   -1.000
 5265.00    1.25357   1.19782   -1.000
 5266.00    1.26257   1.19094   -1.000
 5267.00    1.28707   1.19036   -1.000
 5268.00    1.28568   1.18783   -1.000
 5269.00    1.23990   1.18281   -1.000
 5270.00    1.22564   1.18195   -1.000
 5271.00    1.27311   1.19476   -1.000
 5272.00    1.32711   1.21990   -1.000
 5273.00    1.34447   1.24714   -1.000
 5274.00    1.34188   1.26954   -1.000
 5275.00    1.34893   1.28701   -1.000
 5276.00    1.37191   1.30521   -1.000
 5277.00    1.40206   1.32665   -1.000
 5278.00    1.42208   1.34687   -1.000
 5279.00    1.42624   1.35809   -1.000
 5280.00    1.40895   1.35497   -1.000
 5281.00    1.38403   1.34080   -1.000
 5282.00    1.35841   1.32382   -1.000
 5283.00    1.34319   1.31372   -1.000
 5284.00    1.35662   1.31694   -1.000
 5285.00    1.39368   1.33480   -1.000
 5286.00    1.42776   1.36070   -1.000
 5287.00    1.43930   1.38564   -1.000
 5288.00    1.43465   1.40288   -1.000
 5289.00    1.43708   1.41183  109.565
 5290.00    1.43786   1.41540  110.197
 5291.00    1.43691   1.41558  111.239
 5292.00    1.43063   1.41316  112.713
 5293.00    1.42917   1.40801  115.757
 5294.00    1.42088   1.39785  120.207
 5295.00    1.40352   1.38053  123.460
 5296.00    1.37542   1.35706  122.743
 5297.00    1.34116   1.33281  119.642
 5298.00    1.33350   1.31671  117.400
 5299.00    1.35208   1.31398   -1.000
 5300.00    1.37544   1.32220   -1.000
 5301.00    1.38745   1.33629   -1.000
 5302.00    1.38575   1.35156   -1.000
 5303.00    1.40602   1.36715   -1.000
 5304.00    1.43115   1.38219   -1.000
 5305.00    1.43612   1.39307   -1.000
 5306.00    1.42243   1.39835  111.051
 5307.00    1.41687   1.39975  109.882
 5308.00    1.42428   1.40127  109.176
 5309.00    1.43848   1.40618   -1.000
 5310.00    1.44929   1.41295   -1.000
 5311.00    1.45295   1.41805   -1.000
 5312.00    1.45482   1.41812   -1.000
 5313.00    1.44979   1.41200   -1.000
 5314.00    1.44587   1.40069   -1.000
 5315.00    1.43275   1.38701   -1.000
 5316.00    1.40743   1.37510   -1.000
 5317.00    1.40034   1.37006   -1.000
 5318.00    1.41580   1.37337   -1.000
 5319.00    1.42911   1.38157   -1.000
 5320.00    1.42403   1.38723   -1.000
 5321.00    1.42085   1.38464   -1.000
 5322.00    1.40467   1.37335   -1.000
 5323.00    1.39640   1.35557   -1.000
 5324.00    1.38869   1.33522   -1.000
 5325.00    1.37853   1.31343   -1.000
 5326.00    1.35996   1.28953   -1.000
 5327.00    1.30801   1.26445   -1.000
 5328.00    1.26095   1.24491  119.956
 5329.00    1.28123   1.24318   -1.000
 5330.00    1.34487   1.26196   -1.000
 5331.00    1.39081   1.29438   -1.000
 5332.00    1.40738   1.32636   -1.000
 5333.00    1.40170   1.34955   -1.000
 5334.00    1.42113   1.36407   -1.000
 5335.00    1.42775   1.37181   -1.000
 5336.00    1.41886   1.37342   -1.000
 5337.00    1.41441   1.36883   -1.000
 5338.00    1.40974   1.35823   -1.000
 5339.00    1.38614   1.34398   -1.000
 5340.00    1.36536   1.33088   -1.000
 5341.00    1.37267   1.32589   -1.000
 5342.00    1.39826   1.33148   -1.000
 5343.00    1.41800   1.34445   -1.000
 5344.00    1.42433   1.35579   -1.000
 5345.00    1.41642   1.35977   -1.000
 5346.00    1.40626   1.35666   -1.000
 5347.00    1.40126   1.35049   -1.000
 5348.00    1.40041   1.34638   -1.000
 5349.00    1.39796   1.34715   -1.000
 5350.00    1.40494   1.35409   -1.000
 5351.00    1.42840   1.36605   -1.000
 5352.00    1.44402   1.38027   -1.000
 5353.00    1.43964   1.39363   -1.000
 5354.00    1.44574   1.40509   -1.000
 5355.00    1.45895   1.41551   -1.000
 5356.00    1.46280   1.42432   -1.000
 5357.00    1.47094   1.43055   -1.000
 5358.00    1.47280   1.43271   -1.000
 5359.00    1.46816   1.43022   -1.000
 5360.00    1.46017   1.42287   -1.000
 5361.00    1.44057   1.41064   -1.000
 5362.00    1.42168   1.39506   -1.000
 5363.00    1.42038   1.37923   -1.000
 5364.00    1.41684   1.36609   -1.000
 5365.00    1.40592   1.35749   -1.000
 5366.00    1.40252   1.35242   -1.000
 5367.00    1.40709   1.34773   -1.000
 5368.00    1.40581   1.33889   -1.000
 5369.00    1.38522   1.32429   -1.000
 5370.00    1.35633   1.30714   -1.000
 5371.00    1.34018   1.29591   -1.000
 5372.00    1.36258   1.29936   -1.000
 5373.00    1.41042   1.31897   -1.000
 5374.00    1.44832   1.34893   -1.000
 5375.00    1.46034   1.37723   -1.000
 5376.00    1.46700   1.39666   -1.000
 5377.00    1.46285   1.40497   -1.000
 5378.00    1.45712   1.40481   -1.000
 5379.00    1.45008   1.39949   -1.000
 5380.00    1.43621   1.39160   -1.000
 5381.00    1.42519   1.38326   -1.000
 5382.00    1.41918   1.37660   -1.000
 5383.00    1.42279   1.37396   -1.000
 5384.00    1.43183   1.37703   -1.000
 5385.00    1.44430   1.38494   -1.000
 5386.00    1.44887   1.39414   -1.000
 5387.00    1.44430   1.39952   -1.000
 5388.00    1.44104   1.39848   -1.000
 5389.00    1.42740   1.39112   -1.000
 5390.00    1.41457   1.37988   -1.000
 5391.00    1.40864   1.36779   -1.000
 5392.00    1.40654   1.35712   -1.000
 5393.00    1.40225   1.34813   -1.000
 5394.00    1.39715   1.34005   -1.000
 5395.00    1.38624   1.33069   -1.000
 5396.00    1.36603   1.32000   -1.000
 5397.00    1.35677   1.31246   -1.000
 5398.00    1.37318   1.31255   -1.000
 5399.00    1.40168   1.32251   -1.000
 5400.00    1.41915   1.33671   -1.000
 5401.00    1.42666   1.34683   -1.000
 5402.00    1.42271   1.34637   -1.000
 5403.00    1.39726   1.33369   -1.000
 5404.00    1.35952   1.31300   -1.000
 5405.00    1.33683   1.29375   -1.000
 5406.00    1.33997   1.28446   -1.000
 5407.00    1.36824   1.28623   -1.000
 5408.00    1.39394   1.29481   -1.000
 5409.00    1.38405   1.30316   -1.000
 5410.00    1.36830   1.31054   -1.000
 5411.00    1.39037   1.32026   -1.000
 5412.00    1.41768   1.33307   -1.000
 5413.00    1.43235   1.34705   -1.000
 5414.00    1.42797   1.35862   -1.000
 5415.00    1.42044   1.36760   -1.000
 5416.00    1.43032   1.37636   -1.000
 5417.00    1.44724   1.38455   -1.000
 5418.00    1.44508   1.39070   -1.000
 5419.00    1.43698   1.39313   -1.000
 5420.00    1.43467   1.39167   -1.000
 5421.00    1.43310   1.38745   -1.000
 5422.00    1.43530   1.38117   -1.000
 5423.00    1.42649   1.37380   -1.000
 5424.00    1.41666   1.36893   -1.000
 5425.00    1.41276   1.36887   -1.000
 5426.00    1.43462   1.37285   -1.000
 5427.00    1.44244   1.37482   -1.000
 5428.00    1.42015   1.36783   -1.000
 5429.00    1.37429   1.35442  117.044
 5430.00    1.36830   1.34104   -1.000
 5431.00    1.38937   1.33403   -1.000
 5432.00    1.39936   1.33255   -1.000
 5433.00    1.38306   1.33126   -1.000
 5434.00    1.36625   1.32999   -1.000
 5435.00    1.36764   1.33261   -1.000
 5436.00    1.38965   1.34383   -1.000
 5437.00    1.41911   1.36399   -1.000
 5438.00    1.45065   1.38716   -1.000
 5439.00    1.46917   1.40764   -1.000
 5440.00    1.47061   1.42094   -1.000
 5441.00    1.47187   1.42730   -1.000
 5442.00    1.46734   1.42610   -1.000
 5443.00    1.45277   1.41587   -1.000
 5444.00    1.43254   1.39629   -1.000
 5445.00    1.40130   1.36997   -1.000
 5446.00    1.36083   1.34586  116.690
 5447.00    1.35186   1.33332  113.477
 5448.00    1.37923   1.33726   -1.000
 5449.00    1.42160   1.35466   -1.000
 5450.00    1.44313   1.37509   -1.000
 5451.00    1.44814   1.38955   -1.000
 5452.00    1.44848   1.39194   -1.000
 5453.00    1.42770   1.38208   -1.000
 5454.00    1.39260   1.36448   -1.000
 5455.00    1.36452   1.34867  115.943
 5456.00    1.36397   1.34315  112.853
 5457.00    1.40649   1.35267   -1.000
 5458.00    1.44553   1.37062   -1.000
 5459.00    1.45219   1.38717   -1.000
 5460.00    1.43879   1.39367   -1.000
 5461.00    1.42808   1.38900   -1.000
 5462.00    1.41105   1.37803   -1.000
 5463.00    1.41100   1.36836   -1.000
 5464.00    1.41744   1.36586   -1.000
 5465.00    1.42834   1.37115   -1.000
 5466.00    1.43980   1.38121   -1.000
 5467.00    1.44060   1.39130   -1.000
 5468.00    1.45633   1.39883   -1.000
 5469.00    1.45273   1.40255   -1.000
 5470.00    1.43526   1.40199   -1.000
 5471.00    1.42932   1.39750   -1.000
 5472.00    1.43036   1.38973   -1.000
 5473.00    1.42639   1.37848   -1.000
 5474.00    1.40582   1.36372   -1.000
 5475.00    1.38873   1.34697   -1.000
 5476.00    1.36718   1.33219   -1.000
 5477.00    1.36531   1.32587   -1.000
 5478.00    1.39515   1.33035   -1.000
 5479.00    1.42648   1.34267   -1.000
 5480.00    1.42785   1.35585   -1.000
 5481.00    1.40855   1.36463   -1.000
 5482.00    1.40208   1.37121   -1.000
 5483.00    1.41589   1.37828   -1.000
 5484.00    1.43493   1.38722   -1.000
 5485.00    1.44216   1.39502   -1.000
 5486.00    1.43733   1.39778   -1.000
 5487.00    1.42388   1.39552   -1.000
 5488.00    1.42098   1.39124   -1.000
 5489.00    1.43241   1.38923   -1.000
 5490.00    1.42934   1.39084   -1.000
 5491.00    1.43158   1.39436   -1.000
 5492.00    1.44352   1.39783   -1.000
 5493.00    1.44406   1.39954   -1.000
 5494.00    1.44468   1.39916   -1.000
 5495.00    1.44993   1.39660   -1.000
 5496.00    1.43802   1.39217   -1.000
 5497.00    1.41760   1.38746   -1.000
 5498.00    1.42137   1.38405   -1.000
 5499.00    1.44008   1.38165   -1.000
 5500.00    1.43422   1.37881   -1.000
 5501.00    1.41981   1.37415   -1.000
 5502.00    1.41131   1.36905   -1.000
 5503.00    1.42397   1.36627   -1.000
 5504.00    1.43454   1.36451   -1.000
 5505.00    1.42727   1.36212   -1.000
 5506.00    1.40793   1.35886   -1.000
 5507.00    1.40265   1.35690   -1.000
 5508.00    1.41837   1.35952   -1.000
 5509.00    1.42856   1.36447   -1.000
 5510.00    1.43364   1.36777   -1.000
 5511.00    1.42553   1.36580   -1.000
 5512.00    1.40612   1.35928   -1.000
 5513.00    1.39457   1.35298   -1.000
 5514.00    1.39661   1.35171   -1.000
 5515.00    1.41904   1.35804   -1.000
 5516.00    1.43897   1.36997   -1.000
 5517.00    1.45359   1.38454   -1.000
 5518.00    1.46571   1.39803   -1.000
 5519.00    1.47111   1.40847   -1.000
 5520.00    1.47219   1.41446   -1.000
 5521.00    1.46314   1.41668   -1.000
 5522.00    1.46300   1.41574   -1.000
 5523.00    1.46101   1.41180   -1.000
 5524.00    1.45499   1.40364   -1.000
 5525.00    1.44743   1.38964   -1.000
 5526.00    1.42372   1.37152   -1.000
 5527.00    1.40167   1.35341   -1.000
 5528.00    1.39439   1.34309   -1.000
 5529.00    1.40726   1.34460   -1.000
 5530.00    1.43445   1.35731   -1.000
 5531.00    1.44944   1.37373   -1.000
 5532.00    1.44791   1.38546   -1.000
 5533.00    1.43960   1.38941   -1.000
 5534.00    1.42918   1.38747   -1.000
 5535.00    1.42402   1.38515   -1.000
 5536.00    1.43352   1.38594   -1.000
 5537.00    1.44342   1.39062   -1.000
 5538.00    1.44825   1.39703   -1.000
 5539.00    1.46020   1.40336   -1.000
 5540.00    1.47162   1.40834   -1.000
 5541.00    1.47498   1.41088   -1.000
 5542.00    1.46239   1.40964   -1.000
 5543.00    1.44401   1.40584   -1.000
 5544.00    1.44721   1.40196   -1.000
 5545.00    1.45791   1.40080   -1.000
 5546.00    1.45684   1.40336   -1.000
 5547.00    1.46325   1.40881   -1.000
 5548.00    1.47301   1.41575   -1.000
 5549.00    1.48260   1.42247   -1.000
 5550.00    1.48273   1.42661   -1.000
 5551.00    1.47888   1.42717   -1.000
 5552.00    1.47049   1.42431   -1.000
 5553.00    1.46248   1.41945   -1.000
 5554.00    1.44691   1.41508   -1.000
 5555.00    1.45465   1.41281   -1.000
 5556.00    1.46103   1.41319   -1.000
 5557.00    1.46654   1.41497   -1.000
 5558.00    1.46315   1.41684   -1.000
 5559.00    1.46945   1.41764   -1.000
 5560.00    1.46552   1.41615   -1.000
 5561.00    1.46230   1.41185   -1.000
 5562.00    1.45393   1.40533   -1.000
 5563.00    1.44336   1.39827   -1.000
 5564.00    1.43680   1.39233   -1.000
 5565.00    1.43036   1.38800   -1.000
 5566.00    1.42822   1.38499   -1.000
 5567.00    1.42793   1.38263   -1.000
 5568.00    1.42887   1.38057   -1.000
 5569.00    1.42144   1.37840   -1.000
 5570.00    1.41831   1.37619   -1.000
 5571.00    1.42913   1.37370   -1.000
 5572.00    1.42924   1.37181   -1.000
 5573.00    1.42482   1.37157   -1.000
 5574.00    1.37421   1.37412  112.384
 5575.00    1.30208   1.37934   -1.000
 5576.00    1.30378   1.38544   -1.000
 5577.00    1.37757   1.39205  117.028
 5578.00    1.46546   1.39840   -1.000
 5579.00    1.46910   1.40358   -1.000
 5580.00    1.45968   1.40663   -1.000
 5581.00    1.45462   1.40726   -1.000
 5582.00    1.44963   1.40587   -1.000
 5583.00    1.45454   1.40227   -1.000
 5584.00    1.45979   1.39429   -1.000
 5585.00    1.43904   1.37988   -1.000
 5586.00    1.41037   1.35902   -1.000
 5587.00    1.37364   1.33608   -1.000
 5588.00    1.36222   1.31935   -1.000
 5589.00    1.37652   1.31341   -1.000
 5590.00    1.39513   1.31947   -1.000
 5591.00    1.41192   1.33201   -1.000
 5592.00    1.42374   1.34548   -1.000
 5593.00    1.41803   1.35532   -1.000
 5594.00    1.41391   1.36190   -1.000
 5595.00    1.42155   1.36689   -1.000
 5596.00    1.43605   1.37019   -1.000
 5597.00    1.43537   1.37053   -1.000
 5598.00    1.41622   1.36620   -1.000
 5599.00    1.40769   1.35876   -1.000
 5600.00    1.40938   1.35122   -1.000
 5601.00    1.40127   1.34586   -1.000
 5602.00    1.39516   1.34572   -1.000
 5603.00    1.40262   1.35422   -1.000
 5604.00    1.42539   1.37126   -1.000
 5605.00    1.45974   1.39352   -1.000
 5606.00    1.47433   1.41501   -1.000
 5607.00    1.47608   1.43102   -1.000
 5608.00    1.48301   1.44071   -1.000
 5609.00    1.48210   1.44510   -1.000
 5610.00    1.48412   1.44610   -1.000
 5611.00    1.47969   1.44338   -1.000
 5612.00    1.47392   1.43490   -1.000
 5613.00    1.46479   1.41857   -1.000
 5614.00    1.43390   1.39582   -1.000
 5615.00    1.39849   1.37433   -1.000
 5616.00    1.39297   1.36141   -1.000
 5617.00    1.42152   1.36281   -1.000
 5618.00    1.44862   1.37388   -1.000
 5619.00    1.45540   1.38836   -1.000
 5620.00    1.45546   1.40010   -1.000
 5621.00    1.46194   1.40642   -1.000
 5622.00    1.46556   1.40635   -1.000
 5623.00    1.44655   1.40121   -1.000
 5624.00    1.42379   1.39380   -1.000
 5625.00    1.41864   1.38953   -1.000
 5626.00    1.43518   1.39165   -1.000
 5627.00    1.44740   1.39997   -1.000
 5628.00    1.45661   1.41153   -1.000
 5629.00    1.46752   1.42222   -1.000
 5630.00    1.47580   1.42994   -1.000
 5631.00    1.48196   1.43351   -1.000
 5632.00    1.48200   1.43294   -1.000
 5633.00    1.47660   1.42883   -1.000
 5634.00    1.47313   1.42270   -1.000
 5635.00    1.46424   1.41560   -1.000
 5636.00    1.45633   1.40911   -1.000
 5637.00    1.45118   1.40407   -1.000
 5638.00    1.44807   1.40099   -1.000
 5639.00    1.44441   1.39945   -1.000
 5640.00    1.44191   1.39882   -1.000
 5641.00    1.44403   1.39853   -1.000
 5642.00    1.45411   1.39935   -1.000
 5643.00    1.45777   1.40167   -1.000
 5644.00    1.45727   1.40515   -1.000
 5645.00    1.46263   1.40908   -1.000
 5646.00    1.46625   1.41249   -1.000
 5647.00    1.46655   1.41456   -1.000
 5648.00    1.46728   1.41501   -1.000
 5649.00    1.46099   1.41469   -1.000
 5650.00    1.46350   1.41423   -1.000
 5651.00    1.47180   1.41436   -1.000
 5652.00    1.46736   1.41386   -1.000
 5653.00    1.46477   1.41131   -1.000
 5654.00    1.46347   1.40544   -1.000
 5655.00    1.45608   1.39554   -1.000
 5656.00    1.44336   1.38208   -1.000
 5657.00    1.41513   1.36736   -1.000
 5658.00    1.38186   1.35523   -1.000
 5659.00    1.38451   1.35003   -1.000
 5660.00    1.41646   1.35271   -1.000
 5661.00    1.43324   1.36000   -1.000
 5662.00    1.42998   1.36899   -1.000
 5663.00    1.43391   1.37785   -1.000
 5664.00    1.45444   1.38667   -1.000
 5665.00    1.46374   1.39473   -1.000
 5666.00    1.45675   1.39988   -1.000
 5667.00    1.44895   1.40155   -1.000
 5668.00    1.44455   1.40151   -1.000
 5669.00    1.44390   1.40217   -1.000
 5670.00    1.45078   1.40543   -1.000
 5671.00    1.46243   1.41073   -1.000
 5672.00    1.46560   1.41700   -1.000
 5673.00    1.47953   1.42223   -1.000
 5674.00    1.48175   1.42595   -1.000
 5675.00    1.47757   1.42779   -1.000
 5676.00    1.47776   1.42863   -1.000
 5677.00    1.48515   1.42858   -1.000
 5678.00    1.47967   1.42708   -1.000
 5679.00    1.47493   1.42295   -1.000
 5680.00    1.46656   1.41553   -1.000
 5681.00    1.45833   1.40547   -1.000
 5682.00    1.44947   1.39483   -1.000
 5683.00    1.44439   1.38670   -1.000
 5684.00    1.44174   1.38271   -1.000
 5685.00    1.44475   1.38241   -1.000
 5686.00    1.44087   1.38333   -1.000
 5687.00    1.43233   1.38335   -1.000
 5688.00    1.43286   1.38356   -1.000
 5689.00    1.44734   1.38602   -1.000
 5690.00    1.46123   1.39250   -1.000
 5691.00    1.46893   1.40196   -1.000
 5692.00    1.47207   1.41157   -1.000
 5693.00    1.47346   1.41931   -1.000
 5694.00    1.47605   1.42392   -1.000
 5695.00    1.47707   1.42596   -1.000
 5696.00    1.47208   1.42513   -1.000
 5697.00    1.46871   1.42179   -1.000
 5698.00    1.45779   1.41585   -1.000
 5699.00    1.44513   1.40821   -1.000
 5700.00    1.43706   1.40075   -1.000
 5701.00    1.42617   1.39491   -1.000
 5702.00    1.42322   1.39226   -1.000
 5703.00    1.42943   1.39178   -1.000
 5704.00    1.43583   1.39184   -1.000
 5705.00    1.43587   1.38943   -1.000
 5706.00    1.42430   1.38290   -1.000
 5707.00    1.40718   1.37250   -1.000
 5708.00    1.39515   1.36038   -1.000
 5709.00    1.38813   1.35003   -1.000
 5710.00    1.38181   1.34527   -1.000
 5711.00    1.39149   1.34856   -1.000
 5712.00    1.41938   1.35936   -1.000
 5713.00    1.44484   1.37539   -1.000
 5714.00    1.46032   1.39187   -1.000
 5715.00    1.46375   1.40580   -1.000
 5716.00    1.46138   1.41528   -1.000
 5717.00    1.46116   1.42203   -1.000
 5718.00    1.46867   1.42743   -1.000
 5719.00    1.48168   1.43302   -1.000
 5720.00    1.48618   1.43874   -1.000
 5721.00    1.48795   1.44416   -1.000
 5722.00    1.48553   1.44824   -1.000
 5723.00    1.49204   1.45034   -1.000
 5724.00    1.49355   1.44959   -1.000
 5725.00    1.48126   1.44625   -1.000
 5726.00    1.46541   1.44093   -1.000
 5727.00    1.46181   1.43566   -1.000
 5728.00    1.46781   1.43236   -1.000
 5729.00    1.47251   1.43113   -1.000
 5730.00    1.47819   1.43157   -1.000
 5731.00    1.47268   1.43223   -1.000
 5732.00    1.47271   1.43369   -1.000
 5733.00    1.47864   1.43656   -1.000
 5734.00    1.48900   1.44064   -1.000
 5735.00    1.48339   1.44478   -1.000
 5736.00    1.47922   1.44724   -1.000
 5737.00    1.48268   1.44802   -1.000
 5738.00    1.48401   1.44759   -1.000
 5739.00    1.47778   1.44693   -1.000
 5740.00    1.47516   1.44599   -1.000
 5741.00    1.47897   1.44495   -1.000
 5742.00    1.47559   1.44381   -1.000
 5743.00    1.47485   1.44372   -1.000
 5744.00    1.47908   1.44429   -1.000
 5745.00    1.48637   1.44508   -1.000
 5746.00    1.48625   1.44471   -1.000
 5747.00    1.47600   1.44339   -1.000
 5748.00    1.46731   1.44204   -1.000
 5749.00    1.47114   1.44085   -1.000
 5750.00    1.47435   1.43877   -1.000
 5751.00    1.47296   1.43391   -1.000
 5752.00    1.45732   1.42644   -1.000
 5753.00    1.44169   1.41968  114.229
 5754.00    1.44433   1.41701   -1.000
 5755.00    1.46218   1.42128   -1.000
 5756.00    1.48006   1.43013   -1.000
 5757.00    1.48430   1.44019   -1.000
 5758.00    1.48129   1.44654   -1.000
 5759.00    1.47966   1.44734   -1.000
 5760.00    1.47337   1.44235   -1.000
 5761.00    1.45985   1.43478   -1.000
 5762.00    1.45461   1.42810   -1.000
 5763.00    1.45789   1.42678   -1.000
 5764.00    1.46499   1.43168   -1.000
 5765.00    1.47884   1.44097   -1.000
 5766.00    1.49231   1.45060   -1.000
 5767.00    1.49436   1.45705   -1.000
 5768.00    1.48529   1.45964   -1.000
 5769.00    1.48640   1.45889   -1.000
 5770.00    1.48728   1.45618   -1.000
 5771.00    1.48095   1.45220   -1.000
 5772.00    1.47669   1.44774   -1.000
 5773.00    1.46908   1.44347   -1.000
 5774.00    1.46803   1.44062   -1.000
 5775.00    1.46662   1.43948   -1.000
 5776.00    1.46778   1.43944   -1.000
 5777.00    1.45401   1.43838  114.947
 5778.00    1.43861   1.43405  117.544
 5779.00    1.42225   1.42530  118.729
 5780.00    1.41845   1.41421  118.290
 5781.00    1.41917   1.40353  117.826
 5782.00    1.43440   1.39667   -1.000
 5783.00    1.44831   1.39423   -1.000
 5784.00    1.44582   1.39572   -1.000
 5785.00    1.45035   1.40004   -1.000
 5786.00    1.46160   1.40630   -1.000
 5787.00    1.46884   1.41397   -1.000
 5788.00    1.47402   1.42098   -1.000
 5789.00    1.47477   1.42539   -1.000
 5790.00    1.47559   1.42725   -1.000
 5791.00    1.46909   1.42811   -1.000
 5792.00    1.46588   1.43080   -1.000
 5793.00    1.46904   1.43592   -1.000
 5794.00    1.46967   1.44219   -1.000
 5795.00    1.47676   1.44732   -1.000
 5796.00    1.48197   1.44963   -1.000
 5797.00    1.48097   1.44960   -1.000
 5798.00    1.48175   1.44904   -1.000
 5799.00    1.49170   1.45038   -1.000
 5800.00    1.50682   1.45358   -1.000
 5801.00    1.50940   1.45712   -1.000
 5802.00    1.50517   1.45878   -1.000
 5803.00    1.49655   1.45738   -1.000
 5804.00    1.48806   1.45378   -1.000
 5805.00    1.48443   1.44984   -1.000
 5806.00    1.48856   1.44775   -1.000
 5807.00    1.49350   1.44796   -1.000
 5808.00    1.49322   1.45011   -1.000
 5809.00    1.49465   1.45290   -1.000
 5810.00    1.50542   1.45564   -1.000
 5811.00    1.50720   1.45745   -1.000
 5812.00    1.50626   1.45767   -1.000
 5813.00    1.50668   1.45576   -1.000
 5814.00    1.49615   1.45232   -1.000
 5815.00    1.48818   1.44858   -1.000
 5816.00    1.48874   1.44677   -1.000
 5817.00    1.49052   1.44819   -1.000
 5818.00    1.49794   1.45262   -1.000
 5819.00    1.51187   1.45780   -1.000
 5820.00    1.51609   1.46193   -1.000
 5821.00    1.51288   1.46418   -1.000
 5822.00    1.51179   1.46515   -1.000
 5823.00    1.51542   1.46547   -1.000
 5824.00    1.51324   1.46566   -1.000
 5825.00    1.50884   1.46583   -1.000
 5826.00    1.50929   1.46645   -1.000
 5827.00    1.51428   1.46736   -1.000
 5828.00    1.51785   1.46850   -1.000
 5829.00    1.51773   1.46916   -1.000
 5830.00    1.52193   1.46924   -1.000
 5831.00    1.51653   1.46856   -1.000
 5832.00    1.51830   1.46709   -1.000
 5833.00    1.51283   1.46515   -1.000
 5834.00    1.50077   1.46322   -1.000
 5835.00    1.50914   1.46236   -1.000
 5836.00    1.51194   1.46284   -1.000
 5837.00    1.51722   1.46451   -1.000
 5838.00    1.51210   1.46628   -1.000
 5839.00    1.51380   1.46786   -1.000
 5840.00    1.51605   1.46898   -1.000
 5841.00    1.51667   1.46979   -1.000
 5842.00    1.52173   1.46986   -1.000
 5843.00    1.51979   1.46872   -1.000
 5844.00    1.51851   1.46618   -1.000
 5845.00    1.51036   1.46251   -1.000
 5846.00    1.49829   1.45841   -1.000
 5847.00    1.49281   1.45502   -1.000
 5848.00    1.49428   1.45262   -1.000
 5849.00    1.49061   1.45078   -1.000
 5850.00    1.49151   1.44753   -1.000
 5851.00    1.49587   1.44219   -1.000
 5852.00    1.47824   1.43458   -1.000
 5853.00    1.46754   1.42625   -1.000
 5854.00    1.46634   1.41794   -1.000
 5855.00    1.46131   1.40935   -1.000
 5856.00    1.45739   1.40057   -1.000
 5857.00    1.45034   1.39258   -1.000
 5858.00    1.45106   1.38896   -1.000
 5859.00    1.46154   1.39205   -1.000
 5860.00    1.47430   1.40032   -1.000
 5861.00    1.48101   1.41089   -1.000
 5862.00    1.49037   1.42029   -1.000
 5863.00    1.49088   1.42699   -1.000
 5864.00    1.48603   1.43091   -1.000
 5865.00    1.48195   1.43172   -1.000
 5866.00    1.47670   1.43075   -1.000
 5867.00    1.47658   1.43035   -1.000
 5868.00    1.48411   1.43236   -1.000
 5869.00    1.49788   1.43756   -1.000
 5870.00    1.50623   1.44369   -1.000
 5871.00    1.50478   1.44833   -1.000
 5872.00    1.50239   1.44976   -1.000
 5873.00    1.50139   1.44837   -1.000
 5874.00    1.50098   1.44543   -1.000
 5875.00    1.50150   1.44227   -1.000
 5876.00    1.49713   1.43917   -1.000
 5877.00    1.49463   1.43611   -1.000
 5878.00    1.48749   1.43257   -1.000
 5879.00    1.48159   1.42848   -1.000
 5880.00    1.47188   1.42377   -1.000
 5881.00    1.46821   1.41855   -1.000
 5882.00    1.47493   1.41266   -1.000
 5883.00    1.47280   1.40591   -1.000
 5884.00    1.46313   1.39764   -1.000
 5885.00    1.44404   1.38514   -1.000
 5886.00    1.40521   1.36370   -1.000
 5887.00    1.31957   1.32873  137.283
 5888.00    1.24010   1.28145   -1.000
 5889.00    1.21065   1.23436   -1.000
 5890.00    1.24710   1.20085   -1.000
 5891.00    1.31525   1.19271   -1.000
 5892.00    1.34821   1.20092   -1.000
 5893.00    1.32140   1.21288   -1.000
 5894.00    1.28085   1.21671   -1.000
 5895.00    1.26301   1.21332   -1.000
 5896.00    1.30117   1.21392   -1.000
 5897.00    1.35778   1.22689   -1.000
 5898.00    1.40232   1.25529   -1.000
 5899.00    1.43687   1.29053   -1.000
 5900.00    1.45538   1.32549   -1.000
 5901.00    1.47094   1.35494   -1.000
 5902.00    1.47412   1.37718   -1.000
 5903.00    1.47388   1.39239   -1.000
 5904.00    1.47641   1.40200   -1.000
 5905.00    1.47511   1.40763   -1.000
 5906.00    1.46785   1.41169   -1.000
 5907.00    1.46488   1.41514   -1.000
 5908.00    1.47198   1.41848   -1.000
 5909.00    1.47823   1.42105   -1.000
 5910.00    1.47374   1.42227   -1.000
 5911.00    1.46959   1.42095   -1.000
 5912.00    1.46761   1.41697   -1.000
 5913.00    1.45456   1.41057   -1.000
 5914.00    1.44068   1.40409   -1.000
 5915.00    1.43365   1.40006   -1.000
 5916.00    1.43874   1.39989   -1.000
 5917.00    1.44582   1.40367   -1.000
 5918.00    1.45313   1.40945   -1.000
 5919.00    1.46038   1.41550   -1.000
 5920.00    1.46442   1.41963   -1.000
 5921.00    1.46348   1.42193   -1.000
 5922.00    1.46103   1.42269   -1.000
 5923.00    1.46138   1.42351   -1.000
 5924.00    1.47433   1.42492   -1.000
 5925.00    1.47992   1.42687   -1.000
 5926.00    1.47890   1.42789   -1.000
 5927.00    1.48015   1.42662   -1.000
 5928.00    1.47233   1.42283   -1.000
 5929.00    1.46335   1.41813   -1.000
 5930.00    1.45977   1.41518   -1.000
 5931.00    1.46474   1.41495   -1.000
 5932.00    1.47522   1.41719   -1.000
 5933.00    1.47771   1.41964   -1.000
 5934.00    1.47077   1.42159   -1.000
 5935.00    1.46568   1.42377   -1.000
 5936.00    1.46096   1.42648   -1.000
 5937.00    1.46479   1.42929   -1.000
 5938.00    1.46193   1.43067   -1.000
 5939.00    1.45709   1.42957   -1.000
 5940.00    1.45663   1.42673   -1.000
 5941.00    1.45634   1.42347   -1.000
 5942.00    1.45468   1.42200   -1.000
 5943.00    1.45657   1.42238   -1.000
 5944.00    1.46429   1.42411   -1.000
 5945.00    1.46821   1.42525   -1.000
 5946.00    1.46980   1.42468   -1.000
 5947.00    1.46045   1.42231   -1.000
 5948.00    1.45285   1.41927   -1.000
 5949.00    1.45535   1.41728   -1.000
 5950.00    1.46117   1.41648   -1.000
 5951.00    1.46613   1.41654   -1.000
 5952.00    1.45504   1.41624   -1.000
 5953.00    1.45454   1.41560   -1.000
 5954.00    1.45697   1.41525   -1.000
 5955.00    1.45516   1.41496   -1.000
 5956.00    1.44834   1.41462   -1.000
 5957.00    1.44824   1.41541   -1.000
 5958.00    1.45484   1.41797   -1.000
 5959.00    1.47017   1.42276   -1.000
 5960.00    1.47731   1.42864   -1.000
 5961.00    1.47956   1.43376   -1.000
 5962.00    1.48423   1.43696   -1.000
 5963.00    1.48634   1.43773   -1.000
 5964.00    1.47320   1.43658   -1.000
 5965.00    1.46591   1.43453   -1.000
 5966.00    1.46390   1.43292   -1.000
 5967.00    1.46882   1.43257   -1.000
 5968.00    1.48001   1.43393   -1.000
 5969.00    1.48676   1.43635   -1.000
 5970.00    1.48816   1.43930   -1.000
 5971.00    1.48913   1.44158   -1.000
 5972.00    1.47968   1.44201   -1.000
 5973.00    1.47038   1.43988   -1.000
 5974.00    1.46790   1.43497   -1.000
 5975.00    1.46324   1.42835   -1.000
 5976.00    1.45442   1.42211   -1.000
 5977.00    1.45354   1.41835   -1.000
 5978.00    1.46093   1.41856   -1.000
 5979.00    1.46565   1.42158   -1.000
 5980.00    1.47499   1.42522   -1.000
 5981.00    1.47223   1.42638   -1.000
 5982.00    1.46272   1.42383   -1.000
 5983.00    1.45061   1.41845   -1.000
 5984.00    1.44451   1.41322   -1.000
 5985.00    1.45128   1.41104   -1.000
 5986.00    1.45682   1.41274   -1.000
 5987.00    1.46239   1.41730   -1.000
 5988.00    1.47311   1.42226   -1.000
 5989.00    1.47911   1.42637   -1.000
 5990.00    1.47294   1.42901   -1.000
 5991.00    1.47178   1.43144   -1.000
 5992.00    1.47731   1.43434   -1.000
 5993.00    1.47902   1.43791   -1.000
 5994.00    1.48486   1.44062   -1.000
 5995.00    1.48681   1.44071   -1.000
 5996.00    1.47963   1.43861   -1.000
 5997.00    1.47209   1.43517   -1.000
 5998.00    1.46977   1.43248   -1.000
 5999.00    1.47246   1.43082   -1.000
 6000.00    1.47168   1.42979   -1.000
 6001.00    1.46948   1.42839   -1.000
 6002.00    1.46300   1.42632   -1.000
 6003.00    1.45358   1.42398   -1.000
 6004.00    1.45925   1.42167   -1.000
 6005.00    1.45586   1.41890   -1.000
 6006.00    1.44800   1.41500   -1.000
 6007.00    1.43669   1.41063   -1.000
 6008.00    1.43351   1.40841   -1.000
 6009.00    1.43916   1.40978   -1.000
 6010.00    1.45720   1.41421   -1.000
 6011.00    1.46442   1.41893   -1.000
 6012.00    1.45698   1.42105   -1.000
 6013.00    1.45523   1.42095   -1.000
 6014.00    1.46084   1.41931   -1.000
 6015.00    1.46534   1.41773   -1.000
 6016.00    1.46097   1.41631   -1.000
 6017.00    1.45512   1.41461   -1.000
 6018.00    1.45628   1.41219   -1.000
 6019.00    1.45332   1.40897   -1.000
 6020.00    1.44673   1.40573   -1.000
 6021.00    1.44327   1.40362   -1.000
 6022.00    1.44503   1.40391   -1.000
 6023.00    1.44872   1.40648   -1.000
 6024.00    1.44577   1.41101   -1.000
 6025.00    1.45225   1.41732   -1.000
 6026.00    1.45824   1.42459   -1.000
 6027.00    1.46137   1.43156   -1.000
 6028.00    1.47165   1.43781   -1.000
 6029.00    1.47796   1.44305   -1.000
 6030.00    1.47598   1.44701   -1.000
 6031.00    1.47468   1.44986   -1.000
 6032.00    1.47726   1.45196   -1.000
 6033.00    1.47900   1.45374   -1.000
 6034.00    1.47927   1.45521   -1.000
 6035.00    1.47525   1.45609  113.178
 6036.00    1.47733   1.45585   -1.000
 6037.00    1.47467   1.45452  113.990
 6038.00    1.47683   1.45206   -1.000
 6039.00    1.47220   1.44890   -1.000
 6040.00    1.46684   1.44574   -1.000
 6041.00    1.46742   1.44356   -1.000
 6042.00    1.46705   1.44308   -1.000
 6043.00    1.47032   1.44450   -1.000
 6044.00    1.47130   1.44735   -1.000
 6045.00    1.47545   1.45090   -1.000
 6046.00    1.48103   1.45416   -1.000
 6047.00    1.48512   1.45716   -1.000
 6048.00    1.48810   1.45946   -1.000
 6049.00    1.48494   1.46076   -1.000
 6050.00    1.48313   1.46093   -1.000
 6051.00    1.48121   1.45969   -1.000
 6052.00    1.47958   1.45703   -1.000
 6053.00    1.47557   1.45272   -1.000
 6054.00    1.46768   1.44779  115.138
 6055.00    1.46176   1.44333  114.785
 6056.00    1.46631   1.44110   -1.000
 6057.00    1.45940   1.44159  113.722
 6058.00    1.42186   1.44437  113.977
 6059.00    1.43300   1.44756  114.547
 6060.00    1.46357   1.44940  116.513
 6061.00    1.25306   1.44826   -1.000
 6062.00    0.80814   1.44343   -1.000
 6063.00    0.99385   1.43565   -1.000
 6064.00    1.44118   1.42750   39.560
 6065.00    1.40942   1.42219  129.052
 6066.00    1.42111   1.42281  113.984
 6067.00    1.47722   1.42918   -1.000
 6068.00    1.49582   1.43822   -1.000
 6069.00    1.48039   1.44738   -1.000
 6070.00    1.48597   1.45433   -1.000
 6071.00    1.48441   1.45891   -1.000
 6072.00    1.47869   1.46160  112.992
 6073.00    1.47896   1.46291  113.461
 6074.00    1.47835   1.46283  114.086
 6075.00    1.47307   1.46089  114.799
 6076.00    1.46273   1.45682  115.678
 6077.00    1.45401   1.45125  116.206
 6078.00    1.45160   1.44508  116.206
 6079.00    1.44769   1.43984  116.382
 6080.00    1.45140   1.43626  116.664
 6081.00    1.44878   1.43357  116.591
 6082.00    1.44425   1.43130  116.494
 6083.00    1.43877   1.42963  116.315
 6084.00    1.44227   1.42892  115.920
 6085.00    1.44879   1.42977  115.603
 6086.00    1.45160   1.43204  116.029
 6087.00    1.45356   1.43477  116.731
 6088.00    1.45123   1.43642  117.062
 6089.00    1.44542   1.43631  116.775
 6090.00    1.44207   1.43511  115.991
 6091.00    1.43850   1.43404  115.425
 6092.00    1.44237   1.43455  114.792
 6093.00    1.44798   1.43675  114.444
 6094.00    1.45258   1.44038  114.605
 6095.00    1.45620   1.44438  114.861
 6096.00    1.45885   1.44778  114.890
 6097.00    1.45810   1.44955  115.221
 6098.00    1.45919   1.44801  117.110
 6099.00    1.46104   1.44179   -1.000
 6100.00    1.44476   1.42998  121.020
 6101.00    1.42334   1.41469  119.496
 6102.00    1.40482   1.40083  117.206
 6103.00    1.39849   1.39381  115.840
 6104.00    1.41568   1.39705  115.786
 6105.00    1.43424   1.40740   -1.000
 6106.00    1.44412   1.42037   -1.000
 6107.00    1.44607   1.43204  116.311
 6108.00    1.43946   1.44058  115.976
 6109.00    1.43569   1.44635  115.556
 6110.00    1.44560   1.44962  115.448
 6111.00    1.44374   1.45124  114.838
 6112.00    1.44423   1.45216  114.787
 6113.00    1.45275   1.45295  115.387
 6114.00    1.45600   1.45370  116.030
 6115.00    1.45185   1.45397  116.217
 6116.00    1.44621   1.45296  117.115
 6117.00    1.43988   1.45004  118.898
 6118.00    1.43765   1.44398  120.302
 6119.00    1.42923   1.43346  121.148
 6120.00    1.41493   1.41928  120.614
 6121.00    1.40178   1.40412  118.545
 6122.00    1.39352   1.39308  117.464
 6123.00    1.40631   1.39012  117.762
 6124.00    1.42130   1.39497   -1.000
 6125.00    1.42553   1.40476   -1.000
 6126.00    1.42584   1.41470  117.587
 6127.00    1.42073   1.42280  116.507
 6128.00    1.42069   1.42870  115.616
 6129.00    1.43034   1.43432  115.589
 6130.00    1.43733   1.44063  116.069
 6131.00    1.44246   1.44615  117.648
 6132.00    1.43647   1.44819  120.692
 6133.00    1.42796   1.44362  124.218
 6134.00    1.41174   1.43042  126.569
 6135.00    1.38123   1.41045  125.723
 6136.00    1.35230   1.38923   -1.000
 6137.00    1.33988   1.37327   -1.000
 6138.00    1.35673   1.36745  118.502
 6139.00    1.38631   1.37012  118.844
 6140.00    1.40395   1.37767   -1.000
 6141.00    1.39847   1.38897  117.246
 6142.00    1.39849   1.40204  116.152
 6143.00    1.41740   1.41551  116.296
 6144.00    1.42850   1.42679  116.946
 6145.00    1.43350   1.43331  117.733
 6146.00    1.43410   1.43491  118.554
 6147.00    1.42881   1.43253  119.048
 6148.00    1.42248   1.42834  118.867
 6149.00    1.41222   1.42457  118.286
 6150.00    1.40885   1.42263  117.598
 6151.00    1.41546   1.42275  117.835
 6152.00    1.41796   1.42420  118.854
 6153.00    1.42011   1.42490  119.263
 6154.00    1.42148   1.42362  119.407
 6155.00    1.41733   1.42070  120.162
 6156.00    1.41173   1.41678  121.791
 6157.00    1.39992   1.41123  124.585
 6158.00    1.39252   1.40185  128.481
 6159.00    1.38398   1.38643  131.515
 6160.00    1.35978   1.36472  131.640
 6161.00    1.32734   1.34120  128.915
 6162.00    1.31054   1.32269  125.634
 6163.00    1.31636   1.31535  124.276
 6164.00    1.33927   1.31988  124.096
 6165.00    1.36151   1.33108   -1.000
 6166.00    1.36661   1.34271   -1.000
 6167.00    1.35847   1.34938  127.138
 6168.00    1.35422   1.35084  125.543
 6169.00    1.34118   1.35006  123.153
 6170.00    1.33835   1.35290  122.028
 6171.00    1.35273   1.36091  122.333
 6172.00    1.36705   1.37241  122.288
 6173.00    1.37432   1.38449  121.964
 6174.00    1.37885   1.39447  121.720
 6175.00    1.38441   1.40170  121.300
 6176.00    1.38490   1.40651  120.714
 6177.00    1.38723   1.41021  120.315
 6178.00    1.38765   1.41339  119.884
 6179.00    1.38777   1.41643  119.374
 6180.00    1.39190   1.41959  119.255
 6181.00    1.39632   1.42287  119.604
 6182.00    1.40011   1.42571  120.186
 6183.00    1.39845   1.42700  121.311
 6184.00    1.39420   1.42576   -1.000
 6185.00    1.38998   1.42213   -1.000
 6186.00    1.38629   1.41630   -1.000
 6187.00    1.37847   1.40880   -1.000
 6188.00    1.36256   1.39986   -1.000
 6189.00    1.35378   1.38995   -1.000
 6190.00    1.34258   1.38059   -1.000
 6191.00    1.32921   1.37456   -1.000
 6192.00    1.33432   1.37546   -1.000
 6193.00    1.35839   1.38301  120.514
 6194.00    1.37956   1.39382  120.657
 6195.00    1.38594   1.40468  121.731
 6196.00    1.39005   1.41239  123.090
 6197.00    1.38378   1.41587   -1.000
 6198.00    1.37099   1.41557   -1.000
 6199.00    1.35758   1.41341   -1.000
 6200.00    1.35575   1.41195   -1.000
 6201.00    1.36149   1.41337   -1.000
 6202.00    1.37437   1.41754   -1.000
 6203.00    1.38103   1.42349   -1.000
 6204.00    1.38750   1.42951   -1.000
 6205.00    1.39773   1.43442   -1.000
 6206.00    1.39763   1.43751   -1.000
 6207.00    1.39294   1.43881   -1.000
 6208.00    1.39227   1.43798   -1.000
 6209.00    1.38787   1.43454   -1.000
 6210.00    1.37643   1.42800   -1.000
 6211.00    1.36618   1.41844   -1.000
 6212.00    1.35501   1.40704   -1.000
 6213.00    1.34635   1.39595   -1.000
 6214.00    1.33853   1.38743   -1.000
 6215.00    1.33900   1.38236   -1.000
 6216.00    1.34341   1.37997   -1.000
 6217.00    1.34953   1.37902   -1.000
 6218.00    1.35121   1.37832   -1.000
 6219.00    1.34286   1.37854   -1.000
 6220.00    1.34363   1.38031   -1.000
 6221.00    1.34951   1.38409   -1.000
 6222.00    1.36008   1.38882   -1.000
 6223.00    1.36539   1.39284   -1.000
 6224.00    1.36278   1.39571   -1.000
 6225.00    1.36570   1.39639   -1.000
 6226.00    1.36644   1.39431   -1.000
 6227.00    1.36045   1.38864   -1.000
 6228.00    1.34976   1.37915   -1.000
 6229.00    1.33060   1.36761   -1.000
 6230.00    1.31355   1.35754   -1.000
 6231.00    1.31250   1.35298   -1.000
 6232.00    1.32157   1.35563   -1.000
 6233.00    1.34161   1.36393  123.595
 6234.00    1.36246   1.37407  124.689
 6235.00    1.36770   1.38171  125.983
 6236.00    1.36313   1.38492  127.278
 6237.00    1.35864   1.38361  128.398
 6238.00    1.35084   1.37991   -1.000
 6239.00    1.33966   1.37558   -1.000
 6240.00    1.32976   1.37149   -1.000
 6241.00    1.32554   1.36729   -1.000
 6242.00    1.32717   1.36217   -1.000
 6243.00    1.32393   1.35590   -1.000
 6244.00    1.32052   1.34997   -1.000
 6245.00    1.31837   1.34655   -1.000
 6246.00    1.31772   1.34777   -1.000
 6247.00    1.32741   1.35422  125.457
 6248.00    1.34158   1.36334  127.099
 6249.00    1.34691   1.37116  129.333
 6250.00    1.34051   1.37355   -1.000
 6251.00    1.32644   1.36973   -1.000
 6252.00    1.31334   1.36140   -1.000
 6253.00    1.30363   1.35239   -1.000
 6254.00    1.29686   1.34563   -1.000
 6255.00    1.29320   1.34186   -1.000
 6256.00    1.29272   1.34076   -1.000
 6257.00    1.29338   1.34145   -1.000
 6258.00    1.29413   1.34442   -1.000
 6259.00    1.30324   1.35011   -1.000
 6260.00    1.31824   1.35864   -1.000
 6261.00    1.32781   1.36873   -1.000
 6262.00    1.33775   1.37858   -1.000
 6263.00    1.34565   1.38637   -1.000
 6264.00    1.33865   1.39141   -1.000
 6265.00    1.32925   1.39461   -1.000
 6266.00    1.32927   1.39679   -1.000
 6267.00    1.33661   1.39834   -1.000
 6268.00    1.34092   1.39880   -1.000
 6269.00    1.33685   1.39802   -1.000
 6270.00    1.33818   1.39694   -1.000
 6271.00    1.34012   1.39602   -1.000
 6272.00    1.33482   1.39464   -1.000
 6273.00    1.31998   1.39142   -1.000
 6274.00    1.29305   1.38460   -1.000
 6275.00    1.26870   1.37482   -1.000
 6276.00    1.25869   1.36338   -1.000
 6277.00    1.26470   1.35274   -1.000
 6278.00    1.26765   1.34511   -1.000
 6279.00    1.26185   1.34156   -1.000
 6280.00    1.25254   1.34317   -1.000
 6281.00    1.25168   1.34989   -1.000
 6282.00    1.26481   1.36008   -1.000
 6283.00    1.28407   1.37195   -1.000
 6284.00    1.30039   1.38306   -1.000
 6285.00    1.31500   1.39201   -1.000
 6286.00    1.32819   1.39809   -1.000
 6287.00    1.33316   1.40122   -1.000
 6288.00    1.33645   1.40169   -1.000
 6289.00    1.33377   1.39978   -1.000
 6290.00    1.33115   1.39663   -1.000
 6291.00    1.32582   1.39357   -1.000
 6292.00    1.32092   1.39114   -1.000
 6293.00    1.32587   1.38918   -1.000
 6294.00    1.33121   1.38682   -1.000
 6295.00    1.32773   1.38323   -1.000
 6296.00    1.33007   1.37818   -1.000
 6297.00    1.33226   1.37256   -1.000
 6298.00    1.32072   1.36748   -1.000
 6299.00    1.30511   1.36347   -1.000
 6300.00    1.30136   1.36093   -1.000
 6301.00    1.30082   1.36063   -1.000
 6302.00    1.30688   1.36396   -1.000
 6303.00    1.32309   1.37157   -1.000
 6304.00    1.32724   1.38166   -1.000
 6305.00    1.33006   1.39168   -1.000
 6306.00    1.33840   1.39972   -1.000
 6307.00    1.34529   1.40485   -1.000
 6308.00    1.34875   1.40714   -1.000
 6309.00    1.34582   1.40747   -1.000
 6310.00    1.34342   1.40640   -1.000
 6311.00    1.33590   1.40390   -1.000
 6312.00    1.33005   1.40017   -1.000
 6313.00    1.32639   1.39496   -1.000
 6314.00    1.32067   1.38875   -1.000
 6315.00    1.31543   1.38265   -1.000
 6316.00    1.31937   1.37770   -1.000
 6317.00    1.32234   1.37522   -1.000
 6318.00    1.32340   1.37604   -1.000
 6319.00    1.33207   1.38047   -1.000
 6320.00    1.33690   1.38767   -1.000
 6321.00    1.33899   1.39575   -1.000
 6322.00    1.33815   1.40340   -1.000
 6323.00    1.34442   1.41059   -1.000
 6324.00    1.34894   1.41667   -1.000
 6325.00    1.35651   1.42087   -1.000
 6326.00    1.36052   1.42329   -1.000
 6327.00    1.35711   1.42403   -1.000
 6328.00    1.35789   1.42405   -1.000
 6329.00    1.36248   1.42398   -1.000
 6330.00    1.38428   1.42377   -1.000
 6331.00    1.40021   1.42284  122.166
 6332.00    1.36285   1.42001   -1.000
 6333.00    1.35735   1.41419   -1.000
 6334.00    1.34474   1.40594   -1.000
 6335.00    1.32590   1.39752   -1.000
 6336.00    1.32745   1.39201   -1.000
 6337.00    1.33743   1.39168   -1.000
 6338.00    1.34768   1.39600   -1.000
 6339.00    1.35653   1.40300   -1.000
 6340.00    1.36579   1.41039   -1.000
 6341.00    1.36785   1.41562   -1.000
 6342.00    1.36590   1.41747   -1.000
 6343.00    1.35895   1.41655   -1.000
 6344.00    1.35826   1.41448   -1.000
 6345.00    1.36114   1.41349   -1.000
 6346.00    1.36525   1.41499   -1.000
 6347.00    1.37057   1.41943   -1.000
 6348.00    1.37270   1.42591   -1.000
 6349.00    1.37860   1.43223   -1.000
 6350.00    1.37925   1.43643   -1.000
 6351.00    1.37654   1.43751   -1.000
 6352.00    1.37366   1.43540   -1.000
 6353.00    1.36224   1.43102   -1.000
 6354.00    1.35320   1.42561   -1.000
 6355.00    1.34649   1.42028   -1.000
 6356.00    1.34570   1.41559   -1.000
 6357.00    1.34481   1.41104   -1.000
 6358.00    1.33845   1.40648   -1.000
 6359.00    1.33748   1.40234   -1.000
 6360.00    1.34370   1.39870   -1.000
 6361.00    1.34683   1.39578   -1.000
 6362.00    1.33555   1.39438   -1.000
 6363.00    1.32955   1.39508   -1.000
 6364.00    1.33620   1.39803   -1.000
 6365.00    1.34435   1.40261   -1.000
 6366.00    1.35083   1.40767   -1.000
 6367.00    1.35215   1.41218   -1.000
 6368.00    1.35462   1.41523   -1.000
 6369.00    1.35772   1.41682   -1.000
 6370.00    1.36319   1.41805   -1.000
 6371.00    1.36112   1.42006   -1.000
 6372.00    1.35739   1.42311   -1.000
 6373.00    1.35662   1.42639   -1.000
 6374.00    1.34777   1.42852   -1.000
 6375.00    1.34077   1.42874   -1.000
 6376.00    1.33718   1.42705   -1.000
 6377.00    1.33553   1.42395   -1.000
 6378.00    1.33224   1.42042   -1.000
 6379.00    1.32712   1.41703   -1.000
 6380.00    1.32383   1.41418   -1.000
 6381.00    1.32439   1.41212   -1.000
 6382.00    1.32125   1.41119   -1.000
 6383.00    1.31802   1.41159   -1.000
 6384.00    1.31612   1.41335   -1.000
 6385.00    1.31709   1.41608   -1.000
 6386.00    1.31271   1.41894   -1.000
 6387.00    1.30377   1.42079   -1.000
 6388.00    1.29413   1.42096   -1.000
 6389.00    1.28580   1.41893   -1.000
 6390.00    1.27907   1.41466   -1.000
 6391.00    1.26999   1.40844   -1.000
 6392.00    1.25541   1.40199   -1.000
 6393.00    1.23773   1.39793   -1.000
 6394.00    1.23404   1.39777   -1.000
 6395.00    1.23856   1.40086   -1.000
 6396.00    1.24192   1.40403   -1.000
 6397.00    1.23949   1.40449   -1.000
 6398.00    1.22541   1.40141   -1.000
 6399.00    1.20236   1.39699   -1.000
 6400.00    1.18930   1.39520   -1.000
 6401.00    1.18970   1.39813   -1.000
 6402.00    1.20131   1.40512   -1.000
 6403.00    1.21018   1.41293   -1.000
 6404.00    1.20949   1.41835   -1.000
 6405.00    1.20144   1.41960   -1.000
 6406.00    1.18705   1.41713   -1.000
 6407.00    1.16986   1.41307   -1.000
 6408.00    1.15892   1.40967   -1.000
 6409.00    1.15431   1.40789   -1.000
 6410.00    1.14628   1.40704   -1.000
 6411.00    1.13050   1.40701   -1.000
 6412.00    1.11955   1.40813   -1.000
 6413.00    1.11458   1.41023   -1.000
 6414.00    1.11393   1.41255   -1.000
 6415.00    1.11258   1.41429   -1.000
 6416.00    1.10548   1.41494   -1.000
 6417.00    1.08984   1.41368   -1.000
 6418.00    1.07385   1.41020   -1.000
 6419.00    1.06163   1.40590   -1.000
 6420.00    1.04665   1.40310   -1.000
 6421.00    1.03476   1.40389   -1.000
 6422.00    1.03308   1.40968   -1.000
 6423.00    1.03640   1.41870   -1.000
 6424.00    1.03145   1.42800   -1.000
 6425.00    1.01820   1.43567   -1.000
 6426.00    1.00919   1.43957   -1.000
 6427.00    1.00148   1.43871   -1.000
 6428.00    0.66888   1.43315   -1.000
