###################################################################
## OUTPUT of StarlightChains_v04.for    [Cid@UFSC - 01/Apr/2007] ##
###################################################################

## Some input info
NGC3201_a_1.cxt                          [arq_obs]
Base.BC03.N                              [arq_base]
NGC3201_a_1.msk                          [arq_masks]
StCv04.C99.config                        [arq_config]
   45                                    [N_base]
    0                                    [N_YAV_components = # of components with extra extinction!]
    0                                    [i_FitPowerLaw (1/0 = Yes/No)]
-9.99                                    [alpha_PowerLaw]
CCM                                      [red_law_option]
 1.458241                                [q_norm = A(l_norm)/A(V)]

## (Re)Sampling Parameters
 3359.00                                 [l_ini (A)]
 6428.00                                 [l_fin (A)]
    1.00                                 [dl    (A)]     (OBS: dl_cushion =    50.00 A)

## Normalization info
 4020.00                                 [l_norm (A) - for base]
 4010.00                                 [llow_norm (A) - window for f_obs]
 4060.00                                 [lupp_norm (A) - window for f_obs]
1.250092E-14                             [fobs_norm (in input units)]

## S/N
 4730.00                                 [llow_SN (A) - window for S/N]
 4780.00                                 [lupp_SN (A) - window for S/N]
  72.417                                 [S/N in S/N window]
  61.465                                 [S/N in norm. window]
  55.763                                 [S/N_err in S/N window]
  47.330                                 [S/N_err in norm. window]
  1.0000                                 [fscale_chi2]

## etc...
  2147483640                             [idum_orig]
  3052                                   [NOl_eff]
  1192                                   [Nl_eff]
  1860    NSIGMA                         [Ntot_cliped & clip_method]
  1491280                                [Nglobal_steps]
   7                                     [N_chains]
  11                                     [NEX0s_base = N_base in EX0s-fits]
 0   0   1      371   2.0   8.843E+02    [Clip-Bug, RC-Crash & Burn-In warning-flags, n_censored_weights, wei_nsig_threshold & wei_limit]
    21     20.647     20.647      0.000  [idt_all, wdt_TotTime, wdt_UsrTime & wdt_SysTime (sec)]

## Synthesis Results - Best model ##

 2.12765E+00                             [chi2/Nl_eff]
     1.74610                             [adev (%)]

   109.01785                             [sum-of-x (%)]
 4.00306E-14                             [Flux_tot (units of input spectrum!)]
 3.00829E-10                             [Mini_tot (???)]
 1.63730E-10                             [Mcor_tot (???)]

 -13.48                                  [v0_min  (km/s)]
 101.98                                  [vd_min  (km/s)]
 0.8023                                  [AV_min  (mag)]
 0.0000                                  [YAV_min (mag)]

# j     x_j(%)      Mini_j(%)     Mcor_j(%)     age_j(yr)     Z_j      (L/M)_j    YAV?  Mstars   component_j        a/Fe...       SSP_chi2r SSP_adev(%)   SSP_AV   SSP_x(%)
  1      0.0000     0.0000E+00    0.0000E+00    1.000000E+06  0.00400  1.114E-02    0   1.0000   age020_m42            0.0000     5.2797E+02    10.2410   4.0000    72.6904
  2     13.6699     4.0966E-02    7.5262E-02    3.160000E+06  0.00400  4.073E-02    0   0.9999   age045_m42            0.0000     5.7069E+01     3.3899   3.1773    89.9390
  3      0.0000     0.0000E+00    0.0000E+00    5.010000E+06  0.00400  2.534E-02    0   0.9488   age055_m42            0.0000     1.8439E+02     5.3527   3.6624    81.7066
  4      0.3815     3.6637E-03    5.9654E-03    1.000000E+07  0.00400  1.271E-02    0   0.8862   age070_m42            0.0000     1.1073E+02     5.4746   2.8795    85.2236
  5      0.0000     0.0000E+00    0.0000E+00    2.512000E+07  0.00400  5.070E-03    0   0.8174   age090_m42            0.0000     1.0232E+02     5.2769   2.7384    87.2313
  6      0.0000     0.0000E+00    0.0000E+00    4.000000E+07  0.00400  3.505E-03    0   0.7851   age104_m42            0.0000     7.0566E+01     4.2794   2.3889    91.4385
  7     10.7769     5.8000E-01    7.6802E-01    1.015200E+08  0.00400  2.268E-03    0   0.7207   age116_m42            0.0000     3.8471E+02     5.6801   2.0924   109.4100
  8      0.0001     8.3157E-06    1.0104E-05    2.861200E+08  0.00400  1.079E-03    0   0.6613   age125_m42            0.0000     3.8715E+02     6.0003   1.5549   113.9101
  9      0.0000     0.0000E+00    0.0000E+00    6.405400E+08  0.00400  5.077E-04    0   0.6197   age132_m42            0.0000     4.1121E+02     6.2784   1.1679   119.3981
 10      8.6406     2.9835E+00    3.3022E+00    9.047900E+08  0.00400  3.535E-04    0   0.6024   age135_m42            0.0000     2.0233E+02     4.8184   0.9815   117.3504
 11      0.0000     0.0000E+00    0.0000E+00    1.434000E+09  0.00400  1.910E-04    0   0.5716   age139_m42            0.0000     2.8093E+01     3.3767   0.4925   116.3862
 12     50.0121     6.2177E+01    6.2409E+01    2.500000E+09  0.00400  9.818E-05    0   0.5463   age150_m42            0.0000     5.2070E+01     2.8595   0.2997   109.4351
 13      0.0000     0.0000E+00    0.0000E+00    5.000000E+09  0.00400  4.718E-05    0   0.5228   age161_m42            0.0000     1.6173E+02     3.4255   0.1808   104.5049
 14      0.0000     0.0000E+00    0.0000E+00    1.100000E+10  0.00400  2.205E-05    0   0.4980   age185_m42            0.0000     3.5482E+02     4.7170  -0.0729   102.7589
 15      3.7155     2.4085E+01    2.1803E+01    1.300000E+10  0.00400  1.883E-05    0   0.4927   age193_m42            0.0000     3.8773E+02     4.8782  -0.0861   102.5174
 16      0.0000     0.0000E+00    0.0000E+00    1.000000E+06  0.02000  1.989E-02    0   1.0000   age020_m62            0.0000     5.2345E+02     9.1532   4.0000    73.5263
 17      0.0000     0.0000E+00    0.0000E+00    3.160000E+06  0.02000  3.772E-02    0   0.9858   age045_m62            0.0000     3.8801E+02     6.0583   4.0000    75.8108
 18      0.0000     0.0000E+00    0.0000E+00    5.010000E+06  0.02000  3.227E-02    0   0.9342   age055_m62            0.0000     9.1767E+01     4.1420   3.4738    85.7228
 19      0.0000     0.0000E+00    0.0000E+00    1.000000E+07  0.02000  1.011E-02    0   0.8751   age070_m62            0.0000     3.1489E+02     9.2877   2.9941    78.9738
 20      0.0000     0.0000E+00    0.0000E+00    2.512000E+07  0.02000  4.206E-03    0   0.8099   age090_m62            0.0000     2.7478E+02     7.6310   2.8973    81.0956
 21      0.0000     0.0000E+00    0.0000E+00    4.000000E+07  0.02000  3.373E-03    0   0.7799   age104_m62            0.0000     6.6543E+01     4.0786   2.5611    93.8123
 22      0.0000     0.0000E+00    0.0000E+00    1.015200E+08  0.02000  1.878E-03    0   0.7221   age116_m62            0.0000     3.0694E+02     5.0410   2.1633   108.3608
 23      0.0000     0.0000E+00    0.0000E+00    2.861200E+08  0.02000  8.869E-04    0   0.6700   age125_m62            0.0000     7.7088E+02     8.2168   1.4634   122.6682
 24      0.0000     0.0000E+00    0.0000E+00    6.405400E+08  0.02000  3.657E-04    0   0.6322   age132_m62            0.0000     3.0582E+02     6.7217   0.7769   129.6073
 25      0.1324     6.9909E-02    7.9021E-02    9.047900E+08  0.02000  2.312E-04    0   0.6152   age135_m62            0.0000     8.3768E+01     5.0427   0.4836   126.3514
 26      0.0000     0.0000E+00    0.0000E+00    1.434000E+09  0.02000  1.168E-04    0   0.5865   age139_m62            0.0000     3.7742E+01     3.3947   0.1931   115.9156
 27      0.0000     0.0000E+00    0.0000E+00    2.500000E+09  0.02000  5.505E-05    0   0.5610   age150_m62            0.0000     2.1044E+02     4.3645  -0.1486   112.4422
 28      0.0000     0.0000E+00    0.0000E+00    5.000000E+09  0.02000  2.596E-05    0   0.5353   age161_m62            0.0000     5.5296E+02     6.0285  -0.5092   114.7699
 29      0.0000     0.0000E+00    0.0000E+00    1.100000E+10  0.02000  1.169E-05    0   0.5103   age185_m62            0.0000     9.4877E+02     7.3907  -0.9048   118.5409
 30      0.0000     0.0000E+00    0.0000E+00    1.300000E+10  0.02000  9.691E-06    0   0.5047   age193_m62            0.0000     1.0307E+03     7.5882  -0.9536   119.0483
 31      0.0000     0.0000E+00    0.0000E+00    1.000000E+06  0.05000  2.651E-02    0   0.9998   age020_m72            0.0000     5.0195E+02     8.9083   4.0000    74.5229
 32      0.0000     0.0000E+00    0.0000E+00    3.160000E+06  0.05000  4.817E-02    0   0.9577   age045_m72            0.0000     2.3757E+02     5.7959   3.9164    79.8331
 33      0.0000     0.0000E+00    0.0000E+00    5.010000E+06  0.05000  3.101E-02    0   0.9147   age055_m72            0.0000     1.9257E+02     5.7302   3.5551    82.1703
 34      0.0000     0.0000E+00    0.0000E+00    1.000000E+07  0.05000  8.954E-03    0   0.8524   age070_m72            0.0000     2.7336E+02     6.1809   3.7967    81.1262
 35      0.0000     0.0000E+00    0.0000E+00    2.512000E+07  0.05000  4.207E-03    0   0.7902   age090_m72            0.0000     1.1225E+02     4.4543   3.2834    88.8192
 36      0.0000     0.0000E+00    0.0000E+00    4.000000E+07  0.05000  3.198E-03    0   0.7618   age104_m72            0.0000     1.3971E+02     3.8440   2.5995   101.8922
 37      0.0012     8.2409E-05    1.0738E-04    1.015200E+08  0.05000  1.716E-03    0   0.7092   age116_m72            0.0000     3.9792E+02     5.7896   2.2144   109.3694
 38      0.0000     0.0000E+00    0.0000E+00    2.861200E+08  0.05000  7.047E-04    0   0.6618   age125_m72            0.0000     7.0882E+02     8.0937   1.2396   124.3647
 39     21.6867     1.0054E+01    1.1550E+01    6.405400E+08  0.05000  2.633E-04    0   0.6253   age132_m72            0.0000     1.6850E+02     5.8687   0.4265   128.5207
 40      0.0000     0.0000E+00    0.0000E+00    9.047900E+08  0.05000  1.484E-04    0   0.6088   age135_m72            0.0000     3.6924E+01     4.9743   0.0000   120.7167
 41      0.0000     0.0000E+00    0.0000E+00    1.434000E+09  0.05000  7.827E-05    0   0.5847   age139_m72            0.0000     2.4304E+02     5.3696  -0.2964   115.8626
 42      0.0000     0.0000E+00    0.0000E+00    2.500000E+09  0.05000  3.759E-05    0   0.5583   age150_m72            0.0000     5.7848E+02     6.3979  -0.6037   115.1124
 43      0.0009     6.7656E-03    6.6131E-03    5.000000E+09  0.05000  1.548E-05    0   0.5320   age161_m72            0.0000     9.2490E+02     8.4642  -1.0000   116.4528
 44      0.0000     0.0000E+00    0.0000E+00    1.100000E+10  0.05000  6.532E-06    0   0.5070   age185_m72            0.0000     1.3591E+03    24.0425  -1.0000   117.7400
 45      0.0000     0.0000E+00    0.0000E+00    1.300000E+10  0.05000  5.316E-06    0   0.5018   age193_m72            0.0000     1.5906E+03    29.3572  -1.0000   117.9642


## Synthesis Results - Average & Chains ##

# j      x_j: min, <> & last-chain-values for 1 ...  7 chains
  1      0.0000      0.0128      0.0000      0.0000      0.0000      0.0000      0.0235      0.0000      0.0000
  2     13.6699     12.3710     13.6808     12.2075     13.1287     12.2519     12.4913     12.9668     12.9211
  3      0.0000      0.0245      0.0000      0.0745      0.0000      0.0000      0.1148      0.0000      0.0428
  4      0.3815      0.4203      0.2577      1.0871      0.5895      1.1644      0.4227      0.4195      0.6001
  5      0.0000      0.1683      0.0000      0.2280      0.0000      0.2025      0.3941      0.3735      0.4517
  6      0.0000      0.0787      0.1595      0.0000      0.0000      0.2083      0.0712      0.0000      0.0000
  7     10.7769      7.9115      8.1200      9.2278      8.6316      8.6174      9.3939      8.0702      8.4150
  8      0.0001      0.1719      0.1410      0.0575      0.5492      0.0334      0.0000      0.1602      0.0022
  9      0.0000      0.3058      1.1673      0.4781      0.0000      0.3541      0.3435      0.4999      0.2792
 10      8.6406      0.9662      1.2918      0.8936      1.3993      1.4273      1.2761      1.0774      2.1166
 11      0.0000      0.2550      0.0000      0.0000      0.0219      0.5505      0.0000      0.0900      0.2773
 12     50.0121     49.1078     49.4810     49.5661     48.5909     48.5533     49.6885     49.1714     47.7402
 13      0.0000      0.2386      0.0000      0.9614      0.2872      0.0000      0.0052      0.0000      0.5781
 14      0.0000      0.1653      0.4650      0.4482      0.2336      0.6370      0.4327      0.1935      0.0000
 15      3.7155      0.2176      0.3882      0.0000      0.7136      0.0000      0.3020      0.4128      0.2678
 16      0.0000      0.0076      0.0000      0.0000      0.0000      0.0000      0.0000      0.0000      0.0000
 17      0.0000      0.0104      0.0000      0.0000      0.0000      0.0000      0.0000      0.0000      0.0000
 18      0.0000      0.1541      0.0000      0.0000      0.1923      0.3809      0.3079      0.0933      0.1750
 19      0.0000      0.0562      0.0000      0.0000      0.2777      0.0000      0.0000      0.2212      0.0000
 20      0.0000      0.0179      0.0000      0.0000      0.0000      0.0000      0.0000      0.0000      0.0000
 21      0.0000      0.0669      0.0000      0.0000      0.0385      0.0000      0.0000      0.0000      0.0000
 22      0.0000      0.5725      0.8477      0.2829      0.2194      0.5422      0.5301      0.4924      0.5072
 23      0.0000      0.0655      0.0000      0.0000      0.0000      0.0000      0.0000      0.0000      0.1266
 24      0.0000      0.0395      0.0000      0.0000      0.0000      0.0153      0.0000      0.0000      0.0000
 25      0.1324      9.0343      6.1706      7.0573      7.9784      7.9364      7.7914      8.6433      9.0680
 26      0.0000      0.1187      0.0000      0.0000      0.0000      0.1660      0.2320      0.0000      0.0238
 27      0.0000      0.0977      0.2343      0.0000      0.1048      0.4955      0.0000      0.0107      0.2694
 28      0.0000      0.0299      0.0000      0.0000      0.0027      0.0064      0.0365      0.0200      0.0000
 29      0.0000      0.0397      0.0000      0.0000      0.0793      0.0000      0.0000      0.0000      0.0000
 30      0.0000      0.0371      0.0000      0.0000      0.0000      0.0000      0.0000      0.0000      0.0000
 31      0.0000      0.0177      0.0000      0.0000      0.0000      0.0000      0.0000      0.0000      0.0000
 32      0.0000      0.0114      0.0000      0.0597      0.0000      0.0000      0.0000      0.0000      0.0000
 33      0.0000      0.0333      0.0000      0.0000      0.0000      0.0515      0.0000      0.0401      0.0000
 34      0.0000      0.0117      0.0000      0.0000      0.0000      0.0000      0.0000      0.0000      0.0000
 35      0.0000      0.0421      0.0000      0.0000      0.0000      0.0000      0.0000      0.0000      0.0000
 36      0.0000      0.3479      0.0704      0.1962      0.0000      0.0549      0.2204      0.3842      0.5016
 37      0.0012      0.6269      0.5939      0.7718      0.9327      0.2064      0.4889      0.5747      0.5807
 38      0.0000      0.0792      0.0000      0.2518      0.0000      0.0000      0.0000      0.0000      0.0000
 39     21.6867     25.1088     25.5106     24.9004     25.0997     25.2824     24.3043     25.0620     23.6405
 40      0.0000      0.0790      0.1983      0.0000      0.0013      0.0685      0.0000      0.1328      0.0000
 41      0.0000      0.0408      0.0636      0.0000      0.0000      0.0000      0.1034      0.0000      0.0000
 42      0.0000      0.0277      0.0000      0.0000      0.0000      0.0000      0.0510      0.0000      0.0000
 43      0.0009      0.3978      0.3868      0.3587      0.4095      0.1797      0.0000      0.3708      0.4430
 44      0.0000      0.5582      0.5326      0.6056      0.3163      0.4904      0.7024      0.4549      0.7925
 45      0.0000      0.4809      0.4866      0.4836      0.3814      0.3844      0.4586      0.4195      0.4133

# j      m_j: min, <> & last-chain-values for 1 ...  7 chains
  1  0.0000E+00  2.3750E-04  0.0000E+00  0.0000E+00  0.0000E+00  0.0000E+00  4.3828E-04  0.0000E+00  0.0000E+00
  2  7.5262E-02  6.2635E-02  6.9320E-02  6.1706E-02  6.9468E-02  6.5299E-02  6.3835E-02  6.8262E-02  6.5203E-02
  3  0.0000E+00  1.8890E-04  0.0000E+00  5.7435E-04  0.0000E+00  0.0000E+00  8.9493E-04  0.0000E+00  3.2935E-04
  4  5.9654E-03  6.0431E-03  3.7084E-03  1.5606E-02  8.8587E-03  1.7625E-02  6.1355E-03  6.2727E-03  8.6009E-03
  5  0.0000E+00  5.5950E-03  0.0000E+00  7.5688E-03  0.0000E+00  7.0888E-03  1.3227E-02  1.2911E-02  1.4969E-02
  6  0.0000E+00  3.6352E-03  7.3727E-03  0.0000E+00  0.0000E+00  1.0129E-02  3.3213E-03  0.0000E+00  0.0000E+00
  7  7.6802E-01  5.1848E-01  5.3256E-01  6.0376E-01  5.9119E-01  5.9449E-01  6.2139E-01  5.4992E-01  5.4966E-01
  8  1.0104E-05  2.1726E-02  1.7834E-02  7.2618E-03  7.2549E-02  4.4442E-03  0.0000E+00  2.1049E-02  2.7704E-04
  9  0.0000E+00  7.6969E-02  2.9408E-01  1.2014E-01  0.0000E+00  9.3827E-02  8.7291E-02  1.3086E-01  7.0050E-02
 10  3.3022E+00  3.3958E-01  4.5435E-01  3.1353E-01  5.1397E-01  5.2806E-01  4.5269E-01  3.9371E-01  7.4142E-01
 11  0.0000E+00  1.5739E-01  0.0000E+00  0.0000E+00  1.4148E-02  3.5768E-01  0.0000E+00  5.7780E-02  1.7059E-01
 12  6.2409E+01  5.6354E+01  5.6826E+01  5.6787E+01  5.8275E+01  5.8653E+01  5.7554E+01  5.8671E+01  5.4604E+01
 13  0.0000E+00  5.4526E-01  0.0000E+00  2.1936E+00  6.8589E-01  0.0000E+00  1.1935E-02  0.0000E+00  1.3168E+00
 14  0.0000E+00  7.7018E-01  2.1675E+00  2.0845E+00  1.1369E+00  3.1233E+00  2.0344E+00  9.3735E-01  0.0000E+00
 15  2.1803E+01  1.1744E+00  2.0966E+00  0.0000E+00  4.0244E+00  0.0000E+00  1.6451E+00  2.3161E+00  1.4406E+00
 16  0.0000E+00  7.8405E-05  0.0000E+00  0.0000E+00  0.0000E+00  0.0000E+00  0.0000E+00  0.0000E+00  0.0000E+00
 17  0.0000E+00  5.6091E-05  0.0000E+00  0.0000E+00  0.0000E+00  0.0000E+00  0.0000E+00  0.0000E+00  0.0000E+00
 18  0.0000E+00  9.1984E-04  0.0000E+00  0.0000E+00  1.1997E-03  2.3942E-03  1.8555E-03  5.7929E-04  1.0416E-03
 19  0.0000E+00  1.0036E-03  0.0000E+00  0.0000E+00  5.1807E-03  0.0000E+00  0.0000E+00  4.1064E-03  0.0000E+00
 20  0.0000E+00  7.1031E-04  0.0000E+00  0.0000E+00  0.0000E+00  0.0000E+00  0.0000E+00  0.0000E+00  0.0000E+00
 21  0.0000E+00  3.1905E-03  0.0000E+00  0.0000E+00  1.9177E-03  0.0000E+00  0.0000E+00  0.0000E+00  0.0000E+00
 22  0.0000E+00  4.5401E-02  6.7273E-02  2.2393E-02  1.8181E-02  4.5265E-02  4.2427E-02  4.0598E-02  4.0091E-02
 23  0.0000E+00  1.0203E-02  0.0000E+00  0.0000E+00  0.0000E+00  0.0000E+00  0.0000E+00  0.0000E+00  1.9652E-02
 24  0.0000E+00  1.4099E-02  0.0000E+00  0.0000E+00  0.0000E+00  5.7408E-03  0.0000E+00  0.0000E+00  0.0000E+00
 25  7.9021E-02  4.9578E+00  3.3889E+00  3.8665E+00  4.5758E+00  4.5847E+00  4.3157E+00  4.9319E+00  4.9598E+00
 26  0.0000E+00  1.2292E-01  0.0000E+00  0.0000E+00  0.0000E+00  1.8100E-01  2.4246E-01  0.0000E+00  2.4615E-02
 27  0.0000E+00  2.0531E-01  4.9271E-01  0.0000E+00  2.3017E-01  1.0964E+00  0.0000E+00  2.3351E-02  5.6434E-01
 28  0.0000E+00  1.2735E-01  0.0000E+00  0.0000E+00  1.2073E-02  2.8619E-02  1.5681E-01  8.8286E-02  0.0000E+00
 29  0.0000E+00  3.5751E-01  0.0000E+00  0.0000E+00  7.4635E-01  0.0000E+00  0.0000E+00  0.0000E+00  0.0000E+00
 30  0.0000E+00  3.9816E-01  0.0000E+00  0.0000E+00  0.0000E+00  0.0000E+00  0.0000E+00  0.0000E+00  0.0000E+00
 31  0.0000E+00  1.3729E-04  0.0000E+00  0.0000E+00  0.0000E+00  0.0000E+00  0.0000E+00  0.0000E+00  0.0000E+00
 32  0.0000E+00  4.6630E-05  0.0000E+00  2.4423E-04  0.0000E+00  0.0000E+00  0.0000E+00  0.0000E+00  0.0000E+00
 33  0.0000E+00  2.0244E-04  0.0000E+00  0.0000E+00  0.0000E+00  3.3000E-04  0.0000E+00  2.5375E-04  0.0000E+00
 34  0.0000E+00  2.3040E-04  0.0000E+00  0.0000E+00  0.0000E+00  0.0000E+00  0.0000E+00  0.0000E+00  0.0000E+00
 35  0.0000E+00  1.6308E-03  0.0000E+00  0.0000E+00  0.0000E+00  0.0000E+00  0.0000E+00  0.0000E+00  0.0000E+00
 36  0.0000E+00  1.7089E-02  3.4599E-03  9.6247E-03  0.0000E+00  2.8375E-03  1.0929E-02  1.9624E-02  2.4559E-02
 37  1.0738E-04  5.3434E-02  5.0663E-02  6.5680E-02  8.3080E-02  1.8521E-02  4.2060E-02  5.0936E-02  4.9334E-02
 38  0.0000E+00  1.5343E-02  0.0000E+00  4.8683E-02  0.0000E+00  0.0000E+00  0.0000E+00  0.0000E+00  0.0000E+00
 39  1.1550E+01  1.2298E+01  1.2504E+01  1.2176E+01  1.2848E+01  1.3035E+01  1.2015E+01  1.2763E+01  1.1540E+01
 40  0.0000E+00  6.6838E-02  1.6790E-01  0.0000E+00  1.1762E-03  6.0974E-02  0.0000E+00  1.1682E-01  0.0000E+00
 41  0.0000E+00  6.2880E-02  9.7999E-02  0.0000E+00  0.0000E+00  0.0000E+00  1.6077E-01  0.0000E+00  0.0000E+00
 42  0.0000E+00  8.4908E-02  0.0000E+00  0.0000E+00  0.0000E+00  0.0000E+00  1.5756E-01  0.0000E+00  0.0000E+00
 43  6.6131E-03  2.8196E+00  2.7440E+00  2.5383E+00  3.0331E+00  1.3410E+00  0.0000E+00  2.7327E+00  3.1294E+00
 44  0.0000E+00  8.9358E+00  8.5320E+00  9.6783E+00  5.2913E+00  8.2642E+00  1.1349E+01  7.5718E+00  1.2645E+01
 45  0.0000E+00  9.3629E+00  9.4810E+00  9.3995E+00  7.7598E+00  7.8783E+00  9.0108E+00  8.4908E+00  8.0198E+00

# AV, chi2 & Mass for <> & i_chain = 1 ...  7 solutions
AV       0.8023      0.7309      0.7473      0.7452      0.7604      0.7552      0.7550      0.7542      0.7555
chi2 2.1276E+00  2.3226E+00  2.2517E+00  2.2549E+00  2.2432E+00  2.2575E+00  2.2496E+00  2.2677E+00  2.2541E+00
Mass 1.6373E-10  1.6178E-10  1.6525E-10  1.6517E-10  1.6105E-10  1.5878E-10  1.6555E-10  1.6054E-10  1.6776E-10
 -12.27                                  [v0_min (km/s) before EX0s...]
 104.31                                  [vd_min (km/s) before EX0s...]


## Synthetic spectrum (Best Model) ##l_obs f_obs f_syn wei
 3070    [Nl_obs]
 3359.00    0.25238   0.47676   -1.000
 3360.00    0.24574   0.46089   -1.000
 3361.00    0.24522   0.46072   -1.000
 3362.00    0.24984   0.47640   -1.000
 3363.00    0.25762   0.49861   -1.000
 3364.00    0.26771   0.51470   -1.000
 3365.00    0.27466   0.51666   -1.000
 3366.00    0.27488   0.50517   -1.000
 3367.00    0.27125   0.48800   -1.000
 3368.00    0.28024   0.47364   -1.000
 3369.00    0.27468   0.46555   -1.000
 3370.00    0.26290   0.46194   -1.000
 3371.00    0.27390   0.46068   -1.000
 3372.00    0.27616   0.46376   -1.000
 3373.00    0.27832   0.47527   -1.000
 3374.00    0.31098   0.49522   -1.000
 3375.00    0.32853   0.51637   -1.000
 3376.00    0.34704   0.52789   -1.000
 3377.00    0.35677   0.52376   -1.000
 3378.00    0.35318   0.50799   -1.000
 3379.00    0.36423   0.49169   -1.000
 3380.00    0.36385   0.48499   -1.000
 3381.00    0.35247   0.49048   -1.000
 3382.00    0.35816   0.50334   -1.000
 3383.00    0.37300   0.51710   -1.000
 3384.00    0.37154   0.52868   -1.000
 3385.00    0.37823   0.53748   -1.000
 3386.00    0.38811   0.54249   -1.000
 3387.00    0.38222   0.54326   -1.000
 3388.00    0.39970   0.54119   -1.000
 3389.00    0.38303   0.53745   -1.000
 3390.00    0.39539   0.53143   -1.000
 3391.00    0.38036   0.52277   -1.000
 3392.00    0.35239   0.51465   -1.000
 3393.00    0.36941   0.51292   -1.000
 3394.00    0.39659   0.52104   -1.000
 3395.00    0.40483   0.53697   -1.000
 3396.00    0.42244   0.55505   -1.000
 3397.00    0.43073   0.56942   -1.000
 3398.00    0.44186   0.57612   -1.000
 3399.00    0.45237   0.57380   -1.000
 3400.00    0.44464   0.56396   -1.000
 3401.00    0.42293   0.55019   -1.000
 3402.00    0.43802   0.53689   -1.000
 3403.00    0.45240   0.52764   -1.000
 3404.00    0.42750   0.52286   -1.000
 3405.00    0.44100   0.51943   -1.000
 3406.00    0.42876   0.51450   -1.000
 3407.00    0.41190   0.50924   -1.000
 3408.00    0.42539   0.50779   -1.000
 3409.00    0.44058   0.51221   -1.000
 3410.00    0.42875   0.51927   -1.000
 3411.00    0.43303   0.52329   -1.000
 3412.00    0.43817   0.52177   -1.000
 3413.00    0.43928   0.51751   -1.000
 3414.00    0.44167   0.51558   -1.000
 3415.00    0.41783   0.51921   -1.000
 3416.00    0.40226   0.52862   -1.000
 3417.00    0.44203   0.54181   -1.000
 3418.00    0.46434   0.55535   -1.000
 3419.00    0.47653   0.56502   -1.000
 3420.00    0.48390   0.56761   -1.000
 3421.00    0.47843   0.56340   -1.000
 3422.00    0.46293   0.55606   -1.000
 3423.00    0.45349   0.54957   -1.000
 3424.00    0.47061   0.54615   -1.000
 3425.00    0.48881   0.54659   -1.000
 3426.00    0.49197   0.55184   -1.000
 3427.00    0.48676   0.56250   -1.000
 3428.00    0.48949   0.57573   -1.000
 3429.00    0.49480   0.58462   -1.000
 3430.00    0.48636   0.58364   -1.000
 3431.00    0.48496   0.57386   -1.000
 3432.00    0.48997   0.56216   -1.000
 3433.00    0.47780   0.55556   -1.000
 3434.00    0.47773   0.55584   -1.000
 3435.00    0.51510   0.55897   -1.000
 3436.00    0.51907   0.55883   -1.000
 3437.00    0.50221   0.55138   -1.000
 3438.00    0.49283   0.53591   -1.000
 3439.00    0.46100   0.51472   -1.000
 3440.00    0.44418   0.49311   -1.000
 3441.00    0.43203   0.47788   -1.000
 3442.00    0.43997   0.47319   -1.000
 3443.00    0.44873   0.47804   -1.000
 3444.00    0.44168   0.48884   -1.000
 3445.00    0.43767   0.50347   -1.000
 3446.00    0.46284   0.52165   -1.000
 3447.00    0.48786   0.54180   -1.000
 3448.00    0.50951   0.55911   -1.000
 3449.00    0.52665   0.56738   -1.000
 3450.00    0.53771   0.56354   -1.000
 3451.00    0.53339   0.55063   -1.000
 3452.00    0.50780   0.53661   -1.000
 3453.00    0.48941   0.52903   -1.000
 3454.00    0.51851   0.52952  128.115
 3455.00    0.50928   0.53324  127.737
 3456.00    0.54537   0.53352   -1.000
 3457.00    0.54416   0.52744   -1.000
 3458.00    0.53288   0.51713   -1.000
 3459.00    0.52034   0.50697   -1.000
 3460.00    0.50416   0.50152   -1.000
 3461.00    0.48508   0.50431   -1.000
 3462.00    0.49237   0.51458   -1.000
 3463.00    0.51277   0.52637   -1.000
 3464.00    0.52624   0.53393   -1.000
 3465.00    0.52428   0.53708   -1.000
 3466.00    0.53608   0.53961  884.321
 3467.00    0.54012   0.54445  884.321
 3468.00    0.54774   0.55104  884.321
 3469.00    0.56027   0.55643  150.530
 3470.00    0.56439   0.55751  131.795
 3471.00    0.56572   0.55247  130.119
 3472.00    0.53991   0.54113  509.838
 3473.00    0.52965   0.52495   -1.000
 3474.00    0.51827   0.50808   -1.000
 3475.00    0.45955   0.49699   -1.000
 3476.00    0.48604   0.49658   -1.000
 3477.00    0.48518   0.50624   -1.000
 3478.00    0.50801   0.52050   -1.000
 3479.00    0.50756   0.53305   -1.000
 3480.00    0.53538   0.53987  884.321
 3481.00    0.54601   0.54017   -1.000
 3482.00    0.53439   0.53630  884.321
 3483.00    0.53087   0.53304  884.321
 3484.00    0.52593   0.53533   -1.000
 3485.00    0.52586   0.54393   -1.000
 3486.00    0.53822   0.55319   -1.000
 3487.00    0.56243   0.55512   -1.000
 3488.00    0.54088   0.54697  884.321
 3489.00    0.49879   0.53376   -1.000
 3490.00    0.51465   0.52375   -1.000
 3491.00    0.48932   0.52099   -1.000
 3492.00    0.49370   0.52243   -1.000
 3493.00    0.50346   0.52203   -1.000
 3494.00    0.48680   0.51695   -1.000
 3495.00    0.48330   0.51035   -1.000
 3496.00    0.49920   0.50918   -1.000
 3497.00    0.51779   0.51786   -1.000
 3498.00    0.50000   0.53292   -1.000
 3499.00    0.50699   0.54617   -1.000
 3500.00    0.53089   0.55335   -1.000
 3501.00    0.53033   0.55643   -1.000
 3502.00    0.53241   0.55826   -1.000
 3503.00    0.53246   0.55817   -1.000
 3504.00    0.53036   0.55432   -1.000
 3505.00    0.55820   0.54831   -1.000
 3506.00    0.53823   0.54398   -1.000
 3507.00    0.54387   0.54251  884.321
 3508.00    0.54904   0.54150   -1.000
 3509.00    0.55284   0.53825   -1.000
 3510.00    0.55148   0.53254   -1.000
 3511.00    0.50581   0.52587   -1.000
 3512.00    0.49641   0.51982   -1.000
 3513.00    0.50115   0.51698   -1.000
 3514.00    0.48375   0.52106   -1.000
 3515.00    0.49434   0.53319   -1.000
 3516.00    0.53018   0.54937   -1.000
 3517.00    0.57202   0.56228   -1.000
 3518.00    0.56779   0.56589  137.372
 3519.00    0.53857   0.55925  130.867
 3520.00    0.52737   0.54641  130.425
 3521.00    0.52733   0.53247  724.012
 3522.00    0.50896   0.51961   -1.000
 3523.00    0.50797   0.50784  884.321
 3524.00    0.49425   0.49880  884.321
 3525.00    0.48077   0.49672   -1.000
 3526.00    0.49756   0.50498   -1.000
 3527.00    0.48345   0.52178   -1.000
 3528.00    0.50545   0.54026   -1.000
 3529.00    0.54059   0.55333   -1.000
 3530.00    0.54034   0.55856   -1.000
 3531.00    0.54048   0.55887   -1.000
 3532.00    0.54855   0.55905   -1.000
 3533.00    0.54856   0.56161   -1.000
 3534.00    0.56330   0.56575  884.321
 3535.00    0.58756   0.56987   -1.000
 3536.00    0.58075   0.57391   -1.000
 3537.00    0.56120   0.57885   -1.000
 3538.00    0.56547   0.58440   -1.000
 3539.00    0.57138   0.58818   -1.000
 3540.00    0.60972   0.58868   -1.000
 3541.00    0.58837   0.58784  884.321
 3542.00    0.55380   0.58871   -1.000
 3543.00    0.56563   0.59177   -1.000
 3544.00    0.55698   0.59468   -1.000
 3545.00    0.58328   0.59513   -1.000
 3546.00    0.58294   0.59352   -1.000
 3547.00    0.56619   0.59216   -1.000
 3548.00    0.58754   0.59254   -1.000
 3549.00    0.58097   0.59390   -1.000
 3550.00    0.56532   0.59405   -1.000
 3551.00    0.55445   0.59132   -1.000
 3552.00    0.54271   0.58607   -1.000
 3553.00    0.55469   0.58063   -1.000
 3554.00    0.55256   0.57731   -1.000
 3555.00    0.55612   0.57644   -1.000
 3556.00    0.55218   0.57643   -1.000
 3557.00    0.56707   0.57554   -1.000
 3558.00    0.55765   0.57398   -1.000
 3559.00    0.55930   0.57422  130.055
 3560.00    0.58100   0.57842  133.142
 3561.00    0.54421   0.58471   -1.000
 3562.00    0.56625   0.58626  130.904
 3563.00    0.59162   0.57626  135.393
 3564.00    0.57585   0.55578  137.888
 3565.00    0.53102   0.53447  133.539
 3566.00    0.53050   0.52094  127.539
 3567.00    0.48226   0.51500   -1.000
 3568.00    0.49127   0.51054   -1.000
 3569.00    0.50456   0.50411  884.321
 3570.00    0.50173   0.49873   -1.000
 3571.00    0.50351   0.49871   -1.000
 3572.00    0.51570   0.50376   -1.000
 3573.00    0.51871   0.50990  132.327
 3574.00    0.53428   0.51428   -1.000
 3575.00    0.56454   0.51704   -1.000
 3576.00    0.54640   0.51880   -1.000
 3577.00    0.53115   0.51794  152.229
 3578.00    0.50952   0.51164  156.154
 3579.00    0.52721   0.49978   -1.000
 3580.00    0.51619   0.48659   -1.000
 3581.00    0.50101   0.47731   -1.000
 3582.00    0.50463   0.47326   -1.000
 3583.00    0.51013   0.47081   -1.000
 3584.00    0.49428   0.46586   -1.000
 3585.00    0.46586   0.45928   -1.000
 3586.00    0.45422   0.45619   -1.000
 3587.00    0.44604   0.46090   -1.000
 3588.00    0.46067   0.47401   -1.000
 3589.00    0.49129   0.49292   -1.000
 3590.00    0.51409   0.51307   -1.000
 3591.00    0.53048   0.52958   -1.000
 3592.00    0.51752   0.53999   -1.000
 3593.00    0.52595   0.54606   -1.000
 3594.00    0.54187   0.55214   -1.000
 3595.00    0.56924   0.56107   -1.000
 3596.00    0.53353   0.57201   -1.000
 3597.00    0.53628   0.58223   -1.000
 3598.00    0.57609   0.58907   -1.000
 3599.00    0.60712   0.59006   -1.000
 3600.00    0.60061   0.58335   -1.000
 3601.00    0.56857   0.56944  884.321
 3602.00    0.54574   0.55249   -1.000
 3603.00    0.55700   0.53859   -1.000
 3604.00    0.54662   0.53180   -1.000
 3605.00    0.53060   0.53115  884.321
 3606.00    0.56412   0.53154   -1.000
 3607.00    0.55170   0.52871   -1.000
 3608.00    0.54502   0.52338   -1.000
 3609.00    0.52438   0.52026   -1.000
 3610.00    0.50636   0.52242   -1.000
 3611.00    0.51138   0.52837   -1.000
 3612.00    0.55587   0.53548   -1.000
 3613.00    0.56151   0.54320  134.985
 3614.00    0.57375   0.55123   -1.000
 3615.00    0.57445   0.55581   -1.000
 3616.00    0.55317   0.55136  884.321
 3617.00    0.54767   0.53830   -1.000
 3618.00    0.53206   0.52578   -1.000
 3619.00    0.50294   0.52358   -1.000
 3620.00    0.51083   0.53343   -1.000
 3621.00    0.52769   0.54933   -1.000
 3622.00    0.54845   0.56451   -1.000
 3623.00    0.55797   0.57725   -1.000
 3624.00    0.57263   0.59039   -1.000
 3625.00    0.57061   0.60594   -1.000
 3626.00    0.59323   0.62065   -1.000
 3627.00    0.61153   0.62692   -1.000
 3628.00    0.61750   0.61792  884.321
 3629.00    0.58781   0.59398   -1.000
 3630.00    0.53595   0.56464   -1.000
 3631.00    0.51707   0.54289   -1.000
 3632.00    0.48878   0.53631   -1.000
 3633.00    0.51265   0.54275   -1.000
 3634.00    0.52664   0.55419   -1.000
 3635.00    0.54471   0.56435   -1.000
 3636.00    0.54563   0.57297   -1.000
 3637.00    0.55207   0.58291   -1.000
 3638.00    0.59315   0.59455   -1.000
 3639.00    0.59543   0.60391   -1.000
 3640.00    0.60026   0.60572   -1.000
 3641.00    0.58217   0.59811   -1.000
 3642.00    0.57500   0.58415   -1.000
 3643.00    0.56747   0.56962   -1.000
 3644.00    0.56791   0.55892   -1.000
 3645.00    0.57100   0.55263   -1.000
 3646.00    0.53294   0.54904   -1.000
 3647.00    0.53481   0.54744   -1.000
 3648.00    0.52812   0.54903   -1.000
 3649.00    0.52792   0.55537   -1.000
 3650.00    0.54812   0.56673   -1.000
 3651.00    0.56853   0.58134   -1.000
 3652.00    0.56937   0.59609   -1.000
 3653.00    0.56803   0.60824   -1.000
 3654.00    0.58573   0.61711   -1.000
 3655.00    0.61155   0.62414   -1.000
 3656.00    0.60424   0.63076   -1.000
 3657.00    0.59715   0.63644   -1.000
 3658.00    0.59486   0.63946   -1.000
 3659.00    0.59669   0.63871   -1.000
 3660.00    0.60463   0.63435   -1.000
 3661.00    0.60060   0.62765   -1.000
 3662.00    0.59107   0.62059   -1.000
 3663.00    0.60012   0.61535   -1.000
 3664.00    0.59223   0.61302   -1.000
 3665.00    0.60259   0.61239   -1.000
 3666.00    0.61848   0.61065   -1.000
 3667.00    0.60999   0.60624  884.321
 3668.00    0.57954   0.60131   -1.000
 3669.00    0.57593   0.60044   -1.000
 3670.00    0.58115   0.60581   -1.000
 3671.00    0.60463   0.61484   -1.000
 3672.00    0.61080   0.62237   -1.000
 3673.00    0.61301   0.62456   -1.000
 3674.00    0.62496   0.62052  884.321
 3675.00    0.61681   0.61124  884.321
 3676.00    0.59951   0.59878  884.321
 3677.00    0.57116   0.58609   -1.000
 3678.00    0.54909   0.57649   -1.000
 3679.00    0.57392   0.57236  884.321
 3680.00    0.56673   0.57389   -1.000
 3681.00    0.57172   0.57897   -1.000
 3682.00    0.58892   0.58385   -1.000
 3683.00    0.58478   0.58435  884.321
 3684.00    0.58002   0.57818  884.321
 3685.00    0.56169   0.56766   -1.000
 3686.00    0.55610   0.55965   -1.000
 3687.00    0.56561   0.56090  884.321
 3688.00    0.58254   0.57293   -1.000
 3689.00    0.59493   0.59101  884.321
 3690.00    0.61366   0.60773   -1.000
 3691.00    0.62638   0.61809   -1.000
 3692.00    0.62872   0.62190   -1.000
 3693.00    0.62400   0.62154  835.159
 3694.00    0.61835   0.61884  829.902
 3695.00    0.61893   0.61557  851.037
 3696.00    0.60244   0.61549   -1.000
 3697.00    0.59940   0.62307   -1.000
 3698.00    0.60782   0.63846   -1.000
 3699.00    0.63360   0.65423   -1.000
 3700.00    0.66471   0.65900   -1.000
 3701.00    0.66797   0.64518   -1.000
 3702.00    0.63706   0.61469   -1.000
 3703.00    0.59052   0.57839   -1.000
 3704.00    0.56300   0.54995   -1.000
 3705.00    0.55067   0.53802   -1.000
 3706.00    0.54205   0.54165  874.113
 3707.00    0.56328   0.55264   -1.000
 3708.00    0.58947   0.56229   -1.000
 3709.00    0.58136   0.56702   -1.000
 3710.00    0.59195   0.57021   -1.000
 3711.00    0.60668   0.57909   -1.000
 3712.00    0.63631   0.59813   -1.000
 3713.00    0.67248   0.62485   -1.000
 3714.00    0.70124   0.65157   -1.000
 3715.00    0.73577   0.66981   -1.000
 3716.00    0.73903   0.67317   -1.000
 3717.00    0.75390   0.65759   -1.000
 3718.00    0.75971   0.62256   -1.000
 3719.00    0.75858   0.57536   -1.000
 3720.00    0.75502   0.53192   -1.000
 3721.00    0.76682   0.50950   -1.000
 3722.00    0.76091   0.51686   -1.000
 3723.00    0.76138   0.54940   -1.000
 3724.00    0.75328   0.59151   -1.000
 3725.00    0.73071   0.62641   -1.000
 3726.00    0.70851   0.64729   -1.000
 3727.00    0.69384   0.65798   -1.000
 3728.00    0.68676   0.66286   -1.000
 3729.00    0.69610   0.65908   -1.000
 3730.00    0.67920   0.63918   -1.000
 3731.00    0.65031   0.59984   -1.000
 3732.00    0.60011   0.54789   -1.000
 3733.00    0.53790   0.49837   -1.000
 3734.00    0.49122   0.46719   -1.000
 3735.00    0.47553   0.46423   -1.000
 3736.00    0.50211   0.49019   -1.000
 3737.00    0.54714   0.53766   -1.000
 3738.00    0.59685   0.59383   -1.000
 3739.00    0.66483   0.64416   -1.000
 3740.00    0.70459   0.67719   -1.000
 3741.00    0.71941   0.68848   -1.000
 3742.00    0.70516   0.68046   -1.000
 3743.00    0.66667   0.65924  186.224
 3744.00    0.65356   0.63065   -1.000
 3745.00    0.61560   0.59753   -1.000
 3746.00    0.57437   0.56013   -1.000
 3747.00    0.54534   0.52012   -1.000
 3748.00    0.49827   0.48554   -1.000
 3749.00    0.46477   0.46992   -1.000
 3750.00    0.48206   0.48334  884.321
 3751.00    0.55889   0.52444   -1.000
 3752.00    0.62535   0.58140   -1.000
 3753.00    0.67661   0.63870   -1.000
 3754.00    0.72582   0.68272   -1.000
 3755.00    0.75125   0.70437   -1.000
 3756.00    0.73030   0.70213   -1.000
 3757.00    0.68434   0.68445  884.321
 3758.00    0.65275   0.66588   -1.000
 3759.00    0.66317   0.65760   -1.000
 3760.00    0.67802   0.66110   -1.000
 3761.00    0.68987   0.67066   -1.000
 3762.00    0.70192   0.67946   -1.000
 3763.00    0.70112   0.68249   -1.000
 3764.00    0.70851   0.67649   -1.000
 3765.00    0.70299   0.66027   -1.000
 3766.00    0.67445   0.63521   -1.000
 3767.00    0.63996   0.60462   -1.000
 3768.00    0.62751   0.57341   -1.000
 3769.00    0.60080   0.54895   -1.000
 3770.00    0.58086   0.54025   -1.000
 3771.00    0.58982   0.55291   -1.000
 3772.00    0.63877   0.58344   -1.000
 3773.00    0.67871   0.62119   -1.000
 3774.00    0.70046   0.65686   -1.000
 3775.00    0.71827   0.68794   -1.000
 3776.00    0.73229   0.71661   -1.000
 3777.00    0.74950   0.74508   -1.000
 3778.00    0.76724   0.77301   -1.000
 3779.00    0.79995   0.79799  884.321
 3780.00    0.82373   0.81749   -1.000
 3781.00    0.83166   0.83024  884.321
 3782.00    0.83823   0.83587  884.321
 3783.00    0.83467   0.83329  884.321
 3784.00    0.84129   0.82079   -1.000
 3785.00    0.80709   0.79893   -1.000
 3786.00    0.76189   0.77276   -1.000
 3787.00    0.75410   0.74952   -1.000
 3788.00    0.75853   0.73380   -1.000
 3789.00    0.75870   0.72496   -1.000
 3790.00    0.75219   0.71801   -1.000
 3791.00    0.73300   0.70633   -1.000
 3792.00    0.71234   0.68486   -1.000
 3793.00    0.69954   0.65236   -1.000
 3794.00    0.66334   0.61138   -1.000
 3795.00    0.60755   0.56687   -1.000
 3796.00    0.56704   0.52601   -1.000
 3797.00    0.53120   0.49928   -1.000
 3798.00    0.51584   0.49810   -1.000
 3799.00    0.55735   0.52705   -1.000
 3800.00    0.62804   0.57895   -1.000
 3801.00    0.69863   0.63890   -1.000
 3802.00    0.74840   0.69254   -1.000
 3803.00    0.77648   0.73137   -1.000
 3804.00    0.78707   0.75363   -1.000
 3805.00    0.78343   0.76358   -1.000
 3806.00    0.77260   0.77031  884.321
 3807.00    0.77611   0.78297   -1.000
 3808.00    0.79247   0.80369   -1.000
 3809.00    0.81097   0.82553   -1.000
 3810.00    0.83155   0.83728  884.321
 3811.00    0.83734   0.83123   -1.000
 3812.00    0.82098   0.80863   -1.000
 3813.00    0.79763   0.77987   -1.000
 3814.00    0.76645   0.75832   -1.000
 3815.00    0.75871   0.75184   -1.000
 3816.00    0.76818   0.75730   -1.000
 3817.00    0.77964   0.76349   -1.000
 3818.00    0.79491   0.76071   -1.000
 3819.00    0.78037   0.74882   -1.000
 3820.00    0.75690   0.73596  134.645
 3821.00    0.75269   0.72826   -1.000
 3822.00    0.76483   0.72244   -1.000
 3823.00    0.74051   0.71062   -1.000
 3824.00    0.70613   0.69046  133.829
 3825.00    0.68413   0.66771  142.011
 3826.00    0.67779   0.64936   -1.000
 3827.00    0.68007   0.63689   -1.000
 3828.00    0.67186   0.62602   -1.000
 3829.00    0.67172   0.61063   -1.000
 3830.00    0.67082   0.58611   -1.000
 3831.00    0.63032   0.55136   -1.000
 3832.00    0.57735   0.51014   -1.000
 3833.00    0.54493   0.47090   -1.000
 3834.00    0.52028   0.44367   -1.000
 3835.00    0.51083   0.43506   -1.000
 3836.00    0.50778   0.44504   -1.000
 3837.00    0.52389   0.46868   -1.000
 3838.00    0.55872   0.50104   -1.000
 3839.00    0.60027   0.54021   -1.000
 3840.00    0.63306   0.58564   -1.000
 3841.00    0.65857   0.63460   -1.000
 3842.00    0.71545   0.68159   -1.000
 3843.00    0.77492   0.72112   -1.000
 3844.00    0.79069   0.75119   -1.000
 3845.00    0.79045   0.77370   -1.000
 3846.00    0.79405   0.79101   -1.000
 3847.00    0.80637   0.80316   -1.000
 3848.00    0.81086   0.80983   -1.000
 3849.00    0.80018   0.81366   -1.000
 3850.00    0.79409   0.81907   -1.000
 3851.00    0.80725   0.82752   -1.000
 3852.00    0.82733   0.83541  129.031
 3853.00    0.84837   0.83754  131.806
 3854.00    0.84521   0.83224  226.358
 3855.00    0.82295   0.82196  884.321
 3856.00    0.81039   0.80984  884.321
 3857.00    0.79763   0.79818  884.321
 3858.00    0.78235   0.79012   -1.000
 3859.00    0.76476   0.79026   -1.000
 3860.00    0.76811   0.80119   -1.000
 3861.00    0.79874   0.81950   -1.000
 3862.00    0.84115   0.83701  884.321
 3863.00    0.85834   0.84700   -1.000
 3864.00    0.86704   0.84902   -1.000
 3865.00    0.86994   0.84739   -1.000
 3866.00    0.85781   0.84613   -1.000
 3867.00    0.85181   0.84554  884.321
 3868.00    0.84405   0.84201  884.321
 3869.00    0.83240   0.83111  884.321
 3870.00    0.80751   0.81249   -1.000
 3871.00    0.77473   0.79244   -1.000
 3872.00    0.76253   0.78070   -1.000
 3873.00    0.77571   0.78249   -1.000
 3874.00    0.79223   0.79268  884.321
 3875.00    0.80399   0.79883   -1.000
 3876.00    0.80855   0.79228   -1.000
 3877.00    0.78658   0.77570   -1.000
 3878.00    0.74706   0.75886   -1.000
 3879.00    0.73652   0.74785   -1.000
 3880.00    0.74628   0.74033   -1.000
 3881.00    0.75209   0.73023   -1.000
 3882.00    0.74612   0.71369   -1.000
 3883.00    0.72363   0.68932   -1.000
 3884.00    0.70513   0.65579   -1.000
 3885.00    0.67951   0.61285   -1.000
 3886.00    0.63206   0.56571   -1.000
 3887.00    0.57141   0.52581   -1.000
 3888.00    0.53499   0.50606   -1.000
 3889.00    0.54956   0.51401   -1.000
 3890.00    0.59480   0.54723   -1.000
 3891.00    0.65338   0.59376   -1.000
 3892.00    0.70497   0.63911   -1.000
 3893.00    0.72911   0.67510   -1.000
 3894.00    0.73246   0.70243   -1.000
 3895.00    0.74256   0.72554   -1.000
 3896.00    0.76269   0.74629   -1.000
 3897.00    0.78807   0.76347   -1.000
 3898.00    0.80148   0.77691   -1.000
 3899.00    0.79418   0.78920   -1.000
 3900.00    0.80703   0.80222   -1.000
 3901.00    0.82261   0.81382   -1.000
 3902.00    0.81160   0.81976   -1.000
 3903.00    0.80694   0.81882   -1.000
 3904.00    0.80953   0.81545   -1.000
 3905.00    0.79978   0.81737   -1.000
 3906.00    0.80287   0.83030   -1.000
 3907.00    0.82187   0.85391   -1.000
 3908.00    0.84307   0.88166   -1.000
 3909.00    0.86282   0.90519   -1.000
 3910.00    0.87342   0.91934   -1.000
 3911.00    0.88382   0.92333   -1.000
 3912.00    0.89097   0.91927   -1.000
 3913.00    0.88494   0.91090   -1.000
 3914.00    0.86897   0.90214   -1.000
 3915.00    0.87175   0.89505   -1.000
 3916.00    0.89251   0.88903  884.321
 3917.00    0.89265   0.88210   -1.000
 3918.00    0.86621   0.87333   -1.000
 3919.00    0.84615   0.86426   -1.000
 3920.00    0.83331   0.85813   -1.000
 3921.00    0.83121   0.85716   -1.000
 3922.00    0.83588   0.85976   -1.000
 3923.00    0.83819   0.86044   -1.000
 3924.00    0.82933   0.85274   -1.000
 3925.00    0.81260   0.83251   -1.000
 3926.00    0.74795   0.79916   -1.000
 3927.00    0.68183   0.75448   -1.000
 3928.00    0.63736   0.70075   -1.000
 3929.00    0.59988   0.63940   -1.000
 3930.00    0.54978   0.57227  175.621
 3931.00    0.46231   0.50496  146.400
 3932.00    0.37019   0.44953   -1.000
 3933.00    0.31959   0.42160   -1.000
 3934.00    0.33935   0.43151   -1.000
 3935.00    0.40393   0.47691   -1.000
 3936.00    0.49612   0.54437   -1.000
 3937.00    0.58315   0.61783   -1.000
 3938.00    0.67223   0.68514   -1.000
 3939.00    0.73841   0.73950   -1.000
 3940.00    0.77532   0.77784   -1.000
 3941.00    0.79603   0.80047  859.223
 3942.00    0.79855   0.81160   -1.000
 3943.00    0.79506   0.81817   -1.000
 3944.00    0.79818   0.82619   -1.000
 3945.00    0.82692   0.83720   -1.000
 3946.00    0.84688   0.84829  804.680
 3947.00    0.85141   0.85628   -1.000
 3948.00    0.84492   0.86103   -1.000
 3949.00    0.84782   0.86407   -1.000
 3950.00    0.85890   0.86622   -1.000
 3951.00    0.85858   0.86789   -1.000
 3952.00    0.84600   0.86974   -1.000
 3953.00    0.86254   0.87099   -1.000
 3954.00    0.87654   0.86875   -1.000
 3955.00    0.86845   0.86129   -1.000
 3956.00    0.86325   0.85093   -1.000
 3957.00    0.86360   0.84080   -1.000
 3958.00    0.87222   0.82897   -1.000
 3959.00    0.85411   0.80894   -1.000
 3960.00    0.79525   0.77661   -1.000
 3961.00    0.73840   0.73478  249.321
 3962.00    0.68631   0.68919  245.173
 3963.00    0.63829   0.64125  209.219
 3964.00    0.60664   0.58643   -1.000
 3965.00    0.54310   0.52052   -1.000
 3966.00    0.45407   0.44762   -1.000
 3967.00    0.36337   0.38193   -1.000
 3968.00    0.29368   0.34101   -1.000
 3969.00    0.28317   0.33606   -1.000
 3970.00    0.32722   0.36666   -1.000
 3971.00    0.41251   0.42293   -1.000
 3972.00    0.50371   0.49188   -1.000
 3973.00    0.58440   0.56284   -1.000
 3974.00    0.65805   0.62939   -1.000
 3975.00    0.70960   0.68886   -1.000
 3976.00    0.74526   0.74107   -1.000
 3977.00    0.78144   0.78685   -1.000
 3978.00    0.81427   0.82583   97.404
 3979.00    0.85069   0.85560   69.129
 3980.00    0.87187   0.87415   67.861
 3981.00    0.87819   0.88341   67.017
 3982.00    0.87428   0.88934   67.014
 3983.00    0.87127   0.89745   66.787
 3984.00    0.88889   0.90906   65.540
 3985.00    0.90988   0.92222   63.950
 3986.00    0.91248   0.93514   64.064
 3987.00    0.91226   0.94763   65.422
 3988.00    0.93319   0.95995   66.963
 3989.00    0.93790   0.97209   68.322
 3990.00    0.93224   0.98409   -1.000
 3991.00    0.95238   0.99547   -1.000
 3992.00    0.96456   1.00387   -1.000
 3993.00    0.95750   1.00589   -1.000
 3994.00    0.95228   0.99999   -1.000
 3995.00    0.94463   0.98896   -1.000
 3996.00    0.92614   0.97918   -1.000
 3997.00    0.91202   0.97711   -1.000
 3998.00    0.91530   0.98515   -1.000
 3999.00    0.93382   1.00004   -1.000
 4000.00    0.95810   1.01485   -1.000
 4001.00    0.98272   1.02248   -1.000
 4002.00    1.00641   1.01873   61.603
 4003.00    0.98785   1.00436   60.913
 4004.00    0.94111   0.98617   -1.000
 4005.00    0.92792   0.97490   -1.000
 4006.00    0.89755   0.97855   -1.000
 4007.00    0.93931   0.99591   -1.000
 4008.00    0.97536   1.01786   -1.000
 4009.00    1.00175   1.03518   60.382
 4010.00    1.00813   1.04451   -1.000
 4011.00    1.00165   1.04801   -1.000
 4012.00    0.99058   1.04965   -1.000
 4013.00    0.97743   1.05199   -1.000
 4014.00    0.98005   1.05517   -1.000
 4015.00    0.98000   1.05841   -1.000
 4016.00    0.97969   1.06185   -1.000
 4017.00    0.99633   1.06665   -1.000
 4018.00    1.01196   1.07312   -1.000
 4019.00    1.01476   1.07932   -1.000
 4020.00    1.00152   1.08208   -1.000
 4021.00    0.99017   1.07936   -1.000
 4022.00    0.99309   1.07195   -1.000
 4023.00    0.97894   1.06357   -1.000
 4024.00    0.97489   1.05938   -1.000
 4025.00    1.00294   1.06248   -1.000
 4026.00    1.03253   1.07003   -1.000
 4027.00    1.04149   1.07360   -1.000
 4028.00    1.03066   1.06549   -1.000
 4029.00    1.01069   1.04555   59.244
 4030.00    0.95835   1.02152   -1.000
 4031.00    0.94148   1.00350   -1.000
 4032.00    0.93848   0.99807   -1.000
 4033.00    0.94379   1.00644   -1.000
 4034.00    0.95094   1.02607   -1.000
 4035.00    0.97920   1.05259   -1.000
 4036.00    1.01638   1.08008   -1.000
 4037.00    1.03136   1.10135   -1.000
 4038.00    1.05033   1.11117   -1.000
 4039.00    1.04444   1.10972   -1.000
 4040.00    1.03538   1.10136   -1.000
 4041.00    1.04684   1.08868   -1.000
 4042.00    1.03216   1.06968   -1.000
 4043.00    0.98903   1.04302   -1.000
 4044.00    0.92944   1.01553   -1.000
 4045.00    0.89230   1.00074   -1.000
 4046.00    0.91224   1.00788   -1.000
 4047.00    0.95229   1.03323   -1.000
 4048.00    0.99061   1.06334   -1.000
 4049.00    1.01631   1.08523   -1.000
 4050.00    1.03419   1.09308   -1.000
 4051.00    1.03331   1.08816   -1.000
 4052.00    1.02653   1.07553   -1.000
 4053.00    1.01450   1.06135   -1.000
 4054.00    0.99373   1.05033   -1.000
 4055.00    0.98457   1.04404   -1.000
 4056.00    1.00000   1.04227   -1.000
 4057.00    1.01550   1.04539   69.091
 4058.00    1.01948   1.05310   65.973
 4059.00    0.99974   1.06083   -1.000
 4060.00    1.01704   1.06053   -1.000
 4061.00    1.02825   1.04740   60.420
 4062.00    0.99852   1.02545   59.473
 4063.00    0.94158   1.00512   -1.000
 4064.00    0.92777   0.99492   -1.000
 4065.00    0.96462   0.99646   64.201
 4066.00    0.98011   1.00580   62.059
 4067.00    0.98668   1.01720   61.444
 4068.00    0.99511   1.02479   63.986
 4069.00    1.00823   1.02400   69.179
 4070.00    1.00608   1.01520   71.825
 4071.00    0.98951   1.00484   70.006
 4072.00    0.97822   0.99930   65.453
 4073.00    0.97882   0.99726   60.917
 4074.00    0.96545   0.99086   58.773
 4075.00    0.93502   0.97541   59.433
 4076.00    0.91637   0.95655   61.374
 4077.00    0.90979   0.94661   62.466
 4078.00    0.90868   0.95400   -1.000
 4079.00    0.94252   0.97610   59.772
 4080.00    0.97270   1.00081   57.489
 4081.00    0.99242   1.01554   55.591
 4082.00    0.98893   1.01584   55.618
 4083.00    0.96589   1.00732   56.688
 4084.00    0.94749   1.00012   -1.000
 4085.00    0.95919   1.00146   58.468
 4086.00    0.99020   1.01136   58.581
 4087.00    1.00242   1.02355   59.556
 4088.00    1.01695   1.03029   62.152
 4089.00    1.01653   1.02744   64.328
 4090.00    1.02883   1.01632   64.956
 4091.00    1.00532   1.00088   65.954
 4092.00    0.99160   0.98340   69.391
 4093.00    0.98339   0.96274   75.627
 4094.00    0.97304   0.93668   81.102
 4095.00    0.95858   0.90477   -1.000
 4096.00    0.91166   0.86782   73.658
 4097.00    0.87924   0.82554   -1.000
 4098.00    0.82246   0.77639   64.059
 4099.00    0.76945   0.72231   61.984
 4100.00    0.72573   0.67342   61.557
 4101.00    0.66244   0.64589   62.084
 4102.00    0.65572   0.65209   63.263
 4103.00    0.72618   0.69088   64.229
 4104.00    0.80917   0.74788   -1.000
 4105.00    0.84859   0.80507   62.143
 4106.00    0.87459   0.85074   61.048
 4107.00    0.90553   0.88259   60.101
 4108.00    0.90610   0.90412   59.491
 4109.00    0.91390   0.92044   59.733
 4110.00    0.91279   0.93606   60.957
 4111.00    0.92182   0.95363   62.995
 4112.00    0.95398   0.97364   63.818
 4113.00    0.97979   0.99475   63.097
 4114.00    0.99259   1.01385   62.429
 4115.00    1.01328   1.02692   62.458
 4116.00    1.02408   1.03116   61.823
 4117.00    1.01990   1.02771   60.736
 4118.00    0.98539   1.02125   60.489
 4119.00    0.95685   1.01688   -1.000
 4120.00    0.97152   1.01689   -1.000
 4121.00    0.97708   1.02067   -1.000
 4122.00    0.97656   1.02681   -1.000
 4123.00    0.99476   1.03407   64.246
 4124.00    1.01606   1.04035   66.245
 4125.00    1.03724   1.04249   68.352
 4126.00    1.01296   1.03899   68.600
 4127.00    1.00541   1.03194   66.401
 4128.00    1.01069   1.02479   63.051
 4129.00    0.98748   1.01852   60.961
 4130.00    0.96162   1.01171   -1.000
 4131.00    0.97298   1.00475   59.014
 4132.00    0.94949   1.00214   -1.000
 4133.00    0.94020   1.00943   -1.000
 4134.00    0.95708   1.02775   -1.000
 4135.00    0.99632   1.05275   -1.000
 4136.00    1.02417   1.07790   -1.000
 4137.00    1.04908   1.09829   -1.000
 4138.00    1.07233   1.11057   -1.000
 4139.00    1.06100   1.11171   -1.000
 4140.00    1.04515   1.09944   -1.000
 4141.00    1.01756   1.07606   -1.000
 4142.00    0.98758   1.05062   -1.000
 4143.00    0.95145   1.03509   -1.000
 4144.00    0.96309   1.03607   -1.000
 4145.00    0.99783   1.05003   -1.000
 4146.00    1.02863   1.06631   -1.000
 4147.00    1.03136   1.07618   -1.000
 4148.00    1.05904   1.07876   65.168
 4149.00    1.03246   1.07801   -1.000
 4150.00    1.03638   1.07694   -1.000
 4151.00    1.28075   1.07475   -1.000
 4152.00    1.34346   1.06943   -1.000
 4153.00    0.61152   1.06160   -1.000
 4154.00    0.79029   1.05518   -1.000
 4155.00    1.12005   1.05454   -1.000
 4156.00    0.99906   1.06125   -1.000
 4157.00    1.00029   1.07324   -1.000
 4158.00    1.03597   1.08644   -1.000
 4159.00    1.04451   1.09753   -1.000
 4160.00    1.05310   1.10554   -1.000
 4161.00    1.04624   1.11158   -1.000
 4162.00    1.04888   1.11697   -1.000
 4163.00    1.04076   1.12117   -1.000
 4164.00    1.04221   1.12223   -1.000
 4165.00    1.03624   1.11900   -1.000
 4166.00    1.03744   1.11259   -1.000
 4167.00    1.05901   1.10495   -1.000
 4168.00    1.05030   1.09562   -1.000
 4169.00    1.04110   1.08101   -1.000
 4170.00    1.03470   1.05845   67.383
 4171.00    1.00308   1.03182   67.052
 4172.00    0.96715   1.01127   -1.000
 4173.00    0.95324   1.00521   -1.000
 4174.00    0.94992   1.01335   -1.000
 4175.00    0.98560   1.02712   64.677
 4176.00    0.98837   1.03844   -1.000
 4177.00    0.99574   1.04592   -1.000
 4178.00    0.99293   1.05285   -1.000
 4179.00    0.98250   1.06076   -1.000
 4180.00    1.01533   1.06759   -1.000
 4181.00    1.01757   1.07139   -1.000
 4182.00    1.00620   1.07348   -1.000
 4183.00    1.00346   1.07598   -1.000
 4184.00    0.98808   1.07831   -1.000
 4185.00    1.00449   1.07784   -1.000
 4186.00    1.00915   1.07417   -1.000
 4187.00    0.98204   1.07090   -1.000
 4188.00    0.98359   1.07185   -1.000
 4189.00    1.02324   1.07786   -1.000
 4190.00    1.01761   1.08697   -1.000
 4191.00    1.02378   1.09643   -1.000
 4192.00    1.05994   1.10325   -1.000
 4193.00    1.05614   1.10346   -1.000
 4194.00    1.04875   1.09388   -1.000
 4195.00    1.01540   1.07542   -1.000
 4196.00    0.99372   1.05320   -1.000
 4197.00    0.98160   1.03359   -1.000
 4198.00    0.95266   1.02102   -1.000
 4199.00    0.94598   1.01636   -1.000
 4200.00    0.96351   1.01797   -1.000
 4201.00    0.95088   1.02367   -1.000
 4202.00    0.95733   1.03236   -1.000
 4203.00    0.95662   1.04421   -1.000
 4204.00    0.98610   1.05926   -1.000
 4205.00    0.99146   1.07591   -1.000
 4206.00    0.99625   1.09124   -1.000
 4207.00    1.00968   1.10260   -1.000
 4208.00    1.02850   1.10906   -1.000
 4209.00    1.03439   1.11232   -1.000
 4210.00    1.03081   1.11484   -1.000
 4211.00    1.02625   1.11648   -1.000
 4212.00    1.03913   1.11383   -1.000
 4213.00    1.03506   1.10407   -1.000
 4214.00    0.98612   1.08965   -1.000
 4215.00    0.97492   1.07839   -1.000
 4216.00    0.97829   1.07778   -1.000
 4217.00    1.00263   1.08885   -1.000
 4218.00    1.02234   1.10568   -1.000
 4219.00    1.06303   1.11951   -1.000
 4220.00    1.06728   1.12309   -1.000
 4221.00    1.04835   1.11243   -1.000
 4222.00    1.03475   1.08613   -1.000
 4223.00    0.99266   1.04661   -1.000
 4224.00    0.93238   1.00226   -1.000
 4225.00    0.88112   0.96725   -1.000
 4226.00    0.85418   0.95601   -1.000
 4227.00    0.86023   0.97446   -1.000
 4228.00    0.92338   1.01396   -1.000
 4229.00    0.99117   1.05612   -1.000
 4230.00    1.03350   1.08335   -1.000
 4231.00    1.03157   1.09009   -1.000
 4232.00    1.00511   1.08185   -1.000
 4233.00    0.98415   1.06865   -1.000
 4234.00    0.96655   1.05814   -1.000
 4235.00    0.95916   1.05312   -1.000
 4236.00    0.95783   1.05341   -1.000
 4237.00    0.94603   1.05834   -1.000
 4238.00    0.94420   1.06723   -1.000
 4239.00    0.96980   1.07871   -1.000
 4240.00    0.99273   1.09067   -1.000
 4241.00    1.00135   1.10150   -1.000
 4242.00    1.01330   1.10988   -1.000
 4243.00    1.02186   1.11420   -1.000
 4244.00    1.03270   1.11209   -1.000
 4245.00    1.02815   1.10222   -1.000
 4246.00    0.99549   1.08670   -1.000
 4247.00    0.96784   1.07090   -1.000
 4248.00    0.95927   1.06059   -1.000
 4249.00    0.95350   1.05851   -1.000
 4250.00    0.94592   1.06324   -1.000
 4251.00    0.95777   1.07076   -1.000
 4252.00    0.98497   1.07647   -1.000
 4253.00    1.00280   1.07900   -1.000
 4254.00    0.99315   1.08020   -1.000
 4255.00    0.98735   1.08236   -1.000
 4256.00    1.00283   1.08360   -1.000
 4257.00    1.00155   1.07864   -1.000
 4258.00    0.98590   1.06655   -1.000
 4259.00    0.94975   1.05433   -1.000
 4260.00    0.92112   1.05245   -1.000
 4261.00    0.92821   1.06611   -1.000
 4262.00    0.97480   1.09075   -1.000
 4263.00    1.03499   1.11617   -1.000
 4264.00    1.06573   1.13304   -1.000
 4265.00    1.06850   1.13780   -1.000
 4266.00    1.05851   1.13087   -1.000
 4267.00    1.04868   1.11426   -1.000
 4268.00    1.04281   1.08990   -1.000
 4269.00    1.01609   1.06060   -1.000
 4270.00    0.96619   1.03159   -1.000
 4271.00    0.92391   1.00997   -1.000
 4272.00    0.89594   1.00105   -1.000
 4273.00    0.89864   1.00659   -1.000
 4274.00    0.93509   1.02454   -1.000
 4275.00    0.95632   1.05014   -1.000
 4276.00    0.99129   1.07702   -1.000
 4277.00    1.01661   1.09757   -1.000
 4278.00    1.01302   1.10616   -1.000
 4279.00    1.00566   1.10353   -1.000
 4280.00    0.97317   1.09546   -1.000
 4281.00    0.94957   1.08803   -1.000
 4282.00    0.96881   1.08292   -1.000
 4283.00    1.00421   1.07847   -1.000
 4284.00    1.00551   1.07162   -1.000
 4285.00    0.98191   1.06042   -1.000
 4286.00    0.95949   1.04409   -1.000
 4287.00    0.95554   1.02322   -1.000
 4288.00    0.93408   1.00228   -1.000
 4289.00    0.89248   0.98860   -1.000
 4290.00    0.88661   0.98795   -1.000
 4291.00    0.91955   0.99935   -1.000
 4292.00    0.96551   1.01427   -1.000
 4293.00    0.98577   1.02306   -1.000
 4294.00    0.98190   1.02138   -1.000
 4295.00    0.97028   1.00969   -1.000
 4296.00    0.95617   0.98970   -1.000
 4297.00    0.92589   0.96280   -1.000
 4298.00    0.88699   0.93269   -1.000
 4299.00    0.84416   0.90594   -1.000
 4300.00    0.82218   0.88952   -1.000
 4301.00    0.82144   0.88585   -1.000
 4302.00    0.83281   0.89277   -1.000
 4303.00    0.83939   0.90439   -1.000
 4304.00    0.85396   0.91377   -1.000
 4305.00    0.85214   0.91559   -1.000
 4306.00    0.84023   0.90923   -1.000
 4307.00    0.82696   0.90066   -1.000
 4308.00    0.81286   0.89867   -1.000
 4309.00    0.78978   0.90763   -1.000
 4310.00    0.78548   0.92506   -1.000
 4311.00    0.81598   0.94546   -1.000
 4312.00    0.83486   0.96644   -1.000
 4313.00    0.86068   0.99156   -1.000
 4314.00    0.89074   1.02471   -1.000
 4315.00    0.94154   1.06388   -1.000
 4316.00    1.01039   1.10094   -1.000
 4317.00    1.05625   1.12578   -1.000
 4318.00    1.08345   1.13378   -1.000
 4319.00    1.07330   1.12629   -1.000
 4320.00    1.04701   1.10737   -1.000
 4321.00    1.00909   1.07973   -1.000
 4322.00    0.98321   1.04510   -1.000
 4323.00    0.93484   1.00856   -1.000
 4324.00    0.89312   0.98017   -1.000
 4325.00    0.87009   0.97102   -1.000
 4326.00    0.88593   0.98434   -1.000
 4327.00    0.93801   1.01157   -1.000
 4328.00    0.97717   1.03841   -1.000
 4329.00    0.99638   1.05374   -1.000
 4330.00    0.98798   1.05722   -1.000
 4331.00    0.99284   1.05341   -1.000
 4332.00    1.00954   1.04543   -1.000
 4333.00    1.01445   1.03099   75.680
 4334.00    1.00509   1.00407   69.182
 4335.00    0.97757   0.95944   63.084
 4336.00    0.92144   0.89736   59.888
 4337.00    0.85111   0.82585   58.149
 4338.00    0.75705   0.75986   56.759
 4339.00    0.69244   0.71709   55.937
 4340.00    0.65924   0.70909   -1.000
 4341.00    0.66502   0.73633   -1.000
 4342.00    0.74837   0.78780   55.754
 4343.00    0.83969   0.84790   59.346
 4344.00    0.89320   0.90428   62.724
 4345.00    0.94120   0.95264   62.286
 4346.00    0.97177   0.99201   59.500
 4347.00    0.99496   1.02054   57.074
 4348.00    1.00670   1.03468   55.540
 4349.00    1.00508   1.03305   54.795
 4350.00    0.96408   1.02126   -1.000
 4351.00    0.91984   1.01071   -1.000
 4352.00    0.91781   1.01258   -1.000
 4353.00    0.95913   1.02989   -1.000
 4354.00    0.98346   1.05586   -1.000
 4355.00    1.01120   1.08091   -1.000
 4356.00    1.02579   1.09848   -1.000
 4357.00    1.02186   1.10844   -1.000
 4358.00    1.00214   1.11464   -1.000
 4359.00    0.99519   1.12204   -1.000
 4360.00    1.02916   1.13314   -1.000
 4361.00    1.04793   1.14710   -1.000
 4362.00    1.04895   1.16087   -1.000
 4363.00    1.04778   1.17068   -1.000
 4364.00    1.05533   1.17370   -1.000
 4365.00    1.04977   1.16834   -1.000
 4366.00    1.03484   1.15559   -1.000
 4367.00    1.03184   1.13983   -1.000
 4368.00    1.04119   1.12640   -1.000
 4369.00    1.05124   1.11723   -1.000
 4370.00    1.03379   1.11011   -1.000
 4371.00    1.01882   1.10076   -1.000
 4372.00    1.01003   1.08706   -1.000
 4373.00    1.00306   1.07206   -1.000
 4374.00    0.99125   1.06344   -1.000
 4375.00    0.99502   1.06767   -1.000
 4376.00    1.02292   1.08441   -1.000
 4377.00    1.04441   1.10578   -1.000
 4378.00    1.05136   1.12025   -1.000
 4379.00    1.05815   1.11909   -1.000
 4380.00    1.05483   1.09859   -1.000
 4381.00    1.02172   1.06130   -1.000
 4382.00    0.97570   1.01804   -1.000
 4383.00    0.92906   0.98560   -1.000
 4384.00    0.90494   0.97666   -1.000
 4385.00    0.92933   0.99255   -1.000
 4386.00    0.97295   1.02137   -1.000
 4387.00    1.00822   1.04816   58.288
 4388.00    1.02676   1.06571   56.984
 4389.00    1.01432   1.07503   -1.000
 4390.00    0.99062   1.08100   -1.000
 4391.00    0.99231   1.08569   -1.000
 4392.00    1.02100   1.08844   -1.000
 4393.00    1.03749   1.08932   -1.000
 4394.00    1.02039   1.09088   -1.000
 4395.00    0.99894   1.09658   -1.000
 4396.00    1.01341   1.10510   -1.000
 4397.00    1.04776   1.11058   -1.000
 4398.00    1.05067   1.10852   -1.000
 4399.00    1.01969   1.10094   -1.000
 4400.00    1.00278   1.09398   -1.000
 4401.00    1.01970   1.08991   -1.000
 4402.00    1.04004   1.08597   -1.000
 4403.00    1.02904   1.07971   -1.000
 4404.00    0.99452   1.07280   -1.000
 4405.00    0.96917   1.07018   -1.000
 4406.00    0.98317   1.07465   -1.000
 4407.00    1.00686   1.08530   -1.000
 4408.00    1.01426   1.10099   -1.000
 4409.00    1.03113   1.11999   -1.000
 4410.00    1.05222   1.13864   -1.000
 4411.00    1.07109   1.15004   -1.000
 4412.00    1.07469   1.14737   -1.000
 4413.00    1.04636   1.13044   -1.000
 4414.00    1.00875   1.10722   -1.000
 4415.00    0.98495   1.08986   -1.000
 4416.00    0.98351   1.08818   -1.000
 4417.00    0.99789   1.10375   -1.000
 4418.00    1.01492   1.12859   -1.000
 4419.00    1.03439   1.15068   -1.000
 4420.00    1.04934   1.16239   -1.000
 4421.00    1.04527   1.16297   -1.000
 4422.00    1.04364   1.15833   -1.000
 4423.00    1.05407   1.15457   -1.000
 4424.00    1.05579   1.15337   -1.000
 4425.00    1.04516   1.15374   -1.000
 4426.00    1.03995   1.15446   -1.000
 4427.00    1.04900   1.15541   -1.000
 4428.00    1.06171   1.15688   -1.000
 4429.00    1.05742   1.15787   -1.000
 4430.00    1.05163   1.15705   -1.000
 4431.00    1.05513   1.15305   -1.000
 4432.00    1.05553   1.14488   -1.000
 4433.00    1.03222   1.13457   -1.000
 4434.00    1.01180   1.12802   -1.000
 4435.00    1.01663   1.13173   -1.000
 4436.00    1.03473   1.14766   -1.000
 4437.00    1.06897   1.16928   -1.000
 4438.00    1.09635   1.18518   -1.000
 4439.00    1.09855   1.18620   -1.000
 4440.00    1.07416   1.17165   -1.000
 4441.00    1.04668   1.14987   -1.000
 4442.00    1.01886   1.13333   -1.000
 4443.00    0.99367   1.13190   -1.000
 4444.00    0.99961   1.14580   -1.000
 4445.00    1.02397   1.16721   -1.000
 4446.00    1.05738   1.18593   -1.000
 4447.00    1.08005   1.19616   -1.000
 4448.00    1.08346   1.19826   -1.000
 4449.00    1.08047   1.19555   -1.000
 4450.00    1.08128   1.19016   -1.000
 4451.00    1.08916   1.18108   -1.000
 4452.00    1.09624   1.16642   -1.000
 4453.00    1.08527   1.14677   -1.000
 4454.00    1.05604   1.12689   -1.000
 4455.00    1.04228   1.11369   -1.000
 4456.00    1.03816   1.11006   -1.000
 4457.00    1.03235   1.11354   -1.000
 4458.00    1.03299   1.11894   -1.000
 4459.00    1.03662   1.12337   -1.000
 4460.00    1.02514   1.12760   -1.000
 4461.00    1.02562   1.13387   -1.000
 4462.00    1.04900   1.14303   -1.000
 4463.00    1.06184   1.15339   -1.000
 4464.00    1.07317   1.16148   -1.000
 4465.00    1.07652   1.16391   -1.000
 4466.00    1.05320   1.16010   -1.000
 4467.00    1.03296   1.15303   -1.000
 4468.00    1.02553   1.14824   -1.000
 4469.00    1.01891   1.15082   -1.000
 4470.00    1.03680   1.16290   -1.000
 4471.00    1.06869   1.18199   -1.000
 4472.00    1.08999   1.20266   -1.000
 4473.00    1.10619   1.22006   -1.000
 4474.00    1.11989   1.23171   -1.000
 4475.00    1.12966   1.23734   -1.000
 4476.00    1.12603   1.23681   -1.000
 4477.00    1.11667   1.22869   -1.000
 4478.00    1.10704   1.21156   -1.000
 4479.00    1.08994   1.18771   -1.000
 4480.00    1.06666   1.16544   -1.000
 4481.00    1.03909   1.15480   -1.000
 4482.00    1.04086   1.16181   -1.000
 4483.00    1.07684   1.18319   -1.000
 4484.00    1.10467   1.20837   -1.000
 4485.00    1.11215   1.22614   -1.000
 4486.00    1.11391   1.23003   -1.000
 4487.00    1.11869   1.22125   -1.000
 4488.00    1.11124   1.20699   -1.000
 4489.00    1.09072   1.19628   -1.000
 4490.00    1.08389   1.19391   -1.000
 4491.00    1.08420   1.19888   -1.000
 4492.00    1.08362   1.20532   -1.000
 4493.00    1.08821   1.20891   -1.000
 4494.00    1.08094   1.20990   -1.000
 4495.00    1.06444   1.21140   -1.000
 4496.00    1.05467   1.21616   -1.000
 4497.00    1.06274   1.22264   -1.000
 4498.00    1.08953   1.22751   -1.000
 4499.00    1.10266   1.22922   -1.000
 4500.00    1.10113   1.23040   -1.000
 4501.00    1.08871   1.23561   -1.000
 4502.00    1.08560   1.24741   -1.000
 4503.00    1.11163   1.26341   -1.000
 4504.00    1.13441   1.27713   -1.000
 4505.00    1.13608   1.28363   -1.000
 4506.00    1.13664   1.28223   -1.000
 4507.00    1.13512   1.27714   -1.000
 4508.00    1.13180   1.27311   -1.000
 4509.00    1.13941   1.27220   -1.000
 4510.00    1.14149   1.27232   -1.000
 4511.00    1.13454   1.26974   -1.000
 4512.00    1.11977   1.26274   -1.000
 4513.00    1.10485   1.25262   -1.000
 4514.00    1.10022   1.24286   -1.000
 4515.00    1.10875   1.23594   -1.000
 4516.00    1.10782   1.23208   -1.000
 4517.00    1.10468   1.23019   -1.000
 4518.00    1.10032   1.22901   -1.000
 4519.00    1.11430   1.22809   -1.000
 4520.00    1.13929   1.22703   -1.000
 4521.00    1.14094   1.22437   -1.000
 4522.00    1.12885   1.21892   -1.000
 4523.00    1.12467   1.21065   -1.000
 4524.00    1.11319   1.19999   -1.000
 4525.00    1.10048   1.18710   -1.000
 4526.00    1.08194   1.17195   -1.000
 4527.00    1.07425   1.15668   -1.000
 4528.00    1.06762   1.14536   -1.000
 4529.00    1.06209   1.14099   -1.000
 4530.00    1.06119   1.14275   -1.000
 4531.00    1.05313   1.14547   -1.000
 4532.00    1.05425   1.14524   -1.000
 4533.00    1.04545   1.14296   -1.000
 4534.00    1.03820   1.14508   -1.000
 4535.00    1.03746   1.15775   -1.000
 4536.00    1.05794   1.18084   -1.000
 4537.00    1.11576   1.20724   30.233
 4538.00    1.11900   1.22743   -1.000
 4539.00    0.60543   1.23672   -1.000
 4540.00    0.19115   1.23678   -1.000
 4541.00    0.16805   1.23328   -1.000
 4542.00    0.74710   1.23017   -1.000
 4543.00    0.68548   1.22758   -1.000
 4544.00    0.74159   1.22383   -1.000
 4545.00    1.05519   1.21744   -1.000
 4546.00    1.11007   1.20792   -1.000
 4547.00    1.08797   1.19568   -1.000
 4548.00    1.07136   1.18289   -1.000
 4549.00    1.05259   1.17387   -1.000
 4550.00    1.05686   1.17200   -1.000
 4551.00    1.06523   1.17574   -1.000
 4552.00    1.06388   1.17986   -1.000
 4553.00    1.04917   1.18062   -1.000
 4554.00    1.03382   1.18002   -1.000
 4555.00    1.04548   1.18407   -1.000
 4556.00    1.07855   1.19608   -1.000
 4557.00    1.10707   1.21439   -1.000
 4558.00    1.13200   1.23398   -1.000
 4559.00    1.14866   1.24958   -1.000
 4560.00    1.15142   1.25817   -1.000
 4561.00    1.13977   1.25825   -1.000
 4562.00    1.11969   1.25049   -1.000
 4563.00    1.10217   1.23895   -1.000
 4564.00    1.09263   1.22984   -1.000
 4565.00    1.10351   1.22846   -1.000
 4566.00    1.11695   1.23529   -1.000
 4567.00    1.12696   1.24543   -1.000
 4568.00    1.13130   1.25236   -1.000
 4569.00    1.13575   1.25155   -1.000
 4570.00    1.12048   1.24420   -1.000
 4571.00    1.09207   1.23604   -1.000
 4572.00    1.09241   1.23334   -1.000
 4573.00    1.12807   1.23794   -1.000
 4574.00    1.14527   1.24647   -1.000
 4575.00    1.14436   1.25321   -1.000
 4576.00    1.14862   1.25420   -1.000
 4577.00    1.14999   1.24863   -1.000
 4578.00    1.13359   1.23710   -1.000
 4579.00    1.12306   1.22160   -1.000
 4580.00    1.11323   1.20516   -1.000
 4581.00    1.08897   1.19150   -1.000
 4582.00    1.08053   1.18321   -1.000
 4583.00    1.07890   1.18133   -1.000
 4584.00    1.08659   1.18517   -1.000
 4585.00    1.10171   1.19340   -1.000
 4586.00    1.12204   1.20390   -1.000
 4587.00    1.14056   1.21464   -1.000
 4588.00    1.14547   1.22328   -1.000
 4589.00    1.14451   1.22788   -1.000
 4590.00    1.14546   1.22773   -1.000
 4591.00    1.12812   1.22426   -1.000
 4592.00    1.11216   1.22063   -1.000
 4593.00    1.12524   1.21967   -1.000
 4594.00    1.12681   1.22227   -1.000
 4595.00    1.14093   1.22729   -1.000
 4596.00    1.13348   1.23271   -1.000
 4597.00    1.14208   1.23679   -1.000
 4598.00    1.15014   1.23830   -1.000
 4599.00    1.13846   1.23700   -1.000
 4600.00    1.11719   1.23385   -1.000
 4601.00    1.10028   1.23084   -1.000
 4602.00    1.08732   1.22959   -1.000
 4603.00    1.10385   1.23093   -1.000
 4604.00    1.13230   1.23472   -1.000
 4605.00    1.14083   1.24085   -1.000
 4606.00    1.14773   1.24918   -1.000
 4607.00    1.15226   1.25896   -1.000
 4608.00    1.14063   1.26832   -1.000
 4609.00    1.14401   1.27460   -1.000
 4610.00    1.14356   1.27609   -1.000
 4611.00    1.13420   1.27336   -1.000
 4612.00    1.13221   1.26860   -1.000
 4613.00    1.13305   1.26440   -1.000
 4614.00    1.13254   1.26118   -1.000
 4615.00    1.12453   1.25820   -1.000
 4616.00    1.11402   1.25445   -1.000
 4617.00    1.11396   1.25038   -1.000
 4618.00    1.12687   1.24799   -1.000
 4619.00    1.14130   1.24944   -1.000
 4620.00    1.15315   1.25547   -1.000
 4621.00    1.15415   1.26418   -1.000
 4622.00    1.15472   1.27219   -1.000
 4623.00    1.14842   1.27688   -1.000
 4624.00    1.13618   1.27744   -1.000
 4625.00    1.13102   1.27495   -1.000
 4626.00    1.13793   1.27088   -1.000
 4627.00    1.15089   1.26633   -1.000
 4628.00    1.15418   1.26282   -1.000
 4629.00    1.14959   1.26143   -1.000
 4630.00    1.15349   1.26244   -1.000
 4631.00    1.17151   1.26413   -1.000
 4632.00    1.18737   1.26395   -1.000
 4633.00    1.19416   1.26061   -1.000
 4634.00    1.18622   1.25520   -1.000
 4635.00    1.16006   1.25007   -1.000
 4636.00    1.14334   1.24675   -1.000
 4637.00    1.15342   1.24579   -1.000
 4638.00    1.14509   1.24734   -1.000
 4639.00    1.15938   1.25183   -1.000
 4640.00    1.18977   1.25858   -1.000
 4641.00    1.21463   1.26554   48.786
 4642.00    1.20962   1.26927   48.043
 4643.00    1.18331   1.26697   -1.000
 4644.00    1.15708   1.25795   -1.000
 4645.00    1.14088   1.24443   -1.000
 4646.00    1.14238   1.23125   -1.000
 4647.00    1.14478   1.22365   -1.000
 4648.00    1.15580   1.22475   -1.000
 4649.00    1.16945   1.23372   -1.000
 4650.00    1.18084   1.24564   -1.000
 4651.00    1.16701   1.25498   -1.000
 4652.00    1.13183   1.25837   -1.000
 4653.00    1.11178   1.25571   -1.000
 4654.00    1.11980   1.25011   -1.000
 4655.00    1.12007   1.24625   -1.000
 4656.00    1.12630   1.24878   -1.000
 4657.00    1.13547   1.25929   -1.000
 4658.00    1.16504   1.27503   -1.000
 4659.00    1.20817   1.28951   -1.000
 4660.00    1.22809   1.29687   -1.000
 4661.00    1.22825   1.29447   -1.000
 4662.00    1.21321   1.28399   -1.000
 4663.00    1.18514   1.26824   -1.000
 4664.00    1.17070   1.24921   -1.000
 4665.00    1.16060   1.22815   -1.000
 4666.00    1.13111   1.20794   -1.000
 4667.00    1.11201   1.19353   -1.000
 4668.00    1.11504   1.18990   -1.000
 4669.00    1.11220   1.19814   -1.000
 4670.00    1.13319   1.21470   -1.000
 4671.00    1.16616   1.23329   -1.000
 4672.00    1.18076   1.24937   -1.000
 4673.00    1.17276   1.26118   -1.000
 4674.00    1.18068   1.26945   -1.000
 4675.00    1.18530   1.27430   -1.000
 4676.00    1.18808   1.27448   -1.000
 4677.00    1.18149   1.26878   -1.000
 4678.00    1.15073   1.25822   -1.000
 4679.00    1.15428   1.24667   -1.000
 4680.00    1.16898   1.23823   -1.000
 4681.00    1.15899   1.23525   -1.000
 4682.00    1.16480   1.23754   -1.000
 4683.00    1.17225   1.24301   -1.000
 4684.00    1.18041   1.24914   -1.000
 4685.00    1.20027   1.25382   46.795
 4686.00    1.20453   1.25634   45.769
 4687.00    1.18903   1.25713   -1.000
 4688.00    1.16819   1.25695   -1.000
 4689.00    1.17189   1.25621   -1.000
 4690.00    1.17424   1.25530   -1.000
 4691.00    1.17125   1.25522   -1.000
 4692.00    1.18484   1.25688   -1.000
 4693.00    1.20125   1.26039   48.583
 4694.00    1.20086   1.26415   -1.000
 4695.00    1.22309   1.26571   49.718
 4696.00    1.22575   1.26290   48.828
 4697.00    1.19237   1.25521   -1.000
 4698.00    1.18260   1.24400   48.699
 4699.00    1.16654   1.23157   -1.000
 4700.00    1.16739   1.22030   50.181
 4701.00    1.19475   1.21145   49.946
 4702.00    1.18156   1.20653   48.513
 4703.00    1.15563   1.20635   47.170
 4704.00    1.15265   1.21008   46.673
 4705.00    1.16878   1.21438   47.093
 4706.00    1.15909   1.21598   47.980
 4707.00    1.15360   1.21457   48.011
 4708.00    1.14896   1.21352   47.078
 4709.00    1.13914   1.21625   -1.000
 4710.00    1.14576   1.22337   -1.000
 4711.00    1.17212   1.23208   45.702
 4712.00    1.16482   1.23873   -1.000
 4713.00    1.14937   1.24223   -1.000
 4714.00    1.14743   1.24445   -1.000
 4715.00    1.15812   1.24885   -1.000
 4716.00    1.16430   1.25697   -1.000
 4717.00    1.16317   1.26710   -1.000
 4718.00    1.15800   1.27618   -1.000
 4719.00    1.16330   1.28181   -1.000
 4720.00    1.18409   1.28420   -1.000
 4721.00    1.21241   1.28471   -1.000
 4722.00    1.20864   1.28498   -1.000
 4723.00    1.20957   1.28515   -1.000
 4724.00    1.20532   1.28363   -1.000
 4725.00    1.21020   1.27804   -1.000
 4726.00    1.19158   1.26713   -1.000
 4727.00    1.16582   1.25266   -1.000
 4728.00    1.15581   1.23856   -1.000
 4729.00    1.16679   1.22885   47.502
 4730.00    1.15661   1.22529   -1.000
 4731.00    1.14712   1.22739   -1.000
 4732.00    1.16348   1.23290   -1.000
 4733.00    1.17169   1.23914   -1.000
 4734.00    1.17458   1.24368   -1.000
 4735.00    1.17946   1.24581   -1.000
 4736.00    1.16065   1.24673   -1.000
 4737.00    1.15980   1.24832   -1.000
 4738.00    1.17569   1.25150   -1.000
 4739.00    1.18218   1.25561   -1.000
 4740.00    1.16799   1.25955   -1.000
 4741.00    1.16369   1.26297   -1.000
 4742.00    1.18025   1.26618   -1.000
 4743.00    1.17587   1.26952   -1.000
 4744.00    1.17341   1.27273   -1.000
 4745.00    1.18004   1.27575   -1.000
 4746.00    1.18569   1.27898   -1.000
 4747.00    1.19110   1.28292   -1.000
 4748.00    1.18898   1.28749   -1.000
 4749.00    1.20799   1.29181   -1.000
 4750.00    1.20468   1.29416   -1.000
 4751.00    1.19005   1.29300   -1.000
 4752.00    1.18627   1.28777   -1.000
 4753.00    1.18207   1.27986   -1.000
 4754.00    1.16933   1.27231   -1.000
 4755.00    1.17356   1.26798   -1.000
 4756.00    1.18719   1.26828   -1.000
 4757.00    1.18296   1.27218   -1.000
 4758.00    1.17919   1.27716   -1.000
 4759.00    1.20056   1.27956   -1.000
 4760.00    1.19622   1.27626   -1.000
 4761.00    1.17122   1.26609   -1.000
 4762.00    1.16136   1.25112   -1.000
 4763.00    1.14664   1.23621   -1.000
 4764.00    1.16147   1.22617   -1.000
 4765.00    1.16070   1.22407   47.307
 4766.00    1.15605   1.22998   -1.000
 4767.00    1.16312   1.24203   -1.000
 4768.00    1.17403   1.25638   -1.000
 4769.00    1.16733   1.26881   -1.000
 4770.00    1.18436   1.27638   -1.000
 4771.00    1.16964   1.27985   -1.000
 4772.00    1.17156   1.28228   -1.000
 4773.00    1.16845   1.28691   -1.000
 4774.00    1.17532   1.29378   -1.000
 4775.00    1.20774   1.30071   -1.000
 4776.00    1.20968   1.30489   -1.000
 4777.00    1.21609   1.30505   -1.000
 4778.00    1.20613   1.30188   -1.000
 4779.00    1.18988   1.29704   -1.000
 4780.00    1.18770   1.29219   -1.000
 4781.00    1.19396   1.28774   -1.000
 4782.00    1.19875   1.28337   -1.000
 4783.00    1.17986   1.27862   -1.000
 4784.00    1.17192   1.27356   -1.000
 4785.00    1.16755   1.26887   -1.000
 4786.00    1.15250   1.26540   -1.000
 4787.00    1.15218   1.26429   -1.000
 4788.00    1.16235   1.26600   -1.000
 4789.00    1.16034   1.27065   -1.000
 4790.00    1.16708   1.27803   -1.000
 4791.00    1.18255   1.28812   -1.000
 4792.00    1.19534   1.30050   -1.000
 4793.00    1.20842   1.31333   -1.000
 4794.00    1.22121   1.32385   -1.000
 4795.00    1.21399   1.32879   -1.000
 4796.00    1.20163   1.32680   -1.000
 4797.00    1.19021   1.31917   -1.000
 4798.00    1.18002   1.30973   -1.000
 4799.00    1.18584   1.30295   -1.000
 4800.00    1.18785   1.30130   -1.000
 4801.00    1.19251   1.30413   -1.000
 4802.00    1.20024   1.30789   -1.000
 4803.00    1.19681   1.30911   -1.000
 4804.00    1.19601   1.30632   -1.000
 4805.00    1.18707   1.30135   -1.000
 4806.00    1.18521   1.29696   -1.000
 4807.00    1.20147   1.29522   -1.000
 4808.00    1.20500   1.29640   -1.000
 4809.00    1.19903   1.29943   -1.000
 4810.00    1.18101   1.30295   -1.000
 4811.00    1.17033   1.30623   -1.000
 4812.00    1.17461   1.30951   -1.000
 4813.00    1.19151   1.31349   -1.000
 4814.00    1.20646   1.31855   -1.000
 4815.00    1.20869   1.32411   -1.000
 4816.00    1.21882   1.32923   -1.000
 4817.00    1.22318   1.33290   -1.000
 4818.00    1.21624   1.33447   -1.000
 4819.00    1.21846   1.33314   -1.000
 4820.00    1.20979   1.32759   -1.000
 4821.00    1.21365   1.31675   -1.000
 4822.00    1.20341   1.30186   -1.000
 4823.00    1.18274   1.28722   -1.000
 4824.00    1.18707   1.27846   -1.000
 4825.00    1.20699   1.27798   -1.000
 4826.00    1.21245   1.28335   -1.000
 4827.00    1.19758   1.28945   -1.000
 4828.00    1.18702   1.29226   -1.000
 4829.00    1.19804   1.29120   -1.000
 4830.00    1.19364   1.28736   -1.000
 4831.00    1.19034   1.28276   -1.000
 4832.00    1.19759   1.27922   -1.000
 4833.00    1.19214   1.27806   -1.000
 4834.00    1.19836   1.27917   -1.000
 4835.00    1.21259   1.28100   -1.000
 4836.00    1.21528   1.28125   46.414
 4837.00    1.21670   1.27844   45.738
 4838.00    1.20644   1.27224   45.687
 4839.00    1.19033   1.26423   -1.000
 4840.00    1.16933   1.25662   -1.000
 4841.00    1.16778   1.25156   -1.000
 4842.00    1.18405   1.24970   46.479
 4843.00    1.19232   1.25047   46.452
 4844.00    1.18764   1.25237   46.755
 4845.00    1.18865   1.25342   47.311
 4846.00    1.19097   1.25147   48.769
 4847.00    1.18161   1.24602   49.918
 4848.00    1.18512   1.23880   49.675
 4849.00    1.17439   1.23238   49.443
 4850.00    1.17081   1.22742   51.330
 4851.00    1.18178   1.22102   56.169
 4852.00    1.16272   1.20919   62.291
 4853.00    1.11441   1.18927   -1.000
 4854.00    1.08164   1.16227   -1.000
 4855.00    1.07954   1.13156   54.368
 4856.00    1.10367   1.09886   51.445
 4857.00    1.09151   1.06211   49.798
 4858.00    1.05561   1.01625   48.875
 4859.00    0.97052   0.96162   48.493
 4860.00    0.85936   0.90863   48.406
 4861.00    0.79077   0.87465   -1.000
 4862.00    0.81420   0.87363   50.421
 4863.00    0.91827   0.90518   51.343
 4864.00    1.02743   0.95769   -1.000
 4865.00    1.07729   1.01486   -1.000
 4866.00    1.08908   1.06545   48.516
 4867.00    1.10911   1.10359   48.178
 4868.00    1.12169   1.12762   47.938
 4869.00    1.12555   1.13822   47.675
 4870.00    1.10116   1.13935   46.993
 4871.00    1.08559   1.13785   46.680
 4872.00    1.08066   1.14152   47.203
 4873.00    1.10990   1.15334   47.902
 4874.00    1.13821   1.17099   48.077
 4875.00    1.15679   1.18876   47.983
 4876.00    1.14975   1.20361   48.358
 4877.00    1.14611   1.21625   49.027
 4878.00    1.16748   1.22876   49.161
 4879.00    1.18336   1.24105   48.919
 4880.00    1.20123   1.25072   49.027
 4881.00    1.20341   1.25497   49.862
 4882.00    1.19357   1.25371   50.677
 4883.00    1.19324   1.24850   49.906
 4884.00    1.19586   1.24175   47.767
 4885.00    1.19064   1.23530   45.710
 4886.00    1.16721   1.23003   44.496
 4887.00    1.15361   1.22557   43.814
 4888.00    1.15155   1.22058   43.692
 4889.00    1.13346   1.21467   -1.000
 4890.00    1.11331   1.21103   -1.000
 4891.00    1.11219   1.21539   -1.000
 4892.00    1.14442   1.23209   -1.000
 4893.00    1.18032   1.25963   -1.000
 4894.00    1.20993   1.29030   -1.000
 4895.00    1.23788   1.31581   -1.000
 4896.00    1.23626   1.33068   -1.000
 4897.00    1.22424   1.33481   -1.000
 4898.00    1.21708   1.33075   -1.000
 4899.00    1.20426   1.32270   -1.000
 4900.00    1.18747   1.31409   -1.000
 4901.00    1.19060   1.30728   -1.000
 4902.00    1.20419   1.30309   -1.000
 4903.00    1.20913   1.30224   -1.000
 4904.00    1.21007   1.30539   -1.000
 4905.00    1.21585   1.31150   -1.000
 4906.00    1.22263   1.31647   -1.000
 4907.00    1.21833   1.31575   -1.000
 4908.00    1.20191   1.30687   -1.000
 4909.00    1.17771   1.29291   -1.000
 4910.00    1.16675   1.27987   -1.000
 4911.00    1.19056   1.27424   -1.000
 4912.00    1.23158   1.27820   52.097
 4913.00    1.24966   1.28922   50.281
 4914.00    1.25104   1.30082   48.739
 4915.00    1.24769   1.30574   48.227
 4916.00    1.23872   1.29803   48.042
 4917.00    1.21497   1.27640   47.230
 4918.00    1.17695   1.24525   46.082
 4919.00    1.12624   1.21416   -1.000
 4920.00    1.10102   1.19292   -1.000
 4921.00    1.11292   1.18623   44.697
 4922.00    1.13693   1.19245   44.628
 4923.00    1.13810   1.20624   45.309
 4924.00    1.14320   1.22395   -1.000
 4925.00    1.16906   1.24433   -1.000
 4926.00    1.20898   1.26666   47.741
 4927.00    1.23304   1.28895   47.095
 4928.00    1.24089   1.30754   47.497
 4929.00    1.25112   1.31915   -1.000
 4930.00    1.25808   1.32128   49.741
 4931.00    1.25017   1.31380   48.874
 4932.00    1.22477   1.29912   -1.000
 4933.00    1.19426   1.28286   -1.000
 4934.00    1.17287   1.27006   -1.000
 4935.00    1.17578   1.26246   -1.000
 4936.00    1.18122   1.25740   -1.000
 4937.00    1.17811   1.25201   45.305
 4938.00    1.15841   1.24813   -1.000
 4939.00    1.14888   1.25033   -1.000
 4940.00    1.17105   1.26208   -1.000
 4941.00    1.19520   1.28105   -1.000
 4942.00    1.21090   1.30085   -1.000
 4943.00    1.22235   1.31565   -1.000
 4944.00    1.22559   1.32315   -1.000
 4945.00    1.21291   1.32539   -1.000
 4946.00    1.20803   1.32601   -1.000
 4947.00    1.21701   1.32826   -1.000
 4948.00    1.23048   1.33259   -1.000
 4949.00    1.24788   1.33724   -1.000
 4950.00    1.26552   1.33971   -1.000
 4951.00    1.27698   1.33874   46.831
 4952.00    1.25767   1.33422   -1.000
 4953.00    1.23442   1.32567   -1.000
 4954.00    1.20977   1.31150   -1.000
 4955.00    1.19858   1.29064   -1.000
 4956.00    1.17359   1.26620   -1.000
 4957.00    1.15413   1.24737   -1.000
 4958.00    1.17294   1.24302   -1.000
 4959.00    1.20693   1.25611   48.162
 4960.00    1.23725   1.27939   47.942
 4961.00    1.25355   1.30216   47.526
 4962.00    1.25056   1.31635   47.012
 4963.00    1.25131   1.31983   46.485
 4964.00    1.24637   1.31472   45.969
 4965.00    1.21798   1.30495   -1.000
 4966.00    1.19651   1.29454   -1.000
 4967.00    1.20031   1.28672   -1.000
 4968.00    1.20920   1.28317   -1.000
 4969.00    1.21110   1.28453   -1.000
 4970.00    1.21589   1.29013   -1.000
 4971.00    1.22454   1.29881   -1.000
 4972.00    1.24133   1.30846   -1.000
 4973.00    1.25089   1.31716   -1.000
 4974.00    1.25725   1.32280   -1.000
 4975.00    1.27194   1.32418   51.887
 4976.00    1.26979   1.32072   50.704
 4977.00    1.25383   1.31275   49.194
 4978.00    1.23745   1.30075   47.756
 4979.00    1.22099   1.28471   47.043
 4980.00    1.20279   1.26433   47.358
 4981.00    1.17820   1.24046   47.992
 4982.00    1.15437   1.21750   48.300
 4983.00    1.14496   1.20229   48.135
 4984.00    1.14408   1.20078   47.783
 4985.00    1.15771   1.21359   47.656
 4986.00    1.19127   1.23521   47.549
 4987.00    1.21737   1.25729   47.301
 4988.00    1.22506   1.27244   47.273
 4989.00    1.21719   1.27834   47.709
 4990.00    1.20356   1.27708   -1.000
 4991.00    1.20081   1.27359   -1.000
 4992.00    1.20178   1.27190   -1.000
 4993.00    1.20205   1.27360   -1.000
 4994.00    1.21064   1.27797   49.101
 4995.00    1.23005   1.28282   49.197
 4996.00    1.25322   1.28540   50.150
 4997.00    1.25705   1.28314   51.036
 4998.00    1.24192   1.27461   50.658
 4999.00    1.22199   1.26122   49.256
 5000.00    1.20510   1.24669   48.153
 5001.00    1.19973   1.23514   48.133
 5002.00    1.20592   1.22822   49.127
 5003.00    1.20952   1.22377   50.780
 5004.00    1.20650   1.21903   52.399
 5005.00    1.20041   1.21364   52.979
 5006.00    1.19528   1.21140   52.298
 5007.00    1.21124   1.21611   51.147
 5008.00    1.23561   1.22666   50.445
 5009.00    1.24421   1.23726   50.344
 5010.00    1.23095   1.24022   50.103
 5011.00    1.21089   1.23294   49.590
 5012.00    1.18925   1.21821   49.461
 5013.00    1.16479   1.20315   49.645
 5014.00    1.16230   1.19321   49.578
 5015.00    1.17794   1.18955   49.177
 5016.00    1.18800   1.18983   48.736
 5017.00    1.18447   1.19147   48.662
 5018.00    1.17655   1.19453   48.907
 5019.00    1.18501   1.20046   48.832
 5020.00    1.19992   1.20901   48.154
 5021.00    1.20316   1.21893   47.337
 5022.00    1.20014   1.22855   46.620
 5023.00    1.19589   1.23770   45.960
 5024.00    1.20000   1.24633   45.712
 5025.00    1.20899   1.25297   46.432
 5026.00    1.21236   1.25666   48.120
 5027.00    1.21377   1.25829   49.532
 5028.00    1.22081   1.26038   50.033
 5029.00    1.22746   1.26542   50.405
 5030.00    1.23401   1.27373   51.669
 5031.00    1.25365   1.28347   53.772
 5032.00    1.27206   1.29111   54.944
 5033.00    1.28097   1.29305   53.617
 5034.00    1.27326   1.28698   50.613
 5035.00    1.23871   1.27445   47.985
 5036.00    1.20514   1.25824   46.504
 5037.00    1.19099   1.24071   45.140
 5038.00    1.22039   1.22196   44.885
 5039.00    1.01701   1.20206   -1.000
 5040.00    0.28892   1.18618   -1.000
 5041.00   -0.12371   1.18180    0.000
 5042.00    0.10185   1.19423   -1.000
 5043.00    0.54793   1.22146   -1.000
 5044.00    1.06067   1.25386   -1.000
 5045.00    1.25424   1.28104   46.547
 5046.00    1.26078   1.29523   45.906
 5047.00    1.24669   1.29490   45.621
 5048.00    1.22108   1.28314   45.595
 5049.00    1.19992   1.26672   45.684
 5050.00    1.19117   1.25280   45.717
 5051.00    1.19875   1.24700   45.546
 5052.00    1.22164   1.25112   45.401
 5053.00    1.24832   1.26338   45.733
 5054.00    1.25899   1.27864   46.729
 5055.00    1.26471   1.29284   48.268
 5056.00    1.28452   1.30411   49.401
 5057.00    1.29483   1.31286   49.336
 5058.00    1.28353   1.32010   48.635
 5059.00    1.27219   1.32578   48.199
 5060.00    1.27136   1.32869   48.017
 5061.00    1.27016   1.32695   47.739
 5062.00    1.26097   1.31926   47.793
 5063.00    1.23750   1.30550   -1.000
 5064.00    1.21895   1.28935   -1.000
 5065.00    1.21194   1.27512   47.553
 5066.00    1.21559   1.26662   47.350
 5067.00    1.22776   1.26403   47.307
 5068.00    1.22980   1.26513   47.538
 5069.00    1.23266   1.26721   48.653
 5070.00    1.24538   1.26820   50.718
 5071.00    1.25809   1.26738   52.163
 5072.00    1.26674   1.26544   51.789
 5073.00    1.27071   1.26419   50.655
 5074.00    1.27087   1.26431   49.794
 5075.00    1.26800   1.26475   48.978
 5076.00    1.26322   1.26226   48.093
 5077.00    1.25253   1.25441   47.538
 5078.00    1.22253   1.24111   47.360
 5079.00    1.18365   1.22638   47.202
 5080.00    1.17089   1.21617   46.901
 5081.00    1.18550   1.21385   46.605
 5082.00    1.20341   1.21989   46.358
 5083.00    1.21549   1.23131   45.948
 5084.00    1.22918   1.24519   45.478
 5085.00    1.24171   1.25914   45.541
 5086.00    1.26124   1.27138   46.281
 5087.00    1.27101   1.28123   47.281
 5088.00    1.26795   1.28877   48.377
 5089.00    1.27354   1.29491   49.465
 5090.00    1.28309   1.30064   49.991
 5091.00    1.28972   1.30626   49.317
 5092.00    1.29709   1.31105   47.946
 5093.00    1.29918   1.31277   47.120
 5094.00    1.30131   1.30880   47.129
 5095.00    1.29013   1.29740   47.623
 5096.00    1.26343   1.28009   48.245
 5097.00    1.24638   1.26116   48.845
 5098.00    1.22978   1.24679   49.453
 5099.00    1.22719   1.24151   49.659
 5100.00    1.24683   1.24625   49.424
 5101.00    1.26720   1.25780   49.079
 5102.00    1.27707   1.26981   48.510
 5103.00    1.27009   1.27741   47.867
 5104.00    1.26987   1.27783   47.283
 5105.00    1.26236   1.27189   46.797
 5106.00    1.23660   1.26234   46.482
 5107.00    1.20954   1.25280   46.086
 5108.00    1.20335   1.24671   45.656
 5109.00    1.20496   1.24637   45.594
 5110.00    1.21307   1.25206   46.024
 5111.00    1.23776   1.26270   46.694
 5112.00    1.25656   1.27538   47.443
 5113.00    1.27004   1.28788   48.501
 5114.00    1.28306   1.29866   49.898
 5115.00    1.29196   1.30731   50.687
 5116.00    1.30634   1.31385   50.511
 5117.00    1.31802   1.31741   50.174
 5118.00    1.31064   1.31702   49.898
 5119.00    1.30474   1.31136   49.833
 5120.00    1.30577   1.30073   49.838
 5121.00    1.28946   1.28625   49.401
 5122.00    1.26699   1.27032   48.615
 5123.00    1.24399   1.25524   48.061
 5124.00    1.22725   1.24353   47.634
 5125.00    1.23181   1.23616   47.199
 5126.00    1.23494   1.23293   46.974
 5127.00    1.22179   1.23245   47.484
 5128.00    1.21668   1.23372   48.557
 5129.00    1.22610   1.23673   49.484
 5130.00    1.24172   1.24176   49.794
 5131.00    1.25901   1.24863   49.509
 5132.00    1.26635   1.25613   49.589
 5133.00    1.27136   1.26295   50.265
 5134.00    1.27793   1.26733   50.356
 5135.00    1.28559   1.26795   49.670
 5136.00    1.27418   1.26351   49.265
 5137.00    1.26349   1.25509   49.528
 5138.00    1.24253   1.24511   49.776
 5139.00    1.23256   1.23677   49.396
 5140.00    1.23335   1.23209   48.997
 5141.00    1.23677   1.23093   49.322
 5142.00    1.22394   1.23243   50.148
 5143.00    1.21978   1.23543   50.675
 5144.00    1.23770   1.23849   50.595
 5145.00    1.25680   1.24036   49.839
 5146.00    1.25941   1.24056   48.654
 5147.00    1.25547   1.23991   47.410
 5148.00    1.25540   1.23979   46.422
 5149.00    1.25045   1.23967   45.921
 5150.00    1.23746   1.23836   45.820
 5151.00    1.22502   1.23549   45.930
 5152.00    1.21785   1.23221   46.164
 5153.00    1.21480   1.23179   46.610
 5154.00    1.22958   1.23662   47.280
 5155.00    1.26338   1.24765   48.764
 5156.00    1.29262   1.26254   52.147
 5157.00    1.31257   1.27779   57.311
 5158.00    1.33052   1.28965   -1.000
 5159.00    1.33839   1.29596   -1.000
 5160.00    1.34142   1.29601   -1.000
 5161.00    1.33359   1.28974   -1.000
 5162.00    1.32083   1.27658   -1.000
 5163.00    1.31564   1.25479   -1.000
 5164.00    1.30555   1.22261   -1.000
 5165.00    1.25548   1.17997   -1.000
 5166.00    1.18594   1.13434   -1.000
 5167.00    1.12320   1.09561   49.692
 5168.00    1.09849   1.07301   48.801
 5169.00    1.12901   1.06665   -1.000
 5170.00    1.15505   1.06735   -1.000
 5171.00    1.14253   1.07060   -1.000
 5172.00    1.11061   1.07703   53.461
 5173.00    1.12273   1.09535   59.068
 5174.00    1.19755   1.12945   -1.000
 5175.00    1.27914   1.17245   -1.000
 5176.00    1.31528   1.21391   -1.000
 5177.00    1.32089   1.24307   -1.000
 5178.00    1.31458   1.25494   -1.000
 5179.00    1.29865   1.24867   -1.000
 5180.00    1.29199   1.22383   -1.000
 5181.00    1.25259   1.18533   -1.000
 5182.00    1.18283   1.14234   50.212
 5183.00    1.11886   1.11053   51.675
 5184.00    1.13156   1.10274   51.722
 5185.00    1.20343   1.12033   -1.000
 5186.00    1.23183   1.15450   -1.000
 5187.00    1.20611   1.18958   49.396
 5188.00    1.09761   1.21534   -1.000
 5189.00    0.98145   1.22813   -1.000
 5190.00    0.93609   1.22945   -1.000
 5191.00    0.95991   1.22374   -1.000
 5192.00    1.02538   1.21668   -1.000
 5193.00    1.11171   1.21220   -1.000
 5194.00    1.18964   1.21277   49.097
 5195.00    1.22769   1.21802   50.556
 5196.00    1.25246   1.22695   52.132
 5197.00    1.28066   1.23893   -1.000
 5198.00    1.29584   1.25247   -1.000
 5199.00    1.31663   1.26484   -1.000
 5200.00    1.31690   1.27246   -1.000
 5201.00    1.29955   1.27174   51.102
 5202.00    1.30139   1.26142   49.107
 5203.00    1.27679   1.24281   47.165
 5204.00    1.23025   1.21990   46.011
 5205.00    1.20336   1.19798   46.232
 5206.00    1.20300   1.18190   47.233
 5207.00    1.20926   1.17442   47.928
 5208.00    1.20287   1.17648   47.715
 5209.00    1.19941   1.18858   46.790
 5210.00    1.22252   1.20885   46.013
 5211.00    1.25467   1.23402   45.597
 5212.00    1.28903   1.25741   45.386
 5213.00    1.30282   1.27305   45.830
 5214.00    1.28498   1.27815   47.092
 5215.00    1.27691   1.27529   48.959
 5216.00    1.28324   1.27185   51.218
 5217.00    1.28700   1.27364   52.829
 5218.00    1.32214   1.28320   -1.000
 5219.00    1.34274   1.29701   -1.000
 5220.00    1.33682   1.30954   47.334
 5221.00    1.32140   1.31505   46.311
 5222.00    1.32029   1.30977   46.122
 5223.00    1.30074   1.29236   46.895
 5224.00    1.27212   1.26486   47.767
 5225.00    1.22458   1.23333   47.818
 5226.00    1.18631   1.20860   46.867
 5227.00    1.18031   1.19903   45.740
 5228.00    1.20833   1.20756   45.132
 5229.00    1.24633   1.22681   45.024
 5230.00    1.27107   1.24587   45.145
 5231.00    1.27273   1.25681   45.101
 5232.00    1.25506   1.25799   44.858
 5233.00    1.24618   1.25529   44.875
 5234.00    1.24337   1.25583   44.810
 5235.00    1.25247   1.26401   44.734
 5236.00    1.26495   1.27854   45.493
 5237.00    1.28735   1.29524   46.863
 5238.00    1.31224   1.30927   48.018
 5239.00    1.32648   1.31838   48.274
 5240.00    1.32672   1.32289   48.358
 5241.00    1.32330   1.32454   48.641
 5242.00    1.32321   1.32519   48.483
 5243.00    1.32338   1.32544   47.860
 5244.00    1.32951   1.32414   47.357
 5245.00    1.32635   1.31892   47.306
 5246.00    1.30579   1.30966   47.012
 5247.00    1.28977   1.29777   45.998
 5248.00    1.27488   1.28656   44.764
 5249.00    1.26124   1.27855   44.270
 5250.00    1.23584   1.27474   44.598
 5251.00    1.23355   1.27480   45.738
 5252.00    1.25440   1.27737   47.613
 5253.00    1.26944   1.28117   49.867
 5254.00    1.28230   1.28613   51.674
 5255.00    1.30906   1.29379   52.816
 5256.00    1.33003   1.30389   53.056
 5257.00    1.36128   1.31428   -1.000
 5258.00    1.37445   1.31984   -1.000
 5259.00    1.35244   1.31552   -1.000
 5260.00    1.34163   1.29884   -1.000
 5261.00    1.31671   1.27111   -1.000
 5262.00    1.27404   1.23737   50.606
 5263.00    1.24237   1.20453   48.339
 5264.00    1.21985   1.17855   -1.000
 5265.00    1.20969   1.16285   -1.000
 5266.00    1.22802   1.15610   -1.000
 5267.00    1.22571   1.15324   -1.000
 5268.00    1.20388   1.15132   -1.000
 5269.00    1.16904   1.15042   44.292
 5270.00    1.15822   1.15579   44.477
 5271.00    1.18175   1.17017   45.497
 5272.00    1.22893   1.18994   46.685
 5273.00    1.25408   1.21059   -1.000
 5274.00    1.26247   1.22839   47.848
 5275.00    1.27364   1.24428   46.957
 5276.00    1.28664   1.26110   45.541
 5277.00    1.30362   1.27845   44.103
 5278.00    1.24463   1.29278   43.701
 5279.00    1.26966   1.29877   43.904
 5280.00    1.28954   1.29517   43.915
 5281.00    1.27754   1.28490   43.670
 5282.00    1.25380   1.27446   43.567
 5283.00    1.24970   1.27049   43.805
 5284.00    1.26106   1.27738   44.215
 5285.00    1.28854   1.29392   44.796
 5286.00    1.32423   1.31513   45.986
 5287.00    1.32362   1.33488   47.738
 5288.00    1.34363   1.34909   49.053
 5289.00    1.37340   1.35751   48.815
 5290.00    1.37263   1.36103   47.604
 5291.00    1.35725   1.36083   46.700
 5292.00    1.34455   1.35773   46.381
 5293.00    1.34251   1.35074   45.820
 5294.00    1.34030   1.33880   44.602
 5295.00    1.31211   1.32208   43.766
 5296.00    1.27188   1.30239   43.632
 5297.00    1.23786   1.28505   44.047
 5298.00    1.23230   1.27532   44.433
 5299.00    1.25155   1.27463   44.159
 5300.00    1.27517   1.28195   43.696
 5301.00    1.27546   1.29356   43.412
 5302.00    1.27240   1.30679   43.450
 5303.00    1.28218   1.32036   43.693
 5304.00    1.29477   1.33168   43.883
 5305.00    1.32365   1.33956   44.201
 5306.00    1.31487   1.34383   44.640
 5307.00    1.30285   1.34587   45.037
 5308.00    1.30495   1.34864   45.055
 5309.00    1.31544   1.35272   44.721
 5310.00    1.31718   1.35696   44.529
 5311.00    1.33570   1.35900   44.693
 5312.00    1.32552   1.35665   45.009
 5313.00    1.32514   1.34949   45.541
 5314.00    1.31958   1.33872   46.344
 5315.00    1.30991   1.32698   46.773
 5316.00    1.30311   1.31825   46.750
 5317.00    1.30248   1.31551   48.053
 5318.00    1.33292   1.31878   51.191
 5319.00    1.35454   1.32452   52.814
 5320.00    1.33459   1.32762   50.714
 5321.00    1.32313   1.32472   47.650
 5322.00    1.30641   1.31457   46.140
 5323.00    1.30390   1.29912   45.672
 5324.00    1.30654   1.28041   45.235
 5325.00    1.29865   1.25979   44.705
 5326.00    1.26956   1.23844   44.520
 5327.00    1.20723   1.21900   44.821
 5328.00    1.17132   1.20927   45.112
 5329.00    1.19906   1.21366   45.614
 5330.00    1.26003   1.23194   46.796
 5331.00    1.29133   1.25753   47.606
 5332.00    1.31020   1.28182   47.167
 5333.00    1.33208   1.30050   45.853
 5334.00    1.33064   1.31199   45.049
 5335.00    1.31651   1.31678   45.080
 5336.00    1.31050   1.31604   45.388
 5337.00    1.31102   1.31013   45.680
 5338.00    1.30465   1.30031   45.901
 5339.00    1.29382   1.28931   46.328
 5340.00    1.27420   1.28183   46.421
 5341.00    1.26744   1.28104   45.656
 5342.00    1.29580   1.28732   44.573
 5343.00    1.31666   1.29651   44.047
 5344.00    1.33160   1.30352   43.930
 5345.00    1.30052   1.30580   43.568
 5346.00    1.28341   1.30339   42.995
 5347.00    1.28559   1.29954   42.688
 5348.00    1.26086   1.29749   42.751
 5349.00    1.26359   1.29966   42.817
 5350.00    1.29533   1.30658   42.981
 5351.00    1.30635   1.31715   43.513
 5352.00    1.30361   1.32912   44.263
 5353.00    1.30900   1.34067   44.904
 5354.00    1.32652   1.35150   45.193
 5355.00    1.31762   1.36070   45.453
 5356.00    1.32915   1.36779   45.727
 5357.00    1.34086   1.37189   45.551
 5358.00    1.34701   1.37203   45.567
 5359.00    1.34023   1.36787   46.079
 5360.00    1.34959   1.35920   47.292
 5361.00    1.34784   1.34685   48.737
 5362.00    1.34582   1.33283   48.742
 5363.00    1.33949   1.31942   46.794
 5364.00    1.32657   1.30867   44.621
 5365.00    1.31348   1.30115   43.626
 5366.00    1.29069   1.29561   43.369
 5367.00    1.29020   1.28915   43.531
 5368.00    1.28833   1.27980   43.537
 5369.00    1.26507   1.26781   43.635
 5370.00    1.23117   1.25715   43.908
 5371.00    1.22253   1.25416   44.359
 5372.00    1.24655   1.26231   44.789
 5373.00    1.28825   1.28114   44.980
 5374.00    1.31560   1.30415   44.923
 5375.00    1.32863   1.32462   44.685
 5376.00    1.33283   1.33794   44.197
 5377.00    1.33638   1.34294   44.158
 5378.00    1.33232   1.34147   44.390
 5379.00    1.32538   1.33585   44.853
 5380.00    1.31201   1.32861   45.555
 5381.00    1.31983   1.32193   46.033
 5382.00    1.32815   1.31777   46.203
 5383.00    1.32809   1.31761   46.218
 5384.00    1.32634   1.32160   46.383
 5385.00    1.33721   1.32813   46.761
 5386.00    1.34954   1.33378   47.424
 5387.00    1.34959   1.33584   48.360
 5388.00    1.35052   1.33296   48.213
 5389.00    1.34772   1.32565   46.662
 5390.00    1.33548   1.31613   45.401
 5391.00    1.31052   1.30647   45.242
 5392.00    1.29693   1.29769   45.370
 5393.00    1.29453   1.29012   45.827
 5394.00    1.29149   1.28261   47.326
 5395.00    1.29272   1.27424   48.812
 5396.00    1.28940   1.26685   49.374
 5397.00    1.29166   1.26291   48.694
 5398.00    1.31292   1.26536   -1.000
 5399.00    1.32514   1.27313   -1.000
 5400.00    1.33863   1.28160   -1.000
 5401.00    1.33839   1.28591   -1.000
 5402.00    1.33052   1.28207   -1.000
 5403.00    1.30286   1.26985   45.100
 5404.00    1.26065   1.25428   44.723
 5405.00    1.24298   1.24193   44.789
 5406.00    1.25487   1.23663   44.771
 5407.00    1.27383   1.23927   44.408
 5408.00    1.27571   1.24582   44.179
 5409.00    1.26393   1.25356   44.428
 5410.00    1.26822   1.26265   44.874
 5411.00    1.27776   1.27280   45.077
 5412.00    1.29069   1.28414   44.857
 5413.00    1.31844   1.29496   44.768
 5414.00    1.32503   1.30401   45.446
 5415.00    1.31471   1.31212   45.733
 5416.00    1.30913   1.31909   45.135
 5417.00    1.32225   1.32466   44.455
 5418.00    1.34664   1.32816   44.805
 5419.00    1.34733   1.32847   46.166
 5420.00    1.33527   1.32614   47.492
 5421.00    1.34911   1.32173   47.332
 5422.00    1.34416   1.31600   46.514
 5423.00    1.32022   1.31111   46.658
 5424.00    1.31138   1.30858   47.366
 5425.00    1.32241   1.30947   47.802
 5426.00    1.34303   1.31175   47.458
 5427.00    1.35388   1.31021   -1.000
 5428.00    1.33103   1.30397   45.133
 5429.00    1.27682   1.29435   44.259
 5430.00    1.25791   1.28554   43.699
 5431.00    1.27444   1.28060   43.397
 5432.00    1.29883   1.27776   43.356
 5433.00    1.28712   1.27668   43.426
 5434.00    1.27576   1.27787   44.029
 5435.00    1.28203   1.28340   45.363
 5436.00    1.29800   1.29562   47.246
 5437.00    1.31264   1.31294   48.474
 5438.00    1.34336   1.33178   47.764
 5439.00    1.35498   1.34750   46.165
 5440.00    1.34884   1.35771   45.034
 5441.00    1.35898   1.36102   44.743
 5442.00    1.35682   1.35671   44.843
 5443.00    1.34274   1.34503   45.366
 5444.00    1.32235   1.32669   46.527
 5445.00    1.28613   1.30648   47.834
 5446.00    1.26656   1.29072   48.543
 5447.00    1.28000   1.28517   47.520
 5448.00    1.31825   1.29186   45.860
 5449.00    1.34423   1.30566   44.817
 5450.00    1.34334   1.32003   44.782
 5451.00    1.34537   1.32843   45.428
 5452.00    1.34593   1.32715   46.267
 5453.00    1.33840   1.31748   46.802
 5454.00    1.30687   1.30454   46.871
 5455.00    1.28024   1.29494   46.225
 5456.00    1.29058   1.29488   45.756
 5457.00    1.32756   1.30379   45.508
 5458.00    1.35087   1.31660   45.034
 5459.00    1.34086   1.32686   44.994
 5460.00    1.34280   1.32963   45.479
 5461.00    1.34085   1.32512   45.892
 5462.00    1.33396   1.31729   46.043
 5463.00    1.33845   1.31163   46.336
 5464.00    1.33450   1.31119   46.869
 5465.00    1.34621   1.31592   47.622
 5466.00    1.37186   1.32323   -1.000
 5467.00    1.36169   1.33046   49.095
 5468.00    1.35692   1.33563   48.318
 5469.00    1.37571   1.33742   -1.000
 5470.00    1.36821   1.33579   46.307
 5471.00    1.35893   1.33109   46.810
 5472.00    1.36429   1.32308   -1.000
 5473.00    1.35805   1.31199   -1.000
 5474.00    1.32732   1.29863   46.030
 5475.00    1.31443   1.28487   45.201
 5476.00    1.29081   1.27502   45.041
 5477.00    1.28314   1.27220   45.595
 5478.00    1.31036   1.27698   46.175
 5479.00    1.33561   1.28640   -1.000
 5480.00    1.35509   1.29572   -1.000
 5481.00    1.33790   1.30417   45.903
 5482.00    1.33512   1.31173   45.609
 5483.00    1.34529   1.31922   45.519
 5484.00    1.34587   1.32662   45.622
 5485.00    1.35968   1.33146   45.624
 5486.00    1.35815   1.33260   45.700
 5487.00    1.34236   1.33055   46.062
 5488.00    1.34275   1.32804   46.239
 5489.00    1.34946   1.32728   45.871
 5490.00    1.35329   1.32845   45.556
 5491.00    1.35261   1.33101   46.092
 5492.00    1.35731   1.33316   46.692
 5493.00    1.35499   1.33401   46.592
 5494.00    1.33908   1.33344   46.249
 5495.00    1.35201   1.33117   46.369
 5496.00    1.34678   1.32811   47.015
 5497.00    1.33090   1.32519   47.220
 5498.00    1.33429   1.32264   46.625
 5499.00    1.34173   1.32041   46.001
 5500.00    1.34070   1.31685   45.986
 5501.00    1.32901   1.31212   46.492
 5502.00    1.33116   1.30822   47.417
 5503.00    1.34474   1.30487   -1.000
 5504.00    1.35917   1.30217   -1.000
 5505.00    1.36005   1.29991   -1.000
 5506.00    1.33916   1.29794   -1.000
 5507.00    1.33462   1.29820   45.910
 5508.00    1.35179   1.30019   -1.000
 5509.00    1.36190   1.30235   -1.000
 5510.00    1.35043   1.30293   -1.000
 5511.00    1.34598   1.30058   -1.000
 5512.00    1.34193   1.29688   -1.000
 5513.00    1.33377   1.29480   44.827
 5514.00    1.34497   1.29691   -1.000
 5515.00    1.36387   1.30364   -1.000
 5516.00    1.37406   1.31381   -1.000
 5517.00    1.36978   1.32528   -1.000
 5518.00    1.37696   1.33575   -1.000
 5519.00    1.38217   1.34337   -1.000
 5520.00    1.38375   1.34764   -1.000
 5521.00    1.37586   1.34855   45.725
 5522.00    1.37205   1.34637   45.394
 5523.00    1.37660   1.34090   45.642
 5524.00    1.36602   1.33143   46.029
 5525.00    1.34476   1.31833   46.114
 5526.00    1.33661   1.30339   45.856
 5527.00    1.31372   1.29105   45.549
 5528.00    1.30283   1.28544   45.430
 5529.00    1.31411   1.28877   45.141
 5530.00    1.33831   1.29878   -1.000
 5531.00    1.35453   1.30971   -1.000
 5532.00    1.35107   1.31754   44.681
 5533.00    1.34524   1.32040   45.173
 5534.00    1.33467   1.31985   45.513
 5535.00    1.33534   1.31944   45.522
 5536.00    1.34371   1.32157   45.386
 5537.00    1.35697   1.32625   45.224
 5538.00    1.36702   1.33218   44.867
 5539.00    1.37596   1.33800   44.433
 5540.00    1.38038   1.34208   44.161
 5541.00    1.37154   1.34303   44.196
 5542.00    1.36529   1.34123   44.510
 5543.00    1.35764   1.33801   44.953
 5544.00    1.36101   1.33540   45.373
 5545.00    1.36192   1.33521   45.466
 5546.00    1.36238   1.33774   45.352
 5547.00    1.36954   1.34270   45.228
 5548.00    1.37125   1.34882   45.164
 5549.00    1.37846   1.35391   45.111
 5550.00    1.38785   1.35678   45.116
 5551.00    1.38668   1.35686   45.274
 5552.00    1.37813   1.35424   45.602
 5553.00    1.36941   1.35049   46.031
 5554.00    1.36111   1.34733   46.269
 5555.00    1.34899   1.34595   46.374
 5556.00    1.35546   1.34614   46.449
 5557.00    1.36338   1.34713   46.438
 5558.00    1.36406   1.34809   46.330
 5559.00    1.36451   1.34775   46.323
 5560.00    1.35655   1.34541   46.410
 5561.00    1.35802   1.34118   46.377
 5562.00    1.35633   1.33574   46.438
 5563.00    1.30442   1.33035   46.452
 5564.00    1.07820   1.32580   -1.000
 5565.00    0.10734   1.32227   -1.000
 5566.00   -3.08949   1.31972    0.000
 5567.00   -8.47831   1.31771    0.000
 5568.00  -11.57602   1.31577    0.000
 5569.00   -8.25567   1.31393    0.000
 5570.00   -1.89602   1.31227    0.000
 5571.00    1.17000   1.31085   -1.000
 5572.00    1.35214   1.31001   -1.000
 5573.00    1.30169   1.31108   45.724
 5574.00    1.33885   1.31442   45.803
 5575.00    1.35132   1.31874   46.404
 5576.00    1.35144   1.32397   47.555
 5577.00    1.34677   1.32957   48.713
 5578.00    1.36364   1.33429   49.495
 5579.00    1.38537   1.33766   -1.000
 5580.00    1.38512   1.33922   -1.000
 5581.00    1.36836   1.33882   47.821
 5582.00    1.36087   1.33629   47.389
 5583.00    1.36299   1.33077   47.424
 5584.00    1.35192   1.32115   47.430
 5585.00    1.32568   1.30662   46.934
 5586.00    1.30939   1.28887   46.356
 5587.00    1.29661   1.27273   46.352
 5588.00    1.29318   1.26227   47.012
 5589.00    1.30872   1.26017   -1.000
 5590.00    1.32790   1.26569   -1.000
 5591.00    1.34534   1.27537   -1.000
 5592.00    1.35142   1.28519   -1.000
 5593.00    1.34444   1.29324   -1.000
 5594.00    1.34137   1.29956   -1.000
 5595.00    1.34719   1.30409   -1.000
 5596.00    1.34963   1.30647   -1.000
 5597.00    1.34585   1.30524   -1.000
 5598.00    1.33433   1.30086   44.649
 5599.00    1.32497   1.29518   44.736
 5600.00    1.32708   1.28932   -1.000
 5601.00    1.32891   1.28614   -1.000
 5602.00    1.31808   1.28900   44.685
 5603.00    1.31910   1.29871   45.255
 5604.00    1.34762   1.31427   46.542
 5605.00    1.36979   1.33245   -1.000
 5606.00    1.37960   1.34907   48.314
 5607.00    1.39251   1.36173   47.453
 5608.00    1.39719   1.36950   46.504
 5609.00    1.39710   1.37302   46.153
 5610.00    1.39751   1.37295   46.027
 5611.00    1.40162   1.36871   45.797
 5612.00    1.39442   1.35885   45.775
 5613.00    1.37515   1.34334   46.347
 5614.00    1.33371   1.32539   47.287
 5615.00    1.30546   1.31007   47.623
 5616.00    1.31836   1.30335   47.048
 5617.00    1.34283   1.30558   -1.000
 5618.00    1.36674   1.31376   -1.000
 5619.00    1.37995   1.32417   -1.000
 5620.00    1.39181   1.33237   -1.000
 5621.00    1.39155   1.33594   -1.000
 5622.00    1.38142   1.33468   -1.000
 5623.00    1.36811   1.32979   -1.000
 5624.00    1.35124   1.32494   45.401
 5625.00    1.35020   1.32345   45.703
 5626.00    1.36155   1.32668   -1.000
 5627.00    1.36679   1.33427   46.344
 5628.00    1.36887   1.34369   46.496
 5629.00    1.37404   1.35243   46.453
 5630.00    1.37886   1.35852   46.511
 5631.00    1.37930   1.36083   46.613
 5632.00    1.38102   1.35952   46.516
 5633.00    1.39166   1.35544   -1.000
 5634.00    1.39648   1.34949   -1.000
 5635.00    1.37883   1.34304   -1.000
 5636.00    1.36749   1.33725   45.726
 5637.00    1.36906   1.33276   -1.000
 5638.00    1.37371   1.32985   -1.000
 5639.00    1.37509   1.32810   -1.000
 5640.00    1.37060   1.32696   -1.000
 5641.00    1.36926   1.32696   -1.000
 5642.00    1.36366   1.32845   -1.000
 5643.00    1.35881   1.33101   45.215
 5644.00    1.37206   1.33440   -1.000
 5645.00    1.38308   1.33801   -1.000
 5646.00    1.38038   1.34075   -1.000
 5647.00    1.38465   1.34221   -1.000
 5648.00    1.38536   1.34264   -1.000
 5649.00    1.37925   1.34238   -1.000
 5650.00    1.38716   1.34220   -1.000
 5651.00    1.39197   1.34173   -1.000
 5652.00    1.38334   1.33996   -1.000
 5653.00    1.38088   1.33601   -1.000
 5654.00    1.37946   1.32894   -1.000
 5655.00    1.36525   1.31892   -1.000
 5656.00    1.33907   1.30688   -1.000
 5657.00    1.31964   1.29480   46.399
 5658.00    1.31344   1.28659   46.549
 5659.00    1.31732   1.28444   -1.000
 5660.00    1.33346   1.28726   -1.000
 5661.00    1.35161   1.29353   -1.000
 5662.00    1.34623   1.30140   -1.000
 5663.00    1.33541   1.30955   44.994
 5664.00    1.34963   1.31725   44.824
 5665.00    1.36117   1.32308   -1.000
 5666.00    1.35411   1.32643   44.925
 5667.00    1.34249   1.32798   44.808
 5668.00    1.33877   1.32886   44.923
 5669.00    1.34326   1.33075   45.141
 5670.00    1.35394   1.33456   45.371
 5671.00    1.36445   1.33993   45.806
 5672.00    1.37156   1.34553   46.364
 5673.00    1.37155   1.35020   46.642
 5674.00    1.37362   1.35314   46.491
 5675.00    1.38593   1.35454   46.240
 5676.00    1.38880   1.35484   -1.000
 5677.00    1.38397   1.35375   46.748
 5678.00    1.37889   1.35088   47.071
 5679.00    1.37268   1.34586   46.776
 5680.00    1.36687   1.33854   46.001
 5681.00    1.34856   1.32975   45.395
 5682.00    1.33777   1.32143   45.077
 5683.00    1.34572   1.31531   44.924
 5684.00    1.34983   1.31212   -1.000
 5685.00    1.35398   1.31116   -1.000
 5686.00    1.35945   1.31110   -1.000
 5687.00    1.35301   1.31178   -1.000
 5688.00    1.34412   1.31380   45.936
 5689.00    1.35543   1.31810   -1.000
 5690.00    1.37121   1.32476   -1.000
 5691.00    1.37957   1.33259   -1.000
 5692.00    1.38760   1.33996   -1.000
 5693.00    1.38792   1.34553   -1.000
 5694.00    1.38642   1.34881   -1.000
 5695.00    1.38475   1.34958   -1.000
 5696.00    1.37038   1.34800   47.033
 5697.00    1.36374   1.34415   47.858
 5698.00    1.37221   1.33848   -1.000
 5699.00    1.37434   1.33211   -1.000
 5700.00    1.36831   1.32619   -1.000
 5701.00    1.37066   1.32205   -1.000
 5702.00    1.37509   1.31994   -1.000
 5703.00    1.37858   1.31904   -1.000
 5704.00    1.37541   1.31730   -1.000
 5705.00    1.36315   1.31298   -1.000
 5706.00    1.34863   1.30592   -1.000
 5707.00    1.33520   1.29676   -1.000
 5708.00    1.31380   1.28750   45.087
 5709.00    1.30073   1.28122   44.813
 5710.00    1.29089   1.28014   44.575
 5711.00    1.30272   1.28502   44.440
 5712.00    1.31347   1.29535   44.364
 5713.00    1.32561   1.30861   44.307
 5714.00    1.34959   1.32175   44.365
 5715.00    1.36195   1.33262   44.666
 5716.00    1.36477   1.34092   45.124
 5717.00    1.36842   1.34719   45.523
 5718.00    1.37575   1.35250   45.452
 5719.00    1.38044   1.35771   45.160
 5720.00    1.36982   1.36276   45.170
 5721.00    1.36712   1.36706   45.388
 5722.00    1.37082   1.36998   45.337
 5723.00    1.37846   1.37081   44.952
 5724.00    1.38125   1.36942   44.613
 5725.00    1.37249   1.36596   44.570
 5726.00    1.36731   1.36161   44.632
 5727.00    1.36482   1.35784   44.744
 5728.00    1.36258   1.35535   44.809
 5729.00    1.36467   1.35440   44.885
 5730.00    1.36534   1.35434   44.964
 5731.00    1.36944   1.35514   45.055
 5732.00    1.37020   1.35714   45.005
 5733.00    1.37166   1.36007   44.937
 5734.00    1.38057   1.36341   44.684
 5735.00    1.37417   1.36622   44.407
 5736.00    1.36199   1.36791   44.528
 5737.00    1.36552   1.36846   44.941
 5738.00    1.36989   1.36821   45.191
 5739.00    1.37008   1.36753   45.024
 5740.00    1.37084   1.36663   44.838
 5741.00    1.36802   1.36564   45.074
 5742.00    1.37207   1.36508   45.596
 5743.00    1.37882   1.36512   46.084
 5744.00    1.38395   1.36552   46.187
 5745.00    1.38495   1.36545   45.719
 5746.00    1.38137   1.36454   44.911
 5747.00    1.37275   1.36314   44.299
 5748.00    1.36767   1.36160   44.288
 5749.00    1.36495   1.35977   44.724
 5750.00    1.36711   1.35650   45.303
 5751.00    1.35754   1.35138   45.921
 5752.00    1.34987   1.34571   46.244
 5753.00    1.35275   1.34173   45.897
 5754.00    1.35306   1.34197   45.124
 5755.00    1.35020   1.34663   44.506
 5756.00    1.36054   1.35390   44.285
 5757.00    1.36593   1.36066   44.232
 5758.00    1.35429   1.36411   44.165
 5759.00    1.35496   1.36311   44.218
 5760.00    1.35913   1.35867   44.358
 5761.00    1.34721   1.35328   44.586
 5762.00    1.33595   1.35032   44.861
 5763.00    1.33817   1.35191   45.009
 5764.00    1.34355   1.35770   45.071
 5765.00    1.35015   1.36552   45.006
 5766.00    1.35614   1.37254   44.802
 5767.00    1.35009   1.37697   44.718
 5768.00    1.34359   1.37820   44.828
 5769.00    1.33306   1.37678   45.384
 5770.00    1.31769   1.37373   46.357
 5771.00    1.31964   1.36987   47.062
 5772.00    1.33760   1.36596   47.102
 5773.00    1.36358   1.36279   46.919
 5774.00    1.38052   1.36067   46.747
 5775.00    1.38368   1.35956   46.577
 5776.00    1.38653   1.35857   46.121
 5777.00    1.38869   1.35598   -1.000
 5778.00    1.38162   1.35040   45.116
 5779.00    1.37107   1.34215   45.099
 5780.00    1.36292   1.33265   45.285
 5781.00    1.36430   1.32444   -1.000
 5782.00    1.36584   1.31924   -1.000
 5783.00    1.36848   1.31757   -1.000
 5784.00    1.36798   1.31912   -1.000
 5785.00    1.36054   1.32325   -1.000
 5786.00    1.34819   1.32925   44.491
 5787.00    1.34120   1.33570   44.780
 5788.00    1.35203   1.34104   44.652
 5789.00    1.37794   1.34459   -1.000
 5790.00    1.38251   1.34663   -1.000
 5791.00    1.35373   1.34866   43.335
 5792.00    1.34845   1.35186   43.635
 5793.00    1.35967   1.35615   43.990
 5794.00    1.36103   1.36066   44.346
 5795.00    1.36865   1.36400   44.571
 5796.00    1.38689   1.36545   44.512
 5797.00    1.38513   1.36579   44.347
 5798.00    1.37753   1.36672   44.209
 5799.00    1.37062   1.36882   44.188
 5800.00    1.38222   1.37151   44.154
 5801.00    1.38767   1.37368   44.003
 5802.00    1.36941   1.37400   43.866
 5803.00    1.37321   1.37212   43.924
 5804.00    1.37149   1.36901   44.256
 5805.00    1.37939   1.36638   44.489
 5806.00    1.37863   1.36538   44.316
 5807.00    1.38034   1.36624   44.013
 5808.00    1.38244   1.36843   43.763
 5809.00    1.39705   1.37120   43.545
 5810.00    1.38375   1.37352   43.391
 5811.00    1.38255   1.37449   43.435
 5812.00    1.39197   1.37380   43.583
 5813.00    1.38039   1.37167   43.534
 5814.00    1.38031   1.36873   43.464
 5815.00    1.38357   1.36645   43.385
 5816.00    1.37795   1.36634   43.339
 5817.00    1.37911   1.36885   43.346
 5818.00    1.39157   1.37300   43.426
 5819.00    1.39110   1.37737   43.359
 5820.00    1.39546   1.38085   43.358
 5821.00    1.38741   1.38299   43.307
 5822.00    1.37969   1.38400   43.378
 5823.00    1.37538   1.38442   43.652
 5824.00    1.38705   1.38463   43.748
 5825.00    1.39842   1.38496   43.620
 5826.00    1.40205   1.38549   43.526
 5827.00    1.39908   1.38617   43.647
 5828.00    1.38299   1.38674   43.754
 5829.00    1.38096   1.38705   43.635
 5830.00    1.39806   1.38689   43.324
 5831.00    1.39013   1.38606   43.088
 5832.00    1.37558   1.38456   43.079
 5833.00    1.38259   1.38274   43.215
 5834.00    1.39240   1.38122   43.383
 5835.00    1.38470   1.38062   43.666
 5836.00    1.38099   1.38115   43.890
 5837.00    1.38522   1.38240   44.107
 5838.00    1.39086   1.38397   44.077
 5839.00    1.39777   1.38558   44.138
 5840.00    1.40247   1.38690   44.380
 5841.00    1.39436   1.38748   44.659
 5842.00    1.37732   1.38702   45.093
 5843.00    1.39373   1.38538   45.324
 5844.00    1.40705   1.38258   45.408
 5845.00    1.39658   1.37898   45.457
 5846.00    1.38119   1.37538   45.904
 5847.00    1.38903   1.37246   46.336
 5848.00    1.40458   1.37016   -1.000
 5849.00    1.39839   1.36757   -1.000
 5850.00    1.40441   1.36380   -1.000
 5851.00    1.40982   1.35836   -1.000
 5852.00    1.39713   1.35162   -1.000
 5853.00    1.38547   1.34434   -1.000
 5854.00    1.37973   1.33692   -1.000
 5855.00    1.36224   1.32937   -1.000
 5856.00    1.35309   1.32212   -1.000
 5857.00    1.32802   1.31720   45.137
 5858.00    1.32744   1.31652   44.717
 5859.00    1.36171   1.32012   -1.000
 5860.00    1.38614   1.32691   -1.000
 5861.00    1.37919   1.33489   -1.000
 5862.00    1.37419   1.34219   -1.000
 5863.00    1.37085   1.34769   44.253
 5864.00    1.37516   1.35072   44.187
 5865.00    1.37915   1.35173   44.314
 5866.00    1.36682   1.35214   44.506
 5867.00    1.36273   1.35327   44.572
 5868.00    1.38965   1.35596   -1.000
 5869.00    1.40506   1.35990   -1.000
 5870.00    1.39599   1.36392   -1.000
 5871.00    1.39714   1.36672   45.087
 5872.00    1.40275   1.36769   -1.000
 5873.00    1.39083   1.36690   45.286
 5874.00    1.38760   1.36489   45.328
 5875.00    1.39514   1.36211   -1.000
 5876.00    1.34719   1.35895   46.040
 5877.00    1.19887   1.35541   -1.000
 5878.00    0.84124   1.35150   -1.000
 5879.00    0.33842   1.34731   -1.000
 5880.00    0.09069   1.34304   -1.000
 5881.00    0.34706   1.33853   -1.000
 5882.00    0.86011   1.33341   -1.000
 5883.00    1.14519   1.32706   -1.000
 5884.00    1.02175   1.31811   -1.000
 5885.00    0.74323   1.30385   -1.000
 5886.00    0.61251   1.28090   -1.000
 5887.00    0.75432   1.24824   -1.000
 5888.00    1.02757   1.21041   -1.000
 5889.00    1.22228   1.17682   -1.000
 5890.00    1.27890   1.15706   -1.000
 5891.00    1.27625   1.15219   -1.000
 5892.00    1.30814   1.15658   -1.000
 5893.00    1.32727   1.16236   -1.000
 5894.00    1.30746   1.16500   -1.000
 5895.00    1.28711   1.16664   -1.000
 5896.00    1.28889   1.17338   -1.000
 5897.00    1.31700   1.18936   -1.000
 5898.00    1.34613   1.21318   -1.000
 5899.00    1.35357   1.24096   -1.000
 5900.00    1.35899   1.26805   -1.000
 5901.00    1.36643   1.29063   -1.000
 5902.00    1.37114   1.30718   -1.000
 5903.00    1.38253   1.31843   -1.000
 5904.00    1.36526   1.32573   -1.000
 5905.00    1.34612   1.33063   46.615
 5906.00    1.34471   1.33436   46.327
 5907.00    1.38423   1.33755   -1.000
 5908.00    1.39668   1.34015   -1.000
 5909.00    1.37681   1.34173   -1.000
 5910.00    1.37115   1.34159   45.693
 5911.00    1.37378   1.33911   -1.000
 5912.00    1.36244   1.33428   45.771
 5913.00    1.34862   1.32846   45.564
 5914.00    1.34444   1.32360   45.428
 5915.00    1.35418   1.32122   -1.000
 5916.00    1.36490   1.32195   -1.000
 5917.00    1.35799   1.32535   -1.000
 5918.00    1.37177   1.33010   -1.000
 5919.00    1.36643   1.33458   -1.000
 5920.00    1.37870   1.33789   -1.000
 5921.00    1.39400   1.33988   -1.000
 5922.00    1.35885   1.34116   45.376
 5923.00    1.34220   1.34236   45.770
 5924.00    1.36140   1.34374   46.077
 5925.00    1.40344   1.34476   -1.000
 5926.00    1.38641   1.34445   -1.000
 5927.00    1.39388   1.34227   -1.000
 5928.00    1.38579   1.33882   -1.000
 5929.00    1.37242   1.33558   -1.000
 5930.00    1.35330   1.33397   45.961
 5931.00    1.34773   1.33429   46.178
 5932.00    1.36341   1.33566   -1.000
 5933.00    1.35691   1.33740   45.815
 5934.00    1.35541   1.33950   45.551
 5935.00    1.35217   1.34197   45.383
 5936.00    1.35735   1.34443   45.554
 5937.00    1.35973   1.34624   46.000
 5938.00    1.36343   1.34666   46.495
 5939.00    1.35484   1.34534   46.538
 5940.00    1.36775   1.34285   46.259
 5941.00    1.37594   1.34061   -1.000
 5942.00    1.37806   1.33954   -1.000
 5943.00    1.38372   1.33977   -1.000
 5944.00    1.39271   1.34051   -1.000
 5945.00    1.39386   1.34072   -1.000
 5946.00    1.40035   1.33965   -1.000
 5947.00    1.38605   1.33760   -1.000
 5948.00    1.37432   1.33557   -1.000
 5949.00    1.36791   1.33434   -1.000
 5950.00    1.36194   1.33387   45.171
 5951.00    1.35407   1.33361   45.034
 5952.00    1.35769   1.33345   45.000
 5953.00    1.36085   1.33350   45.131
 5954.00    1.35379   1.33336   45.403
 5955.00    1.34572   1.33293   45.534
 5956.00    1.34230   1.33298   45.702
 5957.00    1.34284   1.33424   45.543
 5958.00    1.33717   1.33706   45.165
 5959.00    1.35464   1.34119   45.105
 5960.00    1.35799   1.34577   45.099
 5961.00    1.36815   1.34967   44.984
 5962.00    1.37577   1.35197   44.954
 5963.00    1.36998   1.35234   45.252
 5964.00    1.36662   1.35122   45.624
 5965.00    1.36599   1.34972   45.968
 5966.00    1.37588   1.34883   46.289
 5967.00    1.37009   1.34914   46.461
 5968.00    1.37467   1.35066   46.178
 5969.00    1.38547   1.35304   -1.000
 5970.00    1.38140   1.35537   45.649
 5971.00    1.38392   1.35665   45.811
 5972.00    1.38198   1.35604   46.227
 5973.00    1.38658   1.35311   -1.000
 5974.00    1.37205   1.34822   46.804
 5975.00    1.36311   1.34264   46.559
 5976.00    1.36464   1.33809   46.038
 5977.00    1.35149   1.33587   45.810
 5978.00    1.35120   1.33618   45.665
 5979.00    1.36682   1.33800   -1.000
 5980.00    1.36203   1.33942   45.569
 5981.00    1.36889   1.33880   -1.000
 5982.00    1.37984   1.33580   -1.000
 5983.00    1.35462   1.33178   44.981
 5984.00    1.34241   1.32876   44.929
 5985.00    1.35326   1.32817   45.307
 5986.00    1.35894   1.33013   -1.000
 5987.00    1.36259   1.33370   -1.000
 5988.00    1.35440   1.33755   45.847
 5989.00    1.36427   1.34066   45.749
 5990.00    1.37749   1.34303   -1.000
 5991.00    1.37872   1.34526   -1.000
 5992.00    1.37204   1.34780   46.246
 5993.00    1.37967   1.35002   -1.000
 5994.00    1.37863   1.35097   -1.000
 5995.00    1.36806   1.35024   46.158
 5996.00    1.37568   1.34816   -1.000
 5997.00    1.36208   1.34568   46.989
 5998.00    1.37430   1.34358   -1.000
 5999.00    1.37292   1.34217   -1.000
 6000.00    1.36497   1.34107   45.840
 6001.00    1.35526   1.33984   45.970
 6002.00    1.35110   1.33838   46.353
 6003.00    1.35443   1.33676   46.521
 6004.00    1.36723   1.33467   -1.000
 6005.00    1.37117   1.33170   -1.000
 6006.00    1.35603   1.32825   -1.000
 6007.00    1.34291   1.32572   46.569
 6008.00    1.35344   1.32535   -1.000
 6009.00    1.35019   1.32719   46.657
 6010.00    1.36186   1.32992   -1.000
 6011.00    1.36713   1.33206   -1.000
 6012.00    1.36533   1.33293   -1.000
 6013.00    1.35977   1.33257   -1.000
 6014.00    1.36956   1.33150   -1.000
 6015.00    1.37366   1.33016   -1.000
 6016.00    1.36034   1.32884   -1.000
 6017.00    1.35680   1.32727   -1.000
 6018.00    1.35450   1.32515   -1.000
 6019.00    1.35017   1.32272   -1.000
 6020.00    1.34570   1.32088   45.301
 6021.00    1.34175   1.32043   45.393
 6022.00    1.35202   1.32153   -1.000
 6023.00    1.34014   1.32429   45.061
 6024.00    1.33405   1.32867   44.975
 6025.00    1.35038   1.33407   44.957
 6026.00    1.35437   1.33970   44.881
 6027.00    1.35886   1.34524   44.985
 6028.00    1.36002   1.35036   45.244
 6029.00    1.34583   1.35467   45.315
 6030.00    1.36016   1.35808   45.434
 6031.00    1.36735   1.36082   45.304
 6032.00    1.37089   1.36308   45.227
 6033.00    1.37036   1.36483   44.944
 6034.00    1.36888   1.36601   44.636
 6035.00    1.37019   1.36644   44.717
 6036.00    1.36705   1.36601   44.701
 6037.00    1.36743   1.36454   44.638
 6038.00    1.35885   1.36215   44.720
 6039.00    1.36427   1.35927   44.881
 6040.00    1.37673   1.35665   44.960
 6041.00    1.36683   1.35503   45.003
 6042.00    1.35756   1.35489   45.115
 6043.00    1.35066   1.35625   45.304
 6044.00    1.34614   1.35864   45.455
 6045.00    1.36629   1.36153   45.705
 6046.00    1.38030   1.36451   45.783
 6047.00    1.37823   1.36710   45.646
 6048.00    1.38657   1.36890   45.387
 6049.00    1.36371   1.36966   45.214
 6050.00    1.36078   1.36922   45.316
 6051.00    1.36665   1.36729   45.528
 6052.00    1.36492   1.36391   46.307
 6053.00    1.34810   1.35963   46.722
 6054.00    1.24608   1.35539   -1.000
 6055.00    1.17563   1.35230   -1.000
 6056.00    0.91899   1.35119   -1.000
 6057.00    0.69262   1.35208   -1.000
 6058.00    1.94262   1.35411   -1.000
 6059.00    1.50048   1.35598   -1.000
 6060.00    1.25418   1.35628   43.905
 6061.00    1.11025   1.35412   -1.000
 6062.00    1.01546   1.34949   -1.000
 6063.00    0.66150   1.34355   -1.000
 6064.00    1.29190   1.33857   44.925
 6065.00    1.34574   1.33692   45.112
 6066.00    1.33365   1.33933   45.361
 6067.00    1.34912   1.34493   45.644
 6068.00    1.36553   1.35204   45.995
 6069.00    1.37488   1.35889   46.204
 6070.00    1.37173   1.36432   46.204
 6071.00    1.36893   1.36793   46.275
 6072.00    1.37397   1.36993   46.386
 6073.00    1.38039   1.37039   46.357
 6074.00    1.37374   1.36922   46.318
 6075.00    1.36454   1.36638   46.246
 6076.00    1.36812   1.36204   46.088
 6077.00    1.36576   1.35690   45.966
 6078.00    1.35946   1.35207   46.138
 6079.00    1.36615   1.34814   46.416
 6080.00    1.36204   1.34508   46.544
 6081.00    1.36546   1.34275   -1.000
 6082.00    1.36716   1.34110   -1.000
 6083.00    1.35710   1.34014   45.888
 6084.00    1.35375   1.34002   45.638
 6085.00    1.35520   1.34094   45.505
 6086.00    1.34739   1.34254   45.571
 6087.00    1.34397   1.34395   45.670
 6088.00    1.35619   1.34451   45.681
 6089.00    1.36127   1.34417   45.830
 6090.00    1.36368   1.34351   46.600
 6091.00    1.35928   1.34331   47.699
 6092.00    1.34932   1.34423   48.102
 6093.00    1.37168   1.34643   -1.000
 6094.00    1.38109   1.34942   -1.000
 6095.00    1.36277   1.35247   46.056
 6096.00    1.36246   1.35464   46.046
 6097.00    1.36978   1.35492   46.233
 6098.00    1.37360   1.35209   -1.000
 6099.00    1.36666   1.34521   46.242
 6100.00    1.34820   1.33481   46.103
 6101.00    1.32523   1.32343   45.947
 6102.00    1.30799   1.31518   45.890
 6103.00    1.30880   1.31293   45.656
 6104.00    1.32548   1.31679   45.651
 6105.00    1.34446   1.32487   45.894
 6106.00    1.34721   1.33449   46.136
 6107.00    1.34182   1.34346   46.222
 6108.00    1.34597   1.35042   46.605
 6109.00    1.35085   1.35499   47.307
 6110.00    1.36353   1.35765   47.857
 6111.00    1.37735   1.35913   48.168
 6112.00    1.38556   1.36001   -1.000
 6113.00    1.38660   1.36047   -1.000
 6114.00    1.37491   1.36044   46.709
 6115.00    1.36834   1.35971   46.842
 6116.00    1.36264   1.35789   47.030
 6117.00    1.35440   1.35410   46.919
 6118.00    1.35515   1.34745   46.725
 6119.00    1.35763   1.33779   46.294
 6120.00    1.34393   1.32650   45.967
 6121.00    1.32588   1.31659   45.966
 6122.00    1.31125   1.31087   46.185
 6123.00    1.32311   1.31062   46.860
 6124.00    1.33814   1.31495   48.094
 6125.00    1.35002   1.32168   -1.000
 6126.00    1.36377   1.32852   -1.000
 6127.00    1.36639   1.33433   -1.000
 6128.00    1.36196   1.33945   -1.000
 6129.00    1.36866   1.34434   -1.000
 6130.00    1.36765   1.34877   47.130
 6131.00    1.35469   1.35151   47.259
 6132.00    1.34884   1.35041   47.130
 6133.00    1.34946   1.34348   46.569
 6134.00    1.35278   1.33050   -1.000
 6135.00    1.32985   1.31423   46.262
 6136.00    1.29270   1.29970   46.526
 6137.00    1.27437   1.29087   46.843
 6138.00    1.28318   1.28853   47.162
 6139.00    1.30232   1.29167   47.331
 6140.00    1.31753   1.29864   47.244
 6141.00    1.32446   1.30792   46.997
 6142.00    1.32504   1.31798   46.756
 6143.00    1.33827   1.32716   46.898
 6144.00    1.35289   1.33413   47.278
 6145.00    1.35165   1.33795   47.421
 6146.00    1.33747   1.33850   47.500
 6147.00    1.33437   1.33675   47.835
 6148.00    1.34773   1.33430   48.527
 6149.00    1.35166   1.33262   -1.000
 6150.00    1.34763   1.33229   -1.000
 6151.00    1.34537   1.33283   52.330
 6152.00    1.35539   1.33302   -1.000
 6153.00    1.37269   1.33195   -1.000
 6154.00    1.37074   1.32949   -1.000
 6155.00    1.36025   1.32586   -1.000
 6156.00    1.34962   1.32100   -1.000
 6157.00    1.34366   1.31413   -1.000
 6158.00    1.34341   1.30388   -1.000
 6159.00    1.32757   1.28956   -1.000
 6160.00    1.29886   1.27274   -1.000
 6161.00    1.28004   1.25735   -1.000
 6162.00    1.28698   1.24773   -1.000
 6163.00    1.29104   1.24579   -1.000
 6164.00    1.29105   1.25053   -1.000
 6165.00    1.30365   1.25852   -1.000
 6166.00    1.30639   1.26567   -1.000
 6167.00    1.30015   1.26945   -1.000
 6168.00    1.30173   1.27074   -1.000
 6169.00    1.29610   1.27242   -1.000
 6170.00    1.29452   1.27655   47.635
 6171.00    1.29703   1.28365   47.450
 6172.00    1.30669   1.29262   47.434
 6173.00    1.31616   1.30174   47.579
 6174.00    1.31995   1.30941   47.845
 6175.00    1.33613   1.31512   -1.000
 6176.00    1.34641   1.31928   -1.000
 6177.00    1.33252   1.32246   49.322
 6178.00    1.32525   1.32518   49.738
 6179.00    1.33037   1.32785   50.221
 6180.00    1.35180   1.33062   -1.000
 6181.00    1.35889   1.33313   -1.000
 6182.00    1.35485   1.33469   -1.000
 6183.00    1.35981   1.33473   -1.000
 6184.00    1.35641   1.33281   -1.000
 6185.00    1.35377   1.32894   -1.000
 6186.00    1.35230   1.32343   -1.000
 6187.00    1.33749   1.31663   -1.000
 6188.00    1.32100   1.30878   48.999
 6189.00    1.32118   1.30072   -1.000
 6190.00    1.31365   1.29460   48.871
 6191.00    1.29322   1.29266   48.283
 6192.00    1.27854   1.29544   47.896
 6193.00    1.29558   1.30209   47.871
 6194.00    1.32953   1.31059   47.838
 6195.00    1.34226   1.31854   -1.000
 6196.00    1.35607   1.32396   -1.000
 6197.00    1.36459   1.32616   -1.000
 6198.00    1.34931   1.32604   -1.000
 6199.00    1.33572   1.32548   48.425
 6200.00    1.33381   1.32604   48.854
 6201.00    1.34152   1.32844   49.276
 6202.00    1.35728   1.33246   -1.000
 6203.00    1.35461   1.33724   -1.000
 6204.00    1.32863   1.34171   50.857
 6205.00    1.32068   1.34512   50.556
 6206.00    1.31483   1.34701   50.043
 6207.00    1.29048   1.34716   50.164
 6208.00    1.28947   1.34527   50.301
 6209.00    1.30481   1.34102   49.963
 6210.00    1.29254   1.33429   49.935
 6211.00    1.27805   1.32553   52.014
 6212.00    1.29501   1.31598   53.256
 6213.00    1.33267   1.30731   -1.000
 6214.00    1.38323   1.30077   -1.000
 6215.00    1.37715   1.29684   -1.000
 6216.00    1.33990   1.29488   -1.000
 6217.00    1.35016   1.29413   -1.000
 6218.00    1.35200   1.29421   -1.000
 6219.00    1.34929   1.29525   -1.000
 6220.00    1.35593   1.29746   -1.000
 6221.00    1.36656   1.30050   -1.000
 6222.00    1.36752   1.30390   -1.000
 6223.00    1.37101   1.30688   -1.000
 6224.00    1.35444   1.30865   -1.000
 6225.00    1.32885   1.30841   -1.000
 6226.00    1.33981   1.30536   -1.000
 6227.00    1.35231   1.29918   -1.000
 6228.00    1.34046   1.29066   -1.000
 6229.00    1.32663   1.28188   -1.000
 6230.00    1.31952   1.27565   -1.000
 6231.00    1.32735   1.27400   -1.000
 6232.00    1.33828   1.27729   -1.000
 6233.00    1.35836   1.28373   -1.000
 6234.00    1.39190   1.29057   -1.000
 6235.00    1.40597   1.29513   -1.000
 6236.00    1.40063   1.29628   -1.000
 6237.00    1.39464   1.29435   -1.000
 6238.00    1.38394   1.29068   -1.000
 6239.00    1.37388   1.28652   -1.000
 6240.00    1.37908   1.28238   -1.000
 6241.00    1.38142   1.27808   -1.000
 6242.00    1.36794   1.27348   -1.000
 6243.00    1.36224   1.26887   -1.000
 6244.00    1.35839   1.26532   -1.000
 6245.00    1.34579   1.26435   -1.000
 6246.00    1.33572   1.26681   -1.000
 6247.00    1.33335   1.27210   -1.000
 6248.00    1.35478   1.27808   -1.000
 6249.00    1.37942   1.28209   -1.000
 6250.00    1.38529   1.28234   -1.000
 6251.00    1.37706   1.27881   -1.000
 6252.00    1.36228   1.27302   -1.000
 6253.00    1.34945   1.26693   -1.000
 6254.00    1.34351   1.26206   -1.000
 6255.00    1.33975   1.25907   -1.000
 6256.00    1.33647   1.25822   -1.000
 6257.00    1.34209   1.25965   -1.000
 6258.00    1.35172   1.26354   -1.000
 6259.00    1.35751   1.26980   -1.000
 6260.00    1.36914   1.27783   -1.000
 6261.00    1.38899   1.28641   -1.000
 6262.00    1.38945   1.29402   -1.000
 6263.00    1.37540   1.29979   -1.000
 6264.00    1.36197   1.30370   -1.000
 6265.00    1.33949   1.30618   -1.000
 6266.00    1.31953   1.30759   52.420
 6267.00    1.31145   1.30803   53.546
 6268.00    1.31414   1.30773   54.102
 6269.00    1.33026   1.30707   -1.000
 6270.00    1.33809   1.30623   -1.000
 6271.00    1.32703   1.30502   -1.000
 6272.00    1.32561   1.30257   -1.000
 6273.00    1.33957   1.29811   -1.000
 6274.00    1.34359   1.29128   -1.000
 6275.00    1.34442   1.28255   -1.000
 6276.00    1.34819   1.27323   -1.000
 6277.00    1.34436   1.26486   -1.000
 6278.00    1.35174   1.25917   -1.000
 6279.00    1.36146   1.25751   -1.000
 6280.00    1.36584   1.26019   -1.000
 6281.00    1.37536   1.26675   -1.000
 6282.00    1.39107   1.27579   -1.000
 6283.00    1.38783   1.28561   -1.000
 6284.00    1.32505   1.29471   -1.000
 6285.00    1.16814   1.30202   -1.000
 6286.00    0.81350   1.30694   -1.000
 6287.00    0.39277   1.30914   -1.000
 6288.00   -0.40562   1.30883    0.000
 6289.00   -2.00065   1.30674    0.000
 6290.00   -3.06286   1.30378    0.000
 6291.00   -0.87805   1.30079    0.000
 6292.00    2.20070   1.29816   -1.000
 6293.00    2.61480   1.29561   -1.000
 6294.00    1.83016   1.29260   -1.000
 6295.00    1.49603   1.28886   -1.000
 6296.00    1.42066   1.28466   -1.000
 6297.00    1.38256   1.28046   -1.000
 6298.00    1.37542   1.27665   -1.000
 6299.00    1.39864   1.27362   -1.000
 6300.00    1.41033   1.27217   -1.000
 6301.00    1.40217   1.27329   -1.000
 6302.00    1.39987   1.27731   -1.000
 6303.00    1.40320   1.28374   -1.000
 6304.00    1.41168   1.29148   -1.000
 6305.00    1.42567   1.29913   -1.000
 6306.00    1.42819   1.30537   -1.000
 6307.00    1.43048   1.30950   -1.000
 6308.00    1.42573   1.31143   -1.000
 6309.00    1.42393   1.31142   -1.000
 6310.00    1.42100   1.30988   -1.000
 6311.00    1.41243   1.30697   -1.000
 6312.00    1.41775   1.30283   -1.000
 6313.00    1.41996   1.29786   -1.000
 6314.00    1.41470   1.29253   -1.000
 6315.00    1.41104   1.28757   -1.000
 6316.00    1.40681   1.28396   -1.000
 6317.00    1.40267   1.28283   -1.000
 6318.00    1.39986   1.28475   -1.000
 6319.00    1.40038   1.28930   -1.000
 6320.00    1.40800   1.29554   -1.000
 6321.00    1.41818   1.30262   -1.000
 6322.00    1.42839   1.30969   -1.000
 6323.00    1.43898   1.31590   -1.000
 6324.00    1.44223   1.32080   -1.000
 6325.00    1.41591   1.32414   -1.000
 6326.00    1.41016   1.32604   -1.000
 6327.00    1.43876   1.32682   -1.000
 6328.00    1.44534   1.32683   -1.000
 6329.00    1.43673   1.32635   -1.000
 6330.00    1.44090   1.32536   -1.000
 6331.00    1.43895   1.32324   -1.000
 6332.00    1.42819   1.31929   -1.000
 6333.00    1.42117   1.31345   -1.000
 6334.00    1.41201   1.30684   -1.000
 6335.00    1.40209   1.30135   -1.000
 6336.00    1.39937   1.29856   -1.000
 6337.00    1.40200   1.29917   -1.000
 6338.00    1.40902   1.30275   -1.000
 6339.00    1.42248   1.30773   -1.000
 6340.00    1.42923   1.31219   -1.000
 6341.00    1.43397   1.31479   -1.000
 6342.00    1.43946   1.31521   -1.000
 6343.00    1.43025   1.31414   -1.000
 6344.00    1.41667   1.31284   -1.000
 6345.00    1.41454   1.31271   -1.000
 6346.00    1.41832   1.31475   -1.000
 6347.00    1.41593   1.31887   -1.000
 6348.00    1.38424   1.32411   -1.000
 6349.00    1.30187   1.32910   49.734
 6350.00    1.14808   1.33245   -1.000
 6351.00    0.85335   1.33334   -1.000
 6352.00    0.41319   1.33176   -1.000
 6353.00    0.05775   1.32839   -1.000
 6354.00    0.40721   1.32413   -1.000
 6355.00    1.23152   1.31952   48.456
 6356.00    1.55629   1.31482   -1.000
 6357.00    1.49434   1.31027   -1.000
 6358.00    1.42342   1.30596   -1.000
 6359.00    1.39659   1.30202   -1.000
 6360.00    1.39444   1.29884   -1.000
 6361.00    1.38446   1.29694   -1.000
 6362.00    1.38492   1.29676   -1.000
 6363.00    1.40212   1.29843   -1.000
 6364.00    1.40574   1.30166   -1.000
 6365.00    1.40123   1.30582   -1.000
 6366.00    1.39541   1.30997   -1.000
 6367.00    1.39229   1.31323   -1.000
 6368.00    1.38580   1.31537   -1.000
 6369.00    1.37760   1.31683   -1.000
 6370.00    1.37230   1.31837   -1.000
 6371.00    1.37843   1.32049   -1.000
 6372.00    1.38331   1.32311   -1.000
 6373.00    1.38541   1.32559   -1.000
 6374.00    1.38393   1.32719   -1.000
 6375.00    1.37206   1.32735   -1.000
 6376.00    1.36262   1.32610   -1.000
 6377.00    1.35957   1.32385   -1.000
 6378.00    1.35696   1.32126   -1.000
 6379.00    1.35195   1.31887   -1.000
 6380.00    1.33774   1.31708   -1.000
 6381.00    1.33404   1.31608   -1.000
 6382.00    1.32514   1.31602   51.632
 6383.00    1.31336   1.31697   51.580
 6384.00    1.30577   1.31879   50.909
 6385.00    1.30603   1.32100   50.681
 6386.00    1.30186   1.32300   50.936
 6387.00    1.29363   1.32412   51.633
 6388.00    1.28820   1.32369   52.760
 6389.00    1.29423   1.32117   53.314
 6390.00    1.28405   1.31662   52.916
 6391.00    1.25573   1.31113   52.101
 6392.00    1.23336   1.30645   51.734
 6393.00    1.21449   1.30409   51.819
 6394.00    1.20001   1.30430   52.085
 6395.00    1.21643   1.30589   52.762
 6396.00    1.21983   1.30693   53.584
 6397.00    1.19308   1.30617   -1.000
 6398.00    1.17983   1.30414   -1.000
 6399.00    1.15429   1.30258   -1.000
 6400.00    1.13426   1.30319   -1.000
 6401.00    1.13932   1.30644   -1.000
 6402.00    1.14823   1.31132   -1.000
 6403.00    1.13797   1.31578   -1.000
 6404.00    1.12441   1.31803   -1.000
 6405.00    1.12075   1.31750   -1.000
 6406.00    1.11443   1.31502   -1.000
 6407.00    1.09709   1.31198   -1.000
 6408.00    1.07746   1.30933   -1.000
 6409.00    1.05380   1.30759   -1.000
 6410.00    1.04452   1.30698   -1.000
 6411.00    1.04245   1.30742   -1.000
 6412.00    1.04199   1.30859   -1.000
 6413.00    1.02509   1.31015   -1.000
 6414.00    1.00088   1.31174   -1.000
 6415.00    1.00041   1.31275   -1.000
 6416.00    0.99113   1.31258   -1.000
 6417.00    0.97642   1.31100   -1.000
 6418.00    0.97137   1.30852   -1.000
 6419.00    0.94076   1.30646   -1.000
 6420.00    0.19402   1.30647   -1.000
 6421.00    0.00000   1.30939   -2.000
 6422.00    0.00000   1.31491   -2.000
 6423.00    0.00000   1.32194   -2.000
 6424.00    0.00000   1.32873   -2.000
 6425.00    0.00000   1.33361   -2.000
 6426.00    0.00000   1.33523   -2.000
 6427.00    0.00000   1.33299   -2.000
 6428.00    0.00000   1.32753   -2.000
