###################################################################
## OUTPUT of StarlightChains_v04.for    [Cid@UFSC - 01/Apr/2007] ##
###################################################################

## Some input info
NGC3201_b_1.cxt                          [arq_obs]
Base.BC03.N                              [arq_base]
NGC3201_b_1.msk                          [arq_masks]
StCv04.C99.config                        [arq_config]
   45                                    [N_base]
    0                                    [N_YAV_components = # of components with extra extinction!]
    0                                    [i_FitPowerLaw (1/0 = Yes/No)]
-9.99                                    [alpha_PowerLaw]
CCM                                      [red_law_option]
 1.458241                                [q_norm = A(l_norm)/A(V)]

## (Re)Sampling Parameters
 3359.00                                 [l_ini (A)]
 6428.00                                 [l_fin (A)]
    1.00                                 [dl    (A)]     (OBS: dl_cushion =    50.00 A)

## Normalization info
 4020.00                                 [l_norm (A) - for base]
 4010.00                                 [llow_norm (A) - window for f_obs]
 4060.00                                 [lupp_norm (A) - window for f_obs]
1.147975E-14                             [fobs_norm (in input units)]

## S/N
 4730.00                                 [llow_SN (A) - window for S/N]
 4780.00                                 [lupp_SN (A) - window for S/N]
  72.514                                 [S/N in S/N window]
  57.541                                 [S/N in norm. window]
  54.776                                 [S/N_err in S/N window]
  43.465                                 [S/N_err in norm. window]
  1.0000                                 [fscale_chi2]

## etc...
  2147483639                             [idum_orig]
  3058                                   [NOl_eff]
  1093                                   [Nl_eff]
  1965    NSIGMA                         [Ntot_cliped & clip_method]
   973280                                [Nglobal_steps]
   7                                     [N_chains]
   5                                     [NEX0s_base = N_base in EX0s-fits]
 0   0   1      371   2.0   8.117E+02    [Clip-Bug, RC-Crash & Burn-In warning-flags, n_censored_weights, wei_nsig_threshold & wei_limit]
    20     19.927     19.911      0.016  [idt_all, wdt_TotTime, wdt_UsrTime & wdt_SysTime (sec)]

## Synthesis Results - Best model ##

 2.12547E+00                             [chi2/Nl_eff]
     1.82697                             [adev (%)]

   106.07295                             [sum-of-x (%)]
 4.16513E-14                             [Flux_tot (units of input spectrum!)]
 2.85985E-10                             [Mini_tot (???)]
 1.56905E-10                             [Mcor_tot (???)]

 -11.59                                  [v0_min  (km/s)]
  85.64                                  [vd_min  (km/s)]
 0.9156                                  [AV_min  (mag)]
 0.0000                                  [YAV_min (mag)]

# j     x_j(%)      Mini_j(%)     Mcor_j(%)     age_j(yr)     Z_j      (L/M)_j    YAV?  Mstars   component_j        a/Fe...       SSP_chi2r SSP_adev(%)   SSP_AV   SSP_x(%)
  1      0.0000     0.0000E+00    0.0000E+00    1.000000E+06  0.00400  1.114E-02    0   1.0000   age020_m42            0.0000     4.5621E+02    17.5539   4.0000    75.5335
  2     23.2733     7.8456E-02    1.4298E-01    3.160000E+06  0.00400  4.073E-02    0   0.9999   age045_m42            0.0000     6.3294E+01     4.9986   3.3541    93.0220
  3      0.0000     0.0000E+00    0.0000E+00    5.010000E+06  0.00400  2.534E-02    0   0.9488   age055_m42            0.0000     1.3279E+02     7.5349   3.9689    85.5095
  4      0.0000     0.0000E+00    0.0000E+00    1.000000E+07  0.00400  1.271E-02    0   0.8862   age070_m42            0.0000     1.0256E+02     7.1257   3.1404    88.5949
  5      0.0000     0.0000E+00    0.0000E+00    2.512000E+07  0.00400  5.070E-03    0   0.8174   age090_m42            0.0000     9.2812E+01     6.3983   2.9727    90.7006
  6      0.0000     0.0000E+00    0.0000E+00    4.000000E+07  0.00400  3.505E-03    0   0.7851   age104_m42            0.0000     7.1674E+01     4.8050   2.5433    94.7574
  7     10.4516     6.3273E-01    8.3116E-01    1.015200E+08  0.00400  2.268E-03    0   0.7207   age116_m42            0.0000     5.5556E+02    11.3824   1.7302   107.4419
  8      0.0000     0.0000E+00    0.0000E+00    2.861200E+08  0.00400  1.079E-03    0   0.6613   age125_m42            0.0000     5.2702E+02    11.9274   1.1148   112.2936
  9      0.0000     0.0000E+00    0.0000E+00    6.405400E+08  0.00400  5.077E-04    0   0.6197   age132_m42            0.0000     5.4824E+02    13.0514   0.6720   117.6409
 10      0.0000     0.0000E+00    0.0000E+00    9.047900E+08  0.00400  3.535E-04    0   0.6024   age135_m42            0.0000     3.1066E+02    10.1263   0.5930   116.8827
 11      0.0000     0.0000E+00    0.0000E+00    1.434000E+09  0.00400  1.910E-04    0   0.5716   age139_m42            0.0000     8.2703E+01     6.5909   0.1643   117.2166
 12     70.1938     9.8165E+01    9.7745E+01    2.500000E+09  0.00400  9.818E-05    0   0.5463   age150_m42            0.0000     3.6169E+01     4.9447   0.1035   112.3276
 13      0.0002     6.0825E-04    5.7960E-04    5.000000E+09  0.00400  4.718E-05    0   0.5228   age161_m42            0.0000     1.0763E+02     5.2629   0.0000   108.3653
 14      0.0000     0.0000E+00    0.0000E+00    1.100000E+10  0.00400  2.205E-05    0   0.4980   age185_m42            0.0000     2.8605E+02     8.1456  -0.2211   107.6151
 15      0.0000     0.0000E+00    0.0000E+00    1.300000E+10  0.00400  1.883E-05    0   0.4927   age193_m42            0.0000     3.2307E+02     8.4737  -0.2322   107.6092
 16      0.0000     0.0000E+00    0.0000E+00    1.000000E+06  0.02000  1.989E-02    0   1.0000   age020_m62            0.0000     4.4249E+02    16.7919   4.0000    76.5665
 17      0.0000     0.0000E+00    0.0000E+00    3.160000E+06  0.02000  3.772E-02    0   0.9858   age045_m62            0.0000     3.2518E+02    14.3684   4.0000    78.9625
 18      0.0000     0.0000E+00    0.0000E+00    5.010000E+06  0.02000  3.227E-02    0   0.9342   age055_m62            0.0000     1.0559E+02     6.8425   3.7026    88.3926
 19      0.0000     0.0000E+00    0.0000E+00    1.000000E+07  0.02000  1.011E-02    0   0.8751   age070_m62            0.0000     2.3025E+02    10.3170   3.3555    84.0271
 20      0.0000     0.0000E+00    0.0000E+00    2.512000E+07  0.02000  4.206E-03    0   0.8099   age090_m62            0.0000     1.9545E+02     8.7996   3.2107    85.8295
 21      0.0000     0.0000E+00    0.0000E+00    4.000000E+07  0.02000  3.373E-03    0   0.7799   age104_m62            0.0000     1.1626E+02     5.8469   2.6689    96.1283
 22      0.0000     0.0000E+00    0.0000E+00    1.015200E+08  0.02000  1.878E-03    0   0.7221   age116_m62            0.0000     4.8767E+02    10.5615   1.8951   106.8981
 23      0.0000     0.0000E+00    0.0000E+00    2.861200E+08  0.02000  8.869E-04    0   0.6700   age125_m62            0.0000     9.3189E+02    16.5555   0.7559   119.5599
 24      0.0000     0.0000E+00    0.0000E+00    6.405400E+08  0.02000  3.657E-04    0   0.6322   age132_m62            0.0000     4.0107E+02    12.9160   0.1126   127.9425
 25      0.0000     0.0000E+00    0.0000E+00    9.047900E+08  0.02000  2.312E-04    0   0.6152   age135_m62            0.0000     1.6117E+02     9.3564  -0.0260   126.0993
 26      0.0000     0.0000E+00    0.0000E+00    1.434000E+09  0.02000  1.168E-04    0   0.5865   age139_m62            0.0000     3.8178E+01     5.8274  -0.0906   118.0555
 27      0.0000     0.0000E+00    0.0000E+00    2.500000E+09  0.02000  5.505E-05    0   0.5610   age150_m62            0.0000     1.6022E+02     7.2475  -0.3932   115.8438
 28      0.0000     0.0000E+00    0.0000E+00    5.000000E+09  0.02000  2.596E-05    0   0.5353   age161_m62            0.0000     4.6915E+02    10.2133  -0.8089   118.7669
 29      0.0000     0.0000E+00    0.0000E+00    1.100000E+10  0.02000  1.169E-05    0   0.5103   age185_m62            0.0000     8.9157E+02    16.6489  -1.0000   123.9918
 30      0.0000     0.0000E+00    0.0000E+00    1.300000E+10  0.02000  9.691E-06    0   0.5047   age193_m62            0.0000     9.9071E+02    18.0775  -1.0000   124.8478
 31      0.0000     0.0000E+00    0.0000E+00    1.000000E+06  0.05000  2.651E-02    0   0.9998   age020_m72            0.0000     4.1384E+02    16.2294   4.0000    77.5612
 32      0.0000     0.0000E+00    0.0000E+00    3.160000E+06  0.05000  4.817E-02    0   0.9577   age045_m72            0.0000     1.8903E+02    10.3712   4.0000    83.0022
 33      0.0000     0.0000E+00    0.0000E+00    5.010000E+06  0.05000  3.101E-02    0   0.9147   age055_m72            0.0000     1.4588E+02     8.6559   3.8566    86.0305
 34      0.0000     0.0000E+00    0.0000E+00    1.000000E+07  0.05000  8.954E-03    0   0.8524   age070_m72            0.0000     1.8780E+02     8.8533   4.0000    85.1885
 35      0.0000     0.0000E+00    0.0000E+00    2.512000E+07  0.05000  4.207E-03    0   0.7902   age090_m72            0.0000     1.0994E+02     6.0411   3.4582    91.8942
 36      0.0000     0.0000E+00    0.0000E+00    4.000000E+07  0.05000  3.198E-03    0   0.7618   age104_m72            0.0000     2.7914E+02     7.4551   2.4766   101.8981
 37      0.0000     0.0000E+00    0.0000E+00    1.015200E+08  0.05000  1.716E-03    0   0.7092   age116_m72            0.0000     5.8445E+02    11.7556   1.8855   107.5885
 38      0.0000     0.0000E+00    0.0000E+00    2.861200E+08  0.05000  7.047E-04    0   0.6618   age125_m72            0.0000     8.5385E+02    16.0760   0.4827   121.1222
 39      2.1541     1.1233E+00    1.2802E+00    6.405400E+08  0.05000  2.633E-04    0   0.6253   age132_m72            0.0000     2.5974E+02    10.9838  -0.1916   127.2672
 40      0.0000     0.0000E+00    0.0000E+00    9.047900E+08  0.05000  1.484E-04    0   0.6088   age135_m72            0.0000     6.3934E+01     7.6493  -0.3557   121.5926
 41      0.0000     0.0000E+00    0.0000E+00    1.434000E+09  0.05000  7.827E-05    0   0.5847   age139_m72            0.0000     2.0083E+02     8.5746  -0.6281   118.5142
 42      0.0000     0.0000E+00    0.0000E+00    2.500000E+09  0.05000  3.759E-05    0   0.5583   age150_m72            0.0000     4.9518E+02    10.6662  -0.9297   119.2406
 43      0.0000     0.0000E+00    0.0000E+00    5.000000E+09  0.05000  1.548E-05    0   0.5320   age161_m72            0.0000     8.8623E+02    19.2907  -1.0000   122.2421
 44      0.0000     0.0000E+00    0.0000E+00    1.100000E+10  0.05000  6.532E-06    0   0.5070   age185_m72            0.0000     1.4016E+03    32.3767  -1.0000   125.3935
 45      0.0000     0.0000E+00    0.0000E+00    1.300000E+10  0.05000  5.316E-06    0   0.5018   age193_m72            0.0000     1.6442E+03    36.8957  -1.0000   126.4185


## Synthesis Results - Average & Chains ##

# j      x_j: min, <> & last-chain-values for 1 ...  7 chains
  1      0.0000      0.0060      0.0000      0.0131      0.0000      0.0000      0.0000      0.0000      0.0000
  2     23.2733     23.2355     23.6765     23.7973     23.8091     23.5754     24.0967     24.1108     24.3015
  3      0.0000      0.0497      0.0003      0.0000      0.0000      0.0000      0.0000      0.0000      0.0000
  4      0.0000      0.2969      0.3611      0.1330      0.1765      0.0123      0.0000      0.1978      0.3354
  5      0.0000      0.0979      0.0474      0.0000      0.0530      0.0000      0.0507      0.0000      0.0272
  6      0.0000      0.0618      0.0000      0.0335      0.0000      0.0000      0.0000      0.0000      0.0000
  7     10.4516      7.0281      7.6198      7.3003      7.7136      7.9977      7.1640      7.9862      7.1023
  8      0.0000      0.0250      0.0000      0.0652      0.0836      0.0000      0.0000      0.0000      0.0000
  9      0.0000      0.0649      0.1172      0.0000      0.0000      0.3529      0.0000      0.0195      0.0120
 10      0.0000      0.2085      0.0000      0.2630      0.1899      0.0000      0.3224      0.7563      0.7262
 11      0.0000      0.0877      0.1331      0.0000      0.0000      0.0000      0.0000      0.0000      0.1292
 12     70.1938     65.6039     66.2461     66.0703     66.6183     67.0913     67.0327     66.1412     65.3964
 13      0.0002      0.4187      0.6690      0.5282      0.5670      0.3907      0.0326      0.8354      0.7531
 14      0.0000      0.0640      0.0000      0.0000      0.0000      0.0000      0.0000      0.0447      0.0000
 15      0.0000      0.0595      0.0000      0.0000      0.0000      0.0000      0.0000      0.0000      0.0000
 16      0.0000      0.0060      0.0000      0.0000      0.0000      0.0000      0.0000      0.0000      0.0000
 17      0.0000      0.0076      0.0000      0.0000      0.0000      0.0000      0.0000      0.0000      0.0000
 18      0.0000      0.1920      0.0000      0.3408      0.0000      0.2340      0.0729      0.0000      0.0000
 19      0.0000      0.0220      0.0000      0.0000      0.0000      0.0000      0.0000      0.0117      0.0000
 20      0.0000      0.0088      0.0000      0.0000      0.0000      0.0000      0.0000      0.0000      0.0000
 21      0.0000      0.0235      0.0000      0.0073      0.0000      0.0000      0.0000      0.0000      0.0000
 22      0.0000      0.0565      0.0000      0.0000      0.3236      0.0000      0.1147      0.0000      0.0000
 23      0.0000      0.0127      0.0000      0.0000      0.0000      0.0000      0.0000      0.0000      0.0000
 24      0.0000      0.0099      0.0000      0.0000      0.0000      0.0000      0.0000      0.0000      0.0000
 25      0.0000      0.0542      0.0000      0.0000      0.0000      0.1572      0.0000      0.0000      0.0000
 26      0.0000      0.0766      0.0000      0.0000      0.0000      0.0396      0.0000      0.0000      0.0726
 27      0.0000      0.0890      0.0000      0.0000      0.0000      0.0476      0.0179      0.0677      0.0000
 28      0.0000      0.0117      0.0375      0.0000      0.0000      0.0000      0.0000      0.0000      0.0000
 29      0.0000      0.0053      0.0000      0.0000      0.0000      0.0000      0.0000      0.0000      0.0000
 30      0.0000      0.0046      0.0000      0.0000      0.0000      0.0000      0.0000      0.0000      0.0000
 31      0.0000      0.0047      0.0000      0.0000      0.0000      0.0000      0.0000      0.0000      0.0000
 32      0.0000      0.0205      0.0015      0.0000      0.0000      0.0000      0.0000      0.0000      0.0000
 33      0.0000      0.0494      0.0000      0.0142      0.0000      0.0213      0.0000      0.0000      0.0000
 34      0.0000      0.0185      0.0000      0.0000      0.0000      0.0159      0.0000      0.0000      0.0000
 35      0.0000      0.0135      0.0000      0.0000      0.0659      0.0075      0.0000      0.0000      0.0000
 36      0.0000      0.0803      0.0929      0.0000      0.0000      0.0000      0.5139      0.0000      0.0089
 37      0.0000      0.0678      0.0000      0.0000      0.0323      0.0000      0.0000      0.0000      0.0000
 38      0.0000      0.0137      0.0000      0.0000      0.0000      0.0000      0.0620      0.0000      0.0000
 39      2.1541      8.4890      7.6164      8.0615      6.7437      6.6132      7.0310      6.2297      7.6373
 40      0.0000      0.0261      0.0000      0.0000      0.1069      0.0000      0.0000      0.0000      0.0000
 41      0.0000      0.0269      0.0000      0.0000      0.0000      0.0000      0.0000      0.0000      0.0000
 42      0.0000      0.0136      0.0000      0.0000      0.0000      0.0000      0.0000      0.0000      0.0000
 43      0.0000      0.0044      0.0000      0.0000      0.0000      0.0091      0.0000      0.0000      0.0000
 44      0.0000      0.0027      0.0000      0.0000      0.0000      0.0000      0.0000      0.0000      0.0000
 45      0.0000      0.0022      0.0000      0.0000      0.0000      0.0000      0.0000      0.0000      0.0000

# j      m_j: min, <> & last-chain-values for 1 ...  7 chains
  1  0.0000E+00  1.3409E-04  0.0000E+00  2.9680E-04  0.0000E+00  0.0000E+00  0.0000E+00  0.0000E+00  0.0000E+00
  2  1.4298E-01  1.4269E-01  1.4586E-01  1.4751E-01  1.4723E-01  1.4530E-01  1.5019E-01  1.4863E-01  1.5094E-01
  3  0.0000E+00  4.6588E-04  2.3687E-06  0.0000E+00  0.0000E+00  0.0000E+00  0.0000E+00  0.0000E+00  0.0000E+00
  4  0.0000E+00  5.1783E-03  6.3175E-03  2.3423E-03  3.1003E-03  2.1460E-04  0.0000E+00  3.4626E-03  5.9162E-03
  5  0.0000E+00  3.9501E-03  1.9189E-03  0.0000E+00  2.1513E-03  0.0000E+00  2.0745E-03  0.0000E+00  1.1087E-03
  6  0.0000E+00  3.4621E-03  0.0000E+00  1.8924E-03  0.0000E+00  0.0000E+00  0.0000E+00  0.0000E+00  0.0000E+00
  7  8.3116E-01  5.5865E-01  6.0764E-01  5.8573E-01  6.1742E-01  6.3803E-01  5.7796E-01  6.3725E-01  5.7100E-01
  8  0.0000E+00  3.8359E-03  0.0000E+00  1.0089E-02  1.2911E-02  0.0000E+00  0.0000E+00  0.0000E+00  0.0000E+00
  9  0.0000E+00  1.9830E-02  3.5908E-02  0.0000E+00  0.0000E+00  1.0813E-01  0.0000E+00  5.9646E-03  3.6906E-03
 10  0.0000E+00  8.8877E-02  0.0000E+00  1.1314E-01  8.1518E-02  0.0000E+00  1.3947E-01  3.2364E-01  3.1311E-01
 11  0.0000E+00  6.5628E-02  9.9962E-02  0.0000E+00  0.0000E+00  0.0000E+00  0.0000E+00  0.0000E+00  9.7842E-02
 12  9.7745E+01  9.1311E+01  9.2504E+01  9.2824E+01  9.3371E+01  9.3721E+01  9.4695E+01  9.2414E+01  9.2063E+01
 13  5.7960E-04  1.1606E+00  1.8602E+00  1.4778E+00  1.5826E+00  1.0868E+00  9.1808E-02  2.3244E+00  2.1114E+00
 14  0.0000E+00  3.6161E-01  0.0000E+00  0.0000E+00  0.0000E+00  0.0000E+00  0.0000E+00  2.5373E-01  0.0000E+00
 15  0.0000E+00  3.8955E-01  0.0000E+00  0.0000E+00  0.0000E+00  0.0000E+00  0.0000E+00  0.0000E+00  0.0000E+00
 16  0.0000E+00  7.5319E-05  0.0000E+00  0.0000E+00  0.0000E+00  0.0000E+00  0.0000E+00  0.0000E+00  0.0000E+00
 17  0.0000E+00  4.9748E-05  0.0000E+00  0.0000E+00  0.0000E+00  0.0000E+00  0.0000E+00  0.0000E+00  0.0000E+00
 18  0.0000E+00  1.3902E-03  0.0000E+00  2.4910E-03  0.0000E+00  1.7010E-03  5.3567E-04  0.0000E+00  0.0000E+00
 19  0.0000E+00  4.7589E-04  0.0000E+00  0.0000E+00  0.0000E+00  0.0000E+00  0.0000E+00  2.5473E-04  0.0000E+00
 20  0.0000E+00  4.2407E-04  0.0000E+00  0.0000E+00  0.0000E+00  0.0000E+00  0.0000E+00  0.0000E+00  0.0000E+00
 21  0.0000E+00  1.3601E-03  0.0000E+00  4.2460E-04  0.0000E+00  0.0000E+00  0.0000E+00  0.0000E+00  0.0000E+00
 22  0.0000E+00  5.4384E-03  0.0000E+00  0.0000E+00  3.1339E-02  0.0000E+00  1.1196E-02  0.0000E+00  0.0000E+00
 23  0.0000E+00  2.3925E-03  0.0000E+00  0.0000E+00  0.0000E+00  0.0000E+00  0.0000E+00  0.0000E+00  0.0000E+00
 24  0.0000E+00  4.2793E-03  0.0000E+00  0.0000E+00  0.0000E+00  0.0000E+00  0.0000E+00  0.0000E+00  0.0000E+00
 25  0.0000E+00  3.6088E-02  0.0000E+00  0.0000E+00  0.0000E+00  1.0503E-01  0.0000E+00  0.0000E+00  0.0000E+00
 26  0.0000E+00  9.6167E-02  0.0000E+00  0.0000E+00  0.0000E+00  4.9978E-02  0.0000E+00  0.0000E+00  9.2249E-02
 27  0.0000E+00  2.2676E-01  0.0000E+00  0.0000E+00  0.0000E+00  1.2182E-01  4.6416E-02  1.7331E-01  0.0000E+00
 28  0.0000E+00  6.0496E-02  1.9393E-01  0.0000E+00  0.0000E+00  0.0000E+00  0.0000E+00  0.0000E+00  0.0000E+00
 29  0.0000E+00  5.7901E-02  0.0000E+00  0.0000E+00  0.0000E+00  0.0000E+00  0.0000E+00  0.0000E+00  0.0000E+00
 30  0.0000E+00  6.0005E-02  0.0000E+00  0.0000E+00  0.0000E+00  0.0000E+00  0.0000E+00  0.0000E+00  0.0000E+00
 31  0.0000E+00  4.4075E-05  0.0000E+00  0.0000E+00  0.0000E+00  0.0000E+00  0.0000E+00  0.0000E+00  0.0000E+00
 32  0.0000E+00  1.0172E-04  7.4280E-06  0.0000E+00  0.0000E+00  0.0000E+00  0.0000E+00  0.0000E+00  0.0000E+00
 33  0.0000E+00  3.6439E-04  0.0000E+00  1.0571E-04  0.0000E+00  1.5761E-04  0.0000E+00  0.0000E+00  0.0000E+00
 34  0.0000E+00  4.3990E-04  0.0000E+00  0.0000E+00  0.0000E+00  3.7909E-04  0.0000E+00  0.0000E+00  0.0000E+00
 35  0.0000E+00  6.3422E-04  0.0000E+00  0.0000E+00  3.1199E-03  3.5348E-04  0.0000E+00  0.0000E+00  0.0000E+00
 36  0.0000E+00  4.7826E-03  5.5512E-03  0.0000E+00  0.0000E+00  0.0000E+00  3.1077E-02  0.0000E+00  5.3464E-04
 37  0.0000E+00  7.0138E-03  0.0000E+00  0.0000E+00  3.3587E-03  0.0000E+00  0.0000E+00  0.0000E+00  0.0000E+00
 38  0.0000E+00  3.2078E-03  0.0000E+00  0.0000E+00  0.0000E+00  0.0000E+00  1.4784E-02  0.0000E+00  0.0000E+00
 39  1.2802E+00  5.0429E+00  4.5392E+00  4.8339E+00  4.0341E+00  3.9429E+00  4.2392E+00  3.7150E+00  4.5889E+00
 40  0.0000E+00  2.6795E-02  0.0000E+00  0.0000E+00  1.1043E-01  0.0000E+00  0.0000E+00  0.0000E+00  0.0000E+00
 41  0.0000E+00  5.0278E-02  0.0000E+00  0.0000E+00  0.0000E+00  0.0000E+00  0.0000E+00  0.0000E+00  0.0000E+00
 42  0.0000E+00  5.0560E-02  0.0000E+00  0.0000E+00  0.0000E+00  0.0000E+00  0.0000E+00  0.0000E+00  0.0000E+00
 43  0.0000E+00  3.7745E-02  0.0000E+00  0.0000E+00  0.0000E+00  7.8263E-02  0.0000E+00  0.0000E+00  0.0000E+00
 44  0.0000E+00  5.2972E-02  0.0000E+00  0.0000E+00  0.0000E+00  0.0000E+00  0.0000E+00  0.0000E+00  0.0000E+00
 45  0.0000E+00  5.2982E-02  0.0000E+00  0.0000E+00  0.0000E+00  0.0000E+00  0.0000E+00  0.0000E+00  0.0000E+00

# AV, chi2 & Mass for <> & i_chain = 1 ...  7 solutions
AV       0.9156      0.8924      0.8986      0.9027      0.9054      0.8987      0.9092      0.9131      0.9112
chi2 2.1255E+00  2.2232E+00  2.1923E+00  2.1942E+00  2.1760E+00  2.1813E+00  2.1782E+00  2.1601E+00  2.1792E+00
Mass 1.5690E-10  1.5215E-10  1.5292E-10  1.5284E-10  1.5377E-10  1.5290E-10  1.5332E-10  1.5584E-10  1.5427E-10
 -11.93                                  [v0_min (km/s) before EX0s...]
  86.21                                  [vd_min (km/s) before EX0s...]


## Synthetic spectrum (Best Model) ##l_obs f_obs f_syn wei
 3070    [Nl_obs]
 3359.00    0.28369   0.52332   -1.000
 3360.00    0.27589   0.50639   -1.000
 3361.00    0.28074   0.50631   -1.000
 3362.00    0.32597   0.52392   -1.000
 3363.00    0.35416   0.54851   -1.000
 3364.00    0.36913   0.56561   -1.000
 3365.00    0.37495   0.56687   -1.000
 3366.00    0.36855   0.55390   -1.000
 3367.00    0.36397   0.53572   -1.000
 3368.00    0.36896   0.52156   -1.000
 3369.00    0.37183   0.51453   -1.000
 3370.00    0.37643   0.51156   -1.000
 3371.00    0.37276   0.50908   -1.000
 3372.00    0.36866   0.50981   -1.000
 3373.00    0.38155   0.52004   -1.000
 3374.00    0.37130   0.54059   -1.000
 3375.00    0.40860   0.56360   -1.000
 3376.00    0.43847   0.57662   -1.000
 3377.00    0.42135   0.57233   -1.000
 3378.00    0.40414   0.55524   -1.000
 3379.00    0.39817   0.53784   -1.000
 3380.00    0.38903   0.53124   -1.000
 3381.00    0.38830   0.53779   -1.000
 3382.00    0.41399   0.55136   -1.000
 3383.00    0.43661   0.56450   -1.000
 3384.00    0.42221   0.57522   -1.000
 3385.00    0.45688   0.58462   -1.000
 3386.00    0.44463   0.59092   -1.000
 3387.00    0.44231   0.59194   -1.000
 3388.00    0.45802   0.58910   -1.000
 3389.00    0.45191   0.58480   -1.000
 3390.00    0.42831   0.57897   -1.000
 3391.00    0.45506   0.57066   -1.000
 3392.00    0.46623   0.56247   -1.000
 3393.00    0.45306   0.56079   -1.000
 3394.00    0.45362   0.56945   -1.000
 3395.00    0.45524   0.58558   -1.000
 3396.00    0.44950   0.60289   -1.000
 3397.00    0.48998   0.61618   -1.000
 3398.00    0.50365   0.62207   -1.000
 3399.00    0.48099   0.61912   -1.000
 3400.00    0.49674   0.60870   -1.000
 3401.00    0.51676   0.59418   -1.000
 3402.00    0.49599   0.57982   -1.000
 3403.00    0.47702   0.57023   -1.000
 3404.00    0.45873   0.56659   -1.000
 3405.00    0.46320   0.56461   -1.000
 3406.00    0.49284   0.55991   -1.000
 3407.00    0.46808   0.55361   -1.000
 3408.00    0.45234   0.55128   -1.000
 3409.00    0.47758   0.55599   -1.000
 3410.00    0.46525   0.56384   -1.000
 3411.00    0.46909   0.56795   -1.000
 3412.00    0.49317   0.56574   -1.000
 3413.00    0.49471   0.56093   -1.000
 3414.00    0.47971   0.55910   -1.000
 3415.00    0.48602   0.56319   -1.000
 3416.00    0.48298   0.57298   -1.000
 3417.00    0.48723   0.58646   -1.000
 3418.00    0.50189   0.60030   -1.000
 3419.00    0.51275   0.61023   -1.000
 3420.00    0.52050   0.61272   -1.000
 3421.00    0.54052   0.60828   -1.000
 3422.00    0.53017   0.60117   -1.000
 3423.00    0.52029   0.59519   -1.000
 3424.00    0.51594   0.59184   -1.000
 3425.00    0.50965   0.59174   -1.000
 3426.00    0.50458   0.59619   -1.000
 3427.00    0.51445   0.60698   -1.000
 3428.00    0.52917   0.62174   -1.000
 3429.00    0.55524   0.63217   -1.000
 3430.00    0.55699   0.63123   -1.000
 3431.00    0.56355   0.62004   -1.000
 3432.00    0.55418   0.60682   -1.000
 3433.00    0.50910   0.59966   -1.000
 3434.00    0.53508   0.60063   -1.000
 3435.00    0.54485   0.60513   -1.000
 3436.00    0.53836   0.60629   -1.000
 3437.00    0.53471   0.59974   -1.000
 3438.00    0.54160   0.58478   -1.000
 3439.00    0.52891   0.56332   -1.000
 3440.00    0.52590   0.54069  124.791
 3441.00    0.49598   0.52464   -1.000
 3442.00    0.46859   0.52009   -1.000
 3443.00    0.48233   0.52541   -1.000
 3444.00    0.49610   0.53596   -1.000
 3445.00    0.49762   0.54961   -1.000
 3446.00    0.53118   0.56718   -1.000
 3447.00    0.57274   0.58781   -1.000
 3448.00    0.57632   0.60643   -1.000
 3449.00    0.57999   0.61560   -1.000
 3450.00    0.58582   0.61122   -1.000
 3451.00    0.58912   0.59644   -1.000
 3452.00    0.58470   0.58026   -1.000
 3453.00    0.55156   0.57159  133.943
 3454.00    0.55540   0.57265  117.728
 3455.00    0.58739   0.57815  117.263
 3456.00    0.59565   0.58018   -1.000
 3457.00    0.59139   0.57463   -1.000
 3458.00    0.56882   0.56382   -1.000
 3459.00    0.56320   0.55253   -1.000
 3460.00    0.56995   0.54556   -1.000
 3461.00    0.54548   0.54798  811.738
 3462.00    0.54813   0.56009   -1.000
 3463.00    0.57580   0.57377   -1.000
 3464.00    0.57014   0.58112   -1.000
 3465.00    0.57831   0.58284  811.738
 3466.00    0.57679   0.58448   -1.000
 3467.00    0.58709   0.58930  811.738
 3468.00    0.57947   0.59614   -1.000
 3469.00    0.59455   0.60161  131.403
 3470.00    0.61787   0.60258  121.257
 3471.00    0.60889   0.59759  119.356
 3472.00    0.60511   0.58696   -1.000
 3473.00    0.58237   0.57147   -1.000
 3474.00    0.55939   0.55393   -1.000
 3475.00    0.53699   0.54119  811.738
 3476.00    0.54787   0.53963   -1.000
 3477.00    0.57781   0.54907   -1.000
 3478.00    0.60010   0.56362   -1.000
 3479.00    0.62056   0.57667   -1.000
 3480.00    0.60722   0.58396   -1.000
 3481.00    0.58413   0.58412  811.738
 3482.00    0.60524   0.57916   -1.000
 3483.00    0.60896   0.57477   -1.000
 3484.00    0.60534   0.57738   -1.000
 3485.00    0.58634   0.58819  811.738
 3486.00    0.59294   0.59989   -1.000
 3487.00    0.62505   0.60259   -1.000
 3488.00    0.60974   0.59323   -1.000
 3489.00    0.58477   0.57811   -1.000
 3490.00    0.56626   0.56757  811.738
 3491.00    0.56950   0.56658   -1.000
 3492.00    0.57758   0.57062   -1.000
 3493.00    0.58788   0.57161   -1.000
 3494.00    0.58122   0.56583   -1.000
 3495.00    0.57088   0.55698   -1.000
 3496.00    0.57404   0.55382   -1.000
 3497.00    0.55244   0.56277   -1.000
 3498.00    0.57016   0.57947   -1.000
 3499.00    0.59959   0.59271   -1.000
 3500.00    0.61592   0.59753   -1.000
 3501.00    0.62275   0.59842   -1.000
 3502.00    0.61025   0.60028   -1.000
 3503.00    0.60776   0.60118   -1.000
 3504.00    0.61713   0.59699   -1.000
 3505.00    0.61706   0.58995   -1.000
 3506.00    0.59956   0.58588   -1.000
 3507.00    0.60308   0.58599   -1.000
 3508.00    0.62839   0.58615   -1.000
 3509.00    0.61241   0.58261   -1.000
 3510.00    0.59627   0.57598   -1.000
 3511.00    0.57261   0.56903   -1.000
 3512.00    0.56952   0.56280   -1.000
 3513.00    0.58638   0.55907   -1.000
 3514.00    0.58013   0.56224   -1.000
 3515.00    0.58041   0.57444   -1.000
 3516.00    0.60034   0.59159   -1.000
 3517.00    0.63045   0.60540   -1.000
 3518.00    0.63660   0.60921   -1.000
 3519.00    0.59604   0.60200  120.396
 3520.00    0.60134   0.58846  119.729
 3521.00    0.59123   0.57463   -1.000
 3522.00    0.55621   0.56223   -1.000
 3523.00    0.53601   0.55008   -1.000
 3524.00    0.53694   0.53955  811.738
 3525.00    0.52513   0.53615   -1.000
 3526.00    0.51544   0.54485   -1.000
 3527.00    0.54128   0.56364   -1.000
 3528.00    0.59046   0.58398   -1.000
 3529.00    0.60724   0.59753   -1.000
 3530.00    0.61255   0.60206   -1.000
 3531.00    0.61431   0.60156   -1.000
 3532.00    0.63926   0.60146   -1.000
 3533.00    0.62790   0.60390   -1.000
 3534.00    0.62376   0.60760   -1.000
 3535.00    0.62886   0.61095   -1.000
 3536.00    0.61739   0.61422  811.738
 3537.00    0.63169   0.61876   -1.000
 3538.00    0.63040   0.62439   -1.000
 3539.00    0.65647   0.62802   -1.000
 3540.00    0.62920   0.62754  811.738
 3541.00    0.58556   0.62568   -1.000
 3542.00    0.61063   0.62646   -1.000
 3543.00    0.60852   0.63029   -1.000
 3544.00    0.64750   0.63377   -1.000
 3545.00    0.62535   0.63387   -1.000
 3546.00    0.63075   0.63173  811.738
 3547.00    0.61411   0.63084   -1.000
 3548.00    0.61521   0.63268   -1.000
 3549.00    0.62257   0.63521   -1.000
 3550.00    0.62727   0.63543   -1.000
 3551.00    0.62170   0.63200   -1.000
 3552.00    0.60492   0.62621   -1.000
 3553.00    0.59039   0.62107   -1.000
 3554.00    0.60181   0.61854   -1.000
 3555.00    0.59465   0.61821   -1.000
 3556.00    0.59536   0.61832   -1.000
 3557.00    0.60215   0.61711   -1.000
 3558.00    0.60330   0.61464   -1.000
 3559.00    0.60554   0.61376  117.670
 3560.00    0.60229   0.61780  122.295
 3561.00    0.59944   0.62538   -1.000
 3562.00    0.61354   0.62880  120.362
 3563.00    0.60274   0.61885  124.474
 3564.00    0.58446   0.59640  126.468
 3565.00    0.56103   0.57395  122.342
 3566.00    0.53525   0.56151   -1.000
 3567.00    0.53483   0.55748   -1.000
 3568.00    0.52864   0.55361   -1.000
 3569.00    0.52944   0.54580   -1.000
 3570.00    0.53036   0.53891   -1.000
 3571.00    0.54065   0.53899  811.738
 3572.00    0.54899   0.54509   -1.000
 3573.00    0.52937   0.55163  121.978
 3574.00    0.54149   0.55543  131.607
 3575.00    0.56840   0.55763  138.407
 3576.00    0.57831   0.55967  139.211
 3577.00    0.57006   0.55961  139.973
 3578.00    0.58194   0.55337   -1.000
 3579.00    0.56510   0.54041   -1.000
 3580.00    0.55169   0.52636   -1.000
 3581.00    0.52721   0.51751  141.850
 3582.00    0.52128   0.51497  134.322
 3583.00    0.51297   0.51365  127.366
 3584.00    0.50267   0.50808  125.318
 3585.00    0.50598   0.49991   -1.000
 3586.00    0.49060   0.49580  811.738
 3587.00    0.47836   0.50023   -1.000
 3588.00    0.48858   0.51330   -1.000
 3589.00    0.54031   0.53278   -1.000
 3590.00    0.55612   0.55422  811.738
 3591.00    0.55397   0.57180   -1.000
 3592.00    0.57794   0.58196  811.738
 3593.00    0.57065   0.58645   -1.000
 3594.00    0.57221   0.59074   -1.000
 3595.00    0.58490   0.59860   -1.000
 3596.00    0.59431   0.60925   -1.000
 3597.00    0.61662   0.61992   -1.000
 3598.00    0.61203   0.62796   -1.000
 3599.00    0.61629   0.63043   -1.000
 3600.00    0.62406   0.62440  811.738
 3601.00    0.60361   0.60978   -1.000
 3602.00    0.58226   0.59135   -1.000
 3603.00    0.56438   0.57648   -1.000
 3604.00    0.55883   0.57038   -1.000
 3605.00    0.57519   0.57170   -1.000
 3606.00    0.58094   0.57370   -1.000
 3607.00    0.57409   0.57064   -1.000
 3608.00    0.55805   0.56347   -1.000
 3609.00    0.54388   0.55912   -1.000
 3610.00    0.55740   0.56166  811.738
 3611.00    0.58048   0.56820   -1.000
 3612.00    0.57778   0.57495  542.602
 3613.00    0.57844   0.58200  130.418
 3614.00    0.58387   0.59062   -1.000
 3615.00    0.58159   0.59726   -1.000
 3616.00    0.59387   0.59347  811.738
 3617.00    0.58133   0.57853   -1.000
 3618.00    0.53862   0.56408   -1.000
 3619.00    0.52016   0.56217   -1.000
 3620.00    0.53773   0.57370   -1.000
 3621.00    0.55608   0.59039   -1.000
 3622.00    0.57122   0.60429   -1.000
 3623.00    0.58629   0.61429   -1.000
 3624.00    0.61055   0.62538   -1.000
 3625.00    0.61614   0.64098   -1.000
 3626.00    0.62756   0.65747   -1.000
 3627.00    0.64644   0.66594   -1.000
 3628.00    0.64274   0.65783   -1.000
 3629.00    0.63499   0.63279  811.738
 3630.00    0.60734   0.60129   -1.000
 3631.00    0.56373   0.57832   -1.000
 3632.00    0.54043   0.57239   -1.000
 3633.00    0.54700   0.58061   -1.000
 3634.00    0.55374   0.59308   -1.000
 3635.00    0.55828   0.60219   -1.000
 3636.00    0.58233   0.60863   -1.000
 3637.00    0.57962   0.61729   -1.000
 3638.00    0.60060   0.62959   -1.000
 3639.00    0.62141   0.64071   -1.000
 3640.00    0.63310   0.64378   -1.000
 3641.00    0.60059   0.63598   -1.000
 3642.00    0.61207   0.62054   -1.000
 3643.00    0.61316   0.60447   -1.000
 3644.00    0.59702   0.59349  811.738
 3645.00    0.57545   0.58795   -1.000
 3646.00    0.56328   0.58511   -1.000
 3647.00    0.55968   0.58390   -1.000
 3648.00    0.56483   0.58563   -1.000
 3649.00    0.56009   0.59178   -1.000
 3650.00    0.57843   0.60274   -1.000
 3651.00    0.59963   0.61690   -1.000
 3652.00    0.62455   0.63121   -1.000
 3653.00    0.62920   0.64264   -1.000
 3654.00    0.64159   0.65040   -1.000
 3655.00    0.63258   0.65672   -1.000
 3656.00    0.64458   0.66343   -1.000
 3657.00    0.65265   0.66939   -1.000
 3658.00    0.62502   0.67231   -1.000
 3659.00    0.63212   0.67110   -1.000
 3660.00    0.62738   0.66620   -1.000
 3661.00    0.63411   0.65918   -1.000
 3662.00    0.64080   0.65209   -1.000
 3663.00    0.62630   0.64721   -1.000
 3664.00    0.62670   0.64570   -1.000
 3665.00    0.63128   0.64597   -1.000
 3666.00    0.63676   0.64468   -1.000
 3667.00    0.63110   0.63953   -1.000
 3668.00    0.61469   0.63333   -1.000
 3669.00    0.60617   0.63223   -1.000
 3670.00    0.59637   0.63888   -1.000
 3671.00    0.61127   0.64967   -1.000
 3672.00    0.63475   0.65796   -1.000
 3673.00    0.64806   0.65981   -1.000
 3674.00    0.65157   0.65533   -1.000
 3675.00    0.65404   0.64607   -1.000
 3676.00    0.63217   0.63378  811.738
 3677.00    0.60907   0.62096   -1.000
 3678.00    0.59799   0.61106   -1.000
 3679.00    0.60305   0.60688   -1.000
 3680.00    0.61009   0.60894  811.738
 3681.00    0.62238   0.61505   -1.000
 3682.00    0.63501   0.62102   -1.000
 3683.00    0.62044   0.62230  811.738
 3684.00    0.61403   0.61571  811.738
 3685.00    0.60022   0.60343   -1.000
 3686.00    0.57564   0.59363   -1.000
 3687.00    0.57019   0.59478   -1.000
 3688.00    0.59731   0.60859   -1.000
 3689.00    0.61234   0.62902   -1.000
 3690.00    0.63558   0.64664   -1.000
 3691.00    0.64586   0.65581   -1.000
 3692.00    0.64334   0.65802   -1.000
 3693.00    0.64762   0.65709   -1.000
 3694.00    0.65868   0.65442  762.906
 3695.00    0.66016   0.65031   -1.000
 3696.00    0.64099   0.64842   -1.000
 3697.00    0.65021   0.65495   -1.000
 3698.00    0.67744   0.67179  811.738
 3699.00    0.69541   0.69083  811.738
 3700.00    0.70956   0.69842   -1.000
 3701.00    0.70102   0.68477   -1.000
 3702.00    0.67596   0.65189   -1.000
 3703.00    0.63669   0.61234   -1.000
 3704.00    0.59432   0.58202   -1.000
 3705.00    0.58207   0.57112   -1.000
 3706.00    0.59254   0.57798   -1.000
 3707.00    0.59679   0.59211   -1.000
 3708.00    0.61210   0.60264   -1.000
 3709.00    0.60940   0.60535   -1.000
 3710.00    0.60469   0.60486  782.859
 3711.00    0.61494   0.61100  811.738
 3712.00    0.64291   0.62967   -1.000
 3713.00    0.66896   0.65791   -1.000
 3714.00    0.69460   0.68679  319.586
 3715.00    0.71989   0.70689  160.956
 3716.00    0.72877   0.71172   -1.000
 3717.00    0.72056   0.69726   -1.000
 3718.00    0.69610   0.66103   -1.000
 3719.00    0.62582   0.60969   -1.000
 3720.00    0.57536   0.56163   -1.000
 3721.00    0.56228   0.53663   -1.000
 3722.00    0.56281   0.54433   -1.000
 3723.00    0.61110   0.58040   -1.000
 3724.00    0.66751   0.62719   -1.000
 3725.00    0.70733   0.66358   -1.000
 3726.00    0.71434   0.68256   -1.000
 3727.00    0.71497   0.69183  120.079
 3728.00    0.72024   0.69824   -1.000
 3729.00    0.71895   0.69790   -1.000
 3730.00    0.69901   0.68008  123.755
 3731.00    0.66550   0.63943   -1.000
 3732.00    0.62690   0.58341   -1.000
 3733.00    0.56849   0.52916   -1.000
 3734.00    0.52847   0.49468   -1.000
 3735.00    0.50781   0.49118   -1.000
 3736.00    0.53553   0.51875   -1.000
 3737.00    0.59618   0.56893   -1.000
 3738.00    0.64525   0.62829   -1.000
 3739.00    0.69507   0.68089   -1.000
 3740.00    0.72338   0.71392   -1.000
 3741.00    0.71986   0.72351  120.094
 3742.00    0.71305   0.71363  125.688
 3743.00    0.69626   0.69176  182.755
 3744.00    0.66309   0.66400  811.738
 3745.00    0.62499   0.63230  811.738
 3746.00    0.60227   0.59566   -1.000
 3747.00    0.57935   0.55372   -1.000
 3748.00    0.54646   0.51465   -1.000
 3749.00    0.52006   0.49539   -1.000
 3750.00    0.53816   0.50884   -1.000
 3751.00    0.59297   0.55265   -1.000
 3752.00    0.65027   0.61233   -1.000
 3753.00    0.68929   0.67120   -1.000
 3754.00    0.73245   0.71603   -1.000
 3755.00    0.75800   0.73705   -1.000
 3756.00    0.75092   0.73115   -1.000
 3757.00    0.72882   0.70764   -1.000
 3758.00    0.68662   0.68446  811.738
 3759.00    0.67329   0.67528  811.738
 3760.00    0.69948   0.68046   -1.000
 3761.00    0.71555   0.69248   -1.000
 3762.00    0.71749   0.70421   -1.000
 3763.00    0.72071   0.71048   -1.000
 3764.00    0.72350   0.70693   -1.000
 3765.00    0.70995   0.69166   -1.000
 3766.00    0.69477   0.66640   -1.000
 3767.00    0.67865   0.63492   -1.000
 3768.00    0.65027   0.60178   -1.000
 3769.00    0.62576   0.57426   -1.000
 3770.00    0.60825   0.56313   -1.000
 3771.00    0.62557   0.57662   -1.000
 3772.00    0.67192   0.61061   -1.000
 3773.00    0.69764   0.65078   -1.000
 3774.00    0.71673   0.68593   -1.000
 3775.00    0.72783   0.71439   -1.000
 3776.00    0.73983   0.74006  733.824
 3777.00    0.75991   0.76624   -1.000
 3778.00    0.77596   0.79265   -1.000
 3779.00    0.79906   0.81630   -1.000
 3780.00    0.82350   0.83408   -1.000
 3781.00    0.83019   0.84480   -1.000
 3782.00    0.83635   0.84883   -1.000
 3783.00    0.85416   0.84591   -1.000
 3784.00    0.85179   0.83376   -1.000
 3785.00    0.81796   0.81183   -1.000
 3786.00    0.79541   0.78533   -1.000
 3787.00    0.77939   0.76282   -1.000
 3788.00    0.76587   0.74954   -1.000
 3789.00    0.75848   0.74443   -1.000
 3790.00    0.76024   0.74180   -1.000
 3791.00    0.75618   0.73395   -1.000
 3792.00    0.74261   0.71507   -1.000
 3793.00    0.72280   0.68367   -1.000
 3794.00    0.68677   0.64243   -1.000
 3795.00    0.64435   0.59630   -1.000
 3796.00    0.61038   0.55180   -1.000
 3797.00    0.57959   0.52030   -1.000
 3798.00    0.56165   0.51707   -1.000
 3799.00    0.58644   0.54848   -1.000
 3800.00    0.64276   0.60509   -1.000
 3801.00    0.71220   0.66846   -1.000
 3802.00    0.76210   0.72263   -1.000
 3803.00    0.79114   0.75966   -1.000
 3804.00    0.79951   0.77842   -1.000
 3805.00    0.79532   0.78297   -1.000
 3806.00    0.79443   0.78401   -1.000
 3807.00    0.80388   0.79337   -1.000
 3808.00    0.82228   0.81391   -1.000
 3809.00    0.83802   0.83677  811.738
 3810.00    0.84175   0.84812   -1.000
 3811.00    0.83078   0.83913   -1.000
 3812.00    0.80929   0.81203  811.738
 3813.00    0.78945   0.77940   -1.000
 3814.00    0.77785   0.75656   -1.000
 3815.00    0.77425   0.75207   -1.000
 3816.00    0.78294   0.76121   -1.000
 3817.00    0.79437   0.76974   -1.000
 3818.00    0.79141   0.76615   -1.000
 3819.00    0.77800   0.75127   -1.000
 3820.00    0.76103   0.73723  123.583
 3821.00    0.76254   0.73281   -1.000
 3822.00    0.78450   0.73221   -1.000
 3823.00    0.77606   0.72326   -1.000
 3824.00    0.73805   0.70311   -1.000
 3825.00    0.72231   0.68056   -1.000
 3826.00    0.71600   0.66488   -1.000
 3827.00    0.70431   0.65693   -1.000
 3828.00    0.70848   0.65067   -1.000
 3829.00    0.70879   0.63892   -1.000
 3830.00    0.69568   0.61654   -1.000
 3831.00    0.66901   0.58195   -1.000
 3832.00    0.62033   0.53852   -1.000
 3833.00    0.57335   0.49559   -1.000
 3834.00    0.54586   0.46539   -1.000
 3835.00    0.54706   0.45611   -1.000
 3836.00    0.56401   0.46760   -1.000
 3837.00    0.58889   0.49315   -1.000
 3838.00    0.60662   0.52612   -1.000
 3839.00    0.62114   0.56473   -1.000
 3840.00    0.64934   0.60950   -1.000
 3841.00    0.69119   0.65805   -1.000
 3842.00    0.73626   0.70426   -1.000
 3843.00    0.77314   0.74170   -1.000
 3844.00    0.80028   0.76835   -1.000
 3845.00    0.81139   0.78702   -1.000
 3846.00    0.81578   0.80103   -1.000
 3847.00    0.81956   0.80982   -1.000
 3848.00    0.81480   0.81233  811.738
 3849.00    0.81070   0.81212   -1.000
 3850.00    0.81571   0.81520   -1.000
 3851.00    0.83412   0.82351  198.816
 3852.00    0.84555   0.83198  118.895
 3853.00    0.83975   0.83359  120.875
 3854.00    0.83152   0.82685  227.240
 3855.00    0.82099   0.81527  811.738
 3856.00    0.80868   0.80217  811.738
 3857.00    0.79463   0.78928  811.738
 3858.00    0.77186   0.77940   -1.000
 3859.00    0.75376   0.77846   -1.000
 3860.00    0.75747   0.79042   -1.000
 3861.00    0.78647   0.81131   -1.000
 3862.00    0.83789   0.83051  811.738
 3863.00    0.86884   0.83995   -1.000
 3864.00    0.86307   0.84033   -1.000
 3865.00    0.84372   0.83751  230.988
 3866.00    0.84432   0.83627  811.738
 3867.00    0.84034   0.83704  811.738
 3868.00    0.82428   0.83533   -1.000
 3869.00    0.81924   0.82538   -1.000
 3870.00    0.80133   0.80597   -1.000
 3871.00    0.77920   0.78443   -1.000
 3872.00    0.76763   0.77249   -1.000
 3873.00    0.77534   0.77741   -1.000
 3874.00    0.80496   0.79327   -1.000
 3875.00    0.82572   0.80394   -1.000
 3876.00    0.81048   0.79819   -1.000
 3877.00    0.77661   0.78033   -1.000
 3878.00    0.74901   0.76374   -1.000
 3879.00    0.75371   0.75569   -1.000
 3880.00    0.76576   0.75183   -1.000
 3881.00    0.74247   0.74469  811.738
 3882.00    0.72503   0.73146   -1.000
 3883.00    0.72819   0.71177   -1.000
 3884.00    0.71929   0.68265   -1.000
 3885.00    0.68213   0.64085   -1.000
 3886.00    0.63792   0.59088   -1.000
 3887.00    0.60470   0.54614   -1.000
 3888.00    0.57936   0.52245   -1.000
 3889.00    0.58617   0.52991   -1.000
 3890.00    0.63490   0.56687   -1.000
 3891.00    0.69016   0.61871   -1.000
 3892.00    0.73236   0.66675   -1.000
 3893.00    0.75297   0.70134   -1.000
 3894.00    0.75691   0.72509   -1.000
 3895.00    0.76842   0.74516   -1.000
 3896.00    0.78209   0.76399   -1.000
 3897.00    0.78376   0.77864   -1.000
 3898.00    0.78618   0.78818  811.738
 3899.00    0.79824   0.79682  811.738
 3900.00    0.80859   0.80797  807.971
 3901.00    0.81275   0.81904   -1.000
 3902.00    0.82375   0.82396  725.242
 3903.00    0.82564   0.82037  715.089
 3904.00    0.81590   0.81331  708.483
 3905.00    0.80853   0.81180   -1.000
 3906.00    0.81601   0.82299   -1.000
 3907.00    0.83738   0.84719   -1.000
 3908.00    0.86445   0.87626   -1.000
 3909.00    0.88661   0.89984   -1.000
 3910.00    0.89511   0.91286   -1.000
 3911.00    0.90256   0.91510   -1.000
 3912.00    0.89405   0.90849   -1.000
 3913.00    0.87725   0.89734   -1.000
 3914.00    0.86925   0.88699   -1.000
 3915.00    0.85918   0.88025   -1.000
 3916.00    0.85315   0.87582   -1.000
 3917.00    0.84081   0.87026   -1.000
 3918.00    0.84325   0.86149   -1.000
 3919.00    0.83921   0.85090   -1.000
 3920.00    0.81894   0.84298   -1.000
 3921.00    0.81210   0.84132   -1.000
 3922.00    0.83146   0.84462  142.289
 3923.00    0.83895   0.84676  166.650
 3924.00    0.83293   0.84057  196.451
 3925.00    0.80669   0.82177   -1.000
 3926.00    0.74433   0.78988   -1.000
 3927.00    0.67481   0.74712   -1.000
 3928.00    0.64039   0.69619   -1.000
 3929.00    0.61800   0.63807  194.041
 3930.00    0.58118   0.57347   -1.000
 3931.00    0.50111   0.50625  133.172
 3932.00    0.41420   0.44785   -1.000
 3933.00    0.37489   0.41704   -1.000
 3934.00    0.38719   0.42769   -1.000
 3935.00    0.43288   0.47614   -1.000
 3936.00    0.51497   0.54540   -1.000
 3937.00    0.60754   0.61803  811.738
 3938.00    0.67220   0.68329   -1.000
 3939.00    0.72434   0.73583   -1.000
 3940.00    0.75889   0.77259   -1.000
 3941.00    0.77999   0.79337   -1.000
 3942.00    0.77995   0.80256   -1.000
 3943.00    0.78098   0.80773   -1.000
 3944.00    0.79690   0.81561   -1.000
 3945.00    0.80867   0.82764   -1.000
 3946.00    0.83852   0.83957   -1.000
 3947.00    0.84686   0.84744  720.982
 3948.00    0.84222   0.85206   -1.000
 3949.00    0.85249   0.85560   -1.000
 3950.00    0.86746   0.85811   -1.000
 3951.00    0.86064   0.85992  752.891
 3952.00    0.85515   0.86297   -1.000
 3953.00    0.85482   0.86707   -1.000
 3954.00    0.86229   0.86753   -1.000
 3955.00    0.86199   0.86079  811.738
 3956.00    0.84928   0.85053   -1.000
 3957.00    0.84662   0.84253  163.672
 3958.00    0.85544   0.83488  135.360
 3959.00    0.84106   0.81869   -1.000
 3960.00    0.81108   0.78826   -1.000
 3961.00    0.76029   0.74767   -1.000
 3962.00    0.69834   0.70495  224.183
 3963.00    0.65521   0.66152  190.100
 3964.00    0.63784   0.61052   -1.000
 3965.00    0.57369   0.54458   -1.000
 3966.00    0.47783   0.46663   -1.000
 3967.00    0.39767   0.39360   -1.000
 3968.00    0.34165   0.34778   -1.000
 3969.00    0.32036   0.34296   -1.000
 3970.00    0.36450   0.37779   -1.000
 3971.00    0.44130   0.43929  711.512
 3972.00    0.52013   0.51200   -1.000
 3973.00    0.60014   0.58473   -1.000
 3974.00    0.66530   0.65150   -1.000
 3975.00    0.72141   0.70993   -1.000
 3976.00    0.76425   0.75975  670.485
 3977.00    0.79613   0.80245   -1.000
 3978.00    0.83535   0.83874   -1.000
 3979.00    0.86031   0.86584   -1.000
 3980.00    0.87520   0.88036   80.251
 3981.00    0.87791   0.88443   61.510
 3982.00    0.88648   0.88630   61.554
 3983.00    0.89539   0.89314   61.309
 3984.00    0.90459   0.90490   60.104
 3985.00    0.91974   0.91714   58.645
 3986.00    0.91946   0.92770   58.875
 3987.00    0.93382   0.93791   60.162
 3988.00    0.94661   0.94874   61.573
 3989.00    0.95123   0.95943   62.809
 3990.00    0.94908   0.96991   63.483
 3991.00    0.95666   0.98051   62.454
 3992.00    0.97176   0.98887   59.851
 3993.00    0.97976   0.99063   57.660
 3994.00    0.96575   0.98372   56.530
 3995.00    0.95034   0.97089   55.707
 3996.00    0.92389   0.95908   56.419
 3997.00    0.91541   0.95573   -1.000
 3998.00    0.92488   0.96363   -1.000
 3999.00    0.94915   0.97915   63.305
 4000.00    0.98040   0.99490   60.191
 4001.00    0.98742   1.00338   57.574
 4002.00    0.99961   0.99991   56.531
 4003.00    0.99225   0.98456   55.902
 4004.00    0.96394   0.96379   55.637
 4005.00    0.91857   0.95015   55.932
 4006.00    0.92049   0.95409   56.260
 4007.00    0.97370   0.97363   55.970
 4008.00    0.97397   0.99685   55.232
 4009.00    0.97475   1.01346   55.480
 4010.00    0.99265   1.02088   56.142
 4011.00    1.00318   1.02246   56.043
 4012.00    0.98296   1.02306   55.266
 4013.00    0.98090   1.02552   -1.000
 4014.00    0.99562   1.02924   55.929
 4015.00    0.99350   1.03249   56.347
 4016.00    0.99062   1.03539   -1.000
 4017.00    0.99794   1.03974   -1.000
 4018.00    1.00231   1.04621   -1.000
 4019.00    1.00613   1.05238   -1.000
 4020.00    1.00624   1.05447   -1.000
 4021.00    1.00390   1.05058   -1.000
 4022.00    0.99257   1.04182   -1.000
 4023.00    0.98517   1.03176   -1.000
 4024.00    0.98719   1.02605   -1.000
 4025.00    1.00000   1.02951   62.357
 4026.00    1.01239   1.03999   61.782
 4027.00    1.02339   1.04711   59.924
 4028.00    1.02093   1.04088   57.080
 4029.00    0.99923   1.02098   54.249
 4030.00    0.95816   0.99633   52.229
 4031.00    0.92768   0.97787   -1.000
 4032.00    0.94220   0.97237   52.735
 4033.00    0.96146   0.98049   53.991
 4034.00    0.96165   0.99964   54.678
 4035.00    0.97842   1.02626   -1.000
 4036.00    1.01776   1.05503   57.323
 4037.00    1.04142   1.07765   -1.000
 4038.00    1.05785   1.08702   67.661
 4039.00    1.05546   1.08373   65.869
 4040.00    1.03384   1.07480   -1.000
 4041.00    1.03004   1.06425   55.910
 4042.00    1.02538   1.04802   54.099
 4043.00    0.98678   1.02117   53.370
 4044.00    0.93809   0.99018   -1.000
 4045.00    0.90681   0.97275   -1.000
 4046.00    0.91467   0.98078   -1.000
 4047.00    0.96711   1.00900   -1.000
 4048.00    1.00824   1.04102   57.880
 4049.00    1.02651   1.06284   58.278
 4050.00    1.03573   1.07002   58.869
 4051.00    1.02453   1.06470   -1.000
 4052.00    1.01894   1.05161   56.319
 4053.00    1.01442   1.03746   55.100
 4054.00    0.98536   1.02790   -1.000
 4055.00    0.97781   1.02347   -1.000
 4056.00    0.99452   1.02246   63.858
 4057.00    1.01334   1.02581   63.380
 4058.00    1.02032   1.03488   60.405
 4059.00    1.02248   1.04507   58.786
 4060.00    1.02519   1.04588   57.211
 4061.00    1.00963   1.03105   55.379
 4062.00    0.97633   1.00611   54.576
 4063.00    0.94987   0.98346   56.502
 4064.00    0.94525   0.97268   59.092
 4065.00    0.96871   0.97492   58.926
 4066.00    0.98938   0.98558   56.863
 4067.00    0.98520   0.99921   56.410
 4068.00    0.98790   1.00944   58.931
 4069.00    1.00175   1.00939   63.847
 4070.00    1.00515   0.99854   66.067
 4071.00    0.98339   0.98604   64.156
 4072.00    0.95636   0.98158   59.860
 4073.00    0.98100   0.98341   55.715
 4074.00    1.00418   0.97974   53.880
 4075.00    0.97139   0.96343   54.637
 4076.00    0.93108   0.94153   56.476
 4077.00    0.90826   0.92951   57.412
 4078.00    0.91703   0.93818   56.651
 4079.00    0.96066   0.96439   54.779
 4080.00    0.98749   0.99317   52.673
 4081.00    0.99919   1.00930   50.955
 4082.00    1.00118   1.00833   51.092
 4083.00    0.97270   0.99767   52.122
 4084.00    0.96064   0.98941   53.108
 4085.00    0.96857   0.99183   53.727
 4086.00    0.98106   1.00481   53.797
 4087.00    1.01109   1.02099   54.752
 4088.00    1.01912   1.03096   57.231
 4089.00    1.02698   1.02969   59.188
 4090.00    1.01460   1.01942   59.672
 4091.00    0.99849   1.00606   60.626
 4092.00    0.99747   0.99241   63.936
 4093.00    1.00005   0.97593   69.832
 4094.00    0.97247   0.95303   74.777
 4095.00    0.94078   0.92333   73.418
 4096.00    0.91991   0.88880   67.296
 4097.00    0.89285   0.84908   62.017
 4098.00    0.87441   0.80069   -1.000
 4099.00    0.83398   0.74327   -1.000
 4100.00    0.74947   0.68750   -1.000
 4101.00    0.68421   0.65425   57.047
 4102.00    0.68336   0.66040   58.164
 4103.00    0.73937   0.70473   59.033
 4104.00    0.82705   0.76841   -1.000
 4105.00    0.87313   0.82873   56.988
 4106.00    0.90252   0.87342   56.006
 4107.00    0.93063   0.90220   55.142
 4108.00    0.93259   0.91998   54.601
 4109.00    0.92856   0.93262   54.871
 4110.00    0.93706   0.94517   56.050
 4111.00    0.95510   0.96034   57.966
 4112.00    0.97130   0.97844   58.643
 4113.00    0.98166   0.99829   57.896
 4114.00    1.00254   1.01694   57.295
 4115.00    1.01744   1.02943   57.361
 4116.00    1.02653   1.03192   56.735
 4117.00    0.99994   1.02551   55.715
 4118.00    0.98426   1.01607   55.538
 4119.00    0.98311   1.00979   56.308
 4120.00    0.98643   1.00872   57.544
 4121.00    0.99069   1.01116   58.005
 4122.00    1.00258   1.01567   58.294
 4123.00    1.01388   1.02248   59.043
 4124.00    1.01890   1.02995   60.950
 4125.00    1.02197   1.03317   62.885
 4126.00    1.02484   1.02891   63.002
 4127.00    1.02131   1.01999   60.853
 4128.00    0.99898   1.01195   57.725
 4129.00    1.01141   1.00625   55.875
 4130.00    1.01005   0.99952   55.003
 4131.00    0.98925   0.99065   54.145
 4132.00    0.97857   0.98541   53.961
 4133.00    0.96386   0.99146   55.137
 4134.00    0.97538   1.01030   58.150
 4135.00    1.00681   1.03612   63.159
 4136.00    1.02840   1.06117   66.361
 4137.00    1.04918   1.08087   63.699
 4138.00    1.06598   1.09355   59.817
 4139.00    1.06400   1.09616   57.657
 4140.00    1.06295   1.08434   57.145
 4141.00    1.03464   1.05899   58.314
 4142.00    0.98467   1.03000   -1.000
 4143.00    0.95833   1.01201   -1.000
 4144.00    0.97335   1.01427   -1.000
 4145.00    0.99835   1.03195   59.840
 4146.00    1.02475   1.05074   60.451
 4147.00    1.03867   1.06033   61.387
 4148.00    1.04681   1.06109   59.785
 4149.00    1.02263   1.05953   59.363
 4150.00    1.17588   1.05950   -1.000
 4151.00    1.46067   1.05897   -1.000
 4152.00    0.86063   1.05427   -1.000
 4153.00    0.64525   1.04560   -1.000
 4154.00    1.07062   1.03791   55.826
 4155.00    1.07342   1.03679   55.292
 4156.00    0.99041   1.04396   -1.000
 4157.00    1.02223   1.05668   56.630
 4158.00    1.03847   1.07014   57.494
 4159.00    1.04580   1.08024   58.795
 4160.00    1.05773   1.08610   59.608
 4161.00    1.06455   1.09014   59.070
 4162.00    1.05475   1.09463   -1.000
 4163.00    1.06529   1.09907   58.947
 4164.00    1.05579   1.10092   -1.000
 4165.00    1.04904   1.09819   -1.000
 4166.00    1.04997   1.09181   -1.000
 4167.00    1.04420   1.08485   -1.000
 4168.00    1.03314   1.07766   -1.000
 4169.00    1.03355   1.06506   61.524
 4170.00    1.03498   1.04208   61.861
 4171.00    1.01139   1.01236   61.514
 4172.00    0.97587   0.98857   60.546
 4173.00    0.95744   0.98261   60.025
 4174.00    0.96249   0.99413   60.041
 4175.00    0.98854   1.01110   59.319
 4176.00    1.00705   1.02234   58.112
 4177.00    0.99138   1.02740   57.181
 4178.00    0.99037   1.03284   -1.000
 4179.00    1.01752   1.04148   59.473
 4180.00    1.02515   1.04920   60.967
 4181.00    1.02104   1.05225   60.262
 4182.00    1.01343   1.05283   58.949
 4183.00    1.01492   1.05525   -1.000
 4184.00    1.02160   1.05877   57.738
 4185.00    1.02018   1.05874   56.509
 4186.00    1.01385   1.05395   56.015
 4187.00    0.99670   1.04911   -1.000
 4188.00    0.98769   1.04956   -1.000
 4189.00    1.01524   1.05551   -1.000
 4190.00    1.03344   1.06398   63.740
 4191.00    1.03388   1.07327   -1.000
 4192.00    1.05410   1.08135   62.976
 4193.00    1.07067   1.08320   62.042
 4194.00    1.05883   1.07427   61.881
 4195.00    1.03879   1.05520   61.402
 4196.00    1.00517   1.03179   60.469
 4197.00    0.98580   1.01106   59.965
 4198.00    0.97469   0.99776   58.720
 4199.00    0.96547   0.99331   57.274
 4200.00    0.97920   0.99585   56.275
 4201.00    0.98853   1.00201   56.094
 4202.00    0.97711   1.01026   56.303
 4203.00    0.97987   1.02147   56.132
 4204.00    0.98891   1.03612   -1.000
 4205.00    1.00276   1.05290   -1.000
 4206.00    1.00128   1.06902   -1.000
 4207.00    1.01244   1.08100   -1.000
 4208.00    1.05681   1.08697   62.083
 4209.00    1.06522   1.08899   59.549
 4210.00    1.04672   1.09108   -1.000
 4211.00    1.03659   1.09389   -1.000
 4212.00    1.03804   1.09270   -1.000
 4213.00    1.02925   1.08249   -1.000
 4214.00    1.00911   1.06526   -1.000
 4215.00    0.98727   1.05068   -1.000
 4216.00    0.98066   1.04867   -1.000
 4217.00    1.01065   1.06124   -1.000
 4218.00    1.04204   1.08107   -1.000
 4219.00    1.05772   1.09753   -1.000
 4220.00    1.07210   1.10318   -1.000
 4221.00    1.07143   1.09427   62.304
 4222.00    1.05496   1.06903   56.528
 4223.00    1.02012   1.02910   54.095
 4224.00    0.96747   0.98248   54.035
 4225.00    0.92030   0.94400   55.361
 4226.00    0.88830   0.93051   -1.000
 4227.00    0.89757   0.95049   -1.000
 4228.00    0.96033   0.99449   58.668
 4229.00    1.02442   1.03946   59.453
 4230.00    1.04912   1.06602   58.773
 4231.00    1.05325   1.06955   57.452
 4232.00    1.03907   1.05800   56.604
 4233.00    1.02933   1.04326   55.557
 4234.00    1.02745   1.03299   54.917
 4235.00    1.01001   1.02864   54.561
 4236.00    1.00188   1.02920   53.547
 4237.00    1.00092   1.03455   52.727
 4238.00    0.99263   1.04442   -1.000
 4239.00    0.99546   1.05672   -1.000
 4240.00    1.02844   1.06841   -1.000
 4241.00    1.04575   1.07771   59.467
 4242.00    1.04018   1.08477   -1.000
 4243.00    1.05024   1.08937   -1.000
 4244.00    1.06038   1.08868   57.630
 4245.00    1.05040   1.07939   56.405
 4246.00    1.02049   1.06278   -1.000
 4247.00    1.00182   1.04568   -1.000
 4248.00    1.00243   1.03528   57.007
 4249.00    0.99661   1.03421   55.084
 4250.00    0.98347   1.04055   -1.000
 4251.00    0.99947   1.04966   -1.000
 4252.00    1.02924   1.05579   60.585
 4253.00    1.04020   1.05623   61.226
 4254.00    1.02693   1.05511   58.415
 4255.00    1.01611   1.05772   -1.000
 4256.00    1.02231   1.06159   52.631
 4257.00    1.03490   1.05853   51.700
 4258.00    1.01999   1.04541   51.838
 4259.00    0.98736   1.03031   52.931
 4260.00    0.98255   1.02639   -1.000
 4261.00    1.00103   1.04027   -1.000
 4262.00    1.02132   1.06662   -1.000
 4263.00    1.05448   1.09321   -1.000
 4264.00    1.08263   1.11020   66.077
 4265.00    1.08328   1.11456   66.102
 4266.00    1.07332   1.10813   -1.000
 4267.00    1.05746   1.09328   62.532
 4268.00    1.04866   1.07095   59.340
 4269.00    1.03190   1.04254   55.707
 4270.00    0.99362   1.01262   53.794
 4271.00    0.94951   0.98905   54.462
 4272.00    0.93849   0.97884   56.885
 4273.00    0.94649   0.98359   58.374
 4274.00    0.96842   1.00062   58.197
 4275.00    0.98789   1.02639   -1.000
 4276.00    1.02841   1.05494   57.229
 4277.00    1.04919   1.07686   58.272
 4278.00    1.04817   1.08492   59.977
 4279.00    1.03276   1.08028   -1.000
 4280.00    1.01608   1.07089   -1.000
 4281.00    1.00725   1.06390   -1.000
 4282.00    1.01067   1.06045   -1.000
 4283.00    1.01851   1.05711   -1.000
 4284.00    1.01443   1.05072   62.926
 4285.00    0.99982   1.04002   -1.000
 4286.00    0.97824   1.02436   -1.000
 4287.00    0.96611   1.00400   59.836
 4288.00    0.96350   0.98216   60.951
 4289.00    0.93770   0.96682   62.836
 4290.00    0.92036   0.96638   -1.000
 4291.00    0.94953   0.98032   72.446
 4292.00    0.98136   0.99753   76.526
 4293.00    1.00690   1.00622   76.339
 4294.00    1.00056   1.00302   74.273
 4295.00    0.99310   0.99098   73.187
 4296.00    0.98384   0.97221   72.140
 4297.00    0.95047   0.94629   71.629
 4298.00    0.91240   0.91545   72.633
 4299.00    0.88348   0.88740   75.676
 4300.00    0.86225   0.87034   79.184
 4301.00    0.86580   0.86695   79.963
 4302.00    0.88136   0.87444   77.355
 4303.00    0.89106   0.88778   72.783
 4304.00    0.90317   0.90010   68.332
 4305.00    0.90310   0.90373   65.138
 4306.00    0.90253   0.89625   62.159
 4307.00    0.98601   0.88441   -1.000
 4308.00    1.05368   0.87956   -1.000
 4309.00    0.86261   0.88821   49.712
 4310.00    0.85298   0.90689   -1.000
 4311.00    0.87860   0.92737   48.907
 4312.00    0.90306   0.94686   49.818
 4313.00    0.93036   0.97060   51.150
 4314.00    0.95155   1.00489   -1.000
 4315.00    1.00626   1.04844   -1.000
 4316.00    1.06405   1.09049   60.793
 4317.00    1.09975   1.11850   65.344
 4318.00    1.10778   1.12706   65.434
 4319.00    1.10323   1.11920   59.973
 4320.00    1.08356   1.10072   54.238
 4321.00    1.05492   1.07442   51.401
 4322.00    1.02709   1.04055   50.934
 4323.00    0.98424   1.00278   51.023
 4324.00    0.94108   0.97222   50.498
 4325.00    0.92687   0.96287   49.715
 4326.00    0.94136   0.98020   49.365
 4327.00    0.99004   1.01382   49.612
 4328.00    1.03547   1.04451   51.321
 4329.00    1.05885   1.06025   55.330
 4330.00    1.06086   1.06263   60.736
 4331.00    1.05776   1.05956   66.169
 4332.00    1.05902   1.05485   70.239
 4333.00    1.05568   1.04507   69.138
 4334.00    1.03867   1.02294   63.111
 4335.00    1.02878   0.98149   57.709
 4336.00    0.98599   0.91868   -1.000
 4337.00    0.90638   0.84233   -1.000
 4338.00    0.82906   0.76989   52.070
 4339.00    0.76344   0.72166   51.335
 4340.00    0.72341   0.71249   50.687
 4341.00    0.74465   0.74412   50.210
 4342.00    0.82735   0.80229   51.381
 4343.00    0.90788   0.86608   54.748
 4344.00    0.95646   0.92229   57.636
 4345.00    0.99173   0.96869   57.037
 4346.00    1.01728   1.00676   54.479
 4347.00    1.03926   1.03514   52.312
 4348.00    1.04984   1.04883   50.938
 4349.00    1.05544   1.04417   50.325
 4350.00    1.03798   1.02613   50.818
 4351.00    0.99637   1.00954   51.785
 4352.00    0.98710   1.00890   51.733
 4353.00    1.00654   1.02697   50.427
 4354.00    1.03651   1.05451   49.262
 4355.00    1.05755   1.07956   48.897
 4356.00    1.07265   1.09553   48.563
 4357.00    1.06873   1.10268   48.207
 4358.00    1.05103   1.10560   -1.000
 4359.00    1.05706   1.11029   -1.000
 4360.00    1.08171   1.12016   51.846
 4361.00    1.10028   1.13359   51.909
 4362.00    1.09985   1.14649   -1.000
 4363.00    1.09282   1.15593   -1.000
 4364.00    1.09556   1.15940   -1.000
 4365.00    1.10240   1.15407   -1.000
 4366.00    1.09878   1.14037   54.863
 4367.00    1.08173   1.12361   -1.000
 4368.00    1.07226   1.10992   55.027
 4369.00    1.08093   1.10148   52.441
 4370.00    1.09230   1.09558   50.534
 4371.00    1.08357   1.08714   50.225
 4372.00    1.06948   1.07279   50.832
 4373.00    1.05088   1.05510   52.417
 4374.00    1.02446   1.04331   56.377
 4375.00    1.03004   1.04691   62.885
 4376.00    1.06436   1.06618   67.163
 4377.00    1.09448   1.09072   64.356
 4378.00    1.10974   1.10785   58.128
 4379.00    1.11030   1.10911   54.279
 4380.00    1.09757   1.09026   53.450
 4381.00    1.07437   1.05197   53.797
 4382.00    1.03144   1.00394   54.215
 4383.00    0.97217   0.96559   53.800
 4384.00    0.95217   0.95522   52.629
 4385.00    0.98796   0.97446   52.149
 4386.00    1.03325   1.00738   52.939
 4387.00    1.05606   1.03577   53.508
 4388.00    1.06026   1.05205   52.164
 4389.00    1.06023   1.05943   50.106
 4390.00    1.06077   1.06436   49.698
 4391.00    1.06961   1.06980   51.019
 4392.00    1.08067   1.07337   52.787
 4393.00    1.08079   1.07260   53.286
 4394.00    1.06454   1.07135   52.414
 4395.00    1.05626   1.07643   52.780
 4396.00    1.08085   1.08731   55.350
 4397.00    1.10878   1.09466   57.302
 4398.00    1.11054   1.09157   56.470
 4399.00    1.09409   1.08212   55.018
 4400.00    1.07184   1.07576   54.412
 4401.00    1.06855   1.07549   53.127
 4402.00    1.08489   1.07498   50.905
 4403.00    1.08319   1.06845   48.941
 4404.00    1.05435   1.05916   47.838
 4405.00    1.04106   1.05476   48.232
 4406.00    1.05508   1.05819   50.346
 4407.00    1.06434   1.06742   52.785
 4408.00    1.06281   1.08137   53.527
 4409.00    1.08162   1.10074   52.331
 4410.00    1.10952   1.12229   50.263
 4411.00    1.11730   1.13700   48.507
 4412.00    1.12211   1.13620   48.006
 4413.00    1.11971   1.11832   48.855
 4414.00    1.09096   1.09119   49.979
 4415.00    1.05371   1.06933   50.249
 4416.00    1.03621   1.06549   49.944
 4417.00    1.04655   1.08216   49.928
 4418.00    1.07515   1.11051   50.157
 4419.00    1.10423   1.13628   50.086
 4420.00    1.11422   1.14868   49.794
 4421.00    1.09928   1.14747   49.971
 4422.00    1.08431   1.14112   -1.000
 4423.00    1.08962   1.13722   50.069
 4424.00    1.10102   1.13664   49.558
 4425.00    1.09978   1.13657   50.258
 4426.00    1.09920   1.13616   52.438
 4427.00    1.09906   1.13676   53.974
 4428.00    1.09753   1.13866   52.978
 4429.00    1.10825   1.14065   50.124
 4430.00    1.11187   1.14137   47.540
 4431.00    1.10885   1.13918   46.593
 4432.00    1.10819   1.13211   47.400
 4433.00    1.09434   1.12048   49.392
 4434.00    1.06846   1.11048   51.648
 4435.00    1.06751   1.11180   -1.000
 4436.00    1.09276   1.12847   51.600
 4437.00    1.12246   1.15331   49.445
 4438.00    1.14820   1.17247   47.988
 4439.00    1.16507   1.17486   47.637
 4440.00    1.15269   1.15864   47.725
 4441.00    1.10795   1.13255   48.067
 4442.00    1.07491   1.11173   48.585
 4443.00    1.06436   1.10864   48.576
 4444.00    1.08043   1.12479   48.579
 4445.00    1.10869   1.14997   49.768
 4446.00    1.12724   1.17101   51.929
 4447.00    1.13931   1.18127   53.593
 4448.00    1.14668   1.18222   53.482
 4449.00    1.13969   1.17864   52.488
 4450.00    1.13187   1.17378   52.117
 4451.00    1.13058   1.16688   52.319
 4452.00    1.12515   1.15408   52.761
 4453.00    1.11764   1.13392   53.277
 4454.00    1.10760   1.11224   52.839
 4455.00    1.09275   1.09852   51.118
 4456.00    1.09372   1.09677   49.555
 4457.00    1.10322   1.10236   49.064
 4458.00    1.10215   1.10817   49.087
 4459.00    1.10047   1.11136   49.438
 4460.00    1.09397   1.11383   50.256
 4461.00    1.08285   1.11902   50.841
 4462.00    1.08751   1.12855   50.508
 4463.00    1.10800   1.14041   49.226
 4464.00    1.12497   1.14997   47.554
 4465.00    1.12614   1.15322   46.120
 4466.00    1.11825   1.14896   45.403
 4467.00    1.11300   1.13974   45.330
 4468.00    1.10647   1.13176   45.128
 4469.00    1.09874   1.13197   44.799
 4470.00    1.10526   1.14325   44.953
 4471.00    1.12330   1.16262   46.157
 4472.00    1.14343   1.18406   48.155
 4473.00    1.17100   1.20217   49.850
 4474.00    1.18950   1.21422   50.000
 4475.00    1.18528   1.22030   48.392
 4476.00    1.17759   1.22128   46.442
 4477.00    1.18056   1.21611   45.175
 4478.00    1.18480   1.20203   44.880
 4479.00    1.17310   1.17906   45.580
 4480.00    1.13925   1.15438   47.103
 4481.00    1.12152   1.14026   48.481
 4482.00    1.12453   1.14492   48.522
 4483.00    1.14030   1.16598   47.447
 4484.00    1.16863   1.19259   46.489
 4485.00    1.18764   1.21233   46.686
 4486.00    1.19463   1.21736   47.903
 4487.00    1.18484   1.20794   49.116
 4488.00    1.16750   1.19178   49.122
 4489.00    1.14997   1.17935   47.775
 4490.00    1.13760   1.17722   46.296
 4491.00    1.15296   1.18407   45.548
 4492.00    1.16523   1.19278   45.764
 4493.00    1.15361   1.19702   46.139
 4494.00    1.14024   1.19669   -1.000
 4495.00    1.12877   1.19676   -1.000
 4496.00    1.13498   1.20077   -1.000
 4497.00    1.16119   1.20733   42.867
 4498.00    1.18843   1.21221   43.578
 4499.00    1.18979   1.21280   44.177
 4500.00    1.17011   1.21164   44.331
 4501.00    1.16393   1.21533   44.103
 4502.00    1.18887   1.22800   43.776
 4503.00    1.20937   1.24636   43.930
 4504.00    1.21552   1.26240   44.660
 4505.00    1.22395   1.26964   45.501
 4506.00    1.22224   1.26744   45.951
 4507.00    1.20929   1.26068   45.873
 4508.00    1.20257   1.25591   -1.000
 4509.00    1.21191   1.25597   46.147
 4510.00    1.21237   1.25791   46.523
 4511.00    1.21188   1.25661   46.048
 4512.00    1.20442   1.24974   45.151
 4513.00    1.19871   1.23904   44.971
 4514.00    1.19221   1.22836   45.779
 4515.00    1.19290   1.22104   46.781
 4516.00    1.18817   1.21757   47.343
 4517.00    1.18240   1.21558   48.011
 4518.00    1.17977   1.21338   49.297
 4519.00    1.17764   1.21170   50.746
 4520.00    1.18795   1.21107   51.597
 4521.00    1.19206   1.20959   51.492
 4522.00    1.17545   1.20500   50.716
 4523.00    1.16261   1.19748   49.786
 4524.00    1.16252   1.18841   49.351
 4525.00    1.16393   1.17742   50.282
 4526.00    1.15952   1.16307   51.949
 4527.00    1.14814   1.14667   51.958
 4528.00    1.13151   1.13348   49.553
 4529.00    1.11925   1.12874   46.608
 4530.00    1.12276   1.13204   44.942
 4531.00    1.13800   1.13669   44.951
 4532.00    1.14088   1.13585   45.894
 4533.00    1.11692   1.13017   46.173
 4534.00    1.09742   1.12843   45.890
 4535.00    1.10528   1.13960   45.669
 4536.00    1.13517   1.16447   58.717
 4537.00    1.22445   1.19429   26.180
 4538.00    0.78091   1.21697   -1.000
 4539.00    0.16648   1.22581   -1.000
 4540.00   -0.00657   1.22347    0.000
 4541.00    0.53495   1.21792   -1.000
 4542.00    0.69515   1.21468   -1.000
 4543.00    0.57144   1.21338   -1.000
 4544.00    1.04165   1.21098   -1.000
 4545.00    1.19320   1.20596   48.404
 4546.00    1.18159   1.19803   48.938
 4547.00    1.17950   1.18640   48.485
 4548.00    1.14770   1.17215   46.938
 4549.00    1.12493   1.16102   45.067
 4550.00    1.13473   1.15911   44.026
 4551.00    1.15406   1.16519   44.041
 4552.00    1.15697   1.17093   44.095
 4553.00    1.14520   1.17041   44.097
 4554.00    1.13470   1.16685   44.887
 4555.00    1.13740   1.16867   46.011
 4556.00    1.16692   1.18089   46.887
 4557.00    1.19539   1.20091   46.665
 4558.00    1.21294   1.22191   45.607
 4559.00    1.21925   1.23858   44.398
 4560.00    1.21979   1.24834   43.788
 4561.00    1.21286   1.24932   44.075
 4562.00    1.19336   1.24100   45.071
 4563.00    1.18084   1.22718   46.262
 4564.00    1.16837   1.21584   46.264
 4565.00    1.17222   1.21396   45.063
 4566.00    1.19143   1.22234   44.251
 4567.00    1.20298   1.23517   44.146
 4568.00    1.21899   1.24409   44.322
 4569.00    1.21661   1.24346   44.571
 4570.00    1.19853   1.23389   45.232
 4571.00    1.17789   1.22238   46.480
 4572.00    1.17378   1.21794   47.543
 4573.00    1.19054   1.22401   47.630
 4574.00    1.21561   1.23537   47.047
 4575.00    1.23032   1.24394   46.629
 4576.00    1.22865   1.24577   46.678
 4577.00    1.21639   1.24086   46.949
 4578.00    1.21077   1.22981   46.482
 4579.00    1.19416   1.21378   45.353
 4580.00    1.18180   1.19600   44.337
 4581.00    1.17212   1.18087   44.108
 4582.00    1.15924   1.17176   44.633
 4583.00    1.16510   1.16995   45.445
 4584.00    1.17374   1.17476   46.257
 4585.00    1.17570   1.18389   46.440
 4586.00    1.19310   1.19469   46.113
 4587.00    1.21176   1.20521   45.739
 4588.00    1.21261   1.21383   45.575
 4589.00    1.21543   1.21870   45.478
 4590.00    1.20893   1.21861   45.376
 4591.00    1.20236   1.21480   45.691
 4592.00    1.19295   1.21093   46.108
 4593.00    1.18856   1.21049   46.285
 4594.00    1.19504   1.21429   45.892
 4595.00    1.21183   1.22064   45.373
 4596.00    1.21398   1.22719   45.353
 4597.00    1.22720   1.23201   45.308
 4598.00    1.22643   1.23361   44.877
 4599.00    1.21323   1.23140   44.044
 4600.00    1.20422   1.22666   43.104
 4601.00    1.19440   1.22215   42.531
 4602.00    1.19401   1.22030   42.621
 4603.00    1.20519   1.22173   43.158
 4604.00    1.21405   1.22565   43.660
 4605.00    1.21742   1.23134   43.973
 4606.00    1.21824   1.23882   43.825
 4607.00    1.22112   1.24802   43.452
 4608.00    1.22824   1.25746   43.246
 4609.00    1.24255   1.26428   43.475
 4610.00    1.24012   1.26596   43.799
 4611.00    1.22842   1.26274   43.807
 4612.00    1.22654   1.25768   43.433
 4613.00    1.21862   1.25360   42.772
 4614.00    1.21871   1.25087   42.670
 4615.00    1.22403   1.24796   42.769
 4616.00    1.22376   1.24356   42.857
 4617.00    1.22801   1.23811   43.215
 4618.00    1.22718   1.23409   43.359
 4619.00    1.22097   1.23474   43.349
 4620.00    1.22497   1.24151   43.594
 4621.00    1.23081   1.25217   43.712
 4622.00    1.24235   1.26195   43.526
 4623.00    1.23801   1.26710   43.050
 4624.00    1.22917   1.26743   43.164
 4625.00    1.24459   1.26479   43.756
 4626.00    1.24148   1.26058   44.261
 4627.00    1.23529   1.25553   44.275
 4628.00    1.22735   1.25087   44.590
 4629.00    1.22897   1.24877   45.164
 4630.00    1.23215   1.25064   45.393
 4631.00    1.24130   1.25477   45.350
 4632.00    1.24385   1.25693   44.643
 4633.00    1.24131   1.25432   43.570
 4634.00    1.22603   1.24845   42.926
 4635.00    1.23058   1.24305   43.035
 4636.00    1.22641   1.24016   43.790
 4637.00    1.22556   1.23981   44.998
 4638.00    1.23165   1.24202   46.253
 4639.00    1.23236   1.24731   46.543
 4640.00    1.23361   1.25548   45.791
 4641.00    1.25291   1.26439   44.729
 4642.00    1.26252   1.27010   44.080
 4643.00    1.25130   1.26891   43.966
 4644.00    1.24735   1.25993   43.878
 4645.00    1.23733   1.24551   44.358
 4646.00    1.21828   1.23026   45.362
 4647.00    1.22347   1.22020   45.925
 4648.00    1.23252   1.21993   45.589
 4649.00    1.23832   1.22894   44.194
 4650.00    1.22973   1.24164   42.504
 4651.00    1.23569   1.25144   41.506
 4652.00    1.23520   1.25459   41.414
 4653.00    1.22294   1.25111   41.904
 4654.00    1.21915   1.24388   42.913
 4655.00    1.21067   1.23779   43.775
 4656.00    1.20830   1.23843   43.916
 4657.00    1.23142   1.24896   44.606
 4658.00    1.25340   1.26696   46.480
 4659.00    1.27438   1.28464   48.431
 4660.00    1.29115   1.29395   48.571
 4661.00    1.27500   1.29196   47.132
 4662.00    1.25095   1.28133   45.163
 4663.00    1.24614   1.26622   43.912
 4664.00    1.25554   1.24866   43.619
 4665.00    1.24621   1.22855   43.646
 4666.00    1.21945   1.20726   43.604
 4667.00    1.19340   1.19016   43.051
 4668.00    1.17977   1.18403   42.400
 4669.00    1.19408   1.19155   42.590
 4670.00    1.21766   1.20905   43.505
 4671.00    1.23658   1.22925   44.372
 4672.00    1.25241   1.24613   45.111
 4673.00    1.25121   1.25789   45.554
 4674.00    1.24884   1.26609   45.003
 4675.00    1.26618   1.27186   43.868
 4676.00    1.27461   1.27343   43.282
 4677.00    1.26246   1.26810   43.423
 4678.00    1.24874   1.25639   43.442
 4679.00    1.24193   1.24290   43.690
 4680.00    1.22641   1.23287   43.694
 4681.00    1.20831   1.22889   43.698
 4682.00    1.22204   1.23063   44.014
 4683.00    1.25004   1.23612   44.107
 4684.00    1.26387   1.24264   43.581
 4685.00    1.26086   1.24787   42.929
 4686.00    1.27162   1.25106   41.967
 4687.00    1.25797   1.25287   41.432
 4688.00    1.25651   1.25393   41.643
 4689.00    1.26456   1.25425   42.860
 4690.00    1.25091   1.25379   44.163
 4691.00    1.23700   1.25350   44.669
 4692.00    1.25498   1.25506   44.296
 4693.00    1.26700   1.25902   44.640
 4694.00    1.27528   1.26381   45.444
 4695.00    1.27502   1.26662   45.670
 4696.00    1.29535   1.26484   44.777
 4697.00    1.27004   1.25730   44.119
 4698.00    1.25027   1.24540   44.769
 4699.00    1.24351   1.23234   45.681
 4700.00    1.24056   1.22068   46.109
 4701.00    1.22900   1.21137   45.847
 4702.00    1.22299   1.20539   44.456
 4703.00    1.22293   1.20447   43.237
 4704.00    1.22968   1.20862   42.835
 4705.00    1.24174   1.21399   43.278
 4706.00    1.24154   1.21557   44.119
 4707.00    1.22908   1.21255   44.086
 4708.00    1.21398   1.20949   43.171
 4709.00    1.20312   1.21157   42.341
 4710.00    1.22559   1.21974   42.104
 4711.00    1.25949   1.23035   41.959
 4712.00    1.26153   1.23846   41.815
 4713.00    1.24926   1.24172   42.200
 4714.00    1.23374   1.24234   42.497
 4715.00    1.23831   1.24509   42.217
 4716.00    1.25111   1.25262   41.746
 4717.00    1.25582   1.26301   41.841
 4718.00    1.26153   1.27203   42.921
 4719.00    1.26707   1.27711   44.602
 4720.00    1.26034   1.27861   45.554
 4721.00    1.25823   1.27854   45.310
 4722.00    1.26764   1.27871   44.830
 4723.00    1.27173   1.27952   44.482
 4724.00    1.28019   1.27938   43.933
 4725.00    1.27926   1.27547   43.563
 4726.00    1.25477   1.26589   43.323
 4727.00    1.24603   1.25192   43.092
 4728.00    1.24022   1.23778   43.597
 4729.00    1.24214   1.22773   43.612
 4730.00    1.25205   1.22358   43.019
 4731.00    1.24395   1.22493   43.082
 4732.00    1.24475   1.23017   43.343
 4733.00    1.24167   1.23661   43.376
 4734.00    1.24610   1.24119   42.998
 4735.00    1.26127   1.24262   42.537
 4736.00    1.25806   1.24236   42.657
 4737.00    1.24598   1.24298   42.678
 4738.00    1.24798   1.24586   42.332
 4739.00    1.25028   1.25023   41.908
 4740.00    1.24786   1.25446   41.847
 4741.00    1.24993   1.25797   41.918
 4742.00    1.25662   1.26141   41.955
 4743.00    1.27083   1.26509   42.287
 4744.00    1.26895   1.26837   42.774
 4745.00    1.27189   1.27087   43.122
 4746.00    1.27306   1.27337   43.396
 4747.00    1.26274   1.27710   43.309
 4748.00    1.26913   1.28235   43.503
 4749.00    1.27540   1.28791   43.821
 4750.00    1.28945   1.29166   43.828
 4751.00    1.28969   1.29129   43.455
 4752.00    1.26503   1.28576   43.440
 4753.00    1.25377   1.27664   44.192
 4754.00    1.24879   1.26768   45.295
 4755.00    1.24632   1.26252   45.811
 4756.00    1.25341   1.26254   45.839
 4757.00    1.25984   1.26663   45.719
 4758.00    1.25804   1.27211   45.361
 4759.00    1.27089   1.27554   44.683
 4760.00    1.25329   1.27312   43.672
 4761.00    1.25215   1.26262   43.140
 4762.00    1.24117   1.24589   43.274
 4763.00    1.22630   1.22901   43.660
 4764.00    1.22237   1.21850   43.974
 4765.00    1.23169   1.21737   43.376
 4766.00    1.24345   1.22490   42.475
 4767.00    1.24553   1.23845   42.249
 4768.00    1.24935   1.25422   42.308
 4769.00    1.26442   1.26747   42.451
 4770.00    1.27874   1.27477   42.757
 4771.00    1.26306   1.27668   43.230
 4772.00    1.26125   1.27736   43.458
 4773.00    1.27384   1.28082   43.569
 4774.00    1.28043   1.28762   43.803
 4775.00    1.28202   1.29489   44.128
 4776.00    1.29093   1.29899   44.106
 4777.00    1.30159   1.29807   44.296
 4778.00    1.29732   1.29305   44.736
 4779.00    1.27451   1.28674   44.950
 4780.00    1.26395   1.28182   44.869
 4781.00    1.26950   1.27879   44.632
 4782.00    1.26799   1.27623   44.331
 4783.00    1.27188   1.27282   43.825
 4784.00    1.26527   1.26839   43.059
 4785.00    1.24761   1.26365   42.109
 4786.00    1.24059   1.25978   41.467
 4787.00    1.23857   1.25813   41.414
 4788.00    1.23864   1.25952   41.915
 4789.00    1.24569   1.26392   42.780
 4790.00    1.25571   1.27100   43.541
 4791.00    1.25765   1.28066   43.926
 4792.00    1.27687   1.29248   43.425
 4793.00    1.28461   1.30499   42.553
 4794.00    1.29463   1.31548   42.046
 4795.00    1.30954   1.32078   42.212
 4796.00    1.30293   1.31903   42.802
 4797.00    1.28405   1.31132   43.326
 4798.00    1.26479   1.30165   43.655
 4799.00    1.27053   1.29489   43.608
 4800.00    1.28010   1.29395   43.481
 4801.00    1.29252   1.29800   43.251
 4802.00    1.29052   1.30296   42.860
 4803.00    1.28263   1.30453   42.570
 4804.00    1.27332   1.30146   42.383
 4805.00    1.26630   1.29607   42.341
 4806.00    1.27222   1.29188   42.226
 4807.00    1.27049   1.29091   42.053
 4808.00    1.28009   1.29295   41.782
 4809.00    1.27557   1.29647   41.538
 4810.00    1.27540   1.29993   41.398
 4811.00    1.27483   1.30276   41.394
 4812.00    1.28843   1.30576   41.457
 4813.00    1.29972   1.30998   41.964
 4814.00    1.29173   1.31546   43.064
 4815.00    1.28829   1.32121   43.713
 4816.00    1.29453   1.32604   43.464
 4817.00    1.30754   1.32918   42.678
 4818.00    1.30723   1.33048   42.171
 4819.00    1.29559   1.32972   42.445
 4820.00    1.29521   1.32543   42.922
 4821.00    1.29039   1.31536   43.126
 4822.00    1.28937   1.29955   43.177
 4823.00    1.27196   1.28290   43.539
 4824.00    1.26870   1.27301   43.448
 4825.00    1.27757   1.27387   42.737
 4826.00    1.29543   1.28224   42.254
 4827.00    1.29791   1.29081   42.160
 4828.00    1.29248   1.29457   42.266
 4829.00    1.29144   1.29322   42.549
 4830.00    1.29445   1.28883   43.187
 4831.00    1.29693   1.28347   43.821
 4832.00    1.28669   1.27915   43.788
 4833.00    1.29159   1.27767   43.664
 4834.00    1.29823   1.27942   43.416
 4835.00    1.29313   1.28263   43.064
 4836.00    1.29374   1.28456   42.575
 4837.00    1.29223   1.28307   41.988
 4838.00    1.28977   1.27758   42.018
 4839.00    1.27812   1.26946   42.875
 4840.00    1.26704   1.26159   43.365
 4841.00    1.26941   1.25684   43.199
 4842.00    1.26624   1.25612   42.677
 4843.00    1.27593   1.25837   42.676
 4844.00    1.27654   1.26183   42.961
 4845.00    1.28202   1.26450   43.537
 4846.00    1.29514   1.26404   44.871
 4847.00    1.28497   1.25925   45.828
 4848.00    1.27557   1.25225   45.583
 4849.00    1.26134   1.24698   45.495
 4850.00    1.25245   1.24472   47.411
 4851.00    1.25703   1.24205   51.974
 4852.00    1.23024   1.23344   57.374
 4853.00    1.19085   1.21530   58.416
 4854.00    1.17437   1.18864   54.195
 4855.00    1.17817   1.15825   49.718
 4856.00    1.19832   1.12789   -1.000
 4857.00    1.18086   1.09474   -1.000
 4858.00    1.14661   1.05036   -1.000
 4859.00    1.07031   0.99118   -1.000
 4860.00    0.95150   0.92863   44.480
 4861.00    0.87841   0.88638   45.107
 4862.00    0.91557   0.88379   46.379
 4863.00    1.02475   0.92123   -1.000
 4864.00    1.10376   0.98176   -1.000
 4865.00    1.14772   1.04483   -1.000
 4866.00    1.18109   1.09786   -1.000
 4867.00    1.20777   1.13644   -1.000
 4868.00    1.21549   1.15971   44.012
 4869.00    1.21448   1.16808   43.734
 4870.00    1.20890   1.16495   43.123
 4871.00    1.18477   1.15833   42.896
 4872.00    1.17619   1.15798   43.397
 4873.00    1.20635   1.16876   44.005
 4874.00    1.23020   1.18693   44.138
 4875.00    1.22823   1.20432   44.081
 4876.00    1.23323   1.21664   44.456
 4877.00    1.23941   1.22633   45.037
 4878.00    1.24395   1.23781   45.126
 4879.00    1.26059   1.25136   44.919
 4880.00    1.27367   1.26260   45.070
 4881.00    1.26870   1.26715   45.861
 4882.00    1.26649   1.26462   46.511
 4883.00    1.27544   1.25808   45.692
 4884.00    1.27191   1.25087   43.717
 4885.00    1.25975   1.24465   41.890
 4886.00    1.25322   1.23990   40.808
 4887.00    1.25475   1.23598   40.223
 4888.00    1.25208   1.23088   40.130
 4889.00    1.23062   1.22323   40.459
 4890.00    1.21192   1.21588   41.390
 4891.00    1.21631   1.21646   42.219
 4892.00    1.23700   1.23180   42.464
 4893.00    1.27761   1.26094   42.318
 4894.00    1.30619   1.29459   42.529
 4895.00    1.31555   1.32188   42.762
 4896.00    1.33038   1.33712   42.122
 4897.00    1.33163   1.34067   41.384
 4898.00    1.31046   1.33566   41.300
 4899.00    1.30044   1.32629   41.897
 4900.00    1.30010   1.31667   42.997
 4901.00    1.30126   1.30928   44.032
 4902.00    1.30153   1.30450   44.201
 4903.00    1.29080   1.30281   43.514
 4904.00    1.28951   1.30565   42.780
 4905.00    1.30111   1.31307   42.208
 4906.00    1.31736   1.32079   41.716
 4907.00    1.31910   1.32215   41.538
 4908.00    1.30431   1.31357   42.163
 4909.00    1.28792   1.29780   43.955
 4910.00    1.28191   1.28224   46.302
 4911.00    1.28360   1.27479   47.948
 4912.00    1.30577   1.27879   47.723
 4913.00    1.31735   1.29142   46.052
 4914.00    1.31580   1.30553   44.713
 4915.00    1.32546   1.31313   44.286
 4916.00    1.32183   1.30753   44.076
 4917.00    1.30145   1.28583   43.289
 4918.00    1.26814   1.25200   42.264
 4919.00    1.23240   1.21687   41.643
 4920.00    1.21241   1.19260   41.297
 4921.00    1.21052   1.18539   41.028
 4922.00    1.22599   1.19261   41.012
 4923.00    1.24693   1.20728   41.688
 4924.00    1.25369   1.22489   42.985
 4925.00    1.27047   1.24510   44.040
 4926.00    1.29986   1.26816   43.782
 4927.00    1.31816   1.29150   43.248
 4928.00    1.32783   1.31109   43.711
 4929.00    1.33844   1.32357   45.010
 4930.00    1.34346   1.32654   45.646
 4931.00    1.33652   1.31896   44.767
 4932.00    1.31518   1.30268   43.245
 4933.00    1.27936   1.28386   42.079
 4934.00    1.25874   1.27019   41.462
 4935.00    1.26652   1.26464   41.246
 4936.00    1.28123   1.26273   41.386
 4937.00    1.27815   1.25852   41.610
 4938.00    1.25549   1.25244   41.515
 4939.00    1.24517   1.25187   41.083
 4940.00    1.26656   1.26296   40.733
 4941.00    1.29850   1.28361   40.598
 4942.00    1.32279   1.30556   40.575
 4943.00    1.34024   1.32092   40.823
 4944.00    1.34554   1.32713   41.182
 4945.00    1.33590   1.32714   41.680
 4946.00    1.33079   1.32602   42.436
 4947.00    1.33390   1.32777   44.002
 4948.00    1.34160   1.33299   46.119
 4949.00    1.35054   1.33895   46.836
 4950.00    1.34920   1.34202   45.101
 4951.00    1.34824   1.34078   42.902
 4952.00    1.34741   1.33638   41.910
 4953.00    1.34166   1.32961   41.821
 4954.00    1.33136   1.31808   42.085
 4955.00    1.31494   1.29814   42.492
 4956.00    1.28054   1.27122   43.166
 4957.00    1.24637   1.24738   43.948
 4958.00    1.25131   1.24014   44.278
 4959.00    1.28421   1.25457   44.218
 4960.00    1.32576   1.28200   44.002
 4961.00    1.34683   1.30820   43.609
 4962.00    1.34502   1.32362   43.139
 4963.00    1.33876   1.32707   42.652
 4964.00    1.33230   1.32166   42.185
 4965.00    1.31744   1.31135   41.886
 4966.00    1.31088   1.30012   41.919
 4967.00    1.31307   1.29132   42.286
 4968.00    1.31664   1.28700   42.793
 4969.00    1.31794   1.28774   43.430
 4970.00    1.32043   1.29314   44.067
 4971.00    1.32842   1.30198   44.644
 4972.00    1.33716   1.31224   45.647
 4973.00    1.34585   1.32155   47.166
 4974.00    1.34964   1.32782   48.018
 4975.00    1.35211   1.32967   47.582
 4976.00    1.34793   1.32671   46.466
 4977.00    1.33810   1.31968   45.072
 4978.00    1.32912   1.30932   43.777
 4979.00    1.31623   1.29520   43.205
 4980.00    1.29970   1.27585   43.536
 4981.00    1.27302   1.25093   44.103
 4982.00    1.25111   1.22464   44.355
 4983.00    1.25017   1.20582   44.173
 4984.00    1.25818   1.20278   43.867
 4985.00    1.27199   1.21692   43.762
 4986.00    1.30359   1.24144   43.648
 4987.00    1.32492   1.26562   43.422
 4988.00    1.32043   1.28117   43.431
 4989.00    1.31306   1.28566   43.854
 4990.00    1.30846   1.28208   44.591
 4991.00    1.30511   1.27649   45.340
 4992.00    1.30690   1.27388   45.647
 4993.00    1.30980   1.27593   45.446
 4994.00    1.32149   1.28146   45.069
 4995.00    1.33792   1.28798   45.226
 4996.00    1.34063   1.29245   46.137
 4997.00    1.33431   1.29164   46.884
 4998.00    1.32325   1.28346   46.433
 4999.00    1.31412   1.26893   45.131
 5000.00    1.30705   1.25280   44.188
 5001.00    1.29833   1.24106   44.245
 5002.00    1.30425   1.23613   -1.000
 5003.00    1.31523   1.23482   -1.000
 5004.00    1.31539   1.23151   -1.000
 5005.00    1.29710   1.22475   -1.000
 5006.00    1.27595   1.21981   47.946
 5007.00    1.28301   1.22341   46.898
 5008.00    1.31040   1.23617   -1.000
 5009.00    1.32631   1.25004   -1.000
 5010.00    1.32076   1.25491   -1.000
 5011.00    1.30313   1.24643   45.513
 5012.00    1.27603   1.22856   45.437
 5013.00    1.25119   1.21049   45.596
 5014.00    1.24662   1.19953   45.508
 5015.00    1.26102   1.19692   45.125
 5016.00    1.27996   1.19843   -1.000
 5017.00    1.28574   1.20045   -1.000
 5018.00    1.28426   1.20351   -1.000
 5019.00    1.29223   1.21019   -1.000
 5020.00    1.30113   1.22073   -1.000
 5021.00    1.30506   1.23184   -1.000
 5022.00    1.30470   1.24099   42.762
 5023.00    1.30781   1.24907   42.171
 5024.00    1.31500   1.25710   41.984
 5025.00    1.30760   1.26387   42.740
 5026.00    1.30276   1.26710   44.314
 5027.00    1.31183   1.26712   45.538
 5028.00    1.32512   1.26760   45.956
 5029.00    1.33705   1.27170   46.329
 5030.00    1.34278   1.27994   47.583
 5031.00    1.34445   1.29060   49.523
 5032.00    1.35572   1.29993   50.453
 5033.00    1.35853   1.30301   49.056
 5034.00    1.33820   1.29673   46.264
 5035.00    1.31674   1.28249   43.935
 5036.00    1.30128   1.26538   42.642
 5037.00    1.30653   1.24904   41.335
 5038.00    1.26421   1.23188   41.317
 5039.00    0.85562   1.21190   -1.000
 5040.00    0.37349   1.19268   -1.000
 5041.00    0.16357   1.18451   -1.000
 5042.00    0.67565   1.19605   -1.000
 5043.00    1.26607   1.22534   44.710
 5044.00    1.35050   1.26152   -1.000
 5045.00    1.34861   1.29166   42.688
 5046.00    1.36076   1.30751   42.128
 5047.00    1.35561   1.30744   41.885
 5048.00    1.34308   1.29450   41.877
 5049.00    1.32000   1.27532   41.958
 5050.00    1.29968   1.25791   41.981
 5051.00    1.30386   1.24957   41.804
 5052.00    1.32294   1.25373   41.695
 5053.00    1.34155   1.26817   -1.000
 5054.00    1.35895   1.28657   -1.000
 5055.00    1.36710   1.30243   44.439
 5056.00    1.37060   1.31324   45.400
 5057.00    1.37013   1.32099   45.263
 5058.00    1.36482   1.32743   44.612
 5059.00    1.36400   1.33254   44.253
 5060.00    1.37120   1.33536   44.079
 5061.00    1.37666   1.33415   43.818
 5062.00    1.36971   1.32681   43.916
 5063.00    1.35423   1.31296   44.279
 5064.00    1.33371   1.29547   44.082
 5065.00    1.32310   1.28021   43.644
 5066.00    1.33041   1.27203   43.479
 5067.00    1.34098   1.27078   -1.000
 5068.00    1.34504   1.27328   -1.000
 5069.00    1.35317   1.27600   -1.000
 5070.00    1.35935   1.27708   -1.000
 5071.00    1.35068   1.27596   -1.000
 5072.00    1.34665   1.27339   -1.000
 5073.00    1.34986   1.27160   -1.000
 5074.00    1.34894   1.27246   -1.000
 5075.00    1.35475   1.27480   -1.000
 5076.00    1.36991   1.27442   -1.000
 5077.00    1.36154   1.26712   -1.000
 5078.00    1.33086   1.25250   -1.000
 5079.00    1.29426   1.23550   43.330
 5080.00    1.28019   1.22326   43.047
 5081.00    1.29734   1.22085   -1.000
 5082.00    1.31613   1.22769   -1.000
 5083.00    1.32998   1.23996   -1.000
 5084.00    1.33852   1.25445   -1.000
 5085.00    1.35088   1.26887   -1.000
 5086.00    1.36501   1.28174   -1.000
 5087.00    1.36433   1.29159   -1.000
 5088.00    1.36922   1.29840   -1.000
 5089.00    1.37926   1.30363   -1.000
 5090.00    1.38306   1.30875   -1.000
 5091.00    1.37715   1.31455   45.202
 5092.00    1.38273   1.32048   43.934
 5093.00    1.39226   1.32416   -1.000
 5094.00    1.38500   1.32198   43.300
 5095.00    1.38503   1.31126   -1.000
 5096.00    1.37465   1.29286   -1.000
 5097.00    1.35373   1.27191   -1.000
 5098.00    1.33276   1.25558   -1.000
 5099.00    1.32839   1.24956   -1.000
 5100.00    1.34224   1.25516   -1.000
 5101.00    1.36522   1.26828   -1.000
 5102.00    1.38213   1.28207   -1.000
 5103.00    1.38161   1.29026   -1.000
 5104.00    1.37124   1.29012   -1.000
 5105.00    1.35355   1.28293   -1.000
 5106.00    1.34388   1.27184   -1.000
 5107.00    1.33525   1.26097   -1.000
 5108.00    1.32110   1.25410   41.901
 5109.00    1.31957   1.25376   41.880
 5110.00    1.32498   1.26038   42.306
 5111.00    1.34531   1.27210   -1.000
 5112.00    1.37318   1.28599   -1.000
 5113.00    1.38313   1.29913   -1.000
 5114.00    1.38162   1.30977   -1.000
 5115.00    1.38441   1.31820   -1.000
 5116.00    1.39412   1.32469   -1.000
 5117.00    1.40608   1.32880   -1.000
 5118.00    1.41053   1.32886   -1.000
 5119.00    1.40374   1.32353   -1.000
 5120.00    1.38928   1.31296   -1.000
 5121.00    1.37775   1.29860   -1.000
 5122.00    1.36079   1.28265   -1.000
 5123.00    1.33625   1.26746   -1.000
 5124.00    1.32814   1.25535   -1.000
 5125.00    1.33126   1.24777   -1.000
 5126.00    1.33460   1.24457   -1.000
 5127.00    1.33846   1.24389   -1.000
 5128.00    1.34483   1.24451   -1.000
 5129.00    1.34724   1.24675   -1.000
 5130.00    1.35465   1.25172   -1.000
 5131.00    1.35736   1.25923   -1.000
 5132.00    1.35882   1.26787   -1.000
 5133.00    1.36625   1.27577   -1.000
 5134.00    1.37892   1.28136   -1.000
 5135.00    1.37584   1.28293   -1.000
 5136.00    1.36935   1.27900   -1.000
 5137.00    1.35346   1.26985   -1.000
 5138.00    1.33007   1.25834   -1.000
 5139.00    1.32093   1.24872   -1.000
 5140.00    1.32912   1.24345   -1.000
 5141.00    1.33453   1.24264   -1.000
 5142.00    1.33026   1.24471   -1.000
 5143.00    1.33341   1.24822   -1.000
 5144.00    1.34987   1.25209   -1.000
 5145.00    1.35578   1.25463   -1.000
 5146.00    1.35037   1.25492   -1.000
 5147.00    1.35437   1.25414   -1.000
 5148.00    1.37051   1.25400   -1.000
 5149.00    1.36730   1.25471   -1.000
 5150.00    1.35180   1.25412   -1.000
 5151.00    1.35574   1.25023   -1.000
 5152.00    1.35247   1.24497   -1.000
 5153.00    1.35175   1.24253   -1.000
 5154.00    1.36272   1.24662   -1.000
 5155.00    1.37476   1.25827   -1.000
 5156.00    1.40527   1.27499   -1.000
 5157.00    1.42362   1.29218   -1.000
 5158.00    1.43348   1.30541   -1.000
 5159.00    1.43936   1.31260   -1.000
 5160.00    1.42814   1.31334   -1.000
 5161.00    1.42337   1.30816   -1.000
 5162.00    1.41193   1.29698   -1.000
 5163.00    1.40691   1.27771   -1.000
 5164.00    1.39453   1.24635   -1.000
 5165.00    1.34486   1.20168   -1.000
 5166.00    1.27272   1.14952   -1.000
 5167.00    1.20119   1.10485   -1.000
 5168.00    1.18602   1.08151   -1.000
 5169.00    1.23728   1.07909   -1.000
 5170.00    1.26294   1.08562   -1.000
 5171.00    1.24568   1.08787   -1.000
 5172.00    1.21253   1.08861   -1.000
 5173.00    1.22838   1.10273   -1.000
 5174.00    1.30012   1.13769   -1.000
 5175.00    1.37403   1.18757   -1.000
 5176.00    1.41485   1.23495   -1.000
 5177.00    1.42002   1.26696   -1.000
 5178.00    1.41623   1.28071   -1.000
 5179.00    1.41892   1.27553   -1.000
 5180.00    1.40889   1.25121   -1.000
 5181.00    1.37336   1.20871   -1.000
 5182.00    1.31220   1.15768   -1.000
 5183.00    1.24310   1.11721   -1.000
 5184.00    1.23308   1.10483   -1.000
 5185.00    1.29009   1.12574   -1.000
 5186.00    1.35527   1.16631   -1.000
 5187.00    1.40378   1.20700   -1.000
 5188.00    1.42491   1.23479   -1.000
 5189.00    1.41843   1.24674   -1.000
 5190.00    1.40661   1.24725   -1.000
 5191.00    1.39399   1.24087   -1.000
 5192.00    1.37259   1.23234   -1.000
 5193.00    1.36117   1.22699   -1.000
 5194.00    1.35310   1.22757   -1.000
 5195.00    1.35051   1.23295   -1.000
 5196.00    1.36456   1.24191   -1.000
 5197.00    1.36639   1.25367   -1.000
 5198.00    1.38065   1.26802   -1.000
 5199.00    1.39488   1.28253   -1.000
 5200.00    1.40284   1.29229   -1.000
 5201.00    1.40209   1.29292   -1.000
 5202.00    1.39098   1.28249   -1.000
 5203.00    1.36279   1.26245   -1.000
 5204.00    1.33254   1.23752   -1.000
 5205.00    1.32331   1.21400   -1.000
 5206.00    1.31402   1.19722   -1.000
 5207.00    1.31459   1.18963   -1.000
 5208.00    1.31417   1.19169   -1.000
 5209.00    1.32840   1.20296   -1.000
 5210.00    1.36196   1.22324   -1.000
 5211.00    1.38649   1.24989   -1.000
 5212.00    1.41379   1.27649   -1.000
 5213.00    1.43532   1.29495   -1.000
 5214.00    1.42005   1.29995   -1.000
 5215.00    1.40180   1.29435   -1.000
 5216.00    1.38744   1.28660   -1.000
 5217.00    1.38834   1.28621   -1.000
 5218.00    1.40888   1.29650   -1.000
 5219.00    1.42613   1.31351   -1.000
 5220.00    1.43263   1.32982   -1.000
 5221.00    1.43595   1.33843   -1.000
 5222.00    1.42932   1.33573   -1.000
 5223.00    1.41932   1.31938   -1.000
 5224.00    1.39401   1.28990   -1.000
 5225.00    1.33554   1.25372   -1.000
 5226.00    1.28728   1.22282   42.959
 5227.00    1.28752   1.21032   -1.000
 5228.00    1.32917   1.22057   -1.000
 5229.00    1.37789   1.24487   -1.000
 5230.00    1.40716   1.26867   -1.000
 5231.00    1.41399   1.28022   -1.000
 5232.00    1.39753   1.27893   -1.000
 5233.00    1.37106   1.27227   -1.000
 5234.00    1.37670   1.26997   -1.000
 5235.00    1.39367   1.27778   -1.000
 5236.00    1.40861   1.29459   -1.000
 5237.00    1.43535   1.31402   -1.000
 5238.00    1.44014   1.32968   -1.000
 5239.00    1.43797   1.33915   -1.000
 5240.00    1.44035   1.34295   -1.000
 5241.00    1.44147   1.34380   -1.000
 5242.00    1.43314   1.34427   -1.000
 5243.00    1.44752   1.34536   -1.000
 5244.00    1.45531   1.34546   -1.000
 5245.00    1.44443   1.34169   -1.000
 5246.00    1.42885   1.33218   -1.000
 5247.00    1.40075   1.31871   -1.000
 5248.00    1.39386   1.30578   -1.000
 5249.00    1.39013   1.29676   -1.000
 5250.00    1.38274   1.29303   -1.000
 5251.00    1.37257   1.29366   -1.000
 5252.00    1.39167   1.29678   -1.000
 5253.00    1.40524   1.30056   -1.000
 5254.00    1.40681   1.30493   -1.000
 5255.00    1.41358   1.31150   -1.000
 5256.00    1.43685   1.32205   -1.000
 5257.00    1.46087   1.33479   -1.000
 5258.00    1.47303   1.34352   -1.000
 5259.00    1.47609   1.34170   -1.000
 5260.00    1.45118   1.32547   -1.000
 5261.00    1.41354   1.29636   -1.000
 5262.00    1.37950   1.25999   -1.000
 5263.00    1.34983   1.22423   -1.000
 5264.00    1.32489   1.19701   -1.000
 5265.00    1.31397   1.18254   -1.000
 5266.00    1.32585   1.17876   -1.000
 5267.00    1.34056   1.17901   -1.000
 5268.00    1.32715   1.17651   -1.000
 5269.00    1.29028   1.17235   -1.000
 5270.00    1.28841   1.17446   -1.000
 5271.00    1.33824   1.18775   -1.000
 5272.00    1.37827   1.21025   -1.000
 5273.00    1.39231   1.23272   -1.000
 5274.00    1.39517   1.24948   -1.000
 5275.00    1.39420   1.26347   -1.000
 5276.00    1.41191   1.27962   -1.000
 5277.00    1.39826   1.29942   -1.000
 5278.00    1.40875   1.31721   -1.000
 5279.00    1.45575   1.32560   -1.000
 5280.00    1.44434   1.32137   -1.000
 5281.00    1.42969   1.30771   -1.000
 5282.00    1.40611   1.29305   -1.000
 5283.00    1.38555   1.28594   -1.000
 5284.00    1.39921   1.29163   -1.000
 5285.00    1.43859   1.30954   -1.000
 5286.00    1.45960   1.33365   -1.000
 5287.00    1.47217   1.35540   -1.000
 5288.00    1.47833   1.37000   -1.000
 5289.00    1.47408   1.37723   -1.000
 5290.00    1.47373   1.37964   -1.000
 5291.00    1.48110   1.37956   -1.000
 5292.00    1.47161   1.37719   -1.000
 5293.00    1.45639   1.37178   -1.000
 5294.00    1.46922   1.36177   -1.000
 5295.00    1.45378   1.34526   -1.000
 5296.00    1.42071   1.32404   -1.000
 5297.00    1.39813   1.30417   -1.000
 5298.00    1.38866   1.29233   -1.000
 5299.00    1.40054   1.29206   -1.000
 5300.00    1.42677   1.30061   -1.000
 5301.00    1.42836   1.31281   -1.000
 5302.00    1.42827   1.32615   -1.000
 5303.00    1.44496   1.33913   -1.000
 5304.00    1.47139   1.35085   -1.000
 5305.00    1.48268   1.35900   -1.000
 5306.00    1.46373   1.36209   -1.000
 5307.00    1.45533   1.36286   -1.000
 5308.00    1.46466   1.36484   -1.000
 5309.00    1.47757   1.36972   -1.000
 5310.00    1.48339   1.37604   -1.000
 5311.00    1.48026   1.37994   -1.000
 5312.00    1.48479   1.37875   -1.000
 5313.00    1.47976   1.37161   -1.000
 5314.00    1.48347   1.35947   -1.000
 5315.00    1.47585   1.34553   -1.000
 5316.00    1.45096   1.33464   -1.000
 5317.00    1.44723   1.33145   -1.000
 5318.00    1.46872   1.33691   -1.000
 5319.00    1.48969   1.34621   -1.000
 5320.00    1.47944   1.35226   -1.000
 5321.00    1.46577   1.34969   -1.000
 5322.00    1.45644   1.33830   -1.000
 5323.00    1.43312   1.32159   -1.000
 5324.00    1.42462   1.30268   -1.000
 5325.00    1.43252   1.28273   -1.000
 5326.00    1.41543   1.26066   -1.000
 5327.00    1.35104   1.23925   -1.000
 5328.00    1.31918   1.22564   -1.000
 5329.00    1.36140   1.22826   -1.000
 5330.00    1.40924   1.24888   -1.000
 5331.00    1.45028   1.27796   -1.000
 5332.00    1.45237   1.30474   -1.000
 5333.00    1.44645   1.32281   -1.000
 5334.00    1.46248   1.33266   -1.000
 5335.00    1.47088   1.33710   -1.000
 5336.00    1.45796   1.33672   -1.000
 5337.00    1.45584   1.33126   -1.000
 5338.00    1.45045   1.32128   -1.000
 5339.00    1.43672   1.30925   -1.000
 5340.00    1.41497   1.29988   -1.000
 5341.00    1.42154   1.29829   -1.000
 5342.00    1.44976   1.30590   -1.000
 5343.00    1.46195   1.31782   -1.000
 5344.00    1.47514   1.32720   -1.000
 5345.00    1.45561   1.32921   -1.000
 5346.00    1.45106   1.32531   -1.000
 5347.00    1.45205   1.31988   -1.000
 5348.00    1.44105   1.31688   -1.000
 5349.00    1.44755   1.31882   -1.000
 5350.00    1.45341   1.32591   -1.000
 5351.00    1.47575   1.33682   -1.000
 5352.00    1.47962   1.34890   -1.000
 5353.00    1.47544   1.36024   -1.000
 5354.00    1.48465   1.37011   -1.000
 5355.00    1.49615   1.37893   -1.000
 5356.00    1.48917   1.38644   -1.000
 5357.00    1.50002   1.39119   -1.000
 5358.00    1.51526   1.39224   -1.000
 5359.00    1.51436   1.38884   -1.000
 5360.00    1.50042   1.38072   -1.000
 5361.00    1.49423   1.36830   -1.000
 5362.00    1.49029   1.35326   -1.000
 5363.00    1.47488   1.33888   -1.000
 5364.00    1.45929   1.32815   -1.000
 5365.00    1.44770   1.32203   -1.000
 5366.00    1.45013   1.31878   -1.000
 5367.00    1.45288   1.31467   -1.000
 5368.00    1.44323   1.30619   -1.000
 5369.00    1.42145   1.29260   -1.000
 5370.00    1.40954   1.27845   -1.000
 5371.00    1.40103   1.27137   -1.000
 5372.00    1.41238   1.27805   -1.000
 5373.00    1.44364   1.29841   -1.000
 5374.00    1.47755   1.32514   -1.000
 5375.00    1.48927   1.34910   -1.000
 5376.00    1.50196   1.36367   -1.000
 5377.00    1.50983   1.36857   -1.000
 5378.00    1.50427   1.36606   -1.000
 5379.00    1.48958   1.35936   -1.000
 5380.00    1.47888   1.35102   -1.000
 5381.00    1.48093   1.34327   -1.000
 5382.00    1.47414   1.33828   -1.000
 5383.00    1.47766   1.33788   -1.000
 5384.00    1.48233   1.34275   -1.000
 5385.00    1.49694   1.35121   -1.000
 5386.00    1.50196   1.35950   -1.000
 5387.00    1.50722   1.36373   -1.000
 5388.00    1.50308   1.36175   -1.000
 5389.00    1.48960   1.35449   -1.000
 5390.00    1.48210   1.34426   -1.000
 5391.00    1.46783   1.33348   -1.000
 5392.00    1.45964   1.32410   -1.000
 5393.00    1.45874   1.31638   -1.000
 5394.00    1.46200   1.30874   -1.000
 5395.00    1.45635   1.29998   -1.000
 5396.00    1.43487   1.29052   -1.000
 5397.00    1.42277   1.28453   -1.000
 5398.00    1.44142   1.28647   -1.000
 5399.00    1.46681   1.29605   -1.000
 5400.00    1.47143   1.30845   -1.000
 5401.00    1.47472   1.31579   -1.000
 5402.00    1.47049   1.31269   -1.000
 5403.00    1.44894   1.29919   -1.000
 5404.00    1.41548   1.28069   -1.000
 5405.00    1.39482   1.26536   -1.000
 5406.00    1.40484   1.25976   -1.000
 5407.00    1.42897   1.26361   -1.000
 5408.00    1.44450   1.27125   -1.000
 5409.00    1.43631   1.27860   -1.000
 5410.00    1.43242   1.28503   -1.000
 5411.00    1.44709   1.29358   -1.000
 5412.00    1.46619   1.30477   -1.000
 5413.00    1.48090   1.31575   -1.000
 5414.00    1.49097   1.32479   -1.000
 5415.00    1.47873   1.33211   -1.000
 5416.00    1.48376   1.33935   -1.000
 5417.00    1.49562   1.34655   -1.000
 5418.00    1.49114   1.35148   -1.000
 5419.00    1.49281   1.35310   -1.000
 5420.00    1.49788   1.35160   -1.000
 5421.00    1.50634   1.34747   -1.000
 5422.00    1.49105   1.34153   -1.000
 5423.00    1.47154   1.33501   -1.000
 5424.00    1.46447   1.33098   -1.000
 5425.00    1.46837   1.33216   -1.000
 5426.00    1.49085   1.33590   -1.000
 5427.00    1.49687   1.33666   -1.000
 5428.00    1.47613   1.33008   -1.000
 5429.00    1.44149   1.31804   -1.000
 5430.00    1.42796   1.30802   -1.000
 5431.00    1.43831   1.30328   -1.000
 5432.00    1.45329   1.30230   -1.000
 5433.00    1.44023   1.30147   -1.000
 5434.00    1.42535   1.30066   -1.000
 5435.00    1.42121   1.30477   -1.000
 5436.00    1.44078   1.31701   -1.000
 5437.00    1.47477   1.33616   -1.000
 5438.00    1.49338   1.35673   -1.000
 5439.00    1.49950   1.37307   -1.000
 5440.00    1.51210   1.38306   -1.000
 5441.00    1.51569   1.38620   -1.000
 5442.00    1.51171   1.38293   -1.000
 5443.00    1.50105   1.37170   -1.000
 5444.00    1.47723   1.35256   -1.000
 5445.00    1.44894   1.32956   -1.000
 5446.00    1.42395   1.31044   -1.000
 5447.00    1.42186   1.30366   -1.000
 5448.00    1.45852   1.31156   -1.000
 5449.00    1.50507   1.32939   -1.000
 5450.00    1.52230   1.34817   -1.000
 5451.00    1.51189   1.35927   -1.000
 5452.00    1.50228   1.35898   -1.000
 5453.00    1.49430   1.34794   -1.000
 5454.00    1.46726   1.33157   -1.000
 5455.00    1.43820   1.31859   -1.000
 5456.00    1.44304   1.31674   -1.000
 5457.00    1.48045   1.32705   -1.000
 5458.00    1.51606   1.34384   -1.000
 5459.00    1.51718   1.35705   -1.000
 5460.00    1.51168   1.36065   -1.000
 5461.00    1.50900   1.35453   -1.000
 5462.00    1.48519   1.34412   -1.000
 5463.00    1.47443   1.33616   -1.000
 5464.00    1.49119   1.33507   -1.000
 5465.00    1.50985   1.34083   -1.000
 5466.00    1.50632   1.34989   -1.000
 5467.00    1.51005   1.35862   -1.000
 5468.00    1.52261   1.36460   -1.000
 5469.00    1.52292   1.36723   -1.000
 5470.00    1.51582   1.36633   -1.000
 5471.00    1.50844   1.36196   -1.000
 5472.00    1.50926   1.35437   -1.000
 5473.00    1.50381   1.34358   -1.000
 5474.00    1.48824   1.32936   -1.000
 5475.00    1.46274   1.31376   -1.000
 5476.00    1.43565   1.30120   -1.000
 5477.00    1.43010   1.29685   -1.000
 5478.00    1.45085   1.30274   -1.000
 5479.00    1.47743   1.31462   -1.000
 5480.00    1.47922   1.32643   -1.000
 5481.00    1.47996   1.33470   -1.000
 5482.00    1.47890   1.34055   -1.000
 5483.00    1.48972   1.34745   -1.000
 5484.00    1.50224   1.35514   -1.000
 5485.00    1.51553   1.36109   -1.000
 5486.00    1.51634   1.36247   -1.000
 5487.00    1.50259   1.35959   -1.000
 5488.00    1.50029   1.35595   -1.000
 5489.00    1.50343   1.35455   -1.000
 5490.00    1.50160   1.35629   -1.000
 5491.00    1.50830   1.35950   -1.000
 5492.00    1.51529   1.36218   -1.000
 5493.00    1.51668   1.36348   -1.000
 5494.00    1.51917   1.36282   -1.000
 5495.00    1.51148   1.36025   -1.000
 5496.00    1.49382   1.35635   -1.000
 5497.00    1.48714   1.35241   -1.000
 5498.00    1.49223   1.34973   -1.000
 5499.00    1.48775   1.34773   -1.000
 5500.00    1.48374   1.34463   -1.000
 5501.00    1.48289   1.34033   -1.000
 5502.00    1.48520   1.33624   -1.000
 5503.00    1.49834   1.33386   -1.000
 5504.00    1.50926   1.33266   -1.000
 5505.00    1.50697   1.33022   -1.000
 5506.00    1.48925   1.32720   -1.000
 5507.00    1.48552   1.32610   -1.000
 5508.00    1.49711   1.32847   -1.000
 5509.00    1.50380   1.33293   -1.000
 5510.00    1.50750   1.33518   -1.000
 5511.00    1.50880   1.33306   -1.000
 5512.00    1.49643   1.32788   -1.000
 5513.00    1.47843   1.32383   -1.000
 5514.00    1.48279   1.32484   -1.000
 5515.00    1.50477   1.33189   -1.000
 5516.00    1.51582   1.34322   -1.000
 5517.00    1.52172   1.35563   -1.000
 5518.00    1.52865   1.36661   -1.000
 5519.00    1.53329   1.37438   -1.000
 5520.00    1.53173   1.37858   -1.000
 5521.00    1.52214   1.37942   -1.000
 5522.00    1.52432   1.37766   -1.000
 5523.00    1.52704   1.37279   -1.000
 5524.00    1.51770   1.36364   -1.000
 5525.00    1.49701   1.34938   -1.000
 5526.00    1.47533   1.33190   -1.000
 5527.00    1.45448   1.31653   -1.000
 5528.00    1.45120   1.30933   -1.000
 5529.00    1.46718   1.31381   -1.000
 5530.00    1.49576   1.32695   -1.000
 5531.00    1.51769   1.34166   -1.000
 5532.00    1.51763   1.35095   -1.000
 5533.00    1.50928   1.35261   -1.000
 5534.00    1.50353   1.35010   -1.000
 5535.00    1.50676   1.34827   -1.000
 5536.00    1.51121   1.35031   -1.000
 5537.00    1.51605   1.35569   -1.000
 5538.00    1.52321   1.36235   -1.000
 5539.00    1.52511   1.36831   -1.000
 5540.00    1.53022   1.37242   -1.000
 5541.00    1.53519   1.37367   -1.000
 5542.00    1.53286   1.37167   -1.000
 5543.00    1.52560   1.36756   -1.000
 5544.00    1.52193   1.36419   -1.000
 5545.00    1.52553   1.36372   -1.000
 5546.00    1.52823   1.36668   -1.000
 5547.00    1.52857   1.37219   -1.000
 5548.00    1.52929   1.37859   -1.000
 5549.00    1.54026   1.38412   -1.000
 5550.00    1.54853   1.38720   -1.000
 5551.00    1.55137   1.38690   -1.000
 5552.00    1.54194   1.38379   -1.000
 5553.00    1.52674   1.37953   -1.000
 5554.00    1.52676   1.37610   -1.000
 5555.00    1.53417   1.37499   -1.000
 5556.00    1.54130   1.37601   -1.000
 5557.00    1.54091   1.37812   -1.000
 5558.00    1.54160   1.37988   -1.000
 5559.00    1.54107   1.38020   -1.000
 5560.00    1.54087   1.37822   -1.000
 5561.00    1.54343   1.37364   -1.000
 5562.00    1.52080   1.36734   -1.000
 5563.00    1.43731   1.36098   -1.000
 5564.00    1.20236   1.35590   -1.000
 5565.00    0.21555   1.35251   -1.000
 5566.00   -2.38551   1.35024    0.000
 5567.00   -4.11361   1.34834    0.000
 5568.00   -2.56041   1.34637    0.000
 5569.00    0.83265   1.34418   -1.000
 5570.00    3.77542   1.34176   -1.000
 5571.00    3.45592   1.33941   -1.000
 5572.00    1.98184   1.33783   -1.000
 5573.00    1.54579   1.33834   -1.000
 5574.00    1.53117   1.34133   -1.000
 5575.00    1.51480   1.34614   -1.000
 5576.00    1.51327   1.35177   -1.000
 5577.00    1.52088   1.35737   -1.000
 5578.00    1.52995   1.36275   -1.000
 5579.00    1.53496   1.36692   -1.000
 5580.00    1.54460   1.36912   -1.000
 5581.00    1.54968   1.36941   -1.000
 5582.00    1.54397   1.36806   -1.000
 5583.00    1.53541   1.36446   -1.000
 5584.00    1.52491   1.35651   -1.000
 5585.00    1.50548   1.34205   -1.000
 5586.00    1.47897   1.32231   -1.000
 5587.00    1.45324   1.30233   -1.000
 5588.00    1.44363   1.28887   -1.000
 5589.00    1.45820   1.28639   -1.000
 5590.00    1.47606   1.29355   -1.000
 5591.00    1.48721   1.30575   -1.000
 5592.00    1.48976   1.31711   -1.000
 5593.00    1.48902   1.32520   -1.000
 5594.00    1.49640   1.33034   -1.000
 5595.00    1.50773   1.33431   -1.000
 5596.00    1.51434   1.33690   -1.000
 5597.00    1.50704   1.33635   -1.000
 5598.00    1.48942   1.33231   -1.000
 5599.00    1.48148   1.32595   -1.000
 5600.00    1.47877   1.31954   -1.000
 5601.00    1.47280   1.31559   -1.000
 5602.00    1.47033   1.31683   -1.000
 5603.00    1.47859   1.32592   -1.000
 5604.00    1.50183   1.34271   -1.000
 5605.00    1.52852   1.36295   -1.000
 5606.00    1.54702   1.38146   -1.000
 5607.00    1.55113   1.39471   -1.000
 5608.00    1.55081   1.40222   -1.000
 5609.00    1.55014   1.40562   -1.000
 5610.00    1.54941   1.40591   -1.000
 5611.00    1.55165   1.40258   -1.000
 5612.00    1.54649   1.39332   -1.000
 5613.00    1.53365   1.37697   -1.000
 5614.00    1.51059   1.35615   -1.000
 5615.00    1.48510   1.33789   -1.000
 5616.00    1.47837   1.32970   -1.000
 5617.00    1.49421   1.33329   -1.000
 5618.00    1.51345   1.34509   -1.000
 5619.00    1.52138   1.35803   -1.000
 5620.00    1.52598   1.36770   -1.000
 5621.00    1.52848   1.37199   -1.000
 5622.00    1.52146   1.37064   -1.000
 5623.00    1.50769   1.36498   -1.000
 5624.00    1.49996   1.35863   -1.000
 5625.00    1.50602   1.35571   -1.000
 5626.00    1.51603   1.35900   -1.000
 5627.00    1.52574   1.36758   -1.000
 5628.00    1.53739   1.37832   -1.000
 5629.00    1.54281   1.38810   -1.000
 5630.00    1.54832   1.39462   -1.000
 5631.00    1.55763   1.39703   -1.000
 5632.00    1.55517   1.39532   -1.000
 5633.00    1.54067   1.39046   -1.000
 5634.00    1.53099   1.38390   -1.000
 5635.00    1.53050   1.37719   -1.000
 5636.00    1.53143   1.37130   -1.000
 5637.00    1.53084   1.36705   -1.000
 5638.00    1.52104   1.36448   -1.000
 5639.00    1.51402   1.36312   -1.000
 5640.00    1.51351   1.36239   -1.000
 5641.00    1.51476   1.36239   -1.000
 5642.00    1.51932   1.36354   -1.000
 5643.00    1.51858   1.36614   -1.000
 5644.00    1.52536   1.36970   -1.000
 5645.00    1.52957   1.37333   -1.000
 5646.00    1.53245   1.37618   -1.000
 5647.00    1.53892   1.37761   -1.000
 5648.00    1.54259   1.37758   -1.000
 5649.00    1.54862   1.37678   -1.000
 5650.00    1.54377   1.37617   -1.000
 5651.00    1.53928   1.37568   -1.000
 5652.00    1.54051   1.37453   -1.000
 5653.00    1.53364   1.37121   -1.000
 5654.00    1.52469   1.36466   -1.000
 5655.00    1.51392   1.35444   -1.000
 5656.00    1.50102   1.34115   -1.000
 5657.00    1.47808   1.32748   -1.000
 5658.00    1.45911   1.31774   -1.000
 5659.00    1.46599   1.31511   -1.000
 5660.00    1.48874   1.31934   -1.000
 5661.00    1.50052   1.32721   -1.000
 5662.00    1.50029   1.33557   -1.000
 5663.00    1.50308   1.34384   -1.000
 5664.00    1.51031   1.35186   -1.000
 5665.00    1.51765   1.35861   -1.000
 5666.00    1.52082   1.36247   -1.000
 5667.00    1.51334   1.36329   -1.000
 5668.00    1.50893   1.36307   -1.000
 5669.00    1.51355   1.36433   -1.000
 5670.00    1.51943   1.36805   -1.000
 5671.00    1.52474   1.37365   -1.000
 5672.00    1.53243   1.37941   -1.000
 5673.00    1.53866   1.38404   -1.000
 5674.00    1.53623   1.38677   -1.000
 5675.00    1.53767   1.38808   -1.000
 5676.00    1.54079   1.38842   -1.000
 5677.00    1.53994   1.38797   -1.000
 5678.00    1.53684   1.38600   -1.000
 5679.00    1.52538   1.38150   -1.000
 5680.00    1.52109   1.37407   -1.000
 5681.00    1.52102   1.36458   -1.000
 5682.00    1.51440   1.35512   -1.000
 5683.00    1.50524   1.34818   -1.000
 5684.00    1.50415   1.34510   -1.000
 5685.00    1.51161   1.34498   -1.000
 5686.00    1.51378   1.34568   -1.000
 5687.00    1.50766   1.34596   -1.000
 5688.00    1.50811   1.34662   -1.000
 5689.00    1.51584   1.34984   -1.000
 5690.00    1.53291   1.35634   -1.000
 5691.00    1.53075   1.36485   -1.000
 5692.00    1.52990   1.37306   -1.000
 5693.00    1.52263   1.37926   -1.000
 5694.00    1.51872   1.38315   -1.000
 5695.00    1.52214   1.38467   -1.000
 5696.00    1.52233   1.38396   -1.000
 5697.00    1.52187   1.38063   -1.000
 5698.00    1.52579   1.37506   -1.000
 5699.00    1.52460   1.36817   -1.000
 5700.00    1.50708   1.36162   -1.000
 5701.00    1.49602   1.35704   -1.000
 5702.00    1.49494   1.35495   -1.000
 5703.00    1.51139   1.35473   -1.000
 5704.00    1.51954   1.35411   -1.000
 5705.00    1.50595   1.35098   -1.000
 5706.00    1.49319   1.34414   -1.000
 5707.00    1.48180   1.33419   -1.000
 5708.00    1.47117   1.32339   -1.000
 5709.00    1.45877   1.31498   -1.000
 5710.00    1.45427   1.31218   -1.000
 5711.00    1.45847   1.31666   -1.000
 5712.00    1.48265   1.32781   -1.000
 5713.00    1.50423   1.34252   -1.000
 5714.00    1.51024   1.35709   -1.000
 5715.00    1.52160   1.36842   -1.000
 5716.00    1.52902   1.37625   -1.000
 5717.00    1.52922   1.38172   -1.000
 5718.00    1.52591   1.38669   -1.000
 5719.00    1.51994   1.39180   -1.000
 5720.00    1.52344   1.39694   -1.000
 5721.00    1.53167   1.40147   -1.000
 5722.00    1.53643   1.40468   -1.000
 5723.00    1.53749   1.40588   -1.000
 5724.00    1.53218   1.40472   -1.000
 5725.00    1.52276   1.40117   -1.000
 5726.00    1.51343   1.39635   -1.000
 5727.00    1.51517   1.39190   -1.000
 5728.00    1.52734   1.38925   -1.000
 5729.00    1.52614   1.38865   -1.000
 5730.00    1.52172   1.38901   -1.000
 5731.00    1.52591   1.38982   -1.000
 5732.00    1.51865   1.39125   -1.000
 5733.00    1.52147   1.39396   -1.000
 5734.00    1.52993   1.39768   -1.000
 5735.00    1.52615   1.40109   -1.000
 5736.00    1.52538   1.40319   -1.000
 5737.00    1.53313   1.40378   -1.000
 5738.00    1.53243   1.40360   -1.000
 5739.00    1.52577   1.40304   -1.000
 5740.00    1.52073   1.40217   -1.000
 5741.00    1.52050   1.40089   -1.000
 5742.00    1.51887   1.39984   -1.000
 5743.00    1.52724   1.39953   -1.000
 5744.00    1.52759   1.40002   -1.000
 5745.00    1.52689   1.40026   -1.000
 5746.00    1.53128   1.39962   -1.000
 5747.00    1.51985   1.39836   -1.000
 5748.00    1.51760   1.39727   -1.000
 5749.00    1.53286   1.39631   -1.000
 5750.00    1.53000   1.39386   -1.000
 5751.00    1.52442   1.38872   -1.000
 5752.00    1.50497   1.38174   -1.000
 5753.00    1.49153   1.37599   -1.000
 5754.00    1.48808   1.37508   -1.000
 5755.00    1.50192   1.37981   -1.000
 5756.00    1.51382   1.38844   -1.000
 5757.00    1.52328   1.39688   -1.000
 5758.00    1.52858   1.40188   -1.000
 5759.00    1.52490   1.40169   -1.000
 5760.00    1.52030   1.39712   -1.000
 5761.00    1.51433   1.39061   -1.000
 5762.00    1.50569   1.38602   -1.000
 5763.00    1.50124   1.38622   -1.000
 5764.00    1.50633   1.39183   -1.000
 5765.00    1.50844   1.40040   -1.000
 5766.00    1.51292   1.40820   -1.000
 5767.00    1.51891   1.41287   -1.000
 5768.00    1.50697   1.41390   -1.000
 5769.00    1.47683   1.41237   -1.000
 5770.00    1.45463   1.40929   42.653
 5771.00    1.45730   1.40542   43.258
 5772.00    1.46671   1.40130   -1.000
 5773.00    1.48759   1.39779   -1.000
 5774.00    1.51194   1.39558   -1.000
 5775.00    1.51750   1.39500   -1.000
 5776.00    1.52131   1.39502   -1.000
 5777.00    1.52227   1.39361   -1.000
 5778.00    1.51461   1.38869   -1.000
 5779.00    1.51089   1.38016   -1.000
 5780.00    1.51810   1.36996   -1.000
 5781.00    1.51201   1.36145   -1.000
 5782.00    1.50530   1.35664   -1.000
 5783.00    1.49900   1.35599   -1.000
 5784.00    1.49518   1.35845   -1.000
 5785.00    1.49971   1.36299   -1.000
 5786.00    1.49545   1.36912   -1.000
 5787.00    1.49642   1.37579   -1.000
 5788.00    1.50165   1.38133   -1.000
 5789.00    1.49485   1.38432   -1.000
 5790.00    1.49850   1.38498   -1.000
 5791.00    1.50787   1.38549   -1.000
 5792.00    1.52688   1.38780   -1.000
 5793.00    1.52975   1.39227   -1.000
 5794.00    1.52729   1.39745   -1.000
 5795.00    1.52034   1.40131   -1.000
 5796.00    1.51726   1.40280   -1.000
 5797.00    1.52164   1.40248   -1.000
 5798.00    1.52349   1.40236   -1.000
 5799.00    1.53034   1.40381   -1.000
 5800.00    1.53616   1.40670   -1.000
 5801.00    1.53804   1.40940   -1.000
 5802.00    1.54025   1.41015   -1.000
 5803.00    1.53025   1.40844   -1.000
 5804.00    1.52264   1.40512   -1.000
 5805.00    1.52429   1.40213   -1.000
 5806.00    1.52977   1.40092   -1.000
 5807.00    1.52999   1.40190   -1.000
 5808.00    1.52565   1.40427   -1.000
 5809.00    1.52886   1.40717   -1.000
 5810.00    1.53072   1.40981   -1.000
 5811.00    1.53036   1.41154   -1.000
 5812.00    1.53167   1.41161   -1.000
 5813.00    1.53651   1.40985   -1.000
 5814.00    1.52858   1.40679   -1.000
 5815.00    1.52663   1.40395   -1.000
 5816.00    1.52573   1.40306   -1.000
 5817.00    1.52758   1.40505   -1.000
 5818.00    1.54261   1.40914   -1.000
 5819.00    1.53615   1.41355   -1.000
 5820.00    1.53260   1.41676   -1.000
 5821.00    1.53220   1.41860   -1.000
 5822.00    1.53466   1.41956   -1.000
 5823.00    1.53978   1.42014   -1.000
 5824.00    1.53270   1.42047   -1.000
 5825.00    1.53772   1.42075   -1.000
 5826.00    1.54195   1.42119   -1.000
 5827.00    1.53465   1.42197   -1.000
 5828.00    1.53092   1.42274   -1.000
 5829.00    1.53771   1.42317   -1.000
 5830.00    1.54253   1.42300   -1.000
 5831.00    1.53455   1.42216   -1.000
 5832.00    1.53214   1.42066   -1.000
 5833.00    1.53695   1.41872   -1.000
 5834.00    1.53122   1.41708   -1.000
 5835.00    1.51460   1.41653   -1.000
 5836.00    1.51815   1.41743   -1.000
 5837.00    1.53227   1.41917   -1.000
 5838.00    1.53881   1.42097   -1.000
 5839.00    1.52491   1.42224   -1.000
 5840.00    1.51972   1.42302   -1.000
 5841.00    1.52390   1.42325   -1.000
 5842.00    1.52315   1.42278   -1.000
 5843.00    1.52978   1.42131   -1.000
 5844.00    1.53065   1.41877   -1.000
 5845.00    1.53114   1.41542   -1.000
 5846.00    1.54522   1.41208   -1.000
 5847.00    1.53885   1.40952   -1.000
 5848.00    1.53353   1.40807   -1.000
 5849.00    1.54510   1.40658   -1.000
 5850.00    1.53433   1.40363   -1.000
 5851.00    1.52403   1.39822   -1.000
 5852.00    1.52142   1.39094   -1.000
 5853.00    1.50914   1.38307   -1.000
 5854.00    1.50646   1.37533   -1.000
 5855.00    1.51131   1.36763   -1.000
 5856.00    1.50357   1.35973   -1.000
 5857.00    1.49525   1.35342   -1.000
 5858.00    1.49929   1.35160   -1.000
 5859.00    1.51137   1.35547   -1.000
 5860.00    1.52417   1.36374   -1.000
 5861.00    1.52764   1.37318   -1.000
 5862.00    1.51819   1.38135   -1.000
 5863.00    1.51637   1.38728   -1.000
 5864.00    1.53392   1.39040   -1.000
 5865.00    1.52391   1.39093   -1.000
 5866.00    1.51589   1.39011   -1.000
 5867.00    1.51632   1.38994   -1.000
 5868.00    1.51629   1.39235   -1.000
 5869.00    1.53099   1.39711   -1.000
 5870.00    1.53225   1.40236   -1.000
 5871.00    1.52877   1.40578   -1.000
 5872.00    1.53289   1.40628   -1.000
 5873.00    1.53803   1.40435   -1.000
 5874.00    1.51741   1.40135   -1.000
 5875.00    1.50599   1.39826   -1.000
 5876.00    1.46373   1.39557   -1.000
 5877.00    1.31308   1.39303   43.953
 5878.00    1.04872   1.39026   -1.000
 5879.00    0.72638   1.38693   -1.000
 5880.00    0.62733   1.38293   -1.000
 5881.00    0.91527   1.37818   -1.000
 5882.00    1.26418   1.37263   -1.000
 5883.00    1.35417   1.36636   46.250
 5884.00    1.21899   1.35861   -1.000
 5885.00    1.03273   1.34676   -1.000
 5886.00    0.97275   1.32577   -1.000
 5887.00    1.12388   1.29184   -1.000
 5888.00    1.32964   1.24874   -1.000
 5889.00    1.38272   1.20769   -1.000
 5890.00    1.37610   1.18387   -1.000
 5891.00    1.41101   1.18113   -1.000
 5892.00    1.44253   1.19176   -1.000
 5893.00    1.46271   1.20148   -1.000
 5894.00    1.43738   1.20235   -1.000
 5895.00    1.42028   1.19870   -1.000
 5896.00    1.41589   1.20055   -1.000
 5897.00    1.44475   1.21605   -1.000
 5898.00    1.47762   1.24341   -1.000
 5899.00    1.48334   1.27561   -1.000
 5900.00    1.49886   1.30558   -1.000
 5901.00    1.50287   1.32977   -1.000
 5902.00    1.51409   1.34746   -1.000
 5903.00    1.51093   1.35928   -1.000
 5904.00    1.50804   1.36639   -1.000
 5905.00    1.50524   1.37082   -1.000
 5906.00    1.50172   1.37414   -1.000
 5907.00    1.51585   1.37726   -1.000
 5908.00    1.51358   1.38008   -1.000
 5909.00    1.50126   1.38213   -1.000
 5910.00    1.48990   1.38249   -1.000
 5911.00    1.49563   1.38061   -1.000
 5912.00    1.48675   1.37604   -1.000
 5913.00    1.48749   1.36988   -1.000
 5914.00    1.48223   1.36420   -1.000
 5915.00    1.48089   1.36115   -1.000
 5916.00    1.49327   1.36185   -1.000
 5917.00    1.51290   1.36562   -1.000
 5918.00    1.50596   1.37106   -1.000
 5919.00    1.51791   1.37606   -1.000
 5920.00    1.51553   1.37960   -1.000
 5921.00    1.51533   1.38131   -1.000
 5922.00    1.51777   1.38215   -1.000
 5923.00    1.52407   1.38308   -1.000
 5924.00    1.53158   1.38471   -1.000
 5925.00    1.53610   1.38647   -1.000
 5926.00    1.53331   1.38701   -1.000
 5927.00    1.53027   1.38511   -1.000
 5928.00    1.51347   1.38103   -1.000
 5929.00    1.49985   1.37676   -1.000
 5930.00    1.49839   1.37438   -1.000
 5931.00    1.48998   1.37489   -1.000
 5932.00    1.49061   1.37703   -1.000
 5933.00    1.49095   1.37917   -1.000
 5934.00    1.48967   1.38093   -1.000
 5935.00    1.49267   1.38282   -1.000
 5936.00    1.49869   1.38527   -1.000
 5937.00    1.51065   1.38746   -1.000
 5938.00    1.51223   1.38798   -1.000
 5939.00    1.51568   1.38638   -1.000
 5940.00    1.52323   1.38327   -1.000
 5941.00    1.51528   1.38059   -1.000
 5942.00    1.51079   1.37943   -1.000
 5943.00    1.52656   1.38009   -1.000
 5944.00    1.53499   1.38140   -1.000
 5945.00    1.53250   1.38192   -1.000
 5946.00    1.53393   1.38083   -1.000
 5947.00    1.51972   1.37842   -1.000
 5948.00    1.50731   1.37616   -1.000
 5949.00    1.50874   1.37499   -1.000
 5950.00    1.50702   1.37506   -1.000
 5951.00    1.51481   1.37533   -1.000
 5952.00    1.51075   1.37511   -1.000
 5953.00    1.50570   1.37472   -1.000
 5954.00    1.52406   1.37437   -1.000
 5955.00    1.51492   1.37398   -1.000
 5956.00    1.49518   1.37390   -1.000
 5957.00    1.49480   1.37481   -1.000
 5958.00    1.49200   1.37760   -1.000
 5959.00    1.50955   1.38222   -1.000
 5960.00    1.51519   1.38735   -1.000
 5961.00    1.51830   1.39163   -1.000
 5962.00    1.52513   1.39399   -1.000
 5963.00    1.53685   1.39429   -1.000
 5964.00    1.52953   1.39297   -1.000
 5965.00    1.52418   1.39110   -1.000
 5966.00    1.52784   1.38966   -1.000
 5967.00    1.53725   1.38952   -1.000
 5968.00    1.52861   1.39068   -1.000
 5969.00    1.54398   1.39289   -1.000
 5970.00    1.53530   1.39542   -1.000
 5971.00    1.53605   1.39719   -1.000
 5972.00    1.52814   1.39728   -1.000
 5973.00    1.52923   1.39483   -1.000
 5974.00    1.51876   1.38997   -1.000
 5975.00    1.52433   1.38392   -1.000
 5976.00    1.51751   1.37859   -1.000
 5977.00    1.51097   1.37611   -1.000
 5978.00    1.51332   1.37696   -1.000
 5979.00    1.52546   1.38011   -1.000
 5980.00    1.52909   1.38299   -1.000
 5981.00    1.51587   1.38327   -1.000
 5982.00    1.51290   1.38014   -1.000
 5983.00    1.50657   1.37502   -1.000
 5984.00    1.50411   1.37079   -1.000
 5985.00    1.51117   1.36956   -1.000
 5986.00    1.51483   1.37187   -1.000
 5987.00    1.51409   1.37606   -1.000
 5988.00    1.53074   1.38032   -1.000
 5989.00    1.52619   1.38320   -1.000
 5990.00    1.51481   1.38504   -1.000
 5991.00    1.52124   1.38681   -1.000
 5992.00    1.53131   1.38941   -1.000
 5993.00    1.53676   1.39253   -1.000
 5994.00    1.53839   1.39446   -1.000
 5995.00    1.53186   1.39436   -1.000
 5996.00    1.52486   1.39216   -1.000
 5997.00    1.52664   1.38942   -1.000
 5998.00    1.52700   1.38725   -1.000
 5999.00    1.52804   1.38600   -1.000
 6000.00    1.52295   1.38505   -1.000
 6001.00    1.51734   1.38370   -1.000
 6002.00    1.51355   1.38185   -1.000
 6003.00    1.51271   1.37985   -1.000
 6004.00    1.51783   1.37773   -1.000
 6005.00    1.52362   1.37491   -1.000
 6006.00    1.52469   1.37101   -1.000
 6007.00    1.52564   1.36735   -1.000
 6008.00    1.51584   1.36593   -1.000
 6009.00    1.51223   1.36789   -1.000
 6010.00    1.53211   1.37213   -1.000
 6011.00    1.53816   1.37569   -1.000
 6012.00    1.53328   1.37718   -1.000
 6013.00    1.52289   1.37655   -1.000
 6014.00    1.52348   1.37521   -1.000
 6015.00    1.52259   1.37410   -1.000
 6016.00    1.51647   1.37311   -1.000
 6017.00    1.51061   1.37169   -1.000
 6018.00    1.51345   1.36932   -1.000
 6019.00    1.51836   1.36616   -1.000
 6020.00    1.51580   1.36305   -1.000
 6021.00    1.50872   1.36136   -1.000
 6022.00    1.50426   1.36178   -1.000
 6023.00    1.51504   1.36428   -1.000
 6024.00    1.51608   1.36866   -1.000
 6025.00    1.51314   1.37442   -1.000
 6026.00    1.52445   1.38070   -1.000
 6027.00    1.53140   1.38680   -1.000
 6028.00    1.53619   1.39231   -1.000
 6029.00    1.53503   1.39682   -1.000
 6030.00    1.53720   1.40031   -1.000
 6031.00    1.54003   1.40273   -1.000
 6032.00    1.53380   1.40452   -1.000
 6033.00    1.52782   1.40596   -1.000
 6034.00    1.53519   1.40718   -1.000
 6035.00    1.53707   1.40775   -1.000
 6036.00    1.53966   1.40743   -1.000
 6037.00    1.54902   1.40592   -1.000
 6038.00    1.55394   1.40335   -1.000
 6039.00    1.54677   1.40005   -1.000
 6040.00    1.54102   1.39685   -1.000
 6041.00    1.53854   1.39465   -1.000
 6042.00    1.53925   1.39414   -1.000
 6043.00    1.54116   1.39540   -1.000
 6044.00    1.53736   1.39805   -1.000
 6045.00    1.54375   1.40111   -1.000
 6046.00    1.54824   1.40419   -1.000
 6047.00    1.54406   1.40687   -1.000
 6048.00    1.54052   1.40882   -1.000
 6049.00    1.54174   1.40986   -1.000
 6050.00    1.54117   1.40980   -1.000
 6051.00    1.54873   1.40862   -1.000
 6052.00    1.52970   1.40594   -1.000
 6053.00    1.46345   1.40204   -1.000
 6054.00    1.41861   1.39753   46.739
 6055.00    1.24265   1.39402   -1.000
 6056.00    0.80503   1.39270   -1.000
 6057.00    1.28543   1.39404   -1.000
 6058.00    1.56994   1.39692   -1.000
 6059.00    1.44856   1.39978   41.321
 6060.00    1.35875   1.40083   40.280
 6061.00    1.24162   1.39890   -1.000
 6062.00    0.78594   1.39366   -1.000
 6063.00    1.21932   1.38627   -1.000
 6064.00    1.56283   1.37916   -1.000
 6065.00    1.49687   1.37555   -1.000
 6066.00    1.50434   1.37736   -1.000
 6067.00    1.52364   1.38344   -1.000
 6068.00    1.54617   1.39162   -1.000
 6069.00    1.55375   1.39909   -1.000
 6070.00    1.54531   1.40463   -1.000
 6071.00    1.54202   1.40823   -1.000
 6072.00    1.54085   1.41038   -1.000
 6073.00    1.54401   1.41139   -1.000
 6074.00    1.54649   1.41104   -1.000
 6075.00    1.53482   1.40880   -1.000
 6076.00    1.52830   1.40476   -1.000
 6077.00    1.52653   1.39947   -1.000
 6078.00    1.52375   1.39427   -1.000
 6079.00    1.52457   1.39044   -1.000
 6080.00    1.52471   1.38787   -1.000
 6081.00    1.52697   1.38588   -1.000
 6082.00    1.52769   1.38398   -1.000
 6083.00    1.52403   1.38226   -1.000
 6084.00    1.52252   1.38154   -1.000
 6085.00    1.52488   1.38240   -1.000
 6086.00    1.52924   1.38465   -1.000
 6087.00    1.53154   1.38713   -1.000
 6088.00    1.52959   1.38852   -1.000
 6089.00    1.52623   1.38845   -1.000
 6090.00    1.52520   1.38744   -1.000
 6091.00    1.52594   1.38688   -1.000
 6092.00    1.52992   1.38758   -1.000
 6093.00    1.53391   1.38976   -1.000
 6094.00    1.53978   1.39300   -1.000
 6095.00    1.54112   1.39641   -1.000
 6096.00    1.53706   1.39933   -1.000
 6097.00    1.53612   1.40037   -1.000
 6098.00    1.53603   1.39821   -1.000
 6099.00    1.53603   1.39130   -1.000
 6100.00    1.52646   1.37957   -1.000
 6101.00    1.50154   1.36574   -1.000
 6102.00    1.49037   1.35448   -1.000
 6103.00    1.49070   1.35090   -1.000
 6104.00    1.49783   1.35568   -1.000
 6105.00    1.51651   1.36598   -1.000
 6106.00    1.52922   1.37763   -1.000
 6107.00    1.52292   1.38732   -1.000
 6108.00    1.51593   1.39439   -1.000
 6109.00    1.52486   1.39887   -1.000
 6110.00    1.53710   1.40130   -1.000
 6111.00    1.54275   1.40233   -1.000
 6112.00    1.53534   1.40265   -1.000
 6113.00    1.53663   1.40292   -1.000
 6114.00    1.54064   1.40323   -1.000
 6115.00    1.53385   1.40324   -1.000
 6116.00    1.52840   1.40238   -1.000
 6117.00    1.53265   1.39981   -1.000
 6118.00    1.52285   1.39406   -1.000
 6119.00    1.51572   1.38441   -1.000
 6120.00    1.50869   1.37151   -1.000
 6121.00    1.49534   1.35859   -1.000
 6122.00    1.49045   1.35028   -1.000
 6123.00    1.49861   1.34913   -1.000
 6124.00    1.51157   1.35476   -1.000
 6125.00    1.51891   1.36338   -1.000
 6126.00    1.51644   1.37147   -1.000
 6127.00    1.52335   1.37710   -1.000
 6128.00    1.53122   1.38115   -1.000
 6129.00    1.52461   1.38584   -1.000
 6130.00    1.51844   1.39150   -1.000
 6131.00    1.52547   1.39664   -1.000
 6132.00    1.53208   1.39837   -1.000
 6133.00    1.52120   1.39315   -1.000
 6134.00    1.50264   1.37999   -1.000
 6135.00    1.47765   1.36124   -1.000
 6136.00    1.44856   1.34245   -1.000
 6137.00    1.43257   1.33013   -1.000
 6138.00    1.44512   1.32646   -1.000
 6139.00    1.47476   1.32930   -1.000
 6140.00    1.49755   1.33643   -1.000
 6141.00    1.49752   1.34591   -1.000
 6142.00    1.48579   1.35710   -1.000
 6143.00    1.49863   1.36864   -1.000
 6144.00    1.52397   1.37769   -1.000
 6145.00    1.53508   1.38259   -1.000
 6146.00    1.53474   1.38301   -1.000
 6147.00    1.53307   1.38052   -1.000
 6148.00    1.52585   1.37735   -1.000
 6149.00    1.51980   1.37538   -1.000
 6150.00    1.51615   1.37530   -1.000
 6151.00    1.51365   1.37668   -1.000
 6152.00    1.50918   1.37811   -1.000
 6153.00    1.50837   1.37806   -1.000
 6154.00    1.51058   1.37613   -1.000
 6155.00    1.50869   1.37300   -1.000
 6156.00    1.50124   1.36918   -1.000
 6157.00    1.50119   1.36395   -1.000
 6158.00    1.50962   1.35526   -1.000
 6159.00    1.49709   1.34094   -1.000
 6160.00    1.47166   1.32178   -1.000
 6161.00    1.45364   1.30216   -1.000
 6162.00    1.44212   1.28856   -1.000
 6163.00    1.44446   1.28540   -1.000
 6164.00    1.46239   1.29159   -1.000
 6165.00    1.47247   1.30254   -1.000
 6166.00    1.46795   1.31183   -1.000
 6167.00    1.46150   1.31613   -1.000
 6168.00    1.46438   1.31579   -1.000
 6169.00    1.46268   1.31545   -1.000
 6170.00    1.46106   1.31886   -1.000
 6171.00    1.47244   1.32677   -1.000
 6172.00    1.47438   1.33757   -1.000
 6173.00    1.47670   1.34809   -1.000
 6174.00    1.48815   1.35653   -1.000
 6175.00    1.49430   1.36238   -1.000
 6176.00    1.49543   1.36635   -1.000
 6177.00    1.49403   1.36927   -1.000
 6178.00    1.49199   1.37171   -1.000
 6179.00    1.49318   1.37416   -1.000
 6180.00    1.50140   1.37685   -1.000
 6181.00    1.50755   1.37977   -1.000
 6182.00    1.50995   1.38225   -1.000
 6183.00    1.51402   1.38318   -1.000
 6184.00    1.51534   1.38211   -1.000
 6185.00    1.50917   1.37887   -1.000
 6186.00    1.49431   1.37384   -1.000
 6187.00    1.48924   1.36734   -1.000
 6188.00    1.48932   1.35939   -1.000
 6189.00    1.48283   1.35044   -1.000
 6190.00    1.47021   1.34224   -1.000
 6191.00    1.44956   1.33835   -1.000
 6192.00    1.44309   1.34073   -1.000
 6193.00    1.46424   1.34827   -1.000
 6194.00    1.49052   1.35845   -1.000
 6195.00    1.50304   1.36757   -1.000
 6196.00    1.50265   1.37351   -1.000
 6197.00    1.49563   1.37555   -1.000
 6198.00    1.49380   1.37445   -1.000
 6199.00    1.48935   1.37220   -1.000
 6200.00    1.48027   1.37130   -1.000
 6201.00    1.48816   1.37295   -1.000
 6202.00    1.49950   1.37719   -1.000
 6203.00    1.50074   1.38275   -1.000
 6204.00    1.50415   1.38817   -1.000
 6205.00    1.50304   1.39228   -1.000
 6206.00    1.50263   1.39481   -1.000
 6207.00    1.49707   1.39560   -1.000
 6208.00    1.50330   1.39445   -1.000
 6209.00    1.50217   1.39097   -1.000
 6210.00    1.48985   1.38470   -1.000
 6211.00    1.49543   1.37589   -1.000
 6212.00    1.49526   1.36584   -1.000
 6213.00    1.48198   1.35663   -1.000
 6214.00    1.47553   1.35006   -1.000
 6215.00    1.47750   1.34639   -1.000
 6216.00    1.47840   1.34487   -1.000
 6217.00    1.47673   1.34394   -1.000
 6218.00    1.47647   1.34336   -1.000
 6219.00    1.47901   1.34370   -1.000
 6220.00    1.48203   1.34584   -1.000
 6221.00    1.48850   1.34978   -1.000
 6222.00    1.49874   1.35411   -1.000
 6223.00    1.49928   1.35795   -1.000
 6224.00    1.48824   1.36015   -1.000
 6225.00    1.49159   1.36018   -1.000
 6226.00    1.49621   1.35747   -1.000
 6227.00    1.49656   1.35118   -1.000
 6228.00    1.49627   1.34163   -1.000
 6229.00    1.48459   1.33089   -1.000
 6230.00    1.46448   1.32254   -1.000
 6231.00    1.45440   1.31982   -1.000
 6232.00    1.46195   1.32351   -1.000
 6233.00    1.47905   1.33164   -1.000
 6234.00    1.49320   1.34010   -1.000
 6235.00    1.50051   1.34566   -1.000
 6236.00    1.50127   1.34671   -1.000
 6237.00    1.48861   1.34431   -1.000
 6238.00    1.48480   1.34048   -1.000
 6239.00    1.48235   1.33684   -1.000
 6240.00    1.47367   1.33374   -1.000
 6241.00    1.46979   1.33033   -1.000
 6242.00    1.46978   1.32552   -1.000
 6243.00    1.46065   1.31944   -1.000
 6244.00    1.45153   1.31351   -1.000
 6245.00    1.46014   1.31012   -1.000
 6246.00    1.46213   1.31156   -1.000
 6247.00    1.46160   1.31778   -1.000
 6248.00    1.48069   1.32640   -1.000
 6249.00    1.49172   1.33310   -1.000
 6250.00    1.47816   1.33476   -1.000
 6251.00    1.46254   1.33065   -1.000
 6252.00    1.45011   1.32305   -1.000
 6253.00    1.43714   1.31546   -1.000
 6254.00    1.43167   1.31004   -1.000
 6255.00    1.43146   1.30755   -1.000
 6256.00    1.43021   1.30724   -1.000
 6257.00    1.42289   1.30884   -1.000
 6258.00    1.41917   1.31243   -1.000
 6259.00    1.43600   1.31841   -1.000
 6260.00    1.44697   1.32635   -1.000
 6261.00    1.44431   1.33517   -1.000
 6262.00    1.44845   1.34319   -1.000
 6263.00    1.45146   1.34901   -1.000
 6264.00    1.43704   1.35278   -1.000
 6265.00    1.41143   1.35517   -1.000
 6266.00    1.39620   1.35695   48.252
 6267.00    1.39086   1.35800   49.246
 6268.00    1.38444   1.35774   49.704
 6269.00    1.38594   1.35650   49.634
 6270.00    1.39648   1.35504   -1.000
 6271.00    1.39769   1.35364   -1.000
 6272.00    1.39237   1.35180   -1.000
 6273.00    1.39672   1.34760   -1.000
 6274.00    1.40457   1.34038   -1.000
 6275.00    1.41581   1.33049   -1.000
 6276.00    1.43307   1.31955   -1.000
 6277.00    1.44473   1.30998   -1.000
 6278.00    1.44243   1.30330   -1.000
 6279.00    1.43801   1.30102   -1.000
 6280.00    1.44130   1.30387   -1.000
 6281.00    1.44892   1.31104   -1.000
 6282.00    1.45427   1.32122   -1.000
 6283.00    1.47372   1.33214   -1.000
 6284.00    1.51666   1.34190   -1.000
 6285.00    1.58612   1.34942   -1.000
 6286.00    1.69041   1.35426   -1.000
 6287.00    1.85592   1.35648   -1.000
 6288.00    2.12366   1.35613   -1.000
 6289.00    2.61056   1.35392   -1.000
 6290.00    3.08754   1.35107   -1.000
 6291.00    3.20099   1.34855   -1.000
 6292.00    2.72011   1.34685   -1.000
 6293.00    1.94062   1.34552   -1.000
 6294.00    1.55937   1.34355   -1.000
 6295.00    1.51406   1.34009   -1.000
 6296.00    1.48494   1.33530   -1.000
 6297.00    1.46035   1.33009   -1.000
 6298.00    1.44928   1.32534   -1.000
 6299.00    1.44322   1.32155   -1.000
 6300.00    1.43883   1.31923   -1.000
 6301.00    1.44120   1.31961   -1.000
 6302.00    1.44952   1.32395   -1.000
 6303.00    1.44814   1.33180   -1.000
 6304.00    1.45281   1.34133   -1.000
 6305.00    1.45926   1.35024   -1.000
 6306.00    1.46406   1.35670   -1.000
 6307.00    1.46885   1.36019   -1.000
 6308.00    1.46035   1.36137   -1.000
 6309.00    1.45732   1.36110   -1.000
 6310.00    1.46042   1.35966   -1.000
 6311.00    1.45275   1.35730   -1.000
 6312.00    1.45597   1.35360   -1.000
 6313.00    1.45881   1.34857   -1.000
 6314.00    1.44798   1.34292   -1.000
 6315.00    1.43863   1.33735   -1.000
 6316.00    1.43662   1.33309   -1.000
 6317.00    1.43388   1.33127   -1.000
 6318.00    1.43258   1.33282   -1.000
 6319.00    1.43734   1.33772   -1.000
 6320.00    1.45138   1.34460   -1.000
 6321.00    1.46071   1.35194   -1.000
 6322.00    1.45963   1.35917   -1.000
 6323.00    1.45450   1.36570   -1.000
 6324.00    1.49415   1.37081   -1.000
 6325.00    1.53535   1.37436   -1.000
 6326.00    1.48672   1.37598   -1.000
 6327.00    1.46893   1.37622   -1.000
 6328.00    1.46810   1.37590   -1.000
 6329.00    1.46531   1.37545   -1.000
 6330.00    1.46968   1.37493   -1.000
 6331.00    1.47285   1.37358   -1.000
 6332.00    1.47727   1.37015   -1.000
 6333.00    1.46888   1.36405   -1.000
 6334.00    1.45896   1.35611   -1.000
 6335.00    1.43686   1.34883   -1.000
 6336.00    1.42518   1.34508   -1.000
 6337.00    1.42484   1.34591   -1.000
 6338.00    1.44010   1.35066   -1.000
 6339.00    1.45289   1.35758   -1.000
 6340.00    1.46263   1.36400   -1.000
 6341.00    1.46588   1.36794   -1.000
 6342.00    1.46086   1.36883   -1.000
 6343.00    1.45719   1.36717   -1.000
 6344.00    1.45553   1.36461   -1.000
 6345.00    1.46340   1.36306   -1.000
 6346.00    1.47501   1.36411   -1.000
 6347.00    1.49231   1.36832   -1.000
 6348.00    1.52828   1.37448   -1.000
 6349.00    1.57995   1.38053   -1.000
 6350.00    1.64458   1.38469   -1.000
 6351.00    1.74560   1.38574   -1.000
 6352.00    1.87274   1.38382   -1.000
 6353.00    1.97124   1.37998   -1.000
 6354.00    1.98681   1.37551   -1.000
 6355.00    1.88159   1.37140   -1.000
 6356.00    1.60076   1.36762   -1.000
 6357.00    1.51300   1.36396   -1.000
 6358.00    1.46822   1.36057   -1.000
 6359.00    1.44284   1.35737   -1.000
 6360.00    1.43474   1.35440   -1.000
 6361.00    1.43416   1.35217   -1.000
 6362.00    1.42773   1.35119   -1.000
 6363.00    1.42484   1.35195   -1.000
 6364.00    1.43308   1.35443   -1.000
 6365.00    1.43044   1.35797   -1.000
 6366.00    1.42647   1.36171   -1.000
 6367.00    1.42555   1.36443   -1.000
 6368.00    1.40457   1.36554   44.553
 6369.00    1.40198   1.36564   44.597
 6370.00    1.42504   1.36601   -1.000
 6371.00    1.42891   1.36775   -1.000
 6372.00    1.42491   1.37089   -1.000
 6373.00    1.42066   1.37425   -1.000
 6374.00    1.41125   1.37648   44.856
 6375.00    1.40435   1.37684   44.831
 6376.00    1.40869   1.37532   44.949
 6377.00    1.40113   1.37288   45.095
 6378.00    1.40423   1.37020   45.447
 6379.00    1.39400   1.36778   45.810
 6380.00    1.38159   1.36580   46.319
 6381.00    1.38549   1.36442   47.015
 6382.00    1.39133   1.36384   47.448
 6383.00    1.37092   1.36438   47.348
 6384.00    1.36316   1.36615   46.682
 6385.00    1.35394   1.36874   46.540
 6386.00    1.35606   1.37124   46.805
 6387.00    1.35729   1.37279   47.485
 6388.00    1.33876   1.37270   48.555
 6389.00    1.33253   1.37054   48.985
 6390.00    1.32253   1.36601   48.540
 6391.00    1.31406   1.35982   47.773
 6392.00    1.29343   1.35404   47.492
 6393.00    1.28378   1.35086   47.601
 6394.00    1.27821   1.35142   47.855
 6395.00    1.27767   1.35429   48.520
 6396.00    1.27520   1.35661   49.277
 6397.00    1.27304   1.35596   49.797
 6398.00    1.26194   1.35231   -1.000
 6399.00    1.22801   1.34861   -1.000
 6400.00    1.21212   1.34791   -1.000
 6401.00    1.22347   1.35156   -1.000
 6402.00    1.23480   1.35815   -1.000
 6403.00    1.22693   1.36468   -1.000
 6404.00    1.22568   1.36836   -1.000
 6405.00    1.22327   1.36798   -1.000
 6406.00    1.20698   1.36475   -1.000
 6407.00    1.19612   1.36089   -1.000
 6408.00    1.17865   1.35820   -1.000
 6409.00    1.17906   1.35673   -1.000
 6410.00    1.17821   1.35627   -1.000
 6411.00    1.16560   1.35679   -1.000
 6412.00    1.14223   1.35808   -1.000
 6413.00    1.13820   1.35974   -1.000
 6414.00    1.13344   1.36125   -1.000
 6415.00    1.12233   1.36251   -1.000
 6416.00    1.12246   1.36276   -1.000
 6417.00    1.10804   1.36126   -1.000
 6418.00    1.09026   1.35830   -1.000
 6419.00    1.06783   1.35496   -1.000
 6420.00    0.12378   1.35329   -1.000
 6421.00    0.00000   1.35564   -2.000
 6422.00    0.00000   1.36195   -2.000
 6423.00    0.00000   1.37021   -2.000
 6424.00    0.00000   1.37865   -2.000
 6425.00    0.00000   1.38483   -2.000
 6426.00    0.00000   1.38733   -2.000
 6427.00    0.00000   1.38550   -2.000
 6428.00    0.00000   1.37939   -2.000
