###################################################################
## OUTPUT of StarlightChains_v04.for    [Cid@UFSC - 01/Apr/2007] ##
###################################################################

## Some input info
NGC5904_b_1.cxt                          [arq_obs]
Base.BC03.N                              [arq_base]
NGC5904_b_1.msk                          [arq_masks]
StCv04.C99.config                        [arq_config]
   45                                    [N_base]
    0                                    [N_YAV_components = # of components with extra extinction!]
    0                                    [i_FitPowerLaw (1/0 = Yes/No)]
-9.99                                    [alpha_PowerLaw]
CCM                                      [red_law_option]
 1.458241                                [q_norm = A(l_norm)/A(V)]

## (Re)Sampling Parameters
 3359.00                                 [l_ini (A)]
 6428.00                                 [l_fin (A)]
    1.00                                 [dl    (A)]     (OBS: dl_cushion =    50.00 A)

## Normalization info
 4020.00                                 [l_norm (A) - for base]
 4010.00                                 [llow_norm (A) - window for f_obs]
 4060.00                                 [lupp_norm (A) - window for f_obs]
8.938202E-14                             [fobs_norm (in input units)]

## S/N
 4730.00                                 [llow_SN (A) - window for S/N]
 4780.00                                 [lupp_SN (A) - window for S/N]
  94.706                                 [S/N in S/N window]
  90.136                                 [S/N in norm. window]
 354.791                                 [S/N_err in S/N window]
 337.672                                 [S/N_err in norm. window]
  1.0000                                 [fscale_chi2]

## etc...
  2147483634                             [idum_orig]
  3069                                   [NOl_eff]
   925                                   [Nl_eff]
  2144    NSIGMA                         [Ntot_cliped & clip_method]
  1285620                                [Nglobal_steps]
   7                                     [N_chains]
   6                                     [NEX0s_base = N_base in EX0s-fits]
 0   0   1      257   2.0   7.095E+02    [Clip-Bug, RC-Crash & Burn-In warning-flags, n_censored_weights, wei_nsig_threshold & wei_limit]
    22     22.027     22.027      0.000  [idt_all, wdt_TotTime, wdt_UsrTime & wdt_SysTime (sec)]

## Synthesis Results - Best model ##

 2.96316E+00                             [chi2/Nl_eff]
     0.54419                             [adev (%)]

   102.11150                             [sum-of-x (%)]
 1.46591E-13                             [Flux_tot (units of input spectrum!)]
 9.55398E-10                             [Mini_tot (???)]
 5.25215E-10                             [Mcor_tot (???)]

  -7.96                                  [v0_min  (km/s)]
  95.82                                  [vd_min  (km/s)]
 0.3528                                  [AV_min  (mag)]
 0.0000                                  [YAV_min (mag)]

# j     x_j(%)      Mini_j(%)     Mcor_j(%)     age_j(yr)     Z_j      (L/M)_j    YAV?  Mstars   component_j        a/Fe...       SSP_chi2r SSP_adev(%)   SSP_AV   SSP_x(%)
  1      0.0000     0.0000E+00    0.0000E+00    1.000000E+06  0.00400  1.114E-02    0   1.0000   age020_m42            0.0000     2.1124E+03    10.7870   3.5048    75.8478
  2     17.2500     6.3639E-02    1.1575E-01    3.160000E+06  0.00400  4.073E-02    0   0.9999   age045_m42            0.0000     4.3397E+02     5.2090   2.5077    91.1380
  3      0.0000     0.0000E+00    0.0000E+00    5.010000E+06  0.00400  2.534E-02    0   0.9488   age055_m42            0.0000     1.0565E+03     7.9315   2.9357    83.9357
  4      0.0000     0.0000E+00    0.0000E+00    1.000000E+07  0.00400  1.271E-02    0   0.8862   age070_m42            0.0000     8.9487E+02     7.7223   2.1478    87.6380
  5      0.0000     0.0000E+00    0.0000E+00    2.512000E+07  0.00400  5.070E-03    0   0.8174   age090_m42            0.0000     7.6006E+02     7.1650   2.0148    89.2905
  6      0.0000     0.0000E+00    0.0000E+00    4.000000E+07  0.00400  3.505E-03    0   0.7851   age104_m42            0.0000     4.2714E+02     5.3739   1.6918    92.5886
  7     11.2589     7.4593E-01    9.7792E-01    1.015200E+08  0.00400  2.268E-03    0   0.7207   age116_m42            0.0000     7.7722E+02     4.3795   1.6407   104.7937
  8      0.0000     0.0000E+00    0.0000E+00    2.861200E+08  0.00400  1.079E-03    0   0.6613   age125_m42            0.0000     8.8618E+02     5.0338   1.1419   107.2888
  9      0.0000     0.0000E+00    0.0000E+00    6.405400E+08  0.00400  5.077E-04    0   0.6197   age132_m42            0.0000     1.0417E+03     5.4542   0.7828   111.3043
 10      9.8025     4.1667E+00    4.5659E+00    9.047900E+08  0.00400  3.535E-04    0   0.6024   age135_m42            0.0000     5.8748E+02     4.2909   0.5511   110.0542
 11     12.2102     9.6058E+00    9.9879E+00    1.434000E+09  0.00400  1.910E-04    0   0.5716   age139_m42            0.0000     2.3303E+02     3.5332   0.0266   108.3494
 12     47.6844     7.2979E+01    7.2524E+01    2.500000E+09  0.00400  9.818E-05    0   0.5463   age150_m42            0.0000     1.3381E+02     2.6666  -0.2417   103.0711
 13      3.9055     1.2438E+01    1.1829E+01    5.000000E+09  0.00400  4.718E-05    0   0.5228   age161_m42            0.0000     2.5965E+02     2.9986  -0.4043    99.3500
 14      0.0000     0.0000E+00    0.0000E+00    1.100000E+10  0.00400  2.205E-05    0   0.4980   age185_m42            0.0000     5.8285E+02     4.3955  -0.6707    97.2775
 15      0.0000     0.0000E+00    0.0000E+00    1.300000E+10  0.00400  1.883E-05    0   0.4927   age193_m42            0.0000     6.3619E+02     4.5673  -0.6877    97.0845
 16      0.0000     0.0000E+00    0.0000E+00    1.000000E+06  0.02000  1.989E-02    0   1.0000   age020_m62            0.0000     2.1217E+03    10.7424   3.4701    76.4531
 17      0.0000     0.0000E+00    0.0000E+00    3.160000E+06  0.02000  3.772E-02    0   0.9858   age045_m62            0.0000     1.8724E+03    10.1369   3.3304    78.6059
 18      0.0000     0.0000E+00    0.0000E+00    5.010000E+06  0.02000  3.227E-02    0   0.9342   age055_m62            0.0000     6.7941E+02     6.3738   2.7872    87.1800
 19      0.0000     0.0000E+00    0.0000E+00    1.000000E+07  0.02000  1.011E-02    0   0.8751   age070_m62            0.0000     2.1805E+03    11.7924   2.1847    82.9509
 20      0.0000     0.0000E+00    0.0000E+00    2.512000E+07  0.02000  4.206E-03    0   0.8099   age090_m62            0.0000     1.5764E+03     9.8194   2.1153    84.1882
 21      0.0000     0.0000E+00    0.0000E+00    4.000000E+07  0.02000  3.373E-03    0   0.7799   age104_m62            0.0000     3.5947E+02     4.9725   1.8988    94.4058
 22      0.0000     0.0000E+00    0.0000E+00    1.015200E+08  0.02000  1.878E-03    0   0.7221   age116_m62            0.0000     5.8624E+02     3.7992   1.6772   104.5979
 23      0.0000     0.0000E+00    0.0000E+00    2.861200E+08  0.02000  8.869E-04    0   0.6700   age125_m62            0.0000     1.7310E+03     7.0969   1.1368   113.0275
 24      0.0000     0.0000E+00    0.0000E+00    6.405400E+08  0.02000  3.657E-04    0   0.6322   age132_m62            0.0000     1.1516E+03     6.8954   0.4635   116.1055
 25      0.0000     0.0000E+00    0.0000E+00    9.047900E+08  0.02000  2.312E-04    0   0.6152   age135_m62            0.0000     6.1648E+02     5.6274   0.0994   114.4683
 26      0.0000     0.0000E+00    0.0000E+00    1.434000E+09  0.02000  1.168E-04    0   0.5865   age139_m62            0.0000     2.4051E+02     3.7559  -0.3070   107.6460
 27      0.0000     0.0000E+00    0.0000E+00    2.500000E+09  0.02000  5.505E-05    0   0.5610   age150_m62            0.0000     4.7886E+02     4.7169  -0.6822   104.5518
 28      0.0000     0.0000E+00    0.0000E+00    5.000000E+09  0.02000  2.596E-05    0   0.5353   age161_m62            0.0000     1.0633E+03     6.6255  -1.0000   104.2181
 29      0.0000     0.0000E+00    0.0000E+00    1.100000E+10  0.02000  1.169E-05    0   0.5103   age185_m62            0.0000     2.5912E+03    10.3573  -1.0000    95.2810
 30      0.0000     0.0000E+00    0.0000E+00    1.300000E+10  0.02000  9.691E-06    0   0.5047   age193_m62            0.0000     2.9296E+03    11.0798  -1.0000    94.1164
 31      0.0000     0.0000E+00    0.0000E+00    1.000000E+06  0.05000  2.651E-02    0   0.9998   age020_m72            0.0000     1.9731E+03    10.1836   3.4738    77.3164
 32      0.0000     0.0000E+00    0.0000E+00    3.160000E+06  0.05000  4.817E-02    0   0.9577   age045_m72            0.0000     1.2898E+03     8.3326   3.1829    82.0903
 33      0.0000     0.0000E+00    0.0000E+00    5.010000E+06  0.05000  3.101E-02    0   0.9147   age055_m72            0.0000     1.1838E+03     8.2367   2.8160    84.6740
 34      0.0000     0.0000E+00    0.0000E+00    1.000000E+07  0.05000  8.954E-03    0   0.8524   age070_m72            0.0000     1.2755E+03     8.2263   3.0557    83.3239
 35      0.0000     0.0000E+00    0.0000E+00    2.512000E+07  0.05000  4.207E-03    0   0.7902   age090_m72            0.0000     5.5497E+02     5.6188   2.6031    89.6916
 36      0.0000     0.0000E+00    0.0000E+00    4.000000E+07  0.05000  3.198E-03    0   0.7618   age104_m72            0.0000     2.7009E+02     2.9773   2.0568    99.6147
 37      0.0000     0.0000E+00    0.0000E+00    1.015200E+08  0.05000  1.716E-03    0   0.7092   age116_m72            0.0000     7.6224E+02     4.4074   1.7494   105.2228
 38      0.0000     0.0000E+00    0.0000E+00    2.861200E+08  0.05000  7.047E-04    0   0.6618   age125_m72            0.0000     1.6959E+03     7.4686   0.9214   113.7116
 39      0.0000     0.0000E+00    0.0000E+00    6.405400E+08  0.05000  2.633E-04    0   0.6253   age132_m72            0.0000     8.9512E+02     6.5702   0.0784   115.5224
 40      0.0000     0.0000E+00    0.0000E+00    9.047900E+08  0.05000  1.484E-04    0   0.6088   age135_m72            0.0000     4.4225E+02     5.2029  -0.3959   109.6405
 41      0.0000     0.0000E+00    0.0000E+00    1.434000E+09  0.05000  7.827E-05    0   0.5847   age139_m72            0.0000     6.8264E+02     5.9917  -0.7864   105.7701
 42      0.0000     0.0000E+00    0.0000E+00    2.500000E+09  0.05000  3.759E-05    0   0.5583   age150_m72            0.0000     1.2234E+03     7.0093  -1.0000   101.8278
 43      0.0000     0.0000E+00    0.0000E+00    5.000000E+09  0.05000  1.548E-05    0   0.5320   age161_m72            0.0000     3.2582E+03    12.1875  -1.0000    89.5689
 44      0.0000     0.0000E+00    0.0000E+00    1.100000E+10  0.05000  6.532E-06    0   0.5070   age185_m72            0.0000     6.5188E+03    17.2200  -1.0000    78.5223
 45      0.0000     0.0000E+00    0.0000E+00    1.300000E+10  0.05000  5.316E-06    0   0.5018   age193_m72            0.0000     7.7651E+03    18.6261  -1.0000    75.2788


## Synthesis Results - Average & Chains ##

# j      x_j: min, <> & last-chain-values for 1 ...  7 chains
  1      0.0000      0.0017      0.0000      0.0000      0.0000      0.0000      0.0000      0.0000      0.0000
  2     17.2500     17.1712     17.2531     17.2925     17.2902     17.2865     17.2437     17.2560     17.3422
  3      0.0000      0.0106      0.0000      0.0000      0.0000      0.0335      0.0100      0.0000      0.0000
  4      0.0000      0.0162      0.0000      0.0000      0.0375      0.0000      0.0000      0.0000      0.0000
  5      0.0000      0.0088      0.0000      0.0000      0.0000      0.0000      0.0000      0.0041      0.0000
  6      0.0000      0.0147      0.0000      0.0000      0.0562      0.0000      0.0292      0.0000      0.0000
  7     11.2589     10.8137     10.9338     10.7131     10.8255     10.9035     10.8853     10.9505     10.7795
  8      0.0000      0.0292      0.0894      0.0308      0.0257      0.0000      0.0083      0.0206      0.0000
  9      0.0000      0.0372      0.0000      0.0204      0.0000      0.0135      0.0000      0.1425      0.0668
 10      9.8025     10.0412      9.9442     10.1133     10.0395      9.9703      9.9882      9.9904     10.1172
 11     12.2102     12.8913     12.8193     13.0191     12.8782     12.9407     12.6895     12.5890     12.8921
 12     47.6844     45.8694     45.9098     46.1578     45.9221     45.9873     46.1750     46.1995     46.0542
 13      3.9055      4.6588      4.5694      4.6136      4.4605      4.6122      4.4992      4.6500      4.4120
 14      0.0000      0.0094      0.0000      0.0000      0.0000      0.0000      0.0712      0.0008      0.0000
 15      0.0000      0.0151      0.0000      0.0000      0.0000      0.0000      0.0000      0.0000      0.0000
 16      0.0000      0.0017      0.0000      0.0000      0.0025      0.0000      0.0000      0.0000      0.0000
 17      0.0000      0.0027      0.0087      0.0000      0.0000      0.0000      0.0000      0.0000      0.0000
 18      0.0000      0.0145      0.0000      0.0000      0.0140      0.0000      0.0364      0.0000      0.0000
 19      0.0000      0.0033      0.0000      0.0000      0.0000      0.0000      0.0000      0.0000      0.0000
 20      0.0000      0.0038      0.0000      0.0000      0.0000      0.0000      0.0000      0.0000      0.0000
 21      0.0000      0.0086      0.0000      0.0000      0.0000      0.0000      0.0000      0.0000      0.0491
 22      0.0000      0.0124      0.0000      0.0000      0.0000      0.0132      0.0000      0.0050      0.0048
 23      0.0000      0.0108      0.0000      0.0000      0.0000      0.0000      0.0000      0.0000      0.0000
 24      0.0000      0.0182      0.0000      0.0000      0.0000      0.0230      0.0000      0.0000      0.0000
 25      0.0000      0.0387      0.0066      0.0546      0.0000      0.0000      0.0000      0.1020      0.0000
 26      0.0000      0.0451      0.1842      0.0000      0.0000      0.0583      0.0079      0.0000      0.0000
 27      0.0000      0.0193      0.0000      0.0000      0.0150      0.0000      0.0086      0.0000      0.0000
 28      0.0000      0.0186      0.0000      0.0000      0.0000      0.0000      0.0000      0.0000      0.0000
 29      0.0000      0.0057      0.0000      0.0000      0.0000      0.0000      0.0000      0.0000      0.0000
 30      0.0000      0.0063      0.0000      0.0000      0.0000      0.0000      0.0102      0.0000      0.0000
 31      0.0000      0.0021      0.0000      0.0000      0.0000      0.0000      0.0000      0.0000      0.0000
 32      0.0000      0.0054      0.0000      0.0000      0.0000      0.0000      0.0000      0.0000      0.0000
 33      0.0000      0.0114      0.0000      0.0000      0.0000      0.0000      0.0000      0.0000      0.0000
 34      0.0000      0.0024      0.0000      0.0000      0.0000      0.0000      0.0000      0.0000      0.0049
 35      0.0000      0.0038      0.0000      0.0000      0.0000      0.0000      0.0000      0.0000      0.0000
 36      0.0000      0.0058      0.0000      0.0000      0.0000      0.0000      0.0000      0.0000      0.0000
 37      0.0000      0.0174      0.0000      0.0114      0.0000      0.0000      0.0000      0.0000      0.0000
 38      0.0000      0.0200      0.0000      0.0000      0.0640      0.0213      0.0798      0.0000      0.0000
 39      0.0000      0.0747      0.0000      0.0000      0.0000      0.0000      0.0228      0.0000      0.1858
 40      0.0000      0.1323      0.2997      0.1124      0.4330      0.1848      0.3760      0.1699      0.1335
 41      0.0000      0.0481      0.1382      0.0000      0.0833      0.1029      0.0000      0.0631      0.0388
 42      0.0000      0.0147      0.0000      0.0000      0.0000      0.0000      0.0000      0.0000      0.0634
 43      0.0000      0.0053      0.0000      0.0000      0.0000      0.0000      0.0000      0.0178      0.0000
 44      0.0000      0.0053      0.0000      0.0039      0.0000      0.0000      0.0000      0.0000      0.0000
 45      0.0000      0.0028      0.0019      0.0052      0.0000      0.0000      0.0000      0.0000      0.0000

# j      m_j: min, <> & last-chain-values for 1 ...  7 chains
  1  0.0000E+00  4.2252E-05  0.0000E+00  0.0000E+00  0.0000E+00  0.0000E+00  0.0000E+00  0.0000E+00  0.0000E+00
  2  1.1575E-01  1.1369E-01  1.1487E-01  1.1491E-01  1.1562E-01  1.1516E-01  1.1453E-01  1.1466E-01  1.1596E-01
  3  0.0000E+00  1.0696E-04  0.0000E+00  0.0000E+00  0.0000E+00  3.4089E-04  1.0178E-04  0.0000E+00  0.0000E+00
  4  0.0000E+00  3.0460E-04  0.0000E+00  0.0000E+00  7.1243E-04  0.0000E+00  0.0000E+00  0.0000E+00  0.0000E+00
  5  0.0000E+00  3.8092E-04  0.0000E+00  0.0000E+00  0.0000E+00  0.0000E+00  0.0000E+00  1.7925E-04  0.0000E+00
  6  0.0000E+00  8.8585E-04  0.0000E+00  0.0000E+00  3.4283E-03  0.0000E+00  1.7695E-03  0.0000E+00  0.0000E+00
  7  9.7792E-01  9.2672E-01  9.4226E-01  9.2149E-01  9.3707E-01  9.4023E-01  9.3585E-01  9.4185E-01  9.3301E-01
  8  0.0000E+00  4.8224E-03  1.4862E-02  5.1149E-03  4.2859E-03  0.0000E+00  1.3800E-03  3.4218E-03  0.0000E+00
  9  0.0000E+00  1.2231E-02  0.0000E+00  6.7470E-03  0.0000E+00  4.4635E-03  0.0000E+00  4.7073E-02  2.2202E-02
 10  4.5659E+00  4.6147E+00  4.5957E+00  4.6650E+00  4.6603E+00  4.6107E+00  4.6050E+00  4.6080E+00  4.6960E+00
 11  9.9879E+00  1.0404E+01  1.0404E+01  1.0546E+01  1.0498E+01  1.0509E+01  1.0274E+01  1.0197E+01  1.0509E+01
 12  7.2524E+01  6.8832E+01  6.9279E+01  6.9521E+01  6.9605E+01  6.9439E+01  6.9513E+01  6.9580E+01  6.9799E+01
 13  1.1829E+01  1.3922E+01  1.3732E+01  1.3838E+01  1.3464E+01  1.3869E+01  1.3488E+01  1.3947E+01  1.3316E+01
 14  0.0000E+00  5.7513E-02  0.0000E+00  0.0000E+00  0.0000E+00  0.0000E+00  4.3495E-01  4.9834E-03  0.0000E+00
 15  0.0000E+00  1.0667E-01  0.0000E+00  0.0000E+00  0.0000E+00  0.0000E+00  0.0000E+00  0.0000E+00  0.0000E+00
 16  0.0000E+00  2.3471E-05  0.0000E+00  0.0000E+00  3.4399E-05  0.0000E+00  0.0000E+00  0.0000E+00  0.0000E+00
 17  0.0000E+00  1.8926E-05  6.1764E-05  0.0000E+00  0.0000E+00  0.0000E+00  0.0000E+00  0.0000E+00  0.0000E+00
 18  0.0000E+00  1.1354E-04  0.0000E+00  0.0000E+00  1.1054E-04  0.0000E+00  2.8484E-04  0.0000E+00  0.0000E+00
 19  0.0000E+00  7.7915E-05  0.0000E+00  0.0000E+00  0.0000E+00  0.0000E+00  0.0000E+00  0.0000E+00  0.0000E+00
 20  0.0000E+00  1.9573E-04  0.0000E+00  0.0000E+00  0.0000E+00  0.0000E+00  0.0000E+00  0.0000E+00  0.0000E+00
 21  0.0000E+00  5.3795E-04  0.0000E+00  0.0000E+00  0.0000E+00  0.0000E+00  0.0000E+00  0.0000E+00  3.0940E-03
 22  0.0000E+00  1.2819E-03  0.0000E+00  0.0000E+00  0.0000E+00  1.3814E-03  0.0000E+00  5.1689E-04  5.0221E-04
 23  0.0000E+00  2.2084E-03  0.0000E+00  0.0000E+00  0.0000E+00  0.0000E+00  0.0000E+00  0.0000E+00  0.0000E+00
 24  0.0000E+00  8.4937E-03  0.0000E+00  0.0000E+00  0.0000E+00  1.0811E-02  0.0000E+00  0.0000E+00  0.0000E+00
 25  0.0000E+00  2.7804E-02  4.7377E-03  3.9340E-02  0.0000E+00  0.0000E+00  0.0000E+00  7.3496E-02  0.0000E+00
 26  0.0000E+00  6.1060E-02  2.5078E-01  0.0000E+00  0.0000E+00  7.9455E-02  1.0725E-02  0.0000E+00  0.0000E+00
 27  0.0000E+00  5.2927E-02  0.0000E+00  0.0000E+00  4.1689E-02  0.0000E+00  2.3849E-02  0.0000E+00  0.0000E+00
 28  0.0000E+00  1.0367E-01  0.0000E+00  0.0000E+00  0.0000E+00  0.0000E+00  0.0000E+00  0.0000E+00  0.0000E+00
 29  0.0000E+00  6.7467E-02  0.0000E+00  0.0000E+00  0.0000E+00  0.0000E+00  0.0000E+00  0.0000E+00  0.0000E+00
 30  0.0000E+00  8.8987E-02  0.0000E+00  0.0000E+00  0.0000E+00  0.0000E+00  1.4321E-01  0.0000E+00  0.0000E+00
 31  0.0000E+00  2.0936E-05  0.0000E+00  0.0000E+00  0.0000E+00  0.0000E+00  0.0000E+00  0.0000E+00  0.0000E+00
 32  0.0000E+00  2.8755E-05  0.0000E+00  0.0000E+00  0.0000E+00  0.0000E+00  0.0000E+00  0.0000E+00  0.0000E+00
 33  0.0000E+00  9.1018E-05  0.0000E+00  0.0000E+00  0.0000E+00  0.0000E+00  0.0000E+00  0.0000E+00  0.0000E+00
 34  0.0000E+00  6.1053E-05  0.0000E+00  0.0000E+00  0.0000E+00  0.0000E+00  0.0000E+00  0.0000E+00  1.2768E-04
 35  0.0000E+00  1.9272E-04  0.0000E+00  0.0000E+00  0.0000E+00  0.0000E+00  0.0000E+00  0.0000E+00  0.0000E+00
 36  0.0000E+00  3.7560E-04  0.0000E+00  0.0000E+00  0.0000E+00  0.0000E+00  0.0000E+00  0.0000E+00  0.0000E+00
 37  0.0000E+00  1.9375E-03  0.0000E+00  1.2766E-03  0.0000E+00  0.0000E+00  0.0000E+00  0.0000E+00  0.0000E+00
 38  0.0000E+00  5.0560E-03  0.0000E+00  0.0000E+00  1.6384E-02  5.4328E-03  2.0266E-02  0.0000E+00  0.0000E+00
 39  0.0000E+00  4.7815E-02  0.0000E+00  0.0000E+00  0.0000E+00  0.0000E+00  1.4663E-02  0.0000E+00  1.2018E-01
 40  0.0000E+00  1.4639E-01  3.3342E-01  1.2484E-01  4.8385E-01  2.0572E-01  4.1733E-01  1.8871E-01  1.4920E-01
 41  0.0000E+00  9.6908E-02  2.7998E-01  0.0000E+00  1.6949E-01  2.0862E-01  0.0000E+00  1.2749E-01  7.8850E-02
 42  0.0000E+00  5.8767E-02  0.0000E+00  0.0000E+00  0.0000E+00  0.0000E+00  0.0000E+00  0.0000E+00  2.5638E-01
 43  0.0000E+00  4.9266E-02  0.0000E+00  0.0000E+00  0.0000E+00  0.0000E+00  0.0000E+00  1.6565E-01  0.0000E+00
 44  0.0000E+00  1.0994E-01  0.0000E+00  8.2323E-02  0.0000E+00  0.0000E+00  0.0000E+00  0.0000E+00  0.0000E+00
 45  0.0000E+00  7.1211E-02  4.8532E-02  1.3325E-01  0.0000E+00  0.0000E+00  0.0000E+00  0.0000E+00  0.0000E+00

# AV, chi2 & Mass for <> & i_chain = 1 ...  7 solutions
AV       0.3528      0.3490      0.3487      0.3488      0.3511      0.3501      0.3495      0.3495      0.3523
chi2 2.9632E+00  2.9853E+00  2.9753E+00  2.9769E+00  2.9731E+00  2.9757E+00  2.9752E+00  2.9761E+00  2.9757E+00
Mass 5.2521E-10  5.2962E-10  5.2643E-10  5.2755E-10  5.2579E-10  5.2710E-10  5.2825E-10  5.2802E-10  5.2672E-10
  -7.81                                  [v0_min (km/s) before EX0s...]
  96.11                                  [vd_min (km/s) before EX0s...]


## Synthetic spectrum (Best Model) ##l_obs f_obs f_syn wei
 3070    [Nl_obs]
 3359.00    0.14878   0.52022   -1.000
 3360.00    0.26208   0.50225   -1.000
 3361.00    0.26586   0.50071   -1.000
 3362.00    0.28078   0.51661   -1.000
 3363.00    0.30071   0.54030   -1.000
 3364.00    0.31812   0.55820   -1.000
 3365.00    0.32998   0.56132   -1.000
 3366.00    0.33426   0.54972   -1.000
 3367.00    0.33224   0.53145   -1.000
 3368.00    0.32658   0.51593   -1.000
 3369.00    0.31928   0.50733   -1.000
 3370.00    0.31670   0.50355   -1.000
 3371.00    0.31832   0.50119   -1.000
 3372.00    0.31792   0.50224   -1.000
 3373.00    0.32746   0.51235   -1.000
 3374.00    0.34536   0.53282   -1.000
 3375.00    0.36284   0.55610   -1.000
 3376.00    0.37593   0.56936   -1.000
 3377.00    0.38385   0.56544   -1.000
 3378.00    0.38489   0.54884   -1.000
 3379.00    0.38364   0.53191   -1.000
 3380.00    0.38041   0.52548   -1.000
 3381.00    0.37919   0.53181   -1.000
 3382.00    0.38480   0.54519   -1.000
 3383.00    0.39040   0.55834   -1.000
 3384.00    0.40044   0.56889   -1.000
 3385.00    0.40775   0.57751   -1.000
 3386.00    0.40989   0.58308   -1.000
 3387.00    0.41715   0.58421   -1.000
 3388.00    0.42137   0.58209   -1.000
 3389.00    0.42515   0.57861   -1.000
 3390.00    0.42955   0.57349   -1.000
 3391.00    0.43145   0.56569   -1.000
 3392.00    0.42958   0.55756   -1.000
 3393.00    0.42695   0.55512   -1.000
 3394.00    0.43080   0.56241   -1.000
 3395.00    0.44111   0.57742   -1.000
 3396.00    0.45280   0.59437   -1.000
 3397.00    0.46937   0.60774   -1.000
 3398.00    0.47936   0.61391   -1.000
 3399.00    0.48309   0.61148   -1.000
 3400.00    0.48750   0.60185   -1.000
 3401.00    0.48389   0.58831   -1.000
 3402.00    0.47729   0.57496   -1.000
 3403.00    0.46790   0.56572   -1.000
 3404.00    0.46235   0.56127   -1.000
 3405.00    0.45768   0.55809   -1.000
 3406.00    0.45163   0.55288   -1.000
 3407.00    0.44809   0.54689   -1.000
 3408.00    0.44693   0.54485   -1.000
 3409.00    0.44631   0.54928   -1.000
 3410.00    0.44963   0.55677   -1.000
 3411.00    0.45698   0.56123   -1.000
 3412.00    0.46156   0.55994   -1.000
 3413.00    0.45735   0.55574   -1.000
 3414.00    0.45023   0.55354   -1.000
 3415.00    0.45360   0.55652   -1.000
 3416.00    0.46353   0.56521   -1.000
 3417.00    0.47219   0.57807   -1.000
 3418.00    0.48222   0.59201   -1.000
 3419.00    0.49312   0.60275   -1.000
 3420.00    0.49720   0.60653   -1.000
 3421.00    0.49537   0.60327   -1.000
 3422.00    0.49217   0.59651   -1.000
 3423.00    0.48752   0.59005   -1.000
 3424.00    0.48634   0.58598   -1.000
 3425.00    0.49195   0.58533   -1.000
 3426.00    0.49896   0.58943   -1.000
 3427.00    0.50648   0.59966   -1.000
 3428.00    0.51291   0.61330   -1.000
 3429.00    0.51913   0.62279   -1.000
 3430.00    0.52523   0.62205   -1.000
 3431.00    0.52557   0.61203   -1.000
 3432.00    0.51700   0.59987   -1.000
 3433.00    0.51244   0.59273   -1.000
 3434.00    0.51408   0.59277   -1.000
 3435.00    0.52096   0.59624   -1.000
 3436.00    0.52599   0.59695   -1.000
 3437.00    0.52085   0.59043   -1.000
 3438.00    0.50848   0.57548   -1.000
 3439.00    0.48915   0.55388   -1.000
 3440.00    0.46991   0.53092   -1.000
 3441.00    0.45944   0.51436   -1.000
 3442.00    0.45827   0.50932   -1.000
 3443.00    0.46198   0.51439   -1.000
 3444.00    0.47046   0.52484   -1.000
 3445.00    0.48191   0.53837   -1.000
 3446.00    0.49840   0.55569   -1.000
 3447.00    0.51478   0.57608   -1.000
 3448.00    0.52790   0.59454   -1.000
 3449.00    0.53903   0.60376   -1.000
 3450.00    0.54528   0.59997   -1.000
 3451.00    0.53826   0.58608   -1.000
 3452.00    0.52767   0.57049   -1.000
 3453.00    0.52750   0.56175   -1.000
 3454.00    0.53102   0.56237   -1.000
 3455.00    0.53814   0.56751   -1.000
 3456.00    0.54550   0.56946   -1.000
 3457.00    0.54374   0.56441   -1.000
 3458.00    0.53549   0.55445  144.415
 3459.00    0.52884   0.54389   91.326
 3460.00    0.52347   0.53720   91.474
 3461.00    0.52068   0.53878   -1.000
 3462.00    0.52619   0.54903   -1.000
 3463.00    0.53761   0.56160   -1.000
 3464.00    0.54756   0.56974   -1.000
 3465.00    0.55469   0.57288   -1.000
 3466.00    0.55679   0.57510   -1.000
 3467.00    0.55395   0.57945   -1.000
 3468.00    0.56331   0.58545   -1.000
 3469.00    0.57350   0.59048   -1.000
 3470.00    0.57544   0.59181   -1.000
 3471.00    0.57314   0.58768   -1.000
 3472.00    0.56471   0.57762   -1.000
 3473.00    0.55236   0.56223   -1.000
 3474.00    0.53840   0.54492  145.020
 3475.00    0.52201   0.53249   93.367
 3476.00    0.51116   0.53086   93.562
 3477.00    0.51718   0.53987   -1.000
 3478.00    0.53877   0.55390   -1.000
 3479.00    0.56093   0.56652   -1.000
 3480.00    0.57464   0.57362  709.504
 3481.00    0.57763   0.57411  709.504
 3482.00    0.57240   0.56990  709.504
 3483.00    0.56952   0.56585   -1.000
 3484.00    0.57126   0.56763  709.504
 3485.00    0.57776   0.57693  709.504
 3486.00    0.58810   0.58781  709.504
 3487.00    0.59122   0.59114  709.504
 3488.00    0.58273   0.58302  709.504
 3489.00    0.56827   0.56852  709.504
 3490.00    0.55111   0.55721   -1.000
 3491.00    0.54494   0.55423   -1.000
 3492.00    0.54721   0.55635   -1.000
 3493.00    0.55192   0.55662  709.504
 3494.00    0.55299   0.55161  709.504
 3495.00    0.54921   0.54448   -1.000
 3496.00    0.54306   0.54276  709.504
 3497.00    0.53989   0.55164   -1.000
 3498.00    0.55358   0.56702   -1.000
 3499.00    0.57209   0.57948   -1.000
 3500.00    0.58339   0.58478  709.504
 3501.00    0.59026   0.58631   -1.000
 3502.00    0.59207   0.58814   -1.000
 3503.00    0.59477   0.58893   -1.000
 3504.00    0.59622   0.58537   -1.000
 3505.00    0.59142   0.57879   -1.000
 3506.00    0.58793   0.57389   -1.000
 3507.00    0.58563   0.57253   -1.000
 3508.00    0.58604   0.57212   -1.000
 3509.00    0.58911   0.56933   -1.000
 3510.00    0.58167   0.56360   -1.000
 3511.00    0.57265   0.55659   -1.000
 3512.00    0.56470   0.54976   -1.000
 3513.00    0.55760   0.54585   -1.000
 3514.00    0.55506   0.54913   -1.000
 3515.00    0.56159   0.56108  709.504
 3516.00    0.57844   0.57773  709.504
 3517.00    0.59216   0.59138  709.504
 3518.00    0.59647   0.59569  709.504
 3519.00    0.59027   0.58928  709.504
 3520.00    0.57790   0.57622  709.504
 3521.00    0.56629   0.56213   -1.000
 3522.00    0.55511   0.54914   -1.000
 3523.00    0.54448   0.53696  142.259
 3524.00    0.52988   0.52702   92.497
 3525.00    0.51571   0.52390   93.466
 3526.00    0.51545   0.53169   -1.000
 3527.00    0.53151   0.54884   -1.000
 3528.00    0.55345   0.56804   -1.000
 3529.00    0.56901   0.58140   -1.000
 3530.00    0.57818   0.58623   -1.000
 3531.00    0.58200   0.58585  709.504
 3532.00    0.58575   0.58567  709.504
 3533.00    0.58882   0.58838  709.504
 3534.00    0.58999   0.59285  709.504
 3535.00    0.58994   0.59696   -1.000
 3536.00    0.58847   0.60044   -1.000
 3537.00    0.59081   0.60470   -1.000
 3538.00    0.59883   0.60996   -1.000
 3539.00    0.60365   0.61373   -1.000
 3540.00    0.60165   0.61395   -1.000
 3541.00    0.59466   0.61264   -1.000
 3542.00    0.59360   0.61327   -1.000
 3543.00    0.59775   0.61660   -1.000
 3544.00    0.59998   0.61994   -1.000
 3545.00    0.60254   0.62051   -1.000
 3546.00    0.60052   0.61873   -1.000
 3547.00    0.59324   0.61725   -1.000
 3548.00    0.59104   0.61780   -1.000
 3549.00    0.59165   0.61943   -1.000
 3550.00    0.59104   0.61982   -1.000
 3551.00    0.58904   0.61722   -1.000
 3552.00    0.58276   0.61197   -1.000
 3553.00    0.57396   0.60648   -1.000
 3554.00    0.56937   0.60312   -1.000
 3555.00    0.57349   0.60226   -1.000
 3556.00    0.57670   0.60215   -1.000
 3557.00    0.57495   0.60086   -1.000
 3558.00    0.57208   0.59854   -1.000
 3559.00    0.57191   0.59810   -1.000
 3560.00    0.57467   0.60247   -1.000
 3561.00    0.58160   0.60999   -1.000
 3562.00    0.58512   0.61324   -1.000
 3563.00    0.57765   0.60385   -1.000
 3564.00    0.56189   0.58254  141.857
 3565.00    0.53844   0.56034   93.725
 3566.00    0.51990   0.54694   94.562
 3567.00    0.51815   0.54187   93.794
 3568.00    0.51891   0.53761   95.524
 3569.00    0.51553   0.53002   97.899
 3570.00    0.50909   0.52316   96.685
 3571.00    0.50971   0.52279   92.821
 3572.00    0.51757   0.52862  198.367
 3573.00    0.52783   0.53548   -1.000
 3574.00    0.53518   0.53970  709.504
 3575.00    0.53882   0.54178  709.504
 3576.00    0.54250   0.54312  709.504
 3577.00    0.54483   0.54235  709.504
 3578.00    0.54401   0.53603  146.388
 3579.00    0.53320   0.52355   99.007
 3580.00    0.51381   0.50957  105.450
 3581.00    0.50044   0.50009  108.110
 3582.00    0.49565   0.49690  108.631
 3583.00    0.49751   0.49590  110.476
 3584.00    0.49417   0.49190  113.806
 3585.00    0.48318   0.48538  116.261
 3586.00    0.47565   0.48171  113.186
 3587.00    0.47891   0.48556  107.231
 3588.00    0.48927   0.49780  101.843
 3589.00    0.50626   0.51619   94.250
 3590.00    0.52834   0.53623  197.760
 3591.00    0.54584   0.55268   -1.000
 3592.00    0.55678   0.56264   -1.000
 3593.00    0.56146   0.56784   -1.000
 3594.00    0.56343   0.57311   -1.000
 3595.00    0.57299   0.58168   -1.000
 3596.00    0.58588   0.59267   -1.000
 3597.00    0.59425   0.60321   -1.000
 3598.00    0.60118   0.61059   -1.000
 3599.00    0.60662   0.61233   -1.000
 3600.00    0.60658   0.60636  707.807
 3601.00    0.59316   0.59289  709.504
 3602.00    0.57614   0.57591  709.504
 3603.00    0.56594   0.56170   -1.000
 3604.00    0.55924   0.55485   -1.000
 3605.00    0.55756   0.55456  709.504
 3606.00    0.55923   0.55538   -1.000
 3607.00    0.55610   0.55247   -1.000
 3608.00    0.54761   0.54650  709.504
 3609.00    0.53851   0.54297  709.504
 3610.00    0.53583   0.54538   -1.000
 3611.00    0.54401   0.55166   -1.000
 3612.00    0.55479   0.55850  709.504
 3613.00    0.55928   0.56552   -1.000
 3614.00    0.56378   0.57327   -1.000
 3615.00    0.57454   0.57836  709.504
 3616.00    0.57903   0.57408   -1.000
 3617.00    0.56284   0.56011  709.504
 3618.00    0.53878   0.54645  138.530
 3619.00    0.52883   0.54395  198.412
 3620.00    0.54061   0.55419   -1.000
 3621.00    0.56348   0.57022   -1.000
 3622.00    0.58298   0.58453  709.504
 3623.00    0.59154   0.59543  705.330
 3624.00    0.59797   0.60673   -1.000
 3625.00    0.60965   0.62143   -1.000
 3626.00    0.62056   0.63663   -1.000
 3627.00    0.62709   0.64438   -1.000
 3628.00    0.62563   0.63692   -1.000
 3629.00    0.60567   0.61384   -1.000
 3630.00    0.57278   0.58465   -1.000
 3631.00    0.54935   0.56293   -1.000
 3632.00    0.54267   0.55657   -1.000
 3633.00    0.55028   0.56313   -1.000
 3634.00    0.56397   0.57386   -1.000
 3635.00    0.57487   0.58222   -1.000
 3636.00    0.58451   0.58873  709.504
 3637.00    0.59385   0.59743  689.091
 3638.00    0.60720   0.60926  663.056
 3639.00    0.62044   0.61971  654.272
 3640.00    0.62267   0.62257  664.367
 3641.00    0.61544   0.61538  684.806
 3642.00    0.60163   0.60120  709.504
 3643.00    0.58715   0.58632  709.504
 3644.00    0.57395   0.57567  709.504
 3645.00    0.56689   0.56971  709.504
 3646.00    0.56592   0.56625  709.504
 3647.00    0.56590   0.56447  709.504
 3648.00    0.56627   0.56570  709.504
 3649.00    0.57288   0.57154  709.504
 3650.00    0.58066   0.58221  709.504
 3651.00    0.58991   0.59594   -1.000
 3652.00    0.60404   0.60971   -1.000
 3653.00    0.61684   0.62090  651.469
 3654.00    0.62440   0.62883  646.776
 3655.00    0.62669   0.63523   -1.000
 3656.00    0.62932   0.64174   -1.000
 3657.00    0.63543   0.64770   -1.000
 3658.00    0.63965   0.65105   -1.000
 3659.00    0.63796   0.65044   -1.000
 3660.00    0.63258   0.64597   -1.000
 3661.00    0.63012   0.63894   -1.000
 3662.00    0.62580   0.63145   -1.000
 3663.00    0.62352   0.62586  649.530
 3664.00    0.62701   0.62349  646.264
 3665.00    0.62940   0.62321   -1.000
 3666.00    0.62874   0.62204   -1.000
 3667.00    0.62765   0.61798   -1.000
 3668.00    0.61878   0.61303   -1.000
 3669.00    0.60959   0.61206  678.535
 3670.00    0.60716   0.61752   -1.000
 3671.00    0.61591   0.62669   -1.000
 3672.00    0.62803   0.63422   -1.000
 3673.00    0.63277   0.63638  635.811
 3674.00    0.63222   0.63264  636.699
 3675.00    0.62849   0.62407   -1.000
 3676.00    0.62284   0.61247   -1.000
 3677.00    0.61153   0.60047   -1.000
 3678.00    0.59750   0.59120   -1.000
 3679.00    0.59427   0.58693   -1.000
 3680.00    0.59718   0.58793   -1.000
 3681.00    0.60214   0.59248   -1.000
 3682.00    0.60632   0.59734   -1.000
 3683.00    0.60615   0.59835   -1.000
 3684.00    0.60060   0.59250   -1.000
 3685.00    0.59432   0.58145   -1.000
 3686.00    0.58350   0.57225   -1.000
 3687.00    0.57942   0.57248   -1.000
 3688.00    0.58944   0.58419   -1.000
 3689.00    0.60911   0.60245   -1.000
 3690.00    0.63018   0.61918   -1.000
 3691.00    0.63768   0.62905   -1.000
 3692.00    0.63596   0.63249  636.996
 3693.00    0.63990   0.63245   -1.000
 3694.00    0.64188   0.63026   -1.000
 3695.00    0.63752   0.62665   -1.000
 3696.00    0.63265   0.62520   -1.000
 3697.00    0.63246   0.63148  622.089
 3698.00    0.64625   0.64694  604.518
 3699.00    0.66931   0.66426  593.869
 3700.00    0.68138   0.67094   -1.000
 3701.00    0.67276   0.65812   -1.000
 3702.00    0.64467   0.62725   -1.000
 3703.00    0.60950   0.58987   -1.000
 3704.00    0.57940   0.56079   -1.000
 3705.00    0.56511   0.54926   -1.000
 3706.00    0.57367   0.55389   -1.000
 3707.00    0.59014   0.56588   -1.000
 3708.00    0.60037   0.57613   -1.000
 3709.00    0.60471   0.58043   -1.000
 3710.00    0.60354   0.58192   -1.000
 3711.00    0.60596   0.58877   -1.000
 3712.00    0.62151   0.60673   -1.000
 3713.00    0.65098   0.63372   -1.000
 3714.00    0.67986   0.66148   -1.000
 3715.00    0.69756   0.68086   -1.000
 3716.00    0.70385   0.68538   -1.000
 3717.00    0.69268   0.67091   -1.000
 3718.00    0.65898   0.63619   -1.000
 3719.00    0.60773   0.58777   -1.000
 3720.00    0.55258   0.54215  137.978
 3721.00    0.51879   0.51769  209.444
 3722.00    0.52640   0.52402  709.504
 3723.00    0.57061   0.55706   -1.000
 3724.00    0.62398   0.60091   -1.000
 3725.00    0.66307   0.63735   -1.000
 3726.00    0.68043   0.65874   -1.000
 3727.00    0.67892   0.66978   -1.000
 3728.00    0.67748   0.67589  679.007
 3729.00    0.67793   0.67409  679.333
 3730.00    0.66862   0.65580   -1.000
 3731.00    0.63972   0.61661   -1.000
 3732.00    0.59118   0.56313   -1.000
 3733.00    0.53493   0.51099   96.887
 3734.00    0.49350   0.47706  103.558
 3735.00    0.48156   0.47208  101.529
 3736.00    0.50166   0.49712   93.451
 3737.00    0.54615   0.54471  204.704
 3738.00    0.60439   0.60198  709.504
 3739.00    0.65901   0.65393   -1.000
 3740.00    0.69289   0.68849  673.544
 3741.00    0.70333   0.70093  689.284
 3742.00    0.69623   0.69373  709.504
 3743.00    0.67528   0.67318  709.504
 3744.00    0.64971   0.64535   -1.000
 3745.00    0.62343   0.61313   -1.000
 3746.00    0.59154   0.57620  136.470
 3747.00    0.55982   0.53518   95.236
 3748.00    0.52112   0.49767   98.150
 3749.00    0.49120   0.47835   -1.000
 3750.00    0.50192   0.48891   -1.000
 3751.00    0.54935   0.52862   -1.000
 3752.00    0.61079   0.58535   -1.000
 3753.00    0.66595   0.64325   -1.000
 3754.00    0.71080   0.68862   -1.000
 3755.00    0.73691   0.71188   -1.000
 3756.00    0.73265   0.71049   -1.000
 3757.00    0.70317   0.69250   -1.000
 3758.00    0.67508   0.67319  709.504
 3759.00    0.66712   0.66462  709.504
 3760.00    0.67974   0.66845   -1.000
 3761.00    0.70217   0.67860   -1.000
 3762.00    0.71300   0.68812   -1.000
 3763.00    0.71508   0.69196   -1.000
 3764.00    0.71183   0.68654   -1.000
 3765.00    0.70272   0.67049   -1.000
 3766.00    0.68482   0.64521   -1.000
 3767.00    0.66171   0.61390   -1.000
 3768.00    0.63489   0.58106   -1.000
 3769.00    0.60932   0.55390   -1.000
 3770.00    0.59054   0.54247   -1.000
 3771.00    0.59673   0.55392   -1.000
 3772.00    0.63261   0.58508   -1.000
 3773.00    0.67539   0.62390   -1.000
 3774.00    0.70612   0.65984   -1.000
 3775.00    0.72385   0.69029   -1.000
 3776.00    0.73813   0.71797   -1.000
 3777.00    0.75888   0.74547   -1.000
 3778.00    0.78375   0.77255   -1.000
 3779.00    0.80517   0.79675   -1.000
 3780.00    0.82273   0.81548   -1.000
 3781.00    0.83252   0.82766  572.450
 3782.00    0.83573   0.83320  571.459
 3783.00    0.83138   0.83139  580.203
 3784.00    0.82533   0.82038   -1.000
 3785.00    0.81021   0.80011   -1.000
 3786.00    0.78447   0.77520   -1.000
 3787.00    0.76136   0.75290   -1.000
 3788.00    0.74953   0.73795   -1.000
 3789.00    0.74366   0.72990   -1.000
 3790.00    0.74083   0.72399   -1.000
 3791.00    0.74041   0.71351   -1.000
 3792.00    0.72824   0.69307   -1.000
 3793.00    0.69759   0.66113   -1.000
 3794.00    0.66289   0.62008   -1.000
 3795.00    0.62576   0.57464   -1.000
 3796.00    0.58458   0.53156   -1.000
 3797.00    0.54889   0.50151   -1.000
 3798.00    0.53588   0.49740   -1.000
 3799.00    0.56031   0.52515   -1.000
 3800.00    0.61304   0.57734   -1.000
 3801.00    0.67065   0.63803   -1.000
 3802.00    0.72007   0.69214   -1.000
 3803.00    0.75796   0.73118   -1.000
 3804.00    0.77789   0.75334   -1.000
 3805.00    0.78477   0.76240   -1.000
 3806.00    0.78340   0.76729   -1.000
 3807.00    0.78453   0.77790   -1.000
 3808.00    0.79547   0.79740  647.960
 3809.00    0.81616   0.81967  634.526
 3810.00    0.83095   0.83354  640.399
 3811.00    0.82538   0.83002   -1.000
 3812.00    0.80814   0.80873  707.548
 3813.00    0.78293   0.77936   -1.000
 3814.00    0.75948   0.75601  709.504
 3815.00    0.75430   0.74794   -1.000
 3816.00    0.76609   0.75287   -1.000
 3817.00    0.77962   0.75913   -1.000
 3818.00    0.78226   0.75612   -1.000
 3819.00    0.75770   0.74349   -1.000
 3820.00    0.73208   0.73035  709.504
 3821.00    0.73197   0.72402   -1.000
 3822.00    0.74741   0.72068   -1.000
 3823.00    0.74688   0.71077   -1.000
 3824.00    0.71843   0.69123   -1.000
 3825.00    0.68924   0.66857   95.932
 3826.00    0.67484   0.65077   96.070
 3827.00    0.66800   0.63942   94.735
 3828.00    0.66330   0.62981   -1.000
 3829.00    0.65831   0.61560   -1.000
 3830.00    0.64737   0.59210   -1.000
 3831.00    0.61478   0.55797   -1.000
 3832.00    0.56969   0.51644   -1.000
 3833.00    0.52678   0.47567   -1.000
 3834.00    0.49845   0.44623   -1.000
 3835.00    0.49286   0.43560   -1.000
 3836.00    0.50824   0.44442   -1.000
 3837.00    0.52959   0.46769   -1.000
 3838.00    0.55272   0.49990   -1.000
 3839.00    0.58086   0.53879   -1.000
 3840.00    0.61489   0.58377   -1.000
 3841.00    0.66087   0.63221   -1.000
 3842.00    0.70840   0.67865   -1.000
 3843.00    0.74578   0.71750   -1.000
 3844.00    0.77082   0.74664   -1.000
 3845.00    0.78330   0.76811   -1.000
 3846.00    0.79085   0.78443   -1.000
 3847.00    0.79968   0.79535  709.504
 3848.00    0.80196   0.80011  709.504
 3849.00    0.79433   0.80160   -1.000
 3850.00    0.78652   0.80510   -1.000
 3851.00    0.79363   0.81275   -1.000
 3852.00    0.81154   0.82078   -1.000
 3853.00    0.81918   0.82326  709.504
 3854.00    0.81292   0.81811   -1.000
 3855.00    0.80034   0.80782   -1.000
 3856.00    0.78902   0.79560   -1.000
 3857.00    0.77687   0.78358  130.173
 3858.00    0.76004   0.77458   93.274
 3859.00    0.74642   0.77327   93.841
 3860.00    0.75089   0.78290   -1.000
 3861.00    0.77878   0.80055   -1.000
 3862.00    0.81375   0.81793   -1.000
 3863.00    0.83604   0.82788   -1.000
 3864.00    0.84256   0.82979   -1.000
 3865.00    0.83717   0.82811   -1.000
 3866.00    0.83300   0.82695   -1.000
 3867.00    0.83224   0.82669   -1.000
 3868.00    0.82728   0.82371  709.504
 3869.00    0.81368   0.81342  709.504
 3870.00    0.79160   0.79522  131.810
 3871.00    0.76857   0.77524  219.333
 3872.00    0.75531   0.76340   -1.000
 3873.00    0.76203   0.76557  709.504
 3874.00    0.78390   0.77705   -1.000
 3875.00    0.79857   0.78482   -1.000
 3876.00    0.79070   0.77917   -1.000
 3877.00    0.75866   0.76259  709.504
 3878.00    0.73191   0.74558   -1.000
 3879.00    0.72893   0.73492   -1.000
 3880.00    0.72811   0.72821  709.504
 3881.00    0.71998   0.71924  709.504
 3882.00    0.71171   0.70451   -1.000
 3883.00    0.70660   0.68288   -1.000
 3884.00    0.69312   0.65231   -1.000
 3885.00    0.66642   0.61116   -1.000
 3886.00    0.62638   0.56372   -1.000
 3887.00    0.58737   0.52174   -1.000
 3888.00    0.55759   0.49910   -1.000
 3889.00    0.55650   0.50469   -1.000
 3890.00    0.59061   0.53708   -1.000
 3891.00    0.65122   0.58400   -1.000
 3892.00    0.69531   0.62964   -1.000
 3893.00    0.71811   0.66494   -1.000
 3894.00    0.73197   0.69100   -1.000
 3895.00    0.74676   0.71325   -1.000
 3896.00    0.76765   0.73388   -1.000
 3897.00    0.78174   0.75084   -1.000
 3898.00    0.78671   0.76306   -1.000
 3899.00    0.79015   0.77342   -1.000
 3900.00    0.79890   0.78487   -1.000
 3901.00    0.81073   0.79589   -1.000
 3902.00    0.81738   0.80197   -1.000
 3903.00    0.81892   0.80103   -1.000
 3904.00    0.81375   0.79685   -1.000
 3905.00    0.80131   0.79707  655.809
 3906.00    0.80297   0.80791   -1.000
 3907.00    0.82825   0.82977  586.264
 3908.00    0.85712   0.85615  564.105
 3909.00    0.87682   0.87829  556.564
 3910.00    0.88409   0.89129   -1.000
 3911.00    0.88981   0.89488  547.497
 3912.00    0.88843   0.89107  550.863
 3913.00    0.88017   0.88326  560.836
 3914.00    0.87203   0.87527  573.623
 3915.00    0.86679   0.86925  582.944
 3916.00    0.86162   0.86456  590.552
 3917.00    0.85354   0.85888   -1.000
 3918.00    0.84320   0.85065   -1.000
 3919.00    0.83174   0.84100   -1.000
 3920.00    0.82121   0.83344   -1.000
 3921.00    0.81409   0.83103   -1.000
 3922.00    0.81540   0.83304   -1.000
 3923.00    0.81839   0.83449   -1.000
 3924.00    0.81484   0.82896   -1.000
 3925.00    0.80320   0.81207   -1.000
 3926.00    0.77288   0.78302   -1.000
 3927.00    0.72915   0.74373  142.728
 3928.00    0.67398   0.69667  111.043
 3929.00    0.61677   0.64288   -1.000
 3930.00    0.54911   0.58271   -1.000
 3931.00    0.46838   0.51981   -1.000
 3932.00    0.39688   0.46510   -1.000
 3933.00    0.35363   0.43516   -1.000
 3934.00    0.35806   0.44226   -1.000
 3935.00    0.41024   0.48459   -1.000
 3936.00    0.48939   0.54795   -1.000
 3937.00    0.57162   0.61592   -1.000
 3938.00    0.64083   0.67721   -1.000
 3939.00    0.69409   0.72633   -1.000
 3940.00    0.73717   0.76096   -1.000
 3941.00    0.76247   0.78117   -1.000
 3942.00    0.77047   0.79046   -1.000
 3943.00    0.77332   0.79521   -1.000
 3944.00    0.78504   0.80150   -1.000
 3945.00    0.80908   0.81136  635.400
 3946.00    0.83224   0.82189   -1.000
 3947.00    0.83778   0.82964   -1.000
 3948.00    0.83677   0.83432  597.163
 3949.00    0.84322   0.83726   -1.000
 3950.00    0.85178   0.83882   -1.000
 3951.00    0.85437   0.83948   -1.000
 3952.00    0.85394   0.84073   -1.000
 3953.00    0.85734   0.84249   -1.000
 3954.00    0.86291   0.84140   -1.000
 3955.00    0.85781   0.83461   -1.000
 3956.00    0.83606   0.82430   -1.000
 3957.00    0.82348   0.81457   -1.000
 3958.00    0.82609   0.80421   -1.000
 3959.00    0.81683   0.78648   -1.000
 3960.00    0.78471   0.75672   -1.000
 3961.00    0.74039   0.71771   -1.000
 3962.00    0.69906   0.67581   -1.000
 3963.00    0.65953   0.63258   -1.000
 3964.00    0.60887   0.58286  104.686
 3965.00    0.54071   0.52098  126.915
 3966.00    0.45188   0.44954  155.824
 3967.00    0.36371   0.38236  178.473
 3968.00    0.30667   0.33814   -1.000
 3969.00    0.29904   0.32952   -1.000
 3970.00    0.34308   0.35706  122.742
 3971.00    0.41708   0.41090  102.156
 3972.00    0.49761   0.47765   -1.000
 3973.00    0.57740   0.54643   -1.000
 3974.00    0.64925   0.61067   -1.000
 3975.00    0.70707   0.66754   -1.000
 3976.00    0.75071   0.71675   -1.000
 3977.00    0.78588   0.75933   -1.000
 3978.00    0.82200   0.79557   -1.000
 3979.00    0.85059   0.82328   -1.000
 3980.00    0.86780   0.84001   -1.000
 3981.00    0.87554   0.84750   -1.000
 3982.00    0.87436   0.85209   -1.000
 3983.00    0.87966   0.85965   -1.000
 3984.00    0.89621   0.87092   -1.000
 3985.00    0.90955   0.88309   -1.000
 3986.00    0.91841   0.89432   -1.000
 3987.00    0.92871   0.90512   -1.000
 3988.00    0.94024   0.91610   -1.000
 3989.00    0.94377   0.92690   -1.000
 3990.00    0.94765   0.93732   -1.000
 3991.00    0.96233   0.94722   -1.000
 3992.00    0.97198   0.95470   -1.000
 3993.00    0.97717   0.95654   -1.000
 3994.00    0.96777   0.95121   -1.000
 3995.00    0.95058   0.94102   -1.000
 3996.00    0.93625   0.93158  493.928
 3997.00    0.93351   0.92882  487.318
 3998.00    0.94115   0.93516  468.060
 3999.00    0.96131   0.94797   -1.000
 4000.00    0.97945   0.96136   -1.000
 4001.00    0.99129   0.96900   -1.000
 4002.00    0.99649   0.96658   -1.000
 4003.00    0.98692   0.95397   -1.000
 4004.00    0.96412   0.93666   -1.000
 4005.00    0.94036   0.92479   -1.000
 4006.00    0.93896   0.92696   -1.000
 4007.00    0.96288   0.94261   -1.000
 4008.00    0.98214   0.96281   -1.000
 4009.00    0.99529   0.97860   -1.000
 4010.00    1.00100   0.98671   -1.000
 4011.00    1.00000   0.98919   -1.000
 4012.00    0.99510   0.98998  437.773
 4013.00    0.99244   0.99168  436.182
 4014.00    0.99899   0.99436  430.770
 4015.00    1.00728   0.99701   -1.000
 4016.00    1.00905   0.99959   -1.000
 4017.00    1.00819   1.00322  436.640
 4018.00    1.00881   1.00830  431.150
 4019.00    1.01510   1.01319  429.808
 4020.00    1.01440   1.01515  434.636
 4021.00    1.00667   1.01253  438.407
 4022.00    1.00057   1.00591  441.151
 4023.00    0.99532   0.99818  444.449
 4024.00    0.99034   0.99381  437.674
 4025.00    0.99452   0.99635  423.240
 4026.00    1.00937   1.00410  412.678
 4027.00    1.02299   1.00932   -1.000
 4028.00    1.02152   1.00416   -1.000
 4029.00    0.99920   0.98783   -1.000
 4030.00    0.97197   0.96721  474.852
 4031.00    0.95148   0.95138  484.748
 4032.00    0.94450   0.94627  481.979
 4033.00    0.95074   0.95277  468.866
 4034.00    0.97001   0.96859  447.760
 4035.00    0.99026   0.99048  425.541
 4036.00    1.01487   1.01408  408.805
 4037.00    1.03498   1.03309  403.504
 4038.00    1.04282   1.04182  409.207
 4039.00    1.03843   1.03996  418.816
 4040.00    1.02517   1.03219   -1.000
 4041.00    1.01450   1.02170   -1.000
 4042.00    1.00881   1.00613  442.814
 4043.00    0.98951   0.98247   -1.000
 4044.00    0.95078   0.95593  520.372
 4045.00    0.91867   0.94018   -1.000
 4046.00    0.92581   0.94539   -1.000
 4047.00    0.96074   0.96852   -1.000
 4048.00    0.99923   0.99661  423.199
 4049.00    1.02077   1.01709  416.321
 4050.00    1.02746   1.02480  416.992
 4051.00    1.01984   1.02113  426.022
 4052.00    1.01196   1.01050  437.396
 4053.00    1.00197   0.99846  445.542
 4054.00    0.99205   0.98949  450.044
 4055.00    0.98887   0.98460  453.212
 4056.00    0.98466   0.98294  457.478
 4057.00    0.98283   0.98496  455.057
 4058.00    0.98564   0.99125  441.547
 4059.00    0.99865   0.99827  430.553
 4060.00    1.00719   0.99817   -1.000
 4061.00    0.99606   0.98567   -1.000
 4062.00    0.96167   0.96428  490.786
 4063.00    0.93638   0.94397   -1.000
 4064.00    0.93709   0.93336  474.987
 4065.00    0.95341   0.93432   -1.000
 4066.00    0.96762   0.94312   -1.000
 4067.00    0.97661   0.95441   -1.000
 4068.00    0.99319   0.96254   -1.000
 4069.00    1.00313   0.96238   -1.000
 4070.00    0.98972   0.95353   -1.000
 4071.00    0.96868   0.94265   -1.000
 4072.00    0.96455   0.93728   -1.000
 4073.00    0.97352   0.93690   -1.000
 4074.00    0.97866   0.93317   -1.000
 4075.00    0.96105   0.92017   -1.000
 4076.00    0.92976   0.90236   -1.000
 4077.00    0.91114   0.89149   -1.000
 4078.00    0.91440   0.89658   -1.000
 4079.00    0.93926   0.91618   -1.000
 4080.00    0.97078   0.93923   -1.000
 4081.00    0.98960   0.95327   -1.000
 4082.00    0.98757   0.95347   -1.000
 4083.00    0.97202   0.94488   -1.000
 4084.00    0.95900   0.93733   -1.000
 4085.00    0.95820   0.93808   -1.000
 4086.00    0.96934   0.94744   -1.000
 4087.00    0.98756   0.95943   -1.000
 4088.00    1.00180   0.96631   -1.000
 4089.00    1.00154   0.96392   -1.000
 4090.00    0.98870   0.95377   -1.000
 4091.00    0.97386   0.94024   -1.000
 4092.00    0.96325   0.92557   -1.000
 4093.00    0.95490   0.90815   -1.000
 4094.00    0.93773   0.88536   -1.000
 4095.00    0.90760   0.85672   -1.000
 4096.00    0.88005   0.82346   -1.000
 4097.00    0.85751   0.78530   -1.000
 4098.00    0.82828   0.73991   -1.000
 4099.00    0.78027   0.68776   -1.000
 4100.00    0.71386   0.63800   -1.000
 4101.00    0.66160   0.60755   -1.000
 4102.00    0.65848   0.61048   -1.000
 4103.00    0.70491   0.64693   -1.000
 4104.00    0.77356   0.70225   -1.000
 4105.00    0.83178   0.75746   -1.000
 4106.00    0.86879   0.80076   -1.000
 4107.00    0.88351   0.83031   -1.000
 4108.00    0.89168   0.84987   -1.000
 4109.00    0.89840   0.86446   -1.000
 4110.00    0.90435   0.87835   -1.000
 4111.00    0.91852   0.89392   -1.000
 4112.00    0.93788   0.91153   -1.000
 4113.00    0.95131   0.93020   -1.000
 4114.00    0.96312   0.94752   -1.000
 4115.00    0.97245   0.95974   -1.000
 4116.00    0.97875   0.96390   -1.000
 4117.00    0.97192   0.96056   -1.000
 4118.00    0.95850   0.95407  455.230
 4119.00    0.95379   0.94947  452.466
 4120.00    0.95608   0.94905   -1.000
 4121.00    0.95961   0.95197   -1.000
 4122.00    0.96316   0.95687  443.141
 4123.00    0.96972   0.96316  436.033
 4124.00    0.98192   0.96934   -1.000
 4125.00    0.98806   0.97211   -1.000
 4126.00    0.98494   0.96933   -1.000
 4127.00    0.97772   0.96282   -1.000
 4128.00    0.96829   0.95640   -1.000
 4129.00    0.96504   0.95127   -1.000
 4130.00    0.96003   0.94536   -1.000
 4131.00    0.94754   0.93805   -1.000
 4132.00    0.93592   0.93352  490.302
 4133.00    0.93033   0.93775   -1.000
 4134.00    0.94275   0.95268   -1.000
 4135.00    0.96488   0.97445   -1.000
 4136.00    0.98867   0.99678   -1.000
 4137.00    1.00440   1.01496   -1.000
 4138.00    1.01105   1.02630   -1.000
 4139.00    1.01612   1.02815   -1.000
 4140.00    1.01190   1.01788  445.143
 4141.00    0.98960   0.99677   -1.000
 4142.00    0.95428   0.97263   -1.000
 4143.00    0.92706   0.95688   -1.000
 4144.00    0.93280   0.95689   -1.000
 4145.00    0.95776   0.96995   -1.000
 4146.00    0.98228   0.98560  446.024
 4147.00    0.99131   0.99499  451.029
 4148.00    0.98750   0.99715   -1.000
 4149.00    0.97934   0.99645   -1.000
 4150.00    0.97945   0.99610   -1.000
 4151.00    0.98040   0.99509   -1.000
 4152.00    0.97597   0.99091   -1.000
 4153.00    0.96696   0.98379   -1.000
 4154.00    0.97184   0.97753  469.351
 4155.00    0.98986   0.97651   -1.000
 4156.00    0.97246   0.98229   -1.000
 4157.00    0.96503   0.99286   -1.000
 4158.00    0.97118   1.00436   -1.000
 4159.00    0.98171   1.01350   -1.000
 4160.00    0.99784   1.01933   -1.000
 4161.00    1.00388   1.02333   -1.000
 4162.00    1.00535   1.02720   -1.000
 4163.00    1.00242   1.03069   -1.000
 4164.00    1.00095   1.03187   -1.000
 4165.00    0.99812   1.02916   -1.000
 4166.00    0.99143   1.02325   -1.000
 4167.00    0.98508   1.01639   -1.000
 4168.00    0.98308   1.00895   -1.000
 4169.00    0.98684   0.99751   -1.000
 4170.00    0.98007   0.97850  477.038
 4171.00    0.95183   0.95447  506.393
 4172.00    0.92325   0.93486   -1.000
 4173.00    0.91253   0.92873   -1.000
 4174.00    0.92157   0.93652   -1.000
 4175.00    0.93737   0.94982   -1.000
 4176.00    0.94806   0.96006   -1.000
 4177.00    0.95069   0.96582   -1.000
 4178.00    0.95255   0.97102   -1.000
 4179.00    0.96423   0.97777   -1.000
 4180.00    0.97548   0.98372   -1.000
 4181.00    0.97609   0.98646   -1.000
 4182.00    0.96863   0.98730   -1.000
 4183.00    0.96719   0.98895   -1.000
 4184.00    0.97077   0.99102   -1.000
 4185.00    0.97063   0.99038   -1.000
 4186.00    0.95893   0.98612   -1.000
 4187.00    0.94763   0.98168   -1.000
 4188.00    0.95159   0.98126   -1.000
 4189.00    0.96011   0.98574   -1.000
 4190.00    0.96593   0.99307   -1.000
 4191.00    0.97248   1.00105   -1.000
 4192.00    0.98493   1.00745   -1.000
 4193.00    0.99526   1.00858   -1.000
 4194.00    0.99113   1.00111   -1.000
 4195.00    0.97264   0.98533   -1.000
 4196.00    0.95138   0.96558   -1.000
 4197.00    0.93458   0.94760   -1.000
 4198.00    0.92344   0.93558   -1.000
 4199.00    0.92201   0.93083   -1.000
 4200.00    0.92787   0.93210  482.462
 4201.00    0.93032   0.93709   -1.000
 4202.00    0.93098   0.94447   -1.000
 4203.00    0.93546   0.95446   -1.000
 4204.00    0.94240   0.96728   -1.000
 4205.00    0.94968   0.98174   -1.000
 4206.00    0.95860   0.99541   -1.000
 4207.00    0.97170   1.00562   -1.000
 4208.00    0.98230   1.01103   -1.000
 4209.00    0.98426   1.01308   -1.000
 4210.00    0.98069   1.01465   -1.000
 4211.00    0.98088   1.01635   -1.000
 4212.00    0.98326   1.01499   -1.000
 4213.00    0.97717   1.00682   -1.000
 4214.00    0.95754   0.99304   -1.000
 4215.00    0.93909   0.98075   -1.000
 4216.00    0.93726   0.97788   -1.000
 4217.00    0.95527   0.98661   -1.000
 4218.00    0.97396   1.00182   -1.000
 4219.00    0.98773   1.01512   -1.000
 4220.00    0.99635   1.01980   -1.000
 4221.00    0.99362   1.01229   -1.000
 4222.00    0.98216   0.99109   -1.000
 4223.00    0.95576   0.95764  486.938
 4224.00    0.91733   0.91839  548.126
 4225.00    0.86604   0.88531   -1.000
 4226.00    0.82577   0.87192   -1.000
 4227.00    0.83466   0.88544   -1.000
 4228.00    0.88740   0.91968   -1.000
 4229.00    0.94577   0.95755   -1.000
 4230.00    0.97932   0.98242  419.824
 4231.00    0.98006   0.98866   -1.000
 4232.00    0.96497   0.98121   -1.000
 4233.00    0.95139   0.96926   -1.000
 4234.00    0.94557   0.95968   -1.000
 4235.00    0.94118   0.95482   -1.000
 4236.00    0.93672   0.95451   -1.000
 4237.00    0.93591   0.95854   -1.000
 4238.00    0.93930   0.96647   -1.000
 4239.00    0.95143   0.97659   -1.000
 4240.00    0.96533   0.98640   -1.000
 4241.00    0.97180   0.99444   -1.000
 4242.00    0.97620   1.00047   -1.000
 4243.00    0.97771   1.00406   -1.000
 4244.00    0.97640   1.00309   -1.000
 4245.00    0.97202   0.99528   -1.000
 4246.00    0.95284   0.98153   -1.000
 4247.00    0.93249   0.96697   -1.000
 4248.00    0.92247   0.95760   -1.000
 4249.00    0.91574   0.95614   -1.000
 4250.00    0.91801   0.96106   -1.000
 4251.00    0.93217   0.96824   -1.000
 4252.00    0.94868   0.97307   -1.000
 4253.00    0.95054   0.97369   -1.000
 4254.00    0.94094   0.97264   -1.000
 4255.00    0.94526   0.97370   -1.000
 4256.00    0.96009   0.97577   -1.000
 4257.00    0.96641   0.97313  439.120
 4258.00    0.95417   0.96318   -1.000
 4259.00    0.92785   0.95144   -1.000
 4260.00    0.91613   0.94789   -1.000
 4261.00    0.92618   0.95826   -1.000
 4262.00    0.95118   0.97902   -1.000
 4263.00    0.97578   1.00095   -1.000
 4264.00    0.99141   1.01574   -1.000
 4265.00    0.99622   1.02031   -1.000
 4266.00    0.99202   1.01536   -1.000
 4267.00    0.97640   1.00258   -1.000
 4268.00    0.95966   0.98306   -1.000
 4269.00    0.94447   0.95845   -1.000
 4270.00    0.91665   0.93274   -1.000
 4271.00    0.88737   0.91223   -1.000
 4272.00    0.87596   0.90247   -1.000
 4273.00    0.88102   0.90547   -1.000
 4274.00    0.89558   0.91939   -1.000
 4275.00    0.91317   0.94068   -1.000
 4276.00    0.94338   0.96420   -1.000
 4277.00    0.96797   0.98277   -1.000
 4278.00    0.97179   0.99047   -1.000
 4279.00    0.95603   0.98763   -1.000
 4280.00    0.94014   0.98007   -1.000
 4281.00    0.93215   0.97381   -1.000
 4282.00    0.93236   0.97022   -1.000
 4283.00    0.93636   0.96693   -1.000
 4284.00    0.93593   0.96107   -1.000
 4285.00    0.92505   0.95139   -1.000
 4286.00    0.91250   0.93763   -1.000
 4287.00    0.89959   0.92012   -1.000
 4288.00    0.87996   0.90176   -1.000
 4289.00    0.85747   0.88853   -1.000
 4290.00    0.85281   0.88658   -1.000
 4291.00    0.86982   0.89608   -1.000
 4292.00    0.89520   0.90941   -1.000
 4293.00    0.90724   0.91720   -1.000
 4294.00    0.90806   0.91547   -1.000
 4295.00    0.90333   0.90528  479.564
 4296.00    0.89398   0.88853  500.732
 4297.00    0.87265   0.86583   -1.000
 4298.00    0.84030   0.83957  582.483
 4299.00    0.80468   0.81545   -1.000
 4300.00    0.78871   0.80007   -1.000
 4301.00    0.79491   0.79610  574.584
 4302.00    0.80215   0.80173  565.968
 4303.00    0.81069   0.81220  558.709
 4304.00    0.82289   0.82158  558.988
 4305.00    0.83038   0.82422   -1.000
 4306.00    0.81702   0.81836  603.329
 4307.00    0.79227   0.80888   -1.000
 4308.00    0.77925   0.80439   -1.000
 4309.00    0.78478   0.81019   -1.000
 4310.00    0.80639   0.82466   -1.000
 4311.00    0.82786   0.84224   -1.000
 4312.00    0.84243   0.86043   -1.000
 4313.00    0.85425   0.88228   -1.000
 4314.00    0.87628   0.91188   -1.000
 4315.00    0.91315   0.94790   -1.000
 4316.00    0.95602   0.98278   -1.000
 4317.00    0.98617   1.00683   -1.000
 4318.00    0.99464   1.01519   -1.000
 4319.00    0.98616   1.00903   -1.000
 4320.00    0.97197   0.99238   -1.000
 4321.00    0.95730   0.96803   -1.000
 4322.00    0.93709   0.93758  451.496
 4323.00    0.90614   0.90500  490.775
 4324.00    0.86686   0.87903   -1.000
 4325.00    0.84343   0.86973   -1.000
 4326.00    0.85676   0.88104   -1.000
 4327.00    0.89595   0.90569   -1.000
 4328.00    0.93314   0.93000  397.583
 4329.00    0.94610   0.94358  397.483
 4330.00    0.94070   0.94620  396.274
 4331.00    0.93752   0.94280  390.275
 4332.00    0.93809   0.93652  385.584
 4333.00    0.93738   0.92525   -1.000
 4334.00    0.92844   0.90341   -1.000
 4335.00    0.90939   0.86601   -1.000
 4336.00    0.87408   0.81194   -1.000
 4337.00    0.81367   0.74741   -1.000
 4338.00    0.74523   0.68582   -1.000
 4339.00    0.68292   0.64384   -1.000
 4340.00    0.64951   0.63347   -1.000
 4341.00    0.67046   0.65681   -1.000
 4342.00    0.73735   0.70378   -1.000
 4343.00    0.80307   0.75858   -1.000
 4344.00    0.84538   0.80897   -1.000
 4345.00    0.87647   0.85136   -1.000
 4346.00    0.89801   0.88593   -1.000
 4347.00    0.91637   0.91168  392.133
 4348.00    0.92904   0.92535  391.535
 4349.00    0.93399   0.92478   -1.000
 4350.00    0.91906   0.91367  438.181
 4351.00    0.88920   0.90242   -1.000
 4352.00    0.87882   0.90212   -1.000
 4353.00    0.90214   0.91618   -1.000
 4354.00    0.93184   0.93849  402.831
 4355.00    0.95265   0.96002  393.672
 4356.00    0.96615   0.97488   -1.000
 4357.00    0.97077   0.98290   -1.000
 4358.00    0.96251   0.98734   -1.000
 4359.00    0.95342   0.99253   -1.000
 4360.00    0.96373   1.00107   -1.000
 4361.00    0.98170   1.01234   -1.000
 4362.00    0.99099   1.02350   -1.000
 4363.00    0.99577   1.03172   -1.000
 4364.00    1.00033   1.03494   -1.000
 4365.00    1.00045   1.03125   -1.000
 4366.00    0.98868   1.02070   -1.000
 4367.00    0.97098   1.00688   -1.000
 4368.00    0.96314   0.99463   -1.000
 4369.00    0.96762   0.98615   -1.000
 4370.00    0.97425   0.97985  398.905
 4371.00    0.97592   0.97214  402.008
 4372.00    0.97057   0.96059   -1.000
 4373.00    0.95275   0.94709  432.809
 4374.00    0.93360   0.93806  436.668
 4375.00    0.92715   0.94015   -1.000
 4376.00    0.94205   0.95416   -1.000
 4377.00    0.97020   0.97333  391.445
 4378.00    0.98864   0.98739  392.021
 4379.00    0.99146   0.98868  398.196
 4380.00    0.98843   0.97328   -1.000
 4381.00    0.96750   0.94231   -1.000
 4382.00    0.92282   0.90398   -1.000
 4383.00    0.87358   0.87321  523.562
 4384.00    0.85414   0.86334   -1.000
 4385.00    0.88197   0.87672  438.647
 4386.00    0.92658   0.90221   -1.000
 4387.00    0.95311   0.92555   -1.000
 4388.00    0.95978   0.94001   -1.000
 4389.00    0.95689   0.94713   -1.000
 4390.00    0.95426   0.95169  416.153
 4391.00    0.96594   0.95595   -1.000
 4392.00    0.97399   0.95884   -1.000
 4393.00    0.96925   0.95906   -1.000
 4394.00    0.95613   0.95873  415.903
 4395.00    0.95070   0.96221   -1.000
 4396.00    0.96590   0.96970  386.842
 4397.00    0.98729   0.97546   -1.000
 4398.00    0.98853   0.97423   -1.000
 4399.00    0.97103   0.96759  414.525
 4400.00    0.95295   0.96173   -1.000
 4401.00    0.95695   0.95935  405.869
 4402.00    0.96987   0.95736   -1.000
 4403.00    0.96057   0.95208   -1.000
 4404.00    0.94057   0.94495  446.740
 4405.00    0.93268   0.94126   -1.000
 4406.00    0.94260   0.94387  426.768
 4407.00    0.94777   0.95184  422.619
 4408.00    0.95079   0.96399   -1.000
 4409.00    0.96088   0.97978   -1.000
 4410.00    0.98448   0.99670   -1.000
 4411.00    1.00575   1.00830  371.400
 4412.00    1.01613   1.00789   -1.000
 4413.00    1.00753   0.99430   -1.000
 4414.00    0.98174   0.97355   -1.000
 4415.00    0.95342   0.95636  415.789
 4416.00    0.94571   0.95255  403.326
 4417.00    0.95746   0.96457  386.877
 4418.00    0.97854   0.98617   -1.000
 4419.00    0.99953   1.00659  374.602
 4420.00    1.00936   1.01777   -1.000
 4421.00    1.00343   1.01835   -1.000
 4422.00    0.99506   1.01375   -1.000
 4423.00    0.99339   1.00979   -1.000
 4424.00    0.99533   1.00817   -1.000
 4425.00    0.99324   1.00763   -1.000
 4426.00    0.98695   1.00739   -1.000
 4427.00    0.98537   1.00804   -1.000
 4428.00    0.98993   1.00988   -1.000
 4429.00    0.99365   1.01175   -1.000
 4430.00    0.99286   1.01223   -1.000
 4431.00    0.99528   1.00986   -1.000
 4432.00    0.99902   1.00351  394.793
 4433.00    0.98515   0.99414   -1.000
 4434.00    0.95946   0.98639   -1.000
 4435.00    0.94779   0.98693   -1.000
 4436.00    0.96274   0.99890   -1.000
 4437.00    0.99445   1.01748   -1.000
 4438.00    1.02055   1.03247   -1.000
 4439.00    1.02761   1.03512  372.021
 4440.00    1.01641   1.02366  388.965
 4441.00    0.99176   1.00436   -1.000
 4442.00    0.96155   0.98822   -1.000
 4443.00    0.94497   0.98478   -1.000
 4444.00    0.95518   0.99561   -1.000
 4445.00    0.97982   1.01416   -1.000
 4446.00    0.99868   1.03074   -1.000
 4447.00    1.00604   1.03970   -1.000
 4448.00    1.00680   1.04136   -1.000
 4449.00    1.00293   1.03899   -1.000
 4450.00    0.99903   1.03481   -1.000
 4451.00    0.99965   1.02835   -1.000
 4452.00    0.99816   1.01745   -1.000
 4453.00    0.98560   1.00156   -1.000
 4454.00    0.96130   0.98452   -1.000
 4455.00    0.94667   0.97288   -1.000
 4456.00    0.95262   0.97004   -1.000
 4457.00    0.96782   0.97374  405.953
 4458.00    0.97111   0.97893   -1.000
 4459.00    0.96876   0.98283   -1.000
 4460.00    0.96308   0.98598   -1.000
 4461.00    0.96086   0.99026   -1.000
 4462.00    0.96822   0.99683   -1.000
 4463.00    0.98217   1.00485   -1.000
 4464.00    0.99199   1.01156   -1.000
 4465.00    0.99463   1.01381   -1.000
 4466.00    0.99202   1.01056   -1.000
 4467.00    0.98480   1.00381   -1.000
 4468.00    0.97293   0.99815   -1.000
 4469.00    0.96751   0.99853   -1.000
 4470.00    0.97612   1.00723   -1.000
 4471.00    0.99376   1.02226   -1.000
 4472.00    1.01242   1.03911   -1.000
 4473.00    1.03111   1.05361   -1.000
 4474.00    1.03989   1.06345   -1.000
 4475.00    1.03903   1.06830   -1.000
 4476.00    1.04084   1.06856   -1.000
 4477.00    1.04374   1.06354   -1.000
 4478.00    1.04292   1.05163   -1.000
 4479.00    1.02787   1.03331  377.920
 4480.00    1.00385   1.01404   -1.000
 4481.00    0.98128   1.00259   -1.000
 4482.00    0.98025   1.00541   -1.000
 4483.00    0.99761   1.02119   -1.000
 4484.00    1.02059   1.04186   -1.000
 4485.00    1.03688   1.05783   -1.000
 4486.00    1.04515   1.06279   -1.000
 4487.00    1.03806   1.05665   -1.000
 4488.00    1.01955   1.04488   -1.000
 4489.00    1.00109   1.03516   -1.000
 4490.00    0.99752   1.03250   -1.000
 4491.00    1.01092   1.03655   -1.000
 4492.00    1.02274   1.04255   -1.000
 4493.00    1.02498   1.04607   -1.000
 4494.00    1.01215   1.04645   -1.000
 4495.00    1.00144   1.04658   -1.000
 4496.00    1.00379   1.04919   -1.000
 4497.00    1.01521   1.05351   -1.000
 4498.00    1.03148   1.05680   -1.000
 4499.00    1.03762   1.05743   -1.000
 4500.00    1.02748   1.05710   -1.000
 4501.00    1.02203   1.05993   -1.000
 4502.00    1.03079   1.06892   -1.000
 4503.00    1.05019   1.08234   -1.000
 4504.00    1.06397   1.09457   -1.000
 4505.00    1.06590   1.10083   -1.000
 4506.00    1.05966   1.10014   -1.000
 4507.00    1.05141   1.09572   -1.000
 4508.00    1.04808   1.09190   -1.000
 4509.00    1.05161   1.09098   -1.000
 4510.00    1.05249   1.09143   -1.000
 4511.00    1.05238   1.08985   -1.000
 4512.00    1.04869   1.08437   -1.000
 4513.00    1.04027   1.07599   -1.000
 4514.00    1.03415   1.06748   -1.000
 4515.00    1.03084   1.06113   -1.000
 4516.00    1.02682   1.05749   -1.000
 4517.00    1.02174   1.05547   -1.000
 4518.00    1.01904   1.05377   -1.000
 4519.00    1.02174   1.05239   -1.000
 4520.00    1.02808   1.05145   -1.000
 4521.00    1.02859   1.04976   -1.000
 4522.00    1.01823   1.04592   -1.000
 4523.00    1.00941   1.03968   -1.000
 4524.00    1.00658   1.03173   -1.000
 4525.00    1.00291   1.02208   -1.000
 4526.00    0.99562   1.01025   -1.000
 4527.00    0.98187   0.99740   -1.000
 4528.00    0.97093   0.98702   -1.000
 4529.00    0.97119   0.98250   -1.000
 4530.00    0.97742   0.98362  386.949
 4531.00    0.98441   0.98598  384.103
 4532.00    0.98310   0.98528  392.611
 4533.00    0.97003   0.98172   -1.000
 4534.00    0.95410   0.98107   -1.000
 4535.00    0.95506   0.98959   -1.000
 4536.00    0.97887   1.00818   -1.000
 4537.00    1.01579   1.03103   -1.000
 4538.00    1.03986   1.04956   -1.000
 4539.00    1.04109   1.05852   -1.000
 4540.00    1.03245   1.05867   -1.000
 4541.00    1.02407   1.05512   -1.000
 4542.00    1.05487   1.05200  355.487
 4543.00    0.89415   1.04981   -1.000
 4544.00    0.21497   1.04688   -1.000
 4545.00   -0.01567   1.04181    0.000
 4546.00    0.18296   1.03431   -1.000
 4547.00    0.66955   1.02444   -1.000
 4548.00    0.33022   1.01344   -1.000
 4549.00    0.74090   1.00503   -1.000
 4550.00    0.97742   1.00289   -1.000
 4551.00    0.99573   1.00642   -1.000
 4552.00    1.00221   1.01056   -1.000
 4553.00    0.99411   1.01106   -1.000
 4554.00    0.98402   1.00951   -1.000
 4555.00    0.98520   1.01138   -1.000
 4556.00    0.99891   1.02021   -1.000
 4557.00    1.02289   1.03492   -1.000
 4558.00    1.03604   1.05104   -1.000
 4559.00    1.04477   1.06415   -1.000
 4560.00    1.04664   1.07179   -1.000
 4561.00    1.04177   1.07250   -1.000
 4562.00    1.03337   1.06639   -1.000
 4563.00    1.01658   1.05632   -1.000
 4564.00    1.01002   1.04771   -1.000
 4565.00    1.01553   1.04561   -1.000
 4566.00    1.02697   1.05080   -1.000
 4567.00    1.03908   1.05944   -1.000
 4568.00    1.05013   1.06561   -1.000
 4569.00    1.04755   1.06504   -1.000
 4570.00    1.02961   1.05822   -1.000
 4571.00    1.01077   1.05001   -1.000
 4572.00    1.00920   1.04645   -1.000
 4573.00    1.02425   1.05010   -1.000
 4574.00    1.03649   1.05812   -1.000
 4575.00    1.04076   1.06489   -1.000
 4576.00    1.04131   1.06674   -1.000
 4577.00    1.04041   1.06298   -1.000
 4578.00    1.03215   1.05409   -1.000
 4579.00    1.01842   1.04132   -1.000
 4580.00    1.00740   1.02721   -1.000
 4581.00    1.00595   1.01512   -1.000
 4582.00    1.00448   1.00766  363.014
 4583.00    1.00180   1.00576  363.455
 4584.00    1.00334   1.00885  365.583
 4585.00    1.00822   1.01545  361.836
 4586.00    1.01836   1.02370  353.008
 4587.00    1.02848   1.03204  345.140
 4588.00    1.03284   1.03889  343.430
 4589.00    1.03433   1.04273  347.558
 4590.00    1.03133   1.04278   -1.000
 4591.00    1.02194   1.03995   -1.000
 4592.00    1.01501   1.03687   -1.000
 4593.00    1.01477   1.03610   -1.000
 4594.00    1.02045   1.03852   -1.000
 4595.00    1.03036   1.04308   -1.000
 4596.00    1.03458   1.04792   -1.000
 4597.00    1.03454   1.05145   -1.000
 4598.00    1.03837   1.05255   -1.000
 4599.00    1.03546   1.05088   -1.000
 4600.00    1.02545   1.04733   -1.000
 4601.00    1.01959   1.04374   -1.000
 4602.00    1.02055   1.04186   -1.000
 4603.00    1.02561   1.04247   -1.000
 4604.00    1.03475   1.04523   -1.000
 4605.00    1.03833   1.04964   -1.000
 4606.00    1.04087   1.05551   -1.000
 4607.00    1.04649   1.06251   -1.000
 4608.00    1.05742   1.06949   -1.000
 4609.00    1.06219   1.07441   -1.000
 4610.00    1.06008   1.07574   -1.000
 4611.00    1.05421   1.07346   -1.000
 4612.00    1.04778   1.06949   -1.000
 4613.00    1.04369   1.06597   -1.000
 4614.00    1.04594   1.06339   -1.000
 4615.00    1.04360   1.06093   -1.000
 4616.00    1.04290   1.05757   -1.000
 4617.00    1.04238   1.05360   -1.000
 4618.00    1.04128   1.05068   -1.000
 4619.00    1.04130   1.05097   -1.000
 4620.00    1.04923   1.05552  333.240
 4621.00    1.05615   1.06284  332.222
 4622.00    1.06162   1.06992  332.963
 4623.00    1.06015   1.07409   -1.000
 4624.00    1.05419   1.07463   -1.000
 4625.00    1.05160   1.07270   -1.000
 4626.00    1.05044   1.06935   -1.000
 4627.00    1.04952   1.06540   -1.000
 4628.00    1.04399   1.06197   -1.000
 4629.00    1.03316   1.06034   -1.000
 4630.00    1.03976   1.06126   -1.000
 4631.00    1.05081   1.06359   -1.000
 4632.00    1.05327   1.06477   -1.000
 4633.00    1.04889   1.06291   -1.000
 4634.00    1.04560   1.05864   -1.000
 4635.00    1.04329   1.05428   -1.000
 4636.00    1.04105   1.05160   -1.000
 4637.00    1.03616   1.05094   -1.000
 4638.00    1.03427   1.05244   -1.000
 4639.00    1.03959   1.05636   -1.000
 4640.00    1.04644   1.06231   -1.000
 4641.00    1.05560   1.06862   -1.000
 4642.00    1.06465   1.07255  334.946
 4643.00    1.06299   1.07158  340.454
 4644.00    1.05536   1.06477   -1.000
 4645.00    1.04253   1.05373   -1.000
 4646.00    1.02924   1.04218   -1.000
 4647.00    1.02186   1.03440   -1.000
 4648.00    1.02545   1.03363  348.953
 4649.00    1.03595   1.03964  343.588
 4650.00    1.04299   1.04849  342.349
 4651.00    1.04499   1.05556   -1.000
 4652.00    1.04196   1.05794   -1.000
 4653.00    1.03616   1.05556   -1.000
 4654.00    1.02745   1.05055   -1.000
 4655.00    1.02004   1.04655   -1.000
 4656.00    1.02090   1.04744   -1.000
 4657.00    1.03314   1.05528   -1.000
 4658.00    1.05297   1.06815   -1.000
 4659.00    1.06971   1.08092   -1.000
 4660.00    1.07537   1.08801   -1.000
 4661.00    1.07387   1.08698   -1.000
 4662.00    1.06529   1.07929   -1.000
 4663.00    1.05701   1.06760   -1.000
 4664.00    1.05624   1.05349  346.654
 4665.00    1.04953   1.03755   -1.000
 4666.00    1.03049   1.02117   -1.000
 4667.00    1.00622   1.00810  378.241
 4668.00    0.99686   1.00292  368.336
 4669.00    1.00734   1.00777  353.388
 4670.00    1.02354   1.02016  342.947
 4671.00    1.03954   1.03506  339.808
 4672.00    1.05091   1.04806  339.787
 4673.00    1.05297   1.05742  339.553
 4674.00    1.05207   1.06380   -1.000
 4675.00    1.05550   1.06762   -1.000
 4676.00    1.06426   1.06804  331.344
 4677.00    1.06312   1.06357  337.752
 4678.00    1.05357   1.05473  344.620
 4679.00    1.04115   1.04461  350.490
 4680.00    1.03258   1.03680  354.255
 4681.00    1.02989   1.03344  351.047
 4682.00    1.03456   1.03438  342.764
 4683.00    1.04436   1.03823  337.565
 4684.00    1.05171   1.04309   -1.000
 4685.00    1.05532   1.04722  338.239
 4686.00    1.05473   1.04984  339.880
 4687.00    1.05505   1.05111  340.223
 4688.00    1.05331   1.05153  340.230
 4689.00    1.05231   1.05127  342.311
 4690.00    1.04930   1.05067  343.329
 4691.00    1.04974   1.05046  339.971
 4692.00    1.05085   1.05151  335.005
 4693.00    1.05977   1.05410  327.891
 4694.00    1.06944   1.05715   -1.000
 4695.00    1.07665   1.05871   -1.000
 4696.00    1.07793   1.05701   -1.000
 4697.00    1.07007   1.05147   -1.000
 4698.00    1.05839   1.04268   -1.000
 4699.00    1.04886   1.03261   -1.000
 4700.00    1.04553   1.02302   -1.000
 4701.00    1.04327   1.01497   -1.000
 4702.00    1.03258   1.00968   -1.000
 4703.00    1.02413   1.00835   -1.000
 4704.00    1.03068   1.01080   -1.000
 4705.00    1.03903   1.01446   -1.000
 4706.00    1.03732   1.01594   -1.000
 4707.00    1.02630   1.01459   -1.000
 4708.00    1.01515   1.01314  357.349
 4709.00    1.01559   1.01488  348.040
 4710.00    1.02861   1.02074  338.289
 4711.00    1.04630   1.02826   -1.000
 4712.00    1.05835   1.03430   -1.000
 4713.00    1.05537   1.03727   -1.000
 4714.00    1.04298   1.03825  343.329
 4715.00    1.04192   1.04034  337.450
 4716.00    1.05139   1.04530  330.851
 4717.00    1.05979   1.05239  328.154
 4718.00    1.06718   1.05894  326.908
 4719.00    1.06812   1.06304  325.789
 4720.00    1.06569   1.06465  327.981
 4721.00    1.06203   1.06489  330.432
 4722.00    1.06262   1.06504  329.133
 4723.00    1.06528   1.06533  325.751
 4724.00    1.06773   1.06478  325.627
 4725.00    1.07113   1.06147   -1.000
 4726.00    1.06071   1.05419  344.548
 4727.00    1.04643   1.04373  353.165
 4728.00    1.03941   1.03293  353.184
 4729.00    1.03886   1.02485   -1.000
 4730.00    1.04260   1.02116   -1.000
 4731.00    1.04258   1.02164   -1.000
 4732.00    1.04360   1.02495   -1.000
 4733.00    1.04593   1.02922   -1.000
 4734.00    1.04963   1.03237   -1.000
 4735.00    1.04872   1.03344   -1.000
 4736.00    1.04438   1.03329   -1.000
 4737.00    1.04269   1.03361   -1.000
 4738.00    1.04618   1.03546   -1.000
 4739.00    1.05269   1.03856   -1.000
 4740.00    1.05149   1.04192   -1.000
 4741.00    1.04734   1.04490  335.465
 4742.00    1.05230   1.04771  331.900
 4743.00    1.05633   1.05059  331.929
 4744.00    1.05859   1.05326  332.326
 4745.00    1.05883   1.05553  330.240
 4746.00    1.06045   1.05782  326.984
 4747.00    1.06152   1.06066  325.902
 4748.00    1.06534   1.06430  326.258
 4749.00    1.06733   1.06790  326.527
 4750.00    1.07014   1.07013  328.588
 4751.00    1.06718   1.06968  332.158
 4752.00    1.05874   1.06578  335.107
 4753.00    1.05326   1.05938  337.469
 4754.00    1.05075   1.05285  337.291
 4755.00    1.04868   1.04884  338.299
 4756.00    1.04768   1.04846  340.665
 4757.00    1.04673   1.05113  341.366
 4758.00    1.04634   1.05488  338.965
 4759.00    1.04938   1.05703  337.996
 4760.00    1.05158   1.05499  342.447
 4761.00    1.04467   1.04728  350.642
 4762.00    1.03132   1.03547  355.826
 4763.00    1.02220   1.02333  356.900
 4764.00    1.02133   1.01528  356.302
 4765.00    1.02585   1.01360   -1.000
 4766.00    1.03374   1.01815   -1.000
 4767.00    1.04123   1.02732   -1.000
 4768.00    1.04921   1.03845   -1.000
 4769.00    1.05753   1.04823   -1.000
 4770.00    1.05802   1.05434  339.125
 4771.00    1.05155   1.05670  342.140
 4772.00    1.04634   1.05788   -1.000
 4773.00    1.04949   1.06051   -1.000
 4774.00    1.05987   1.06521  329.296
 4775.00    1.06769   1.07034  329.246
 4776.00    1.06622   1.07326  330.140
 4777.00    1.06579   1.07271  332.137
 4778.00    1.06078   1.06923  335.674
 4779.00    1.05476   1.06476   -1.000
 4780.00    1.04913   1.06094   -1.000
 4781.00    1.04867   1.05815   -1.000
 4782.00    1.04678   1.05561  343.069
 4783.00    1.04224   1.05244   -1.000
 4784.00    1.04187   1.04870  344.295
 4785.00    1.04073   1.04486  347.427
 4786.00    1.03537   1.04178  349.665
 4787.00    1.03122   1.04033   -1.000
 4788.00    1.03153   1.04116   -1.000
 4789.00    1.03244   1.04434   -1.000
 4790.00    1.03593   1.04961   -1.000
 4791.00    1.04355   1.05689   -1.000
 4792.00    1.05091   1.06571   -1.000
 4793.00    1.05990   1.07500   -1.000
 4794.00    1.06810   1.08274   -1.000
 4795.00    1.07089   1.08675   -1.000
 4796.00    1.06849   1.08584   -1.000
 4797.00    1.05934   1.08064   -1.000
 4798.00    1.05000   1.07398   -1.000
 4799.00    1.04307   1.06907   -1.000
 4800.00    1.04350   1.06793   -1.000
 4801.00    1.05154   1.07000   -1.000
 4802.00    1.05963   1.07273   -1.000
 4803.00    1.05927   1.07331   -1.000
 4804.00    1.05250   1.07097   -1.000
 4805.00    1.04474   1.06710   -1.000
 4806.00    1.04278   1.06383   -1.000
 4807.00    1.04653   1.06270   -1.000
 4808.00    1.05200   1.06365   -1.000
 4809.00    1.05344   1.06571   -1.000
 4810.00    1.05588   1.06792   -1.000
 4811.00    1.05783   1.06986   -1.000
 4812.00    1.05856   1.07194   -1.000
 4813.00    1.06316   1.07494   -1.000
 4814.00    1.06611   1.07893   -1.000
 4815.00    1.06486   1.08323   -1.000
 4816.00    1.06563   1.08692   -1.000
 4817.00    1.07007   1.08935   -1.000
 4818.00    1.07239   1.09030   -1.000
 4819.00    1.06787   1.08942   -1.000
 4820.00    1.06527   1.08576   -1.000
 4821.00    1.06472   1.07808   -1.000
 4822.00    1.05417   1.06660   -1.000
 4823.00    1.04148   1.05476   -1.000
 4824.00    1.03510   1.04721   -1.000
 4825.00    1.04068   1.04659  328.987
 4826.00    1.05197   1.05131  329.472
 4827.00    1.05622   1.05668  333.097
 4828.00    1.05281   1.05943  335.452
 4829.00    1.04808   1.05863   -1.000
 4830.00    1.04558   1.05540   -1.000
 4831.00    1.04360   1.05132  339.262
 4832.00    1.04330   1.04779  334.601
 4833.00    1.04763   1.04622  329.978
 4834.00    1.05243   1.04681  328.336
 4835.00    1.05345   1.04838  328.665
 4836.00    1.05397   1.04910  330.114
 4837.00    1.05025   1.04733  334.245
 4838.00    1.04501   1.04274  340.087
 4839.00    1.03547   1.03623  341.108
 4840.00    1.02668   1.02987  340.456
 4841.00    1.02746   1.02555  338.871
 4842.00    1.03148   1.02395  336.441
 4843.00    1.03485   1.02466   -1.000
 4844.00    1.03689   1.02648   -1.000
 4845.00    1.04448   1.02783   -1.000
 4846.00    1.04282   1.02709   -1.000
 4847.00    1.03444   1.02345   -1.000
 4848.00    1.02281   1.01793  337.455
 4849.00    1.01905   1.01299  333.298
 4850.00    1.02266   1.00934   -1.000
 4851.00    1.02482   1.00508   -1.000
 4852.00    1.02077   0.99665   -1.000
 4853.00    1.00930   0.98162   -1.000
 4854.00    0.98833   0.96064   -1.000
 4855.00    0.96657   0.93624   -1.000
 4856.00    0.95577   0.91079   -1.000
 4857.00    0.94653   0.88206   -1.000
 4858.00    0.92187   0.84532   -1.000
 4859.00    0.85789   0.79942   -1.000
 4860.00    0.76830   0.75226   -1.000
 4861.00    0.71432   0.72032  436.771
 4862.00    0.73715   0.71623   -1.000
 4863.00    0.81021   0.74171   -1.000
 4864.00    0.87674   0.78581   -1.000
 4865.00    0.91925   0.83428   -1.000
 4866.00    0.94722   0.87688   -1.000
 4867.00    0.96502   0.90891   -1.000
 4868.00    0.97867   0.92921   -1.000
 4869.00    0.98327   0.93817   -1.000
 4870.00    0.97198   0.93858   -1.000
 4871.00    0.95780   0.93629   -1.000
 4872.00    0.96079   0.93754   -1.000
 4873.00    0.98103   0.94595   -1.000
 4874.00    0.99937   0.95933   -1.000
 4875.00    1.00771   0.97279   -1.000
 4876.00    1.01016   0.98344   -1.000
 4877.00    1.00931   0.99212   -1.000
 4878.00    1.01166   1.00131   -1.000
 4879.00    1.02427   1.01136   -1.000
 4880.00    1.03188   1.01963   -1.000
 4881.00    1.02677   1.02372  343.678
 4882.00    1.02299   1.02297  342.920
 4883.00    1.02140   1.01907  344.332
 4884.00    1.01900   1.01419  349.224
 4885.00    1.01554   1.00944  351.614
 4886.00    1.01631   1.00541   -1.000
 4887.00    1.01689   1.00172   -1.000
 4888.00    1.01266   0.99723   -1.000
 4889.00    1.00338   0.99171   -1.000
 4890.00    0.98955   0.98723  360.566
 4891.00    0.98804   0.98871  347.607
 4892.00    1.00538   1.00033  331.589
 4893.00    1.03431   1.02099   -1.000
 4894.00    1.06079   1.04520   -1.000
 4895.00    1.06996   1.06540  312.462
 4896.00    1.07532   1.07753  312.864
 4897.00    1.07470   1.08121  318.834
 4898.00    1.06615   1.07851   -1.000
 4899.00    1.05320   1.07233   -1.000
 4900.00    1.04800   1.06557   -1.000
 4901.00    1.04811   1.05989   -1.000
 4902.00    1.04373   1.05589   -1.000
 4903.00    1.03936   1.05424   -1.000
 4904.00    1.04194   1.05578   -1.000
 4905.00    1.05111   1.06023  320.993
 4906.00    1.06105   1.06497  323.238
 4907.00    1.05926   1.06542  330.436
 4908.00    1.04810   1.05949   -1.000
 4909.00    1.03327   1.04861   -1.000
 4910.00    1.02480   1.03778   -1.000
 4911.00    1.02712   1.03215  335.579
 4912.00    1.03797   1.03414  330.765
 4913.00    1.04770   1.04220  326.430
 4914.00    1.05174   1.05163  323.354
 4915.00    1.05854   1.05662  324.293
 4916.00    1.06007   1.05230  334.319
 4917.00    1.04391   1.03657  351.858
 4918.00    1.01201   1.01223  369.114
 4919.00    0.98172   0.98675  375.243
 4920.00    0.96799   0.96834  365.161
 4921.00    0.97823   0.96176   -1.000
 4922.00    0.99606   0.96576   -1.000
 4923.00    1.00416   0.97624   -1.000
 4924.00    1.00689   0.98964   -1.000
 4925.00    1.01709   1.00489   -1.000
 4926.00    1.03611   1.02192   -1.000
 4927.00    1.04891   1.03890   -1.000
 4928.00    1.05672   1.05340  320.473
 4929.00    1.06119   1.06273  318.504
 4930.00    1.06409   1.06505  320.952
 4931.00    1.06099   1.05969  328.986
 4932.00    1.04503   1.04833  340.637
 4933.00    1.02338   1.03498   -1.000
 4934.00    1.01650   1.02465  337.795
 4935.00    1.02105   1.01912  336.728
 4936.00    1.02822   1.01607   -1.000
 4937.00    1.02230   1.01260   -1.000
 4938.00    1.00524   1.00885  353.715
 4939.00    1.00042   1.00923  342.733
 4940.00    1.01444   1.01712  331.577
 4941.00    1.03731   1.03124  324.846
 4942.00    1.05157   1.04671  321.484
 4943.00    1.05833   1.05818  321.302
 4944.00    1.05938   1.06378  323.345
 4945.00    1.05124   1.06489   -1.000
 4946.00    1.04863   1.06485   -1.000
 4947.00    1.05364   1.06623   -1.000
 4948.00    1.05965   1.06960   -1.000
 4949.00    1.06486   1.07331  315.480
 4950.00    1.06521   1.07515  316.728
 4951.00    1.06480   1.07416  318.855
 4952.00    1.06144   1.07067  322.357
 4953.00    1.05810   1.06497  326.352
 4954.00    1.05583   1.05547  334.462
 4955.00    1.04446   1.04029  350.677
 4956.00    1.01520   1.02110  365.496
 4957.00    0.98839   1.00441   -1.000
 4958.00    0.98857   0.99907   -1.000
 4959.00    1.01483   1.00805  329.015
 4960.00    1.04441   1.02641   -1.000
 4961.00    1.05870   1.04496   -1.000
 4962.00    1.06156   1.05675  328.840
 4963.00    1.05753   1.06012  332.577
 4964.00    1.04793   1.05670  339.252
 4965.00    1.03879   1.04948   -1.000
 4966.00    1.03270   1.04146  344.722
 4967.00    1.03072   1.03504  343.837
 4968.00    1.03041   1.03173  341.489
 4969.00    1.03471   1.03195  337.970
 4970.00    1.03929   1.03551  334.338
 4971.00    1.04265   1.04154  330.386
 4972.00    1.04958   1.04874  327.155
 4973.00    1.05556   1.05536  325.592
 4974.00    1.05804   1.05994  327.395
 4975.00    1.05705   1.06134  330.715
 4976.00    1.05619   1.05919  335.090
 4977.00    1.05050   1.05387  340.455
 4978.00    1.04162   1.04573  344.842
 4979.00    1.03346   1.03458  349.638
 4980.00    1.02237   1.01969  360.312
 4981.00    1.00342   1.00133  372.106
 4982.00    0.98352   0.98254  373.721
 4983.00    0.97572   0.96909  367.538
 4984.00    0.98058   0.96628   -1.000
 4985.00    0.99517   0.97516   -1.000
 4986.00    1.01318   0.99161   -1.000
 4987.00    1.02852   1.00855   -1.000
 4988.00    1.03300   1.02028   -1.000
 4989.00    1.02676   1.02449  344.776
 4990.00    1.01867   1.02292  345.368
 4991.00    1.01727   1.01945  342.679
 4992.00    1.02160   1.01757  341.005
 4993.00    1.02491   1.01875  340.689
 4994.00    1.02742   1.02231  339.138
 4995.00    1.03246   1.02646  337.433
 4996.00    1.03668   1.02902  338.999
 4997.00    1.03351   1.02785  343.245
 4998.00    1.02362   1.02184  349.913
 4999.00    1.01280   1.01171  354.673
 5000.00    1.00559   1.00051  355.457
 5001.00    1.00547   0.99187   -1.000
 5002.00    1.01021   0.98735   -1.000
 5003.00    1.01602   0.98525   -1.000
 5004.00    1.01130   0.98228   -1.000
 5005.00    0.99540   0.97772   -1.000
 5006.00    0.98399   0.97451   -1.000
 5007.00    0.98846   0.97661   -1.000
 5008.00    1.00958   0.98444   -1.000
 5009.00    1.02497   0.99308   -1.000
 5010.00    1.02332   0.99639   -1.000
 5011.00    1.00942   0.99097   -1.000
 5012.00    0.98700   0.97912   -1.000
 5013.00    0.96986   0.96639  377.872
 5014.00    0.96553   0.95787   -1.000
 5015.00    0.97494   0.95489   -1.000
 5016.00    0.98652   0.95521   -1.000
 5017.00    0.98973   0.95665   -1.000
 5018.00    0.99145   0.95904   -1.000
 5019.00    0.99489   0.96358   -1.000
 5020.00    1.00258   0.97053   -1.000
 5021.00    1.00912   0.97810   -1.000
 5022.00    1.00715   0.98497   -1.000
 5023.00    1.00902   0.99120   -1.000
 5024.00    1.01638   0.99705   -1.000
 5025.00    1.02013   1.00185   -1.000
 5026.00    1.01557   1.00439   -1.000
 5027.00    1.01132   1.00506  347.769
 5028.00    1.01419   1.00599   -1.000
 5029.00    1.02402   1.00903   -1.000
 5030.00    1.02830   1.01467   -1.000
 5031.00    1.03437   1.02171   -1.000
 5032.00    1.04295   1.02765   -1.000
 5033.00    1.04474   1.02935   -1.000
 5034.00    1.03516   1.02508   -1.000
 5035.00    1.01666   1.01535  356.392
 5036.00    1.00422   1.00317  358.176
 5037.00    0.99972   0.99047   -1.000
 5038.00    0.99538   0.97699   -1.000
 5039.00    0.97998   0.96230   -1.000
 5040.00    0.95421   0.94909  392.719
 5041.00    0.94204   0.94380  375.828
 5042.00    0.95722   0.95151  353.022
 5043.00    0.99178   0.97117   -1.000
 5044.00    1.02350   0.99614   -1.000
 5045.00    1.01167   1.01763  317.883
 5046.00    1.04759   1.02982   -1.000
 5047.00    0.49414   1.03075   -1.000
 5048.00    0.45799   1.02248   -1.000
 5049.00    0.98767   1.00955   -1.000
 5050.00    1.00337   0.99769  351.648
 5051.00    0.99979   0.99177   -1.000
 5052.00    1.01061   0.99412   -1.000
 5053.00    1.02720   1.00335   -1.000
 5054.00    1.04124   1.01565   -1.000
 5055.00    1.05084   1.02683   -1.000
 5056.00    1.05802   1.03528   -1.000
 5057.00    1.05601   1.04147   -1.000
 5058.00    1.05135   1.04623  326.819
 5059.00    1.04774   1.04975  324.818
 5060.00    1.04508   1.05144  324.718
 5061.00    1.04797   1.05020  328.640
 5062.00    1.04869   1.04475  337.676
 5063.00    1.03698   1.03498  349.534
 5064.00    1.01888   1.02266  354.547
 5065.00    1.00545   1.01172  351.123
 5066.00    1.00659   1.00501  345.863
 5067.00    1.01725   1.00299   -1.000
 5068.00    1.02172   1.00379   -1.000
 5069.00    1.02607   1.00520   -1.000
 5070.00    1.02896   1.00576   -1.000
 5071.00    1.02895   1.00495   -1.000
 5072.00    1.02233   1.00326   -1.000
 5073.00    1.02488   1.00202   -1.000
 5074.00    1.02835   1.00227   -1.000
 5075.00    1.02951   1.00317   -1.000
 5076.00    1.02865   1.00226   -1.000
 5077.00    1.02257   0.99694   -1.000
 5078.00    1.00549   0.98699   -1.000
 5079.00    0.98141   0.97534  374.218
 5080.00    0.97025   0.96660  367.535
 5081.00    0.98026   0.96421   -1.000
 5082.00    0.99490   0.96818   -1.000
 5083.00    1.00173   0.97656   -1.000
 5084.00    1.00924   0.98694   -1.000
 5085.00    1.02296   0.99761   -1.000
 5086.00    1.03401   1.00725   -1.000
 5087.00    1.03637   1.01493   -1.000
 5088.00    1.03778   1.02064   -1.000
 5089.00    1.03927   1.02500   -1.000
 5090.00    1.03920   1.02885   -1.000
 5091.00    1.04051   1.03267  327.306
 5092.00    1.04951   1.03616   -1.000
 5093.00    1.05496   1.03795   -1.000
 5094.00    1.05189   1.03579   -1.000
 5095.00    1.04585   1.02806   -1.000
 5096.00    1.03235   1.01527   -1.000
 5097.00    1.01796   1.00073   -1.000
 5098.00    1.00637   0.98909   -1.000
 5099.00    1.00322   0.98424   -1.000
 5100.00    1.01261   0.98718   -1.000
 5101.00    1.02862   0.99546   -1.000
 5102.00    1.03596   1.00461   -1.000
 5103.00    1.03476   1.01030   -1.000
 5104.00    1.03392   1.01056   -1.000
 5105.00    1.02631   1.00577   -1.000
 5106.00    1.01437   0.99808   -1.000
 5107.00    1.00077   0.99033   -1.000
 5108.00    0.99391   0.98525   -1.000
 5109.00    0.99690   0.98461   -1.000
 5110.00    1.00426   0.98882   -1.000
 5111.00    1.01286   0.99674   -1.000
 5112.00    1.02522   1.00649   -1.000
 5113.00    1.03579   1.01591   -1.000
 5114.00    1.03834   1.02390   -1.000
 5115.00    1.04040   1.03019   -1.000
 5116.00    1.04683   1.03495   -1.000
 5117.00    1.05171   1.03780   -1.000
 5118.00    1.05172   1.03780   -1.000
 5119.00    1.04743   1.03417   -1.000
 5120.00    1.03955   1.02680   -1.000
 5121.00    1.02969   1.01664   -1.000
 5122.00    1.01349   1.00507   -1.000
 5123.00    0.99740   0.99387  362.974
 5124.00    0.99165   0.98459  360.227
 5125.00    0.99412   0.97844   -1.000
 5126.00    0.99722   0.97533   -1.000
 5127.00    0.99909   0.97440   -1.000
 5128.00    0.99772   0.97477   -1.000
 5129.00    0.99634   0.97648   -1.000
 5130.00    1.00186   0.97986   -1.000
 5131.00    1.00955   0.98479   -1.000
 5132.00    1.01368   0.99043   -1.000
 5133.00    1.01836   0.99562   -1.000
 5134.00    1.02561   0.99926   -1.000
 5135.00    1.02854   1.00014   -1.000
 5136.00    1.02234   0.99746   -1.000
 5137.00    1.00835   0.99131   -1.000
 5138.00    0.99080   0.98348  356.087
 5139.00    0.98435   0.97643   -1.000
 5140.00    0.98844   0.97203   -1.000
 5141.00    0.99036   0.97060   -1.000
 5142.00    0.98788   0.97140   -1.000
 5143.00    0.98527   0.97356   -1.000
 5144.00    0.99415   0.97615   -1.000
 5145.00    1.00097   0.97806   -1.000
 5146.00    1.00326   0.97864   -1.000
 5147.00    1.00688   0.97834   -1.000
 5148.00    1.01066   0.97814   -1.000
 5149.00    1.01039   0.97817   -1.000
 5150.00    1.00445   0.97728   -1.000
 5151.00    0.99124   0.97479   -1.000
 5152.00    0.98796   0.97175   -1.000
 5153.00    0.99281   0.97053   -1.000
 5154.00    1.00285   0.97348   -1.000
 5155.00    1.01621   0.98123   -1.000
 5156.00    1.02715   0.99243   -1.000
 5157.00    1.03789   1.00411   -1.000
 5158.00    1.04644   1.01354   -1.000
 5159.00    1.04690   1.01889   -1.000
 5160.00    1.04543   1.01968   -1.000
 5161.00    1.04028   1.01585   -1.000
 5162.00    1.03321   1.00712   -1.000
 5163.00    1.02713   0.99205   -1.000
 5164.00    1.01478   0.96857   -1.000
 5165.00    0.98094   0.93638   -1.000
 5166.00    0.92890   0.89982   -1.000
 5167.00    0.88345   0.86819   -1.000
 5168.00    0.87738   0.84951   -1.000
 5169.00    0.90468   0.84464   -1.000
 5170.00    0.92535   0.84645   -1.000
 5171.00    0.91302   0.84794   -1.000
 5172.00    0.88694   0.85063   -1.000
 5173.00    0.88660   0.86180   -1.000
 5174.00    0.92926   0.88671   -1.000
 5175.00    0.98438   0.92109   -1.000
 5176.00    1.01619   0.95482   -1.000
 5177.00    1.02886   0.97919   -1.000
 5178.00    1.03245   0.99002   -1.000
 5179.00    1.03098   0.98653   -1.000
 5180.00    1.02170   0.96874   -1.000
 5181.00    0.98944   0.93858   -1.000
 5182.00    0.93780   0.90336   -1.000
 5183.00    0.89218   0.87509   -1.000
 5184.00    0.88647   0.86556   -1.000
 5185.00    0.93073   0.87788   -1.000
 5186.00    0.98303   0.90456   -1.000
 5187.00    1.00554   0.93320   -1.000
 5188.00    1.00545   0.95415   -1.000
 5189.00    1.00467   0.96478   -1.000
 5190.00    1.00182   0.96659   -1.000
 5191.00    0.98827   0.96294   -1.000
 5192.00    0.97045   0.95751   -1.000
 5193.00    0.96967   0.95392   -1.000
 5194.00    0.97823   0.95390   -1.000
 5195.00    0.99014   0.95753   -1.000
 5196.00    0.99911   0.96380   -1.000
 5197.00    1.00806   0.97229   -1.000
 5198.00    1.01626   0.98234   -1.000
 5199.00    1.02315   0.99214   -1.000
 5200.00    1.02840   0.99865   -1.000
 5201.00    1.02288   0.99899   -1.000
 5202.00    1.01474   0.99173   -1.000
 5203.00    1.00317   0.97790   -1.000
 5204.00    0.98295   0.96052   -1.000
 5205.00    0.96449   0.94381   -1.000
 5206.00    0.96407   0.93133   -1.000
 5207.00    0.96225   0.92521   -1.000
 5208.00    0.96105   0.92604   -1.000
 5209.00    0.96578   0.93387   -1.000
 5210.00    0.98220   0.94812   -1.000
 5211.00    1.00447   0.96653   -1.000
 5212.00    1.02817   0.98482   -1.000
 5213.00    1.03939   0.99765   -1.000
 5214.00    1.03672   1.00214   -1.000
 5215.00    1.02057   0.99958   -1.000
 5216.00    1.00646   0.99535   -1.000
 5217.00    1.01108   0.99520   -1.000
 5218.00    1.02463   1.00146   -1.000
 5219.00    1.03819   1.01222   -1.000
 5220.00    1.04702   1.02273   -1.000
 5221.00    1.05101   1.02859   -1.000
 5222.00    1.04732   1.02654   -1.000
 5223.00    1.03207   1.01517   -1.000
 5224.00    1.00877   0.99512   -1.000
 5225.00    0.97636   0.97066  378.846
 5226.00    0.94850   0.94961  371.848
 5227.00    0.94735   0.94013  351.713
 5228.00    0.97388   0.94491   -1.000
 5229.00    1.00787   0.95948   -1.000
 5230.00    1.02643   0.97464   -1.000
 5231.00    1.02922   0.98343   -1.000
 5232.00    1.02179   0.98430   -1.000
 5233.00    1.00658   0.98135   -1.000
 5234.00    1.00263   0.98058   -1.000
 5235.00    1.01501   0.98585   -1.000
 5236.00    1.02960   0.99680   -1.000
 5237.00    1.04226   1.00976   -1.000
 5238.00    1.04901   1.02089   -1.000
 5239.00    1.04744   1.02801   -1.000
 5240.00    1.04826   1.03141   -1.000
 5241.00    1.05057   1.03249   -1.000
 5242.00    1.05278   1.03287   -1.000
 5243.00    1.05183   1.03318   -1.000
 5244.00    1.05069   1.03262   -1.000
 5245.00    1.04363   1.02945   -1.000
 5246.00    1.02935   1.02274  343.956
 5247.00    1.01445   1.01365  345.192
 5248.00    1.00924   1.00464  345.813
 5249.00    1.00784   0.99805   -1.000
 5250.00    1.00233   0.99475  346.514
 5251.00    0.99985   0.99453  341.832
 5252.00    1.00766   0.99630   -1.000
 5253.00    1.01513   0.99899   -1.000
 5254.00    1.01374   1.00237   -1.000
 5255.00    1.01745   1.00733   -1.000
 5256.00    1.02865   1.01450   -1.000
 5257.00    1.04574   1.02237   -1.000
 5258.00    1.05320   1.02740   -1.000
 5259.00    1.04785   1.02538   -1.000
 5260.00    1.03584   1.01407   -1.000
 5261.00    1.01270   0.99411   -1.000
 5262.00    0.98527   0.96910   -1.000
 5263.00    0.96477   0.94422   -1.000
 5264.00    0.95272   0.92447   -1.000
 5265.00    0.94665   0.91266   -1.000
 5266.00    0.95341   0.90802   -1.000
 5267.00    0.96478   0.90659   -1.000
 5268.00    0.95627   0.90486   -1.000
 5269.00    0.93265   0.90315   -1.000
 5270.00    0.92914   0.90518   -1.000
 5271.00    0.95670   0.91436   -1.000
 5272.00    0.98492   0.92900   -1.000
 5273.00    0.99951   0.94449   -1.000
 5274.00    1.00272   0.95762   -1.000
 5275.00    1.00406   0.96881   -1.000
 5276.00    1.01112   0.98077   -1.000
 5277.00    1.02860   0.99391   -1.000
 5278.00    1.04599   1.00548   -1.000
 5279.00    1.04757   1.01116   -1.000
 5280.00    1.03629   1.00883   -1.000
 5281.00    1.02139   1.00058   -1.000
 5282.00    1.00605   0.99134   -1.000
 5283.00    0.99705   0.98673   -1.000
 5284.00    1.00658   0.99015   -1.000
 5285.00    1.02904   1.00156   -1.000
 5286.00    1.04767   1.01716   -1.000
 5287.00    1.05406   1.03209   -1.000
 5288.00    1.05390   1.04288   -1.000
 5289.00    1.05528   1.04902  312.212
 5290.00    1.05803   1.05162  311.496
 5291.00    1.05351   1.05176  313.236
 5292.00    1.05073   1.04987  316.172
 5293.00    1.05122   1.04551  320.335
 5294.00    1.04475   1.03761  328.876
 5295.00    1.03451   1.02576   -1.000
 5296.00    1.01439   1.01125  350.776
 5297.00    0.99613   0.99769  349.017
 5298.00    0.99191   0.98937  340.343
 5299.00    1.00112   0.98820   -1.000
 5300.00    1.01405   0.99302   -1.000
 5301.00    1.01700   1.00118   -1.000
 5302.00    1.02189   1.01037   -1.000
 5303.00    1.03295   1.01971   -1.000
 5304.00    1.04511   1.02794   -1.000
 5305.00    1.05022   1.03370   -1.000
 5306.00    1.04286   1.03659  317.674
 5307.00    1.03987   1.03772  315.769
 5308.00    1.04611   1.03923  312.470
 5309.00    1.05098   1.04227  310.425
 5310.00    1.05525   1.04592   -1.000
 5311.00    1.05786   1.04824   -1.000
 5312.00    1.05560   1.04726  313.741
 5313.00    1.05427   1.04231   -1.000
 5314.00    1.04894   1.03412   -1.000
 5315.00    1.03725   1.02477   -1.000
 5316.00    1.02839   1.01740   -1.000
 5317.00    1.02600   1.01483   -1.000
 5318.00    1.03090   1.01745   -1.000
 5319.00    1.04045   1.02259   -1.000
 5320.00    1.04246   1.02579   -1.000
 5321.00    1.03690   1.02390   -1.000
 5322.00    1.02895   1.01637   -1.000
 5323.00    1.01750   1.00478   -1.000
 5324.00    1.00938   0.99123   -1.000
 5325.00    1.00810   0.97644   -1.000
 5326.00    0.99715   0.96090   -1.000
 5327.00    0.96393   0.94624   -1.000
 5328.00    0.93802   0.93725  363.295
 5329.00    0.94816   0.93882   -1.000
 5330.00    0.98568   0.95131   -1.000
 5331.00    1.01596   0.97028   -1.000
 5332.00    1.02382   0.98856   -1.000
 5333.00    1.02948   1.00211   -1.000
 5334.00    1.03277   1.01026   -1.000
 5335.00    1.03413   1.01388   -1.000
 5336.00    1.03136   1.01372   -1.000
 5337.00    1.03132   1.00994   -1.000
 5338.00    1.02760   1.00311   -1.000
 5339.00    1.01265   0.99498   -1.000
 5340.00    1.00153   0.98864   -1.000
 5341.00    1.00271   0.98719   -1.000
 5342.00    1.01621   0.99129   -1.000
 5343.00    1.03411   0.99847   -1.000
 5344.00    1.03535   1.00426   -1.000
 5345.00    1.02935   1.00614   -1.000
 5346.00    1.02397   1.00423   -1.000
 5347.00    1.02202   1.00099   -1.000
 5348.00    1.02054   0.99910   -1.000
 5349.00    1.01896   1.00016   -1.000
 5350.00    1.02257   1.00464   -1.000
 5351.00    1.03428   1.01165   -1.000
 5352.00    1.04184   1.01972   -1.000
 5353.00    1.04131   1.02746   -1.000
 5354.00    1.04821   1.03451   -1.000
 5355.00    1.05602   1.04081   -1.000
 5356.00    1.05802   1.04601   -1.000
 5357.00    1.06127   1.04942   -1.000
 5358.00    1.06350   1.05013   -1.000
 5359.00    1.06112   1.04772   -1.000
 5360.00    1.05196   1.04198   -1.000
 5361.00    1.04079   1.03326  320.637
 5362.00    1.03249   1.02287   -1.000
 5363.00    1.02731   1.01279   -1.000
 5364.00    1.02289   1.00484   -1.000
 5365.00    1.02072   0.99968   -1.000
 5366.00    1.01778   0.99632   -1.000
 5367.00    1.01994   0.99259   -1.000
 5368.00    1.01817   0.98635   -1.000
 5369.00    1.00717   0.97751   -1.000
 5370.00    0.98810   0.96854   -1.000
 5371.00    0.97870   0.96429   -1.000
 5372.00    0.99061   0.96845   -1.000
 5373.00    1.02059   0.98123   -1.000
 5374.00    1.04299   0.99862   -1.000
 5375.00    1.05025   1.01470   -1.000
 5376.00    1.05266   1.02558   -1.000
 5377.00    1.05176   1.02989   -1.000
 5378.00    1.04996   1.02900   -1.000
 5379.00    1.04268   1.02475   -1.000
 5380.00    1.03763   1.01912   -1.000
 5381.00    1.02942   1.01373   -1.000
 5382.00    1.02798   1.01005   -1.000
 5383.00    1.02623   1.00935   -1.000
 5384.00    1.02889   1.01201   -1.000
 5385.00    1.03779   1.01710   -1.000
 5386.00    1.04302   1.02230   -1.000
 5387.00    1.04460   1.02505   -1.000
 5388.00    1.03993   1.02405   -1.000
 5389.00    1.03077   1.01941   -1.000
 5390.00    1.02674   1.01249   -1.000
 5391.00    1.02371   1.00498   -1.000
 5392.00    1.01772   0.99796   -1.000
 5393.00    1.01231   0.99177   -1.000
 5394.00    1.00813   0.98592   -1.000
 5395.00    1.00127   0.97953   -1.000
 5396.00    0.98991   0.97344   -1.000
 5397.00    0.98477   0.96972   -1.000
 5398.00    0.99389   0.97066   -1.000
 5399.00    1.01313   0.97646   -1.000
 5400.00    1.02665   0.98374   -1.000
 5401.00    1.02839   0.98818   -1.000
 5402.00    1.02455   0.98635   -1.000
 5403.00    1.01108   0.97796   -1.000
 5404.00    0.98535   0.96617   -1.000
 5405.00    0.97126   0.95621   -1.000
 5406.00    0.97934   0.95168   -1.000
 5407.00    0.99408   0.95301   -1.000
 5408.00    1.00171   0.95768   -1.000
 5409.00    0.99879   0.96269   -1.000
 5410.00    0.99564   0.96802   -1.000
 5411.00    1.00646   0.97423   -1.000
 5412.00    1.02288   0.98160   -1.000
 5413.00    1.03028   0.98905   -1.000
 5414.00    1.02909   0.99518   -1.000
 5415.00    1.02323   1.00041   -1.000
 5416.00    1.02870   1.00533   -1.000
 5417.00    1.03339   1.00982   -1.000
 5418.00    1.03472   1.01318   -1.000
 5419.00    1.03367   1.01437   -1.000
 5420.00    1.02942   1.01334   -1.000
 5421.00    1.02784   1.01049   -1.000
 5422.00    1.02807   1.00626   -1.000
 5423.00    1.02018   1.00202   -1.000
 5424.00    1.01256   0.99946   -1.000
 5425.00    1.01445   0.99945   -1.000
 5426.00    1.02393   1.00115   -1.000
 5427.00    1.02665   1.00092   -1.000
 5428.00    1.01326   0.99670   -1.000
 5429.00    0.99480   0.98971  339.233
 5430.00    0.98894   0.98287  333.064
 5431.00    0.99689   0.97909   -1.000
 5432.00    1.00501   0.97747   -1.000
 5433.00    0.99991   0.97668   -1.000
 5434.00    0.98905   0.97703   -1.000
 5435.00    0.98641   0.98027  333.540
 5436.00    1.00005   0.98854   -1.000
 5437.00    1.01941   1.00091   -1.000
 5438.00    1.03161   1.01445   -1.000
 5439.00    1.04136   1.02579   -1.000
 5440.00    1.04530   1.03282   -1.000
 5441.00    1.04573   1.03530   -1.000
 5442.00    1.04423   1.03261   -1.000
 5443.00    1.03725   1.02470   -1.000
 5444.00    1.02352   1.01184   -1.000
 5445.00    1.00047   0.99671  346.247
 5446.00    0.98087   0.98435  343.560
 5447.00    0.97970   0.97922  332.338
 5448.00    0.99919   0.98338   -1.000
 5449.00    1.02595   0.99401   -1.000
 5450.00    1.03866   1.00571   -1.000
 5451.00    1.04209   1.01336   -1.000
 5452.00    1.03852   1.01375   -1.000
 5453.00    1.02623   1.00724   -1.000
 5454.00    1.00476   0.99728   -1.000
 5455.00    0.98551   0.98906  342.285
 5456.00    0.98958   0.98729  330.264
 5457.00    1.01275   0.99308   -1.000
 5458.00    1.03238   1.00272   -1.000
 5459.00    1.04552   1.01108   -1.000
 5460.00    1.03938   1.01381   -1.000
 5461.00    1.02403   1.01068   -1.000
 5462.00    1.01359   1.00447   -1.000
 5463.00    1.00860   0.99938   -1.000
 5464.00    1.01278   0.99822   -1.000
 5465.00    1.02296   1.00129   -1.000
 5466.00    1.02728   1.00680   -1.000
 5467.00    1.03000   1.01233   -1.000
 5468.00    1.03194   1.01644   -1.000
 5469.00    1.03081   1.01821   -1.000
 5470.00    1.02835   1.01749   -1.000
 5471.00    1.02678   1.01443   -1.000
 5472.00    1.02197   1.00903   -1.000
 5473.00    1.01510   1.00130   -1.000
 5474.00    1.00550   0.99170   -1.000
 5475.00    0.99163   0.98141   -1.000
 5476.00    0.97771   0.97333  348.025
 5477.00    0.97741   0.97035  337.174
 5478.00    0.99491   0.97324   -1.000
 5479.00    1.01315   0.98035   -1.000
 5480.00    1.01697   0.98787   -1.000
 5481.00    1.00983   0.99393   -1.000
 5482.00    1.00643   0.99882  330.990
 5483.00    1.01222   1.00342   -1.000
 5484.00    1.02067   1.00834   -1.000
 5485.00    1.02627   1.01192   -1.000
 5486.00    1.02448   1.01302   -1.000
 5487.00    1.01691   1.01178  331.302
 5488.00    1.01421   1.00978  331.319
 5489.00    1.01513   1.00896  328.911
 5490.00    1.01652   1.00967  326.513
 5491.00    1.01989   1.01143   -1.000
 5492.00    1.01952   1.01312  326.120
 5493.00    1.02121   1.01387  326.223
 5494.00    1.02314   1.01348   -1.000
 5495.00    1.02308   1.01176   -1.000
 5496.00    1.01353   1.00910  330.950
 5497.00    1.00815   1.00636  329.041
 5498.00    1.00827   1.00398  325.245
 5499.00    1.01450   1.00198   -1.000
 5500.00    1.01566   0.99974   -1.000
 5501.00    1.00718   0.99678   -1.000
 5502.00    1.00367   0.99412   -1.000
 5503.00    1.01066   0.99216   -1.000
 5504.00    1.01744   0.99046   -1.000
 5505.00    1.01024   0.98882   -1.000
 5506.00    1.00119   0.98697   -1.000
 5507.00    0.99952   0.98640   -1.000
 5508.00    1.00658   0.98771   -1.000
 5509.00    1.01480   0.98980   -1.000
 5510.00    1.01517   0.99096   -1.000
 5511.00    1.00754   0.98964   -1.000
 5512.00    0.99850   0.98673   -1.000
 5513.00    0.99080   0.98443  341.355
 5514.00    0.99541   0.98510   -1.000
 5515.00    1.00263   0.98950   -1.000
 5516.00    1.01618   0.99670   -1.000
 5517.00    1.02546   1.00494   -1.000
 5518.00    1.02948   1.01239   -1.000
 5519.00    1.03448   1.01789   -1.000
 5520.00    1.03403   1.02091   -1.000
 5521.00    1.03111   1.02163   -1.000
 5522.00    1.03013   1.02013   -1.000
 5523.00    1.02893   1.01643   -1.000
 5524.00    1.02530   1.00973   -1.000
 5525.00    1.01675   1.00003   -1.000
 5526.00    1.00247   0.98853   -1.000
 5527.00    0.98586   0.97839   -1.000
 5528.00    0.97902   0.97335  337.601
 5529.00    0.98768   0.97517   -1.000
 5530.00    1.00365   0.98281   -1.000
 5531.00    1.01737   0.99180   -1.000
 5532.00    1.01898   0.99824   -1.000
 5533.00    1.01603   1.00047   -1.000
 5534.00    1.00831   0.99977   -1.000
 5535.00    1.00713   0.99901  326.029
 5536.00    1.01300   1.00008   -1.000
 5537.00    1.01803   1.00326   -1.000
 5538.00    1.02063   1.00738   -1.000
 5539.00    1.02624   1.01130   -1.000
 5540.00    1.02923   1.01407   -1.000
 5541.00    1.02909   1.01492   -1.000
 5542.00    1.02573   1.01377   -1.000
 5543.00    1.01907   1.01148  325.778
 5544.00    1.01508   1.00938  324.797
 5545.00    1.01621   1.00894  324.077
 5546.00    1.01782   1.01054  321.972
 5547.00    1.02195   1.01373  318.722
 5548.00    1.02598   1.01769  316.078
 5549.00    1.03107   1.02118   -1.000
 5550.00    1.03010   1.02317  317.218
 5551.00    1.02974   1.02327  320.039
 5552.00    1.02406   1.02156  323.767
 5553.00    1.01988   1.01900  325.227
 5554.00    1.01649   1.01680  324.659
 5555.00    1.01482   1.01582  323.608
 5556.00    1.01894   1.01620  323.081
 5557.00    1.02272   1.01727  322.679
 5558.00    1.02296   1.01825  322.334
 5559.00    1.02300   1.01827  323.077
 5560.00    1.02340   1.01679  324.784
 5561.00    1.02105   1.01377  328.187
 5562.00    1.01578   1.00964  330.425
 5563.00    1.00921   1.00537  331.303
 5564.00    1.00610   1.00174  331.972
 5565.00    1.00536   0.99906  332.297
 5566.00    1.00228   0.99714  331.549
 5567.00    1.00124   0.99556  330.851
 5568.00    1.00132   0.99393  331.902
 5569.00    0.99783   0.99215  331.590
 5570.00    0.99761   0.99025  331.646
 5571.00    0.99818   0.98850   -1.000
 5572.00    0.99254   0.98744  331.119
 5573.00    0.98526   0.98758  327.465
 5574.00    0.97703   0.98943   -1.000
 5575.00    0.98468   0.99243  319.888
 5576.00    1.00757   0.99606   -1.000
 5577.00    1.02335   1.00000   -1.000
 5578.00    1.03311   1.00351   -1.000
 5579.00    1.00822   1.00624  335.140
 5580.00    1.01357   1.00771  330.898
 5581.00    1.00934   1.00778  327.274
 5582.00    1.00817   1.00660  326.712
 5583.00    1.00967   1.00352  328.734
 5584.00    1.00768   0.99754   -1.000
 5585.00    0.99880   0.98788   -1.000
 5586.00    0.97903   0.97495  352.665
 5587.00    0.96224   0.96221  355.073
 5588.00    0.95748   0.95331  350.527
 5589.00    0.96177   0.95079   -1.000
 5590.00    0.97510   0.95457   -1.000
 5591.00    0.98526   0.96176   -1.000
 5592.00    0.99192   0.96924   -1.000
 5593.00    0.98808   0.97487   -1.000
 5594.00    0.98504   0.97884  332.709
 5595.00    0.99184   0.98137   -1.000
 5596.00    0.99990   0.98280   -1.000
 5597.00    0.99739   0.98248   -1.000
 5598.00    0.98883   0.97985   -1.000
 5599.00    0.98574   0.97602   -1.000
 5600.00    0.98472   0.97203   -1.000
 5601.00    0.97893   0.96939   -1.000
 5602.00    0.97445   0.97050  340.198
 5603.00    0.97743   0.97641  330.646
 5604.00    0.99478   0.98687  323.180
 5605.00    1.01316   1.00001   -1.000
 5606.00    1.02289   1.01239   -1.000
 5607.00    1.02759   1.02190  319.559
 5608.00    1.02589   1.02782  320.224
 5609.00    1.02354   1.03056  319.840
 5610.00    1.02307   1.03080  318.792
 5611.00    1.02427   1.02813  320.473
 5612.00    1.02409   1.02159  327.437
 5613.00    1.01558   1.01064  339.186
 5614.00    0.99556   0.99752  346.799
 5615.00    0.97642   0.98575  343.312
 5616.00    0.97533   0.97980  334.730
 5617.00    0.99133   0.98125   -1.000
 5618.00    1.00671   0.98767   -1.000
 5619.00    1.00884   0.99596   -1.000
 5620.00    1.01032   1.00247  326.600
 5621.00    1.01484   1.00548   -1.000
 5622.00    1.01566   1.00492   -1.000
 5623.00    1.00509   1.00163  341.251
 5624.00    0.99294   0.99777  339.277
 5625.00    0.99270   0.99603  333.261
 5626.00    1.00002   0.99765  328.522
 5627.00    1.00784   1.00277  324.770
 5628.00    1.01444   1.00957  322.463
 5629.00    1.02083   1.01593  321.654
 5630.00    1.02273   1.02048  320.316
 5631.00    1.02410   1.02222  320.774
 5632.00    1.02321   1.02120  323.453
 5633.00    1.02080   1.01815  325.750
 5634.00    1.01854   1.01388  327.781
 5635.00    1.01640   1.00932  330.231
 5636.00    1.01241   1.00536  332.456
 5637.00    1.00641   1.00225  332.329
 5638.00    1.00597   1.00018  331.954
 5639.00    1.00460   0.99896  333.205
 5640.00    1.00352   0.99821  333.303
 5641.00    1.00252   0.99802  331.857
 5642.00    1.00579   0.99867  330.304
 5643.00    1.00890   1.00010   -1.000
 5644.00    1.00732   1.00213  327.398
 5645.00    1.01058   1.00438  326.601
 5646.00    1.01387   1.00619  325.744
 5647.00    1.01301   1.00716  325.291
 5648.00    1.01404   1.00734  326.190
 5649.00    1.01671   1.00688   -1.000
 5650.00    1.01504   1.00627   -1.000
 5651.00    1.01395   1.00565  322.587
 5652.00    1.01845   1.00440   -1.000
 5653.00    1.01697   1.00193   -1.000
 5654.00    1.01253   0.99734   -1.000
 5655.00    1.00589   0.99037   -1.000
 5656.00    0.99366   0.98171   -1.000
 5657.00    0.97778   0.97287  352.451
 5658.00    0.96631   0.96637  346.558
 5659.00    0.96638   0.96424  338.799
 5660.00    0.97794   0.96616   -1.000
 5661.00    0.98943   0.97081   -1.000
 5662.00    0.99221   0.97653   -1.000
 5663.00    0.99299   0.98212   -1.000
 5664.00    1.00017   0.98751   -1.000
 5665.00    1.00730   0.99188   -1.000
 5666.00    1.00672   0.99449   -1.000
 5667.00    1.00301   0.99556  332.918
 5668.00    0.99915   0.99587  331.969
 5669.00    0.99996   0.99678  329.709
 5670.00    1.00187   0.99905  326.783
 5671.00    1.00894   1.00241  323.460
 5672.00    1.01294   1.00599  320.358
 5673.00    1.01581   1.00897  320.718
 5674.00    1.01703   1.01089  321.854
 5675.00    1.01635   1.01174  320.644
 5676.00    1.01611   1.01192  320.201
 5677.00    1.01541   1.01134  322.030
 5678.00    1.01430   1.00970  323.291
 5679.00    1.01451   1.00651  325.269
 5680.00    1.01291   1.00154   -1.000
 5681.00    1.00605   0.99527   -1.000
 5682.00    0.99932   0.98904   -1.000
 5683.00    0.99902   0.98421   -1.000
 5684.00    0.99880   0.98157   -1.000
 5685.00    0.99672   0.98088   -1.000
 5686.00    0.99786   0.98088   -1.000
 5687.00    0.99306   0.98110   -1.000
 5688.00    0.99117   0.98188   -1.000
 5689.00    0.99737   0.98405   -1.000
 5690.00    1.00550   0.98819   -1.000
 5691.00    1.00974   0.99349   -1.000
 5692.00    1.01209   0.99884   -1.000
 5693.00    1.01409   1.00311   -1.000
 5694.00    1.01535   1.00586   -1.000
 5695.00    1.01269   1.00697  322.744
 5696.00    1.01045   1.00639  326.165
 5697.00    1.00774   1.00422  329.996
 5698.00    1.00077   1.00050  332.806
 5699.00    0.99352   0.99606  336.474
 5700.00    0.99185   0.99171  337.794
 5701.00    0.98933   0.98848  334.897
 5702.00    0.98724   0.98673  331.317
 5703.00    0.99344   0.98597  330.788
 5704.00    0.99852   0.98506   -1.000
 5705.00    0.99382   0.98249   -1.000
 5706.00    0.98734   0.97774   -1.000
 5707.00    0.97828   0.97113  349.984
 5708.00    0.96665   0.96393  351.678
 5709.00    0.96023   0.95834  350.590
 5710.00    0.95886   0.95641  346.726
 5711.00    0.96321   0.95903  339.222
 5712.00    0.97506   0.96598   -1.000
 5713.00    0.98893   0.97545   -1.000
 5714.00    1.00109   0.98507   -1.000
 5715.00    1.00718   0.99301   -1.000
 5716.00    1.00575   0.99875  323.408
 5717.00    1.00740   1.00298  321.759
 5718.00    1.01271   1.00642  319.623
 5719.00    1.01162   1.00982  318.199
 5720.00    1.01277   1.01314  317.506
 5721.00    1.01514   1.01601  317.037
 5722.00    1.01711   1.01805  316.664
 5723.00    1.01949   1.01878  317.547
 5724.00    1.01667   1.01804  320.435
 5725.00    1.01079   1.01587  323.889
 5726.00    1.00845   1.01282  326.365
 5727.00    1.00405   1.00997  324.144
 5728.00    1.00494   1.00799  322.228
 5729.00    1.00816   1.00718  323.423
 5730.00    1.01228   1.00717  325.131
 5731.00    1.00706   1.00754  323.582
 5732.00    1.00246   1.00850  320.235
 5733.00    1.01075   1.01011  318.358
 5734.00    1.01403   1.01232  318.883
 5735.00    1.01220   1.01448  319.240
 5736.00    1.01058   1.01597  320.286
 5737.00    1.01195   1.01663  320.424
 5738.00    1.01390   1.01653  321.196
 5739.00    1.00814   1.01603  321.635
 5740.00    1.00947   1.01528  322.402
 5741.00    1.00854   1.01436  321.456
 5742.00    1.00571   1.01362  321.232
 5743.00    1.00667   1.01330  318.601
 5744.00    1.00781   1.01333  316.994
 5745.00    1.01026   1.01331  319.115
 5746.00    1.01247   1.01284  322.435
 5747.00    1.00976   1.01208  323.412
 5748.00    1.00421   1.01116  321.173
 5749.00    1.00570   1.01004  320.337
 5750.00    1.00703   1.00800  323.259
 5751.00    1.00412   1.00443  327.328
 5752.00    0.99449   1.00013  330.507
 5753.00    0.98905   0.99662  330.061
 5754.00    0.98914   0.99589  325.406
 5755.00    0.99338   0.99858  319.179
 5756.00    1.00513   1.00353  315.682
 5757.00    1.01264   1.00869  317.165
 5758.00    1.01494   1.01180  320.979
 5759.00    1.01437   1.01189  325.239
 5760.00    1.00859   1.00929  329.716
 5761.00    1.00146   1.00546  331.017
 5762.00    0.99540   1.00261  326.888
 5763.00    0.99665   1.00258  320.828
 5764.00    1.00585   1.00559  317.147
 5765.00    1.01306   1.01061  316.463
 5766.00    1.01639   1.01549  316.178
 5767.00    1.01533   1.01872  315.607
 5768.00    1.01420   1.01982  316.401
 5769.00    1.01360   1.01901  317.479
 5770.00    1.01135   1.01699  319.336
 5771.00    1.01035   1.01430  321.335
 5772.00    1.01085   1.01140  321.992
 5773.00    1.00953   1.00891  322.359
 5774.00    1.00338   1.00727  321.562
 5775.00    1.00534   1.00644  319.843
 5776.00    1.00773   1.00594  319.710
 5777.00    1.00863   1.00457  320.852
 5778.00    1.00738   1.00117  325.961
 5779.00    1.00179   0.99580  333.623
 5780.00    0.99626   0.98952  337.554
 5781.00    0.99197   0.98401   -1.000
 5782.00    0.99189   0.98065   -1.000
 5783.00    0.99138   0.97976   -1.000
 5784.00    0.99119   0.98106   -1.000
 5785.00    0.99455   0.98380   -1.000
 5786.00    0.99663   0.98761   -1.000
 5787.00    1.00105   0.99182   -1.000
 5788.00    1.00531   0.99525   -1.000
 5789.00    1.00945   0.99735   -1.000
 5790.00    1.00603   0.99819  323.483
 5791.00    1.00048   0.99877  320.582
 5792.00    1.00405   1.00025  318.473
 5793.00    1.00977   1.00274  316.564
 5794.00    1.01499   1.00571   -1.000
 5795.00    1.01431   1.00816  318.661
 5796.00    1.00874   1.00938  320.693
 5797.00    1.00807   1.00955  318.759
 5798.00    1.01009   1.00973  314.445
 5799.00    1.01198   1.01063  310.108
 5800.00    1.01806   1.01209  309.790
 5801.00    1.01979   1.01350  312.730
 5802.00    1.01882   1.01392  315.100
 5803.00    1.01424   1.01295  317.707
 5804.00    1.00945   1.01104  318.981
 5805.00    1.00889   1.00920  318.022
 5806.00    1.00975   1.00833  316.795
 5807.00    1.01254   1.00869  315.884
 5808.00    1.01422   1.00999  315.971
 5809.00    1.01553   1.01168  315.618
 5810.00    1.01778   1.01330  314.324
 5811.00    1.02007   1.01427  313.446
 5812.00    1.02277   1.01420   -1.000
 5813.00    1.02269   1.01308   -1.000
 5814.00    1.02028   1.01127   -1.000
 5815.00    1.01627   1.00952  316.415
 5816.00    1.01626   1.00887  314.207
 5817.00    1.01873   1.00989   -1.000
 5818.00    1.02028   1.01218  311.016
 5819.00    1.02418   1.01485   -1.000
 5820.00    1.02456   1.01709  310.714
 5821.00    1.02636   1.01856  311.870
 5822.00    1.02653   1.01941  311.102
 5823.00    1.02652   1.01990  310.687
 5824.00    1.02217   1.02015  310.080
 5825.00    1.02282   1.02032  309.825
 5826.00    1.02630   1.02052  309.950
 5827.00    1.02549   1.02082  310.644
 5828.00    1.02817   1.02112  309.856
 5829.00    1.02535   1.02120  310.056
 5830.00    1.02614   1.02099  309.540
 5831.00    1.02653   1.02037  310.309
 5832.00    1.02377   1.01937  312.564
 5833.00    1.02505   1.01822  312.849
 5834.00    1.02470   1.01727  311.647
 5835.00    1.02618   1.01691   -1.000
 5836.00    1.02240   1.01731  312.315
 5837.00    1.02471   1.01817  312.962
 5838.00    1.02231   1.01908  311.759
 5839.00    1.02461   1.01977  309.310
 5840.00    1.02590   1.02014  307.806
 5841.00    1.02299   1.02014  308.070
 5842.00    1.02756   1.01957  309.196
 5843.00    1.02761   1.01836   -1.000
 5844.00    1.02288   1.01651  312.607
 5845.00    1.02236   1.01417  314.074
 5846.00    1.02015   1.01185  315.647
 5847.00    1.01894   1.01001   -1.000
 5848.00    1.02042   1.00870   -1.000
 5849.00    1.02109   1.00730   -1.000
 5850.00    1.02089   1.00504   -1.000
 5851.00    1.01624   1.00146   -1.000
 5852.00    1.00697   0.99671   -1.000
 5853.00    1.00266   0.99141   -1.000
 5854.00    1.00055   0.98594   -1.000
 5855.00    1.00124   0.98055   -1.000
 5856.00    0.99732   0.97526   -1.000
 5857.00    0.99171   0.97111   -1.000
 5858.00    0.99233   0.96996   -1.000
 5859.00    0.99970   0.97214   -1.000
 5860.00    1.00727   0.97697   -1.000
 5861.00    1.00823   0.98295   -1.000
 5862.00    1.00877   0.98831   -1.000
 5863.00    1.01183   0.99236   -1.000
 5864.00    1.01404   0.99461   -1.000
 5865.00    1.01206   0.99510   -1.000
 5866.00    1.00964   0.99487   -1.000
 5867.00    1.01047   0.99496   -1.000
 5868.00    1.01526   0.99636   -1.000
 5869.00    1.02050   0.99917   -1.000
 5870.00    1.02099   1.00228   -1.000
 5871.00    1.02255   1.00450   -1.000
 5872.00    1.02169   1.00507   -1.000
 5873.00    1.02097   1.00409   -1.000
 5874.00    1.01907   1.00218   -1.000
 5875.00    1.01797   0.99999   -1.000
 5876.00    1.01751   0.99793   -1.000
 5877.00    1.01720   0.99596   -1.000
 5878.00    1.01299   0.99388   -1.000
 5879.00    1.01009   0.99148   -1.000
 5880.00    1.00721   0.98864   -1.000
 5881.00    1.00554   0.98528   -1.000
 5882.00    1.00792   0.98134   -1.000
 5883.00    1.00702   0.97668   -1.000
 5884.00    1.00609   0.97058   -1.000
 5885.00    1.00233   0.96144   -1.000
 5886.00    0.99491   0.94660   -1.000
 5887.00    0.97134   0.92453   -1.000
 5888.00    0.94025   0.89756   -1.000
 5889.00    0.91326   0.87186   -1.000
 5890.00    0.90912   0.85568   -1.000
 5891.00    0.93256   0.85161   -1.000
 5892.00    0.95194   0.85529   -1.000
 5893.00    0.95669   0.86040   -1.000
 5894.00    0.94899   0.86219   -1.000
 5895.00    0.93236   0.86180   -1.000
 5896.00    0.93266   0.86423   -1.000
 5897.00    0.95201   0.87400   -1.000
 5898.00    0.97392   0.89079   -1.000
 5899.00    0.98807   0.91081   -1.000
 5900.00    0.99651   0.93064   -1.000
 5901.00    1.00391   0.94744   -1.000
 5902.00    1.00617   0.95990   -1.000
 5903.00    1.00683   0.96844   -1.000
 5904.00    1.00832   0.97388   -1.000
 5905.00    1.00900   0.97724   -1.000
 5906.00    1.00790   0.97962   -1.000
 5907.00    1.00717   0.98158   -1.000
 5908.00    1.00752   0.98321   -1.000
 5909.00    1.00813   0.98427   -1.000
 5910.00    1.00962   0.98434   -1.000
 5911.00    1.00901   0.98306   -1.000
 5912.00    1.00226   0.98020   -1.000
 5913.00    0.99445   0.97632   -1.000
 5914.00    0.99003   0.97275   -1.000
 5915.00    0.99001   0.97065   -1.000
 5916.00    0.99155   0.97064   -1.000
 5917.00    0.99126   0.97259   -1.000
 5918.00    0.99515   0.97568   -1.000
 5919.00    1.00164   0.97873   -1.000
 5920.00    0.99986   0.98101   -1.000
 5921.00    0.99876   0.98239   -1.000
 5922.00    1.00155   0.98320   -1.000
 5923.00    1.00351   0.98396   -1.000
 5924.00    1.00637   0.98490   -1.000
 5925.00    1.00758   0.98572   -1.000
 5926.00    1.00809   0.98571   -1.000
 5927.00    1.00744   0.98431   -1.000
 5928.00    1.00367   0.98175   -1.000
 5929.00    0.99537   0.97911   -1.000
 5930.00    0.99443   0.97752   -1.000
 5931.00    1.00158   0.97761   -1.000
 5932.00    1.00696   0.97879   -1.000
 5933.00    1.00165   0.98013   -1.000
 5934.00    0.99673   0.98150   -1.000
 5935.00    1.00087   0.98295   -1.000
 5936.00    1.00333   0.98447   -1.000
 5937.00    1.00448   0.98573   -1.000
 5938.00    1.00212   0.98607   -1.000
 5939.00    0.99578   0.98519   -1.000
 5940.00    0.99407   0.98342   -1.000
 5941.00    0.98891   0.98171  329.701
 5942.00    0.99134   0.98078   -1.000
 5943.00    0.99432   0.98074   -1.000
 5944.00    0.99919   0.98112   -1.000
 5945.00    1.00101   0.98118   -1.000
 5946.00    0.99861   0.98045   -1.000
 5947.00    0.99610   0.97902   -1.000
 5948.00    0.99225   0.97759   -1.000
 5949.00    0.98839   0.97671   -1.000
 5950.00    0.99149   0.97654   -1.000
 5951.00    0.99426   0.97655   -1.000
 5952.00    0.99317   0.97627   -1.000
 5953.00    0.99333   0.97599   -1.000
 5954.00    0.98854   0.97571   -1.000
 5955.00    0.98922   0.97527   -1.000
 5956.00    0.98623   0.97519   -1.000
 5957.00    0.98960   0.97592   -1.000
 5958.00    0.98946   0.97771   -1.000
 5959.00    0.99953   0.98053   -1.000
 5960.00    1.00327   0.98365   -1.000
 5961.00    1.00542   0.98624   -1.000
 5962.00    1.00734   0.98774   -1.000
 5963.00    1.00483   0.98792   -1.000
 5964.00    1.00044   0.98706   -1.000
 5965.00    0.99663   0.98581   -1.000
 5966.00    0.99420   0.98487   -1.000
 5967.00    0.99647   0.98471   -1.000
 5968.00    0.99976   0.98539   -1.000
 5969.00    1.00083   0.98672   -1.000
 5970.00    1.00378   0.98824   -1.000
 5971.00    1.00766   0.98920   -1.000
 5972.00    1.00784   0.98903   -1.000
 5973.00    1.00159   0.98734   -1.000
 5974.00    0.99721   0.98428   -1.000
 5975.00    0.99346   0.98061   -1.000
 5976.00    0.98853   0.97746   -1.000
 5977.00    0.98576   0.97594   -1.000
 5978.00    0.98814   0.97631   -1.000
 5979.00    0.99103   0.97786   -1.000
 5980.00    0.99258   0.97928   -1.000
 5981.00    0.99444   0.97927   -1.000
 5982.00    0.99210   0.97737   -1.000
 5983.00    0.98522   0.97435   -1.000
 5984.00    0.98019   0.97172   -1.000
 5985.00    0.98138   0.97072   -1.000
 5986.00    0.98457   0.97163   -1.000
 5987.00    0.98926   0.97380   -1.000
 5988.00    0.99224   0.97627   -1.000
 5989.00    0.99028   0.97829   -1.000
 5990.00    0.99116   0.97974   -1.000
 5991.00    0.99000   0.98097   -1.000
 5992.00    0.98942   0.98245  321.645
 5993.00    0.99443   0.98402   -1.000
 5994.00    0.99460   0.98485   -1.000
 5995.00    0.99329   0.98455   -1.000
 5996.00    0.99229   0.98324   -1.000
 5997.00    0.99002   0.98155   -1.000
 5998.00    0.98951   0.98009   -1.000
 5999.00    0.98930   0.97909   -1.000
 6000.00    0.99135   0.97830   -1.000
 6001.00    0.98958   0.97739   -1.000
 6002.00    0.98678   0.97620   -1.000
 6003.00    0.98312   0.97486   -1.000
 6004.00    0.98191   0.97345   -1.000
 6005.00    0.98288   0.97162   -1.000
 6006.00    0.97920   0.96923   -1.000
 6007.00    0.97495   0.96704   -1.000
 6008.00    0.97300   0.96605  330.921
 6009.00    0.97660   0.96689   -1.000
 6010.00    0.98409   0.96904   -1.000
 6011.00    0.98519   0.97101   -1.000
 6012.00    0.98268   0.97199   -1.000
 6013.00    0.98225   0.97192   -1.000
 6014.00    0.97895   0.97120  330.979
 6015.00    0.98101   0.97034   -1.000
 6016.00    0.98120   0.96945   -1.000
 6017.00    0.97900   0.96832   -1.000
 6018.00    0.97914   0.96679   -1.000
 6019.00    0.97854   0.96480   -1.000
 6020.00    0.97438   0.96278   -1.000
 6021.00    0.97112   0.96166   -1.000
 6022.00    0.97146   0.96180   -1.000
 6023.00    0.97243   0.96308   -1.000
 6024.00    0.97380   0.96566   -1.000
 6025.00    0.97684   0.96931  327.487
 6026.00    0.97897   0.97324  325.191
 6027.00    0.98433   0.97706  323.950
 6028.00    0.98535   0.98064  323.648
 6029.00    0.98749   0.98365  323.816
 6030.00    0.98726   0.98595  324.652
 6031.00    0.98612   0.98767  323.796
 6032.00    0.98829   0.98895  322.258
 6033.00    0.98952   0.98994  321.581
 6034.00    0.99004   0.99065  321.522
 6035.00    0.98787   0.99091  320.844
 6036.00    0.99237   0.99059  321.410
 6037.00    0.99239   0.98959  323.453
 6038.00    0.98931   0.98790  323.871
 6039.00    0.98860   0.98576  324.973
 6040.00    0.98442   0.98367  323.967
 6041.00    0.98270   0.98217  323.603
 6042.00    0.98321   0.98164  321.684
 6043.00    0.98557   0.98228  319.068
 6044.00    0.98772   0.98385  319.731
 6045.00    0.98906   0.98577  319.690
 6046.00    0.98921   0.98778  319.101
 6047.00    0.98961   0.98964  319.592
 6048.00    0.98856   0.99096  320.819
 6049.00    0.98765   0.99157  321.437
 6050.00    0.98717   0.99144  321.679
 6051.00    0.98654   0.99049  322.378
 6052.00    0.98876   0.98856  323.802
 6053.00    0.98742   0.98584  324.735
 6054.00    0.98314   0.98291  326.679
 6055.00    0.97921   0.98057  327.460
 6056.00    0.97825   0.97953  326.648
 6057.00    0.98070   0.98002  324.754
 6058.00    0.98212   0.98145  323.179
 6059.00    0.98686   0.98290  323.900
 6060.00    0.97035   0.98337   -1.000
 6061.00    0.96063   0.98210   -1.000
 6062.00    0.98667   0.97894   -1.000
 6063.00    1.00859   0.97451   -1.000
 6064.00    0.68365   0.97013   -1.000
 6065.00    0.59858   0.96777   -1.000
 6066.00    1.09867   0.96856   -1.000
 6067.00    0.97216   0.97190  323.951
 6068.00    0.99282   0.97668   -1.000
 6069.00    0.98958   0.98153  314.472
 6070.00    0.99876   0.98540   -1.000
 6071.00    0.98573   0.98800  319.633
 6072.00    0.98578   0.98956  320.808
 6073.00    0.98478   0.99020  321.011
 6074.00    0.98346   0.98981  322.256
 6075.00    0.98200   0.98827  324.011
 6076.00    0.98045   0.98573  325.902
 6077.00    0.97759   0.98243  328.533
 6078.00    0.97185   0.97910  330.380
 6079.00    0.96879   0.97654  330.298
 6080.00    0.96899   0.97466  330.680
 6081.00    0.96791   0.97305  331.697
 6082.00    0.96599   0.97168  331.500
 6083.00    0.96240   0.97061  331.246
 6084.00    0.96414   0.97006  330.859
 6085.00    0.96462   0.97040  329.793
 6086.00    0.96699   0.97159  328.479
 6087.00    0.96750   0.97294  329.479
 6088.00    0.96713   0.97374  331.628
 6089.00    0.96701   0.97382  332.864
 6090.00    0.96558   0.97343  332.410
 6091.00    0.96317   0.97320  330.022
 6092.00    0.96389   0.97360  328.483
 6093.00    0.96674   0.97483  326.581
 6094.00    0.96814   0.97668  325.292
 6095.00    0.97208   0.97869  325.651
 6096.00    0.97493   0.98029  326.521
 6097.00    0.97186   0.98064  326.620
 6098.00    0.97069   0.97888  326.764
 6099.00    0.97144   0.97428  331.407
 6100.00    0.96375   0.96700  340.027
 6101.00    0.95095   0.95850  344.698
 6102.00    0.93972   0.95157   -1.000
 6103.00    0.93899   0.94911  334.072
 6104.00    0.94907   0.95155  329.430
 6105.00    0.95902   0.95733  328.893
 6106.00    0.96366   0.96433  330.413
 6107.00    0.96437   0.97074  331.084
 6108.00    0.95987   0.97562   -1.000
 6109.00    0.96195   0.97883   -1.000
 6110.00    0.96573   0.98066   -1.000
 6111.00    0.96721   0.98159   -1.000
 6112.00    0.96628   0.98205   -1.000
 6113.00    0.96829   0.98232   -1.000
 6114.00    0.96913   0.98243   -1.000
 6115.00    0.96749   0.98217   -1.000
 6116.00    0.96566   0.98123   -1.000
 6117.00    0.96321   0.97910   -1.000
 6118.00    0.96140   0.97500   -1.000
 6119.00    0.95690   0.96856   -1.000
 6120.00    0.94661   0.96027   -1.000
 6121.00    0.93412   0.95199   -1.000
 6122.00    0.93104   0.94632   -1.000
 6123.00    0.93846   0.94489  333.852
 6124.00    0.94947   0.94760  334.388
 6125.00    0.95309   0.95271  336.471
 6126.00    0.95295   0.95825  335.653
 6127.00    0.94990   0.96275   -1.000
 6128.00    0.95194   0.96627   -1.000
 6129.00    0.95808   0.96966   -1.000
 6130.00    0.96015   0.97304   -1.000
 6131.00    0.96362   0.97557   -1.000
 6132.00    0.96265   0.97595   -1.000
 6133.00    0.95632   0.97248   -1.000
 6134.00    0.94558   0.96448   -1.000
 6135.00    0.92860   0.95314   -1.000
 6136.00    0.90856   0.94158   -1.000
 6137.00    0.90150   0.93358   -1.000
 6138.00    0.91611   0.93049   -1.000
 6139.00    0.93375   0.93131  336.683
 6140.00    0.94188   0.93517  337.774
 6141.00    0.93748   0.94121  338.078
 6142.00    0.93479   0.94837   -1.000
 6143.00    0.94243   0.95546   -1.000
 6144.00    0.95216   0.96117  330.290
 6145.00    0.95822   0.96455  332.063
 6146.00    0.95648   0.96542  334.245
 6147.00    0.95592   0.96440  336.685
 6148.00    0.95228   0.96264   -1.000
 6149.00    0.94899   0.96125   -1.000
 6150.00    0.94710   0.96072   -1.000
 6151.00    0.94749   0.96102   -1.000
 6152.00    0.95035   0.96150   -1.000
 6153.00    0.95325   0.96127  337.610
 6154.00    0.95215   0.96002  339.044
 6155.00    0.95050   0.95798  339.155
 6156.00    0.95071   0.95519  340.871
 6157.00    0.94841   0.95112  344.928
 6158.00    0.94662   0.94486  352.097
 6159.00    0.94055   0.93551  363.333
 6160.00    0.92799   0.92358  373.406
 6161.00    0.91337   0.91153  375.551
 6162.00    0.89961   0.90301  368.589
 6163.00    0.90264   0.90031  358.076
 6164.00    0.91598   0.90294   -1.000
 6165.00    0.92739   0.90856   -1.000
 6166.00    0.93156   0.91408   -1.000
 6167.00    0.92891   0.91725   -1.000
 6168.00    0.92274   0.91790  362.137
 6169.00    0.91589   0.91848  358.370
 6170.00    0.91538   0.92096  350.986
 6171.00    0.92763   0.92570  346.704
 6172.00    0.93320   0.93200  347.753
 6173.00    0.93910   0.93862  347.849
 6174.00    0.94184   0.94427  346.849
 6175.00    0.94182   0.94836  346.230
 6176.00    0.94485   0.95121  345.199
 6177.00    0.94778   0.95330  343.400
 6178.00    0.94832   0.95498  342.254
 6179.00    0.94643   0.95653   -1.000
 6180.00    0.94728   0.95819   -1.000
 6181.00    0.94941   0.95991   -1.000
 6182.00    0.95273   0.96124  339.781
 6183.00    0.95345   0.96160  341.102
 6184.00    0.95200   0.96077  344.119
 6185.00    0.95005   0.95867  348.012
 6186.00    0.94751   0.95532  351.537
 6187.00    0.94332   0.95095  354.805
 6188.00    0.93998   0.94584  357.354
 6189.00    0.93334   0.94022  362.299
 6190.00    0.92043   0.93514   -1.000
 6191.00    0.91410   0.93273   -1.000
 6192.00    0.91777   0.93400   -1.000
 6193.00    0.93033   0.93815  344.259
 6194.00    0.94138   0.94385  342.673
 6195.00    0.94710   0.94946  342.492
 6196.00    0.94759   0.95352  345.237
 6197.00    0.94246   0.95532   -1.000
 6198.00    0.93957   0.95524   -1.000
 6199.00    0.93406   0.95436   -1.000
 6200.00    0.92990   0.95409   -1.000
 6201.00    0.93389   0.95513   -1.000
 6202.00    0.93930   0.95754   -1.000
 6203.00    0.94733   0.96078   -1.000
 6204.00    0.94841   0.96409   -1.000
 6205.00    0.94629   0.96669   -1.000
 6206.00    0.94704   0.96831   -1.000
 6207.00    0.94784   0.96880   -1.000
 6208.00    0.94584   0.96796   -1.000
 6209.00    0.94601   0.96558   -1.000
 6210.00    0.94343   0.96150   -1.000
 6211.00    0.93689   0.95591   -1.000
 6212.00    0.92844   0.94957   -1.000
 6213.00    0.91954   0.94366   -1.000
 6214.00    0.91802   0.93917   -1.000
 6215.00    0.92027   0.93636   -1.000
 6216.00    0.92263   0.93491   -1.000
 6217.00    0.92142   0.93411   -1.000
 6218.00    0.92184   0.93378   -1.000
 6219.00    0.92127   0.93412   -1.000
 6220.00    0.91965   0.93556   -1.000
 6221.00    0.92765   0.93789   -1.000
 6222.00    0.93303   0.94046  368.856
 6223.00    0.93510   0.94271  352.887
 6224.00    0.93295   0.94401   -1.000
 6225.00    0.93248   0.94385   -1.000
 6226.00    0.93489   0.94184  357.077
 6227.00    0.93101   0.93773  362.428
 6228.00    0.92275   0.93177  368.487
 6229.00    0.91547   0.92524   -1.000
 6230.00    0.90627   0.92015   -1.000
 6231.00    0.90227   0.91820   -1.000
 6232.00    0.90698   0.91988   -1.000
 6233.00    0.91601   0.92415  351.561
 6234.00    0.92688   0.92894  350.779
 6235.00    0.93275   0.93240  353.727
 6236.00    0.93246   0.93352  357.422
 6237.00    0.92837   0.93259  361.048
 6238.00    0.92253   0.93053  364.795
 6239.00    0.91828   0.92819   -1.000
 6240.00    0.91422   0.92583   -1.000
 6241.00    0.91036   0.92319   -1.000
 6242.00    0.90933   0.91987   -1.000
 6243.00    0.90865   0.91606  370.208
 6244.00    0.90782   0.91252  367.504
 6245.00    0.90475   0.91052  363.633
 6246.00    0.90469   0.91120  358.918
 6247.00    0.91059   0.91460  355.537
 6248.00    0.91961   0.91931  355.878
 6249.00    0.92422   0.92300  359.869
 6250.00    0.91647   0.92396  366.842
 6251.00    0.90700   0.92173   -1.000
 6252.00    0.89741   0.91740   -1.000
 6253.00    0.89002   0.91277   -1.000
 6254.00    0.88955   0.90920   -1.000
 6255.00    0.89046   0.90724   -1.000
 6256.00    0.88955   0.90680   -1.000
 6257.00    0.88707   0.90777   -1.000
 6258.00    0.88481   0.91008   -1.000
 6259.00    0.89213   0.91379   -1.000
 6260.00    0.90278   0.91858   -1.000
 6261.00    0.91051   0.92393   -1.000
 6262.00    0.91383   0.92894   -1.000
 6263.00    0.91828   0.93284   -1.000
 6264.00    0.91542   0.93553   -1.000
 6265.00    0.91406   0.93735   -1.000
 6266.00    0.91402   0.93863   -1.000
 6267.00    0.91625   0.93924   -1.000
 6268.00    0.91869   0.93897   -1.000
 6269.00    0.91721   0.93805   -1.000
 6270.00    0.91672   0.93689   -1.000
 6271.00    0.91679   0.93555   -1.000
 6272.00    0.91482   0.93363   -1.000
 6273.00    0.91257   0.93029   -1.000
 6274.00    0.90068   0.92524   -1.000
 6275.00    0.88662   0.91882   -1.000
 6276.00    0.87179   0.91203   -1.000
 6277.00    0.86780   0.90611   -1.000
 6278.00    0.86783   0.90206   -1.000
 6279.00    0.87093   0.90075   -1.000
 6280.00    0.87544   0.90256   -1.000
 6281.00    0.88387   0.90707   -1.000
 6282.00    0.89123   0.91333   -1.000
 6283.00    0.90157   0.92010   -1.000
 6284.00    0.91014   0.92627   -1.000
 6285.00    0.91329   0.93106   -1.000
 6286.00    0.91514   0.93419   -1.000
 6287.00    0.91470   0.93561   -1.000
 6288.00    0.91369   0.93537   -1.000
 6289.00    0.91311   0.93396   -1.000
 6290.00    0.91041   0.93212   -1.000
 6291.00    0.90655   0.93038   -1.000
 6292.00    0.90362   0.92897   -1.000
 6293.00    0.90059   0.92773   -1.000
 6294.00    0.90469   0.92618   -1.000
 6295.00    0.90652   0.92383   -1.000
 6296.00    0.90840   0.92075   -1.000
 6297.00    0.91597   0.91745  368.040
 6298.00    0.93247   0.91446   -1.000
 6299.00    0.94581   0.91204   -1.000
 6300.00    0.94263   0.91055   -1.000
 6301.00    0.92000   0.91081   -1.000
 6302.00    0.90189   0.91350   -1.000
 6303.00    0.89973   0.91826   -1.000
 6304.00    0.90363   0.92396   -1.000
 6305.00    0.90820   0.92943   -1.000
 6306.00    0.91212   0.93370   -1.000
 6307.00    0.91601   0.93625   -1.000
 6308.00    0.91592   0.93725   -1.000
 6309.00    0.91503   0.93715   -1.000
 6310.00    0.91327   0.93616   -1.000
 6311.00    0.91045   0.93446   -1.000
 6312.00    0.90741   0.93194   -1.000
 6313.00    0.90541   0.92869   -1.000
 6314.00    0.90323   0.92511   -1.000
 6315.00    0.90117   0.92170   -1.000
 6316.00    0.89957   0.91908   -1.000
 6317.00    0.90016   0.91789   -1.000
 6318.00    0.89906   0.91876   -1.000
 6319.00    0.90325   0.92168   -1.000
 6320.00    0.90784   0.92582   -1.000
 6321.00    0.91021   0.93031   -1.000
 6322.00    0.90981   0.93486   -1.000
 6323.00    0.91404   0.93909   -1.000
 6324.00    0.91952   0.94240   -1.000
 6325.00    0.92332   0.94458   -1.000
 6326.00    0.92448   0.94567   -1.000
 6327.00    0.92247   0.94595   -1.000
 6328.00    0.92335   0.94573   -1.000
 6329.00    0.92530   0.94525   -1.000
 6330.00    0.92813   0.94451   -1.000
 6331.00    0.92628   0.94323   -1.000
 6332.00    0.92395   0.94078   -1.000
 6333.00    0.90392   0.93690   -1.000
 6334.00    0.91506   0.93207   -1.000
 6335.00    0.91125   0.92775   -1.000
 6336.00    0.90772   0.92545   -1.000
 6337.00    0.91220   0.92572   -1.000
 6338.00    0.91997   0.92823  345.782
 6339.00    0.92537   0.93209  344.349
 6340.00    0.93025   0.93592  342.780
 6341.00    0.93198   0.93846  343.504
 6342.00    0.93136   0.93927  346.729
 6343.00    0.93079   0.93866  346.762
 6344.00    0.92764   0.93746  345.603
 6345.00    0.92852   0.93666  343.591
 6346.00    0.93292   0.93723  341.210
 6347.00    0.93619   0.93953  340.158
 6348.00    0.93851   0.94296  340.308
 6349.00    0.93977   0.94640  339.535
 6350.00    0.94123   0.94887  340.079
 6351.00    0.93912   0.94972   -1.000
 6352.00    0.93674   0.94881   -1.000
 6353.00    0.93624   0.94660   -1.000
 6354.00    0.93108   0.94383   -1.000
 6355.00    0.92781   0.94110   -1.000
 6356.00    0.92619   0.93848   -1.000
 6357.00    0.92490   0.93596   -1.000
 6358.00    0.92034   0.93367   -1.000
 6359.00    0.92514   0.93165  354.948
 6360.00    0.92900   0.92980  353.938
 6361.00    0.93583   0.92832   -1.000
 6362.00    0.94329   0.92757   -1.000
 6363.00    0.94539   0.92783   -1.000
 6364.00    0.94124   0.92903   -1.000
 6365.00    0.93799   0.93087  345.716
 6366.00    0.93333   0.93294  343.459
 6367.00    0.93278   0.93462  341.277
 6368.00    0.93167   0.93552  340.643
 6369.00    0.93306   0.93588  340.877
 6370.00    0.93237   0.93639  339.544
 6371.00    0.93287   0.93750  338.382
 6372.00    0.93229   0.93919  339.468
 6373.00    0.93428   0.94088  339.681
 6374.00    0.93256   0.94194  340.520
 6375.00    0.93194   0.94198   -1.000
 6376.00    0.92906   0.94098   -1.000
 6377.00    0.92641   0.93936   -1.000
 6378.00    0.92388   0.93753   -1.000
 6379.00    0.92089   0.93586   -1.000
 6380.00    0.91725   0.93452   -1.000
 6381.00    0.91561   0.93365   -1.000
 6382.00    0.91431   0.93336   -1.000
 6383.00    0.91140   0.93376   -1.000
 6384.00    0.90969   0.93484   -1.000
 6385.00    0.90939   0.93636   -1.000
 6386.00    0.90564   0.93774   -1.000
 6387.00    0.90404   0.93851   -1.000
 6388.00    0.90135   0.93833   -1.000
 6389.00    0.89796   0.93696   -1.000
 6390.00    0.89170   0.93420   -1.000
 6391.00    0.88424   0.93046   -1.000
 6392.00    0.87274   0.92693   -1.000
 6393.00    0.86596   0.92485   -1.000
 6394.00    0.86495   0.92478   -1.000
 6395.00    0.86575   0.92597   -1.000
 6396.00    0.86891   0.92698   -1.000
 6397.00    0.86525   0.92659   -1.000
 6398.00    0.85521   0.92480   -1.000
 6399.00    0.83974   0.92300   -1.000
 6400.00    0.83216   0.92273   -1.000
 6401.00    0.83474   0.92464   -1.000
 6402.00    0.84354   0.92802   -1.000
 6403.00    0.84866   0.93147   -1.000
 6404.00    0.84599   0.93353   -1.000
 6405.00    0.84115   0.93345   -1.000
 6406.00    0.83384   0.93167   -1.000
 6407.00    0.82348   0.92937   -1.000
 6408.00    0.81752   0.92756   -1.000
 6409.00    0.81438   0.92638   -1.000
 6410.00    0.80915   0.92584   -1.000
 6411.00    0.80288   0.92610   -1.000
 6412.00    0.79860   0.92709   -1.000
 6413.00    0.79384   0.92831   -1.000
 6414.00    0.79146   0.92937   -1.000
 6415.00    0.78841   0.93020   -1.000
 6416.00    0.78240   0.93041   -1.000
 6417.00    0.77659   0.92955   -1.000
 6418.00    0.76980   0.92776   -1.000
 6419.00    0.75925   0.92579   -1.000
 6420.00    0.74687   0.92485   -1.000
 6421.00    0.73739   0.92615   -1.000
 6422.00    0.73359   0.92965   -1.000
 6423.00    0.73557   0.93434   -1.000
 6424.00    0.73333   0.93917   -1.000
 6425.00    0.73017   0.94286   -1.000
 6426.00    0.72258   0.94448   -1.000
 6427.00    0.71284   0.94346   -1.000
 6428.00    0.70708   0.93994   -1.000
