###################################################################
## OUTPUT of StarlightChains_v04.for    [Cid@UFSC - 01/Apr/2007] ##
###################################################################

## Some input info
NGC5986_a_1.cxt                          [arq_obs]
Base.BC03.N                              [arq_base]
NGC5986_a_1.msk                          [arq_masks]
StCv04.C99.config                        [arq_config]
   45                                    [N_base]
    0                                    [N_YAV_components = # of components with extra extinction!]
    0                                    [i_FitPowerLaw (1/0 = Yes/No)]
-9.99                                    [alpha_PowerLaw]
CCM                                      [red_law_option]
 1.458241                                [q_norm = A(l_norm)/A(V)]

## (Re)Sampling Parameters
 3359.00                                 [l_ini (A)]
 6428.00                                 [l_fin (A)]
    1.00                                 [dl    (A)]     (OBS: dl_cushion =    50.00 A)

## Normalization info
 4020.00                                 [l_norm (A) - for base]
 4010.00                                 [llow_norm (A) - window for f_obs]
 4060.00                                 [lupp_norm (A) - window for f_obs]
1.970425E-14                             [fobs_norm (in input units)]

## S/N
 4730.00                                 [llow_SN (A) - window for S/N]
 4780.00                                 [lupp_SN (A) - window for S/N]
 120.453                                 [S/N in S/N window]
 104.720                                 [S/N in norm. window]
  85.601                                 [S/N_err in S/N window]
  74.420                                 [S/N_err in norm. window]
  1.0000                                 [fscale_chi2]

## etc...
  2147483629                             [idum_orig]
  3069                                   [NOl_eff]
  1632                                   [Nl_eff]
  1437    NSIGMA                         [Ntot_cliped & clip_method]
  1646120                                [Nglobal_steps]
   7                                     [N_chains]
  10                                     [NEX0s_base = N_base in EX0s-fits]
 0   0   1       80   2.0   6.651E+02    [Clip-Bug, RC-Crash & Burn-In warning-flags, n_censored_weights, wei_nsig_threshold & wei_limit]
    22     22.871     22.867      0.004  [idt_all, wdt_TotTime, wdt_UsrTime & wdt_SysTime (sec)]

## Synthesis Results - Best model ##

 2.41163E+00                             [chi2/Nl_eff]
     1.73799                             [adev (%)]

   102.69218                             [sum-of-x (%)]
 7.81914E-14                             [Flux_tot (units of input spectrum!)]
 6.82898E-10                             [Mini_tot (???)]
 3.65145E-10                             [Mcor_tot (???)]

 -25.51                                  [v0_min  (km/s)]
  98.14                                  [vd_min  (km/s)]
 1.0065                                  [AV_min  (mag)]
 0.0000                                  [YAV_min (mag)]

# j     x_j(%)      Mini_j(%)     Mcor_j(%)     age_j(yr)     Z_j      (L/M)_j    YAV?  Mstars   component_j        a/Fe...       SSP_chi2r SSP_adev(%)   SSP_AV   SSP_x(%)
  1      0.0000     0.0000E+00    0.0000E+00    1.000000E+06  0.00400  1.114E-02    0   1.0000   age020_m42            0.0000     1.4219E+02     8.2581   4.0000    75.2123
  2      3.2704     8.9526E-03    1.6741E-02    3.160000E+06  0.00400  4.073E-02    0   0.9999   age045_m42            0.0000     2.9454E+01     3.6635   3.1178    88.4897
  3      0.0000     0.0000E+00    0.0000E+00    5.010000E+06  0.00400  2.534E-02    0   0.9488   age055_m42            0.0000     7.1638E+01     6.1333   3.5492    80.9115
  4      9.3053     8.1630E-02    1.3529E-01    1.000000E+07  0.00400  1.271E-02    0   0.8862   age070_m42            0.0000     6.4377E+01     6.7454   2.7370    85.6116
  5      0.0006     1.3189E-05    2.0162E-05    2.512000E+07  0.00400  5.070E-03    0   0.8174   age090_m42            0.0000     5.8846E+01     6.4508   2.6141    86.9932
  6      0.0000     0.0000E+00    0.0000E+00    4.000000E+07  0.00400  3.505E-03    0   0.7851   age104_m42            0.0000     3.9537E+01     5.0482   2.2994    90.2007
  7      5.9271     2.9139E-01    3.9275E-01    1.015200E+08  0.00400  2.268E-03    0   0.7207   age116_m42            0.0000     3.3402E+01     4.3395   2.2231   103.8741
  8      0.0000     0.0000E+00    0.0000E+00    2.861200E+08  0.00400  1.079E-03    0   0.6613   age125_m42            0.0000     3.7456E+01     4.7413   1.7421   105.6091
  9     10.2294     2.2465E+00    2.6036E+00    6.405400E+08  0.00400  5.077E-04    0   0.6197   age132_m42            0.0000     4.2794E+01     4.9793   1.3711   110.1689
 10     45.4667     1.4341E+01    1.6156E+01    9.047900E+08  0.00400  3.535E-04    0   0.6024   age135_m42            0.0000     2.0969E+01     3.8563   1.1447   108.7166
 11      0.0023     1.3671E-03    1.4614E-03    1.434000E+09  0.00400  1.910E-04    0   0.5716   age139_m42            0.0000     8.5043E+00     2.9707   0.6487   106.2045
 12      0.0000     0.0000E+00    0.0000E+00    2.500000E+09  0.00400  9.818E-05    0   0.5463   age150_m42            0.0000     1.4537E+01     3.2752   0.4065    99.9577
 13     26.2994     6.2152E+01    6.0769E+01    5.000000E+09  0.00400  4.718E-05    0   0.5228   age161_m42            0.0000     2.7903E+01     4.0210   0.2548    95.8961
 14      0.0000     0.0000E+00    0.0000E+00    1.100000E+10  0.00400  2.205E-05    0   0.4980   age185_m42            0.0000     5.0020E+01     5.2091   0.0082    93.3980
 15      0.0000     0.0000E+00    0.0000E+00    1.300000E+10  0.00400  1.883E-05    0   0.4927   age193_m42            0.0000     5.3827E+01     5.3872  -0.0065    93.1446
 16      0.0000     0.0000E+00    0.0000E+00    1.000000E+06  0.02000  1.989E-02    0   1.0000   age020_m62            0.0000     1.3957E+02     8.3612   4.0000    75.0163
 17      0.0000     0.0000E+00    0.0000E+00    3.160000E+06  0.02000  3.772E-02    0   0.9858   age045_m62            0.0000     1.2310E+02     8.2685   3.9551    75.0848
 18      0.0019     6.6289E-06    1.1582E-05    5.010000E+06  0.02000  3.227E-02    0   0.9342   age055_m62            0.0000     4.6155E+01     5.0362   3.3851    84.7600
 19      0.0000     0.0000E+00    0.0000E+00    1.000000E+07  0.02000  1.011E-02    0   0.8751   age070_m62            0.0000     1.5737E+02    11.1096   2.7937    80.0656
 20      0.0000     0.0000E+00    0.0000E+00    2.512000E+07  0.02000  4.206E-03    0   0.8099   age090_m62            0.0000     1.1988E+02     9.2603   2.7347    81.0272
 21      0.0000     0.0000E+00    0.0000E+00    4.000000E+07  0.02000  3.373E-03    0   0.7799   age104_m62            0.0000     3.1348E+01     4.6846   2.5026    92.0800
 22      0.0000     0.0000E+00    0.0000E+00    1.015200E+08  0.02000  1.878E-03    0   0.7221   age116_m62            0.0000     2.5190E+01     3.8027   2.2646   103.3716
 23      0.0000     0.0000E+00    0.0000E+00    2.861200E+08  0.02000  8.869E-04    0   0.6700   age125_m62            0.0000     8.1597E+01     6.3559   1.7444   111.3778
 24      0.0000     0.0000E+00    0.0000E+00    6.405400E+08  0.02000  3.657E-04    0   0.6322   age132_m62            0.0000     4.9420E+01     5.6049   1.0866   114.0878
 25      0.0000     0.0000E+00    0.0000E+00    9.047900E+08  0.02000  2.312E-04    0   0.6152   age135_m62            0.0000     2.5755E+01     4.6066   0.7266   112.3294
 26      0.0000     0.0000E+00    0.0000E+00    1.434000E+09  0.02000  1.168E-04    0   0.5865   age139_m62            0.0000     1.6365E+01     3.7465   0.3472   104.4485
 27      0.0000     0.0000E+00    0.0000E+00    2.500000E+09  0.02000  5.505E-05    0   0.5610   age150_m62            0.0000     3.5984E+01     4.9995  -0.0023   100.6426
 28      0.0000     0.0000E+00    0.0000E+00    5.000000E+09  0.02000  2.596E-05    0   0.5353   age161_m62            0.0000     6.2740E+01     6.5025  -0.3186   100.2528
 29      2.1889     2.0878E+01    1.9925E+01    1.100000E+10  0.02000  1.169E-05    0   0.5103   age185_m62            0.0000     9.1413E+01     7.8591  -0.6733   101.5404
 30      0.0000     0.0000E+00    0.0000E+00    1.300000E+10  0.02000  9.691E-06    0   0.5047   age193_m62            0.0000     9.7050E+01     8.0779  -0.7183   101.7569
 31      0.0000     0.0000E+00    0.0000E+00    1.000000E+06  0.05000  2.651E-02    0   0.9998   age020_m72            0.0000     1.3121E+02     7.9444   4.0000    75.9692
 32      0.0000     0.0000E+00    0.0000E+00    3.160000E+06  0.05000  4.817E-02    0   0.9577   age045_m72            0.0000     8.7556E+01     6.7290   3.7953    78.9866
 33      0.0000     0.0000E+00    0.0000E+00    5.010000E+06  0.05000  3.101E-02    0   0.9147   age055_m72            0.0000     8.2224E+01     6.7883   3.4235    81.8331
 34      0.0000     0.0000E+00    0.0000E+00    1.000000E+07  0.05000  8.954E-03    0   0.8524   age070_m72            0.0000     8.8659E+01     7.0127   3.6766    79.9665
 35      0.0000     0.0000E+00    0.0000E+00    2.512000E+07  0.05000  4.207E-03    0   0.7902   age090_m72            0.0000     4.4585E+01     5.0594   3.2203    86.6814
 36      0.0000     0.0000E+00    0.0000E+00    4.000000E+07  0.05000  3.198E-03    0   0.7618   age104_m72            0.0000     1.5496E+01     3.2129   2.6593    97.7605
 37      0.0000     0.0000E+00    0.0000E+00    1.015200E+08  0.05000  1.716E-03    0   0.7092   age116_m72            0.0000     3.4757E+01     4.3682   2.3451   103.8907
 38      0.0000     0.0000E+00    0.0000E+00    2.861200E+08  0.05000  7.047E-04    0   0.6618   age125_m72            0.0000     8.0747E+01     6.4808   1.5366   112.1540
 39      0.0000     0.0000E+00    0.0000E+00    6.405400E+08  0.05000  2.633E-04    0   0.6253   age132_m72            0.0000     3.8835E+01     5.2319   0.7108   113.5170
 40      0.0000     0.0000E+00    0.0000E+00    9.047900E+08  0.05000  1.484E-04    0   0.6088   age135_m72            0.0000     2.4219E+01     4.4955   0.2658   106.4848
 41      0.0000     0.0000E+00    0.0000E+00    1.434000E+09  0.05000  7.827E-05    0   0.5847   age139_m72            0.0000     4.5070E+01     5.7314  -0.0936   101.6403
 42      0.0000     0.0000E+00    0.0000E+00    2.500000E+09  0.05000  3.759E-05    0   0.5583   age150_m72            0.0000     6.8402E+01     6.8772  -0.3975   100.0738
 43      0.0000     0.0000E+00    0.0000E+00    5.000000E+09  0.05000  1.548E-05    0   0.5320   age161_m72            0.0000     9.6039E+01     8.1489  -0.8077    99.8002
 44      0.0000     0.0000E+00    0.0000E+00    1.100000E+10  0.05000  6.532E-06    0   0.5070   age185_m72            0.0000     1.3853E+02     9.8153  -1.0000    94.3130
 45      0.0000     0.0000E+00    0.0000E+00    1.300000E+10  0.05000  5.316E-06    0   0.5018   age193_m72            0.0000     1.7007E+02    10.7809  -1.0000    90.8526


## Synthesis Results - Average & Chains ##

# j      x_j: min, <> & last-chain-values for 1 ...  7 chains
  1      0.0000      0.0189      0.0000      0.0000      0.0000      0.0000      0.0000      0.0000      0.0000
  2      3.2704      0.8143      1.2346      1.4751      1.2680      0.9078      1.2897      1.3042      0.8865
  3      0.0000      0.1170      0.0000      0.0799      0.2615      0.0509      0.0000      0.2131      0.1019
  4      9.3053      7.8754      8.0982      8.1018      8.0289      7.9434      7.8658      8.0928      7.9295
  5      0.0006      1.1024      1.1801      1.0516      1.2235      1.6198      0.9604      1.4282      1.1374
  6      0.0000      0.0727      0.0000      0.0547      0.0000      0.0000      0.0000      0.0000      0.0000
  7      5.9271      6.0797      5.9981      6.1573      6.0629      5.9484      6.3057      6.0517      5.7537
  8      0.0000      0.1706      0.3913      0.0336      0.1732      0.1449      0.2216      0.0168      0.1752
  9     10.2294     10.4435     10.4905     10.4094     10.1346     10.9023     10.6511     10.7713     10.6899
 10     45.4667     43.9175     44.0774     44.0006     44.4676     44.1221     43.6747     44.2326     44.6577
 11      0.0023      0.1776      0.0000      0.6796      0.2475      0.0000      0.0000      0.0000      0.0622
 12      0.0000      0.0872      0.0202      0.2220      0.0156      0.3549      0.0872      0.4439      0.0000
 13     26.2994     28.2850     28.2461     27.7374     28.2686     27.6822     28.4867     27.9983     27.9456
 14      0.0000      0.0253      0.0000      0.0000      0.0114      0.0000      0.0000      0.0000      0.0000
 15      0.0000      0.0178      0.0669      0.0000      0.0270      0.0000      0.0000      0.0000      0.0000
 16      0.0000      0.0167      0.0000      0.0000      0.0000      0.0000      0.0000      0.0000      0.0000
 17      0.0000      0.0179      0.0000      0.0000      0.0000      0.0000      0.0406      0.0000      0.0000
 18      0.0019      0.5368      0.5359      0.6375      0.4588      0.5949      0.5621      0.2941      0.9192
 19      0.0000      0.0908      0.0000      0.0000      0.0000      0.1935      0.0000      0.0000      0.0000
 20      0.0000      0.0195      0.0000      0.0000      0.0106      0.0000      0.0000      0.0010      0.0000
 21      0.0000      0.0314      0.0000      0.0000      0.0000      0.0000      0.0000      0.0000      0.0000
 22      0.0000      0.1738      0.0000      0.0000      0.0000      0.0000      0.2029      0.0000      0.1950
 23      0.0000      0.0533      0.0807      0.0140      0.0000      0.0000      0.0000      0.0000      0.0000
 24      0.0000      0.0213      0.0000      0.0000      0.0000      0.0000      0.0000      0.0114      0.0000
 25      0.0000      0.0232      0.0000      0.0000      0.0000      0.0000      0.0000      0.0000      0.0027
 26      0.0000      0.0408      0.0000      0.0000      0.0080      0.0000      0.0000      0.0000      0.0000
 27      0.0000      0.0442      0.2060      0.0000      0.0011      0.0000      0.0000      0.0000      0.0000
 28      0.0000      0.0322      0.0289      0.0000      0.0000      0.1784      0.0000      0.0000      0.0000
 29      2.1889      0.5421      0.5889      0.6077      0.4794      0.6055      0.5585      0.2847      0.6085
 30      0.0000      0.4155      0.3551      0.2973      0.2891      0.4253      0.3851      0.6003      0.4815
 31      0.0000      0.0134      0.0000      0.0105      0.0000      0.0000      0.0000      0.0000      0.0000
 32      0.0000      0.0412      0.0000      0.0152      0.0000      0.0000      0.0537      0.0000      0.1592
 33      0.0000      0.0408      0.0000      0.0000      0.0000      0.0000      0.2272      0.0000      0.0000
 34      0.0000      0.0208      0.0057      0.0225      0.0000      0.0000      0.0000      0.0000      0.0000
 35      0.0000      0.0228      0.0000      0.0037      0.0000      0.0000      0.0000      0.0000      0.0000
 36      0.0000      0.0382      0.0877      0.0000      0.0000      0.0000      0.0000      0.0000      0.0000
 37      0.0000      0.0760      0.0000      0.0244      0.0118      0.0450      0.1485      0.0000      0.0024
 38      0.0000      0.0365      0.0000      0.0000      0.0000      0.0000      0.0059      0.0000      0.0031
 39      0.0000      0.0290      0.0000      0.0000      0.0000      0.0000      0.0000      0.0000      0.0229
 40      0.0000      0.0600      0.0000      0.0000      0.0000      0.0000      0.0000      0.0000      0.0000
 41      0.0000      0.0271      0.0412      0.0000      0.1174      0.0000      0.0000      0.0076      0.0000
 42      0.0000      0.0477      0.0000      0.0097      0.1623      0.0747      0.0000      0.0000      0.0000
 43      0.0000      0.1743      0.2046      0.2260      0.1709      0.0000      0.2213      0.0000      0.1583
 44      0.0000      0.4565      0.4761      0.4690      0.4322      0.4611      0.3589      0.5202      0.4559
 45      0.0000      0.4650      0.4096      0.3979      0.4006      0.5158      0.4588      0.5040      0.4904

# j      m_j: min, <> & last-chain-values for 1 ...  7 chains
  1  0.0000E+00  3.1508E-04  0.0000E+00  0.0000E+00  0.0000E+00  0.0000E+00  0.0000E+00  0.0000E+00  0.0000E+00
  2  1.6741E-02  3.7064E-03  5.6585E-03  6.8978E-03  5.9565E-03  4.1427E-03  5.9758E-03  5.9761E-03  4.0255E-03
  3  0.0000E+00  8.1212E-04  0.0000E+00  5.6951E-04  1.8738E-03  3.5400E-04  0.0000E+00  1.4897E-03  7.0552E-04
  4  1.3529E-01  1.0181E-01  1.0541E-01  1.0760E-01  1.0712E-01  1.0296E-01  1.0351E-01  1.0533E-01  1.0227E-01
  5  2.0162E-05  3.2952E-02  3.5518E-02  3.2293E-02  3.7745E-02  4.8547E-02  2.9223E-02  4.2980E-02  3.3920E-02
  6  0.0000E+00  3.0174E-03  0.0000E+00  2.3330E-03  0.0000E+00  0.0000E+00  0.0000E+00  0.0000E+00  0.0000E+00
  7  3.9275E-01  3.5818E-01  3.5583E-01  3.7268E-01  3.6866E-01  3.5138E-01  3.7819E-01  3.5895E-01  3.3820E-01
  8  0.0000E+00  1.9383E-02  4.4777E-02  3.9170E-03  2.0317E-02  1.6508E-02  2.5636E-02  1.9173E-03  1.9865E-02
  9  2.6036E+00  2.3634E+00  2.3905E+00  2.4201E+00  2.3671E+00  2.4738E+00  2.4538E+00  2.4541E+00  2.4135E+00
 10  1.6156E+01  1.3876E+01  1.4023E+01  1.4282E+01  1.4500E+01  1.3977E+01  1.4047E+01  1.4070E+01  1.4077E+01
 11  1.4614E-03  9.8568E-02  0.0000E+00  3.8739E-01  1.4176E-01  0.0000E+00  0.0000E+00  0.0000E+00  3.4413E-02
 12  0.0000E+00  8.9907E-02  2.1003E-02  2.3527E-01  1.6637E-02  3.6712E-01  9.1539E-02  4.6100E-01  0.0000E+00
 13  6.0769E+01  5.8110E+01  5.8433E+01  5.8544E+01  5.9941E+01  5.7022E+01  5.9578E+01  5.7910E+01  5.7279E+01
 14  0.0000E+00  1.0600E-01  0.0000E+00  0.0000E+00  4.9229E-02  0.0000E+00  0.0000E+00  0.0000E+00  0.0000E+00
 15  0.0000E+00  8.6120E-02  3.2673E-01  0.0000E+00  1.3504E-01  0.0000E+00  0.0000E+00  0.0000E+00  0.0000E+00
 16  0.0000E+00  1.5587E-04  0.0000E+00  0.0000E+00  0.0000E+00  0.0000E+00  0.0000E+00  0.0000E+00  0.0000E+00
 17  0.0000E+00  8.6607E-05  0.0000E+00  0.0000E+00  0.0000E+00  0.0000E+00  2.0022E-04  0.0000E+00  0.0000E+00
 18  1.1582E-05  2.8813E-03  2.8961E-03  3.5150E-03  2.5414E-03  3.2015E-03  3.0710E-03  1.5894E-03  4.9220E-03
 19  0.0000E+00  1.4568E-03  0.0000E+00  0.0000E+00  0.0000E+00  3.1138E-03  0.0000E+00  0.0000E+00  0.0000E+00
 20  0.0000E+00  6.9685E-04  0.0000E+00  0.0000E+00  3.9041E-04  0.0000E+00  0.0000E+00  3.7604E-05  0.0000E+00
 21  0.0000E+00  1.3472E-03  0.0000E+00  0.0000E+00  0.0000E+00  0.0000E+00  0.0000E+00  0.0000E+00  0.0000E+00
 22  0.0000E+00  1.2389E-02  0.0000E+00  0.0000E+00  0.0000E+00  0.0000E+00  1.4722E-02  0.0000E+00  1.3872E-02
 23  0.0000E+00  7.4584E-03  1.1380E-02  2.0149E-03  0.0000E+00  0.0000E+00  0.0000E+00  0.0000E+00  0.0000E+00
 24  0.0000E+00  6.8242E-03  0.0000E+00  0.0000E+00  0.0000E+00  0.0000E+00  0.0000E+00  3.6652E-03  0.0000E+00
 25  0.0000E+00  1.1437E-02  0.0000E+00  0.0000E+00  0.0000E+00  0.0000E+00  0.0000E+00  0.0000E+00  1.3385E-03
 26  0.0000E+00  3.8009E-02  0.0000E+00  0.0000E+00  7.6622E-03  0.0000E+00  0.0000E+00  0.0000E+00  0.0000E+00
 27  0.0000E+00  8.3532E-02  3.9185E-01  0.0000E+00  2.2344E-03  0.0000E+00  0.0000E+00  0.0000E+00  0.0000E+00
 28  0.0000E+00  1.2315E-01  1.1128E-01  0.0000E+00  0.0000E+00  6.8397E-01  0.0000E+00  0.0000E+00  0.0000E+00
 29  1.9925E+01  4.3875E+00  4.7990E+00  5.0530E+00  4.0041E+00  4.9137E+00  4.6018E+00  2.3199E+00  4.9133E+00
 30  0.0000E+00  4.0119E+00  3.4524E+00  2.9494E+00  2.8815E+00  4.1171E+00  3.7852E+00  5.8354E+00  4.6384E+00
 31  0.0000E+00  9.3587E-05  0.0000E+00  7.5150E-05  0.0000E+00  0.0000E+00  0.0000E+00  0.0000E+00  0.0000E+00
 32  0.0000E+00  1.5200E-04  0.0000E+00  5.7409E-05  0.0000E+00  0.0000E+00  2.0134E-04  0.0000E+00  5.8562E-04
 33  0.0000E+00  2.2299E-04  0.0000E+00  0.0000E+00  0.0000E+00  0.0000E+00  1.2651E-03  0.0000E+00  0.0000E+00
 34  0.0000E+00  3.6722E-04  1.0203E-04  4.0879E-04  0.0000E+00  0.0000E+00  0.0000E+00  0.0000E+00  0.0000E+00
 35  0.0000E+00  7.9468E-04  0.0000E+00  1.3188E-04  0.0000E+00  0.0000E+00  0.0000E+00  0.0000E+00  0.0000E+00
 36  0.0000E+00  1.6867E-03  3.8995E-03  0.0000E+00  0.0000E+00  0.0000E+00  0.0000E+00  0.0000E+00  0.0000E+00
 37  0.0000E+00  5.8204E-03  0.0000E+00  1.9176E-03  9.3144E-04  3.4592E-03  1.1586E-02  0.0000E+00  1.8082E-04
 38  0.0000E+00  6.3552E-03  0.0000E+00  0.0000E+00  0.0000E+00  0.0000E+00  1.0491E-03  0.0000E+00  5.3607E-04
 39  0.0000E+00  1.2769E-02  0.0000E+00  0.0000E+00  0.0000E+00  0.0000E+00  0.0000E+00  0.0000E+00  1.0038E-02
 40  0.0000E+00  4.5641E-02  0.0000E+00  0.0000E+00  0.0000E+00  0.0000E+00  0.0000E+00  0.0000E+00  0.0000E+00
 41  0.0000E+00  3.7542E-02  5.7467E-02  0.0000E+00  1.6786E-01  0.0000E+00  0.0000E+00  1.0633E-02  0.0000E+00
 42  0.0000E+00  1.3141E-01  0.0000E+00  2.7476E-02  4.6122E-01  2.0630E-01  0.0000E+00  0.0000E+00  0.0000E+00
 43  0.0000E+00  1.1105E+00  1.3130E+00  1.4792E+00  1.1238E+00  0.0000E+00  1.4357E+00  0.0000E+00  1.0064E+00
 44  0.0000E+00  6.5695E+00  6.8983E+00  6.9340E+00  6.4193E+00  6.6530E+00  5.2579E+00  7.5372E+00  6.5454E+00
 45  0.0000E+00  8.1387E+00  7.2178E+00  7.1542E+00  7.2361E+00  9.0518E+00  8.1747E+00  8.8797E+00  8.5621E+00

# AV, chi2 & Mass for <> & i_chain = 1 ...  7 solutions
AV       1.0065      0.9496      0.9524      0.9642      0.9598      0.9577      0.9612      0.9602      0.9561
chi2 2.4116E+00  2.4661E+00  2.4566E+00  2.4452E+00  2.4504E+00  2.4505E+00  2.4510E+00  2.4473E+00  2.4522E+00
Mass 3.6514E-10  3.8050E-10  3.7929E-10  3.7770E-10  3.7372E-10  3.8363E-10  3.7965E-10  3.8336E-10  3.8472E-10
 -25.70                                  [v0_min (km/s) before EX0s...]
  98.89                                  [vd_min (km/s) before EX0s...]


## Synthetic spectrum (Best Model) ##l_obs f_obs f_syn wei
 3070    [Nl_obs]
 3359.00    0.23525   0.43132   -1.000
 3360.00    0.23311   0.41527   -1.000
 3361.00    0.24299   0.41469   -1.000
 3362.00    0.26273   0.42904   -1.000
 3363.00    0.27723   0.44943   -1.000
 3364.00    0.27363   0.46451   -1.000
 3365.00    0.27749   0.46666   -1.000
 3366.00    0.29185   0.45592   -1.000
 3367.00    0.28018   0.43943   -1.000
 3368.00    0.27482   0.42578   -1.000
 3369.00    0.28217   0.41865   -1.000
 3370.00    0.28400   0.41582   -1.000
 3371.00    0.26910   0.41439   -1.000
 3372.00    0.27859   0.41623   -1.000
 3373.00    0.28461   0.42671   -1.000
 3374.00    0.29194   0.44685   -1.000
 3375.00    0.29854   0.46776   -1.000
 3376.00    0.31690   0.47671   -1.000
 3377.00    0.32759   0.46945   -1.000
 3378.00    0.32754   0.45357   -1.000
 3379.00    0.32505   0.44111   -1.000
 3380.00    0.32589   0.43980   -1.000
 3381.00    0.31079   0.44906   -1.000
 3382.00    0.30912   0.46241   -1.000
 3383.00    0.33287   0.47367   -1.000
 3384.00    0.33904   0.48108   -1.000
 3385.00    0.33191   0.48543   -1.000
 3386.00    0.34068   0.48698   -1.000
 3387.00    0.35087   0.48657   -1.000
 3388.00    0.34972   0.48612   -1.000
 3389.00    0.35897   0.48618   -1.000
 3390.00    0.37041   0.48451   -1.000
 3391.00    0.36376   0.47908   -1.000
 3392.00    0.34548   0.47219   -1.000
 3393.00    0.36597   0.46964   -1.000
 3394.00    0.37004   0.47519   -1.000
 3395.00    0.37965   0.48716   -1.000
 3396.00    0.38879   0.50033   -1.000
 3397.00    0.41234   0.50963   -1.000
 3398.00    0.41889   0.51242   -1.000
 3399.00    0.42591   0.50912   -1.000
 3400.00    0.42157   0.50225   -1.000
 3401.00    0.41652   0.49427   -1.000
 3402.00    0.42650   0.48685   -1.000
 3403.00    0.42046   0.48110   -1.000
 3404.00    0.40669   0.47662   -1.000
 3405.00    0.39679   0.47188   -1.000
 3406.00    0.39717   0.46672   -1.000
 3407.00    0.39672   0.46337   -1.000
 3408.00    0.39853   0.46428   -1.000
 3409.00    0.39517   0.46937   -1.000
 3410.00    0.40643   0.47545   -1.000
 3411.00    0.40711   0.47869   -1.000
 3412.00    0.41512   0.47787   -1.000
 3413.00    0.41532   0.47496   -1.000
 3414.00    0.40566   0.47325   -1.000
 3415.00    0.41297   0.47529   -1.000
 3416.00    0.41309   0.48206   -1.000
 3417.00    0.41824   0.49285   -1.000
 3418.00    0.43357   0.50533   -1.000
 3419.00    0.44076   0.51548   -1.000
 3420.00    0.45244   0.51936   -1.000
 3421.00    0.45384   0.51640   -1.000
 3422.00    0.44535   0.50984   -1.000
 3423.00    0.44063   0.50391   -1.000
 3424.00    0.44280   0.50101   -1.000
 3425.00    0.44647   0.50154   -1.000
 3426.00    0.44600   0.50591   -1.000
 3427.00    0.45519   0.51431   -1.000
 3428.00    0.45902   0.52376   -1.000
 3429.00    0.46143   0.52879   -1.000
 3430.00    0.47773   0.52640   -1.000
 3431.00    0.46909   0.51864   -1.000
 3432.00    0.46916   0.51075   -1.000
 3433.00    0.47257   0.50713   -1.000
 3434.00    0.45898   0.50830   -1.000
 3435.00    0.46657   0.51077   -1.000
 3436.00    0.47414   0.50961   -1.000
 3437.00    0.47170   0.50152   -1.000
 3438.00    0.46846   0.48587  222.590
 3439.00    0.44283   0.46477  239.705
 3440.00    0.43616   0.44384  248.465
 3441.00    0.42362   0.43080  248.646
 3442.00    0.43568   0.42976   -1.000
 3443.00    0.43903   0.43754   -1.000
 3444.00    0.43955   0.44824  223.518
 3445.00    0.44310   0.45996  211.549
 3446.00    0.46262   0.47433  221.923
 3447.00    0.47685   0.49110   -1.000
 3448.00    0.49006   0.50524   -1.000
 3449.00    0.47398   0.51031   -1.000
 3450.00    0.47772   0.50458   -1.000
 3451.00    0.48972   0.49246  665.053
 3452.00    0.48560   0.48137   -1.000
 3453.00    0.49030   0.47733   -1.000
 3454.00    0.48763   0.48068   -1.000
 3455.00    0.49581   0.48577   -1.000
 3456.00    0.49853   0.48630   -1.000
 3457.00    0.49632   0.48101   -1.000
 3458.00    0.48627   0.47304   -1.000
 3459.00    0.47649   0.46571   -1.000
 3460.00    0.46974   0.46160   -1.000
 3461.00    0.47726   0.46334   -1.000
 3462.00    0.48969   0.47120   -1.000
 3463.00    0.49067   0.48120   -1.000
 3464.00    0.49275   0.48870   -1.000
 3465.00    0.50005   0.49269   -1.000
 3466.00    0.49196   0.49545  665.053
 3467.00    0.49952   0.49906   -1.000
 3468.00    0.50296   0.50348   -1.000
 3469.00    0.51564   0.50732   -1.000
 3470.00    0.52073   0.50870   -1.000
 3471.00    0.51841   0.50548   -1.000
 3472.00    0.50993   0.49634   -1.000
 3473.00    0.48666   0.48221   -1.000
 3474.00    0.47216   0.46754  202.107
 3475.00    0.47196   0.45887   -1.000
 3476.00    0.47308   0.46013   -1.000
 3477.00    0.47499   0.46945   -1.000
 3478.00    0.48315   0.48131   -1.000
 3479.00    0.49453   0.49078   -1.000
 3480.00    0.50212   0.49543   -1.000
 3481.00    0.52009   0.49510   -1.000
 3482.00    0.53181   0.49137   -1.000
 3483.00    0.51067   0.48781   -1.000
 3484.00    0.50497   0.48924   -1.000
 3485.00    0.51524   0.49752   -1.000
 3486.00    0.51971   0.50781   -1.000
 3487.00    0.52131   0.51164   -1.000
 3488.00    0.51952   0.50481   -1.000
 3489.00    0.50738   0.49152   -1.000
 3490.00    0.50401   0.48024   -1.000
 3491.00    0.48932   0.47559   -1.000
 3492.00    0.48236   0.47536   -1.000
 3493.00    0.49081   0.47458   -1.000
 3494.00    0.48823   0.47136   -1.000
 3495.00    0.48986   0.46863   -1.000
 3496.00    0.49340   0.47136   -1.000
 3497.00    0.49153   0.48125   -1.000
 3498.00    0.48498   0.49350  665.053
 3499.00    0.51040   0.50178   -1.000
 3500.00    0.51721   0.50528   -1.000
 3501.00    0.52531   0.50741   -1.000
 3502.00    0.52047   0.51001   -1.000
 3503.00    0.52222   0.51100   -1.000
 3504.00    0.52414   0.50768   -1.000
 3505.00    0.51517   0.50094   -1.000
 3506.00    0.50700   0.49485   -1.000
 3507.00    0.50097   0.49217   -1.000
 3508.00    0.51145   0.49196   -1.000
 3509.00    0.51953   0.49102   -1.000
 3510.00    0.52385   0.48703   -1.000
 3511.00    0.51267   0.48019   -1.000
 3512.00    0.50710   0.47301   -1.000
 3513.00    0.50110   0.47000   -1.000
 3514.00    0.49541   0.47529   -1.000
 3515.00    0.50829   0.48831   -1.000
 3516.00    0.52541   0.50381   -1.000
 3517.00    0.52788   0.51507   -1.000
 3518.00    0.52872   0.51729   -1.000
 3519.00    0.52108   0.51027   -1.000
 3520.00    0.51131   0.49807   -1.000
 3521.00    0.49521   0.48546   -1.000
 3522.00    0.49946   0.47440   -1.000
 3523.00    0.49345   0.46501   -1.000
 3524.00    0.48557   0.45843   -1.000
 3525.00    0.47347   0.45729   -1.000
 3526.00    0.47043   0.46403   -1.000
 3527.00    0.48602   0.47781   -1.000
 3528.00    0.49546   0.49318   -1.000
 3529.00    0.51582   0.50359  166.192
 3530.00    0.52997   0.50661   -1.000
 3531.00    0.52179   0.50551   -1.000
 3532.00    0.52437   0.50594   -1.000
 3533.00    0.52831   0.51057   -1.000
 3534.00    0.52435   0.51725  161.868
 3535.00    0.52715   0.52247  159.776
 3536.00    0.53138   0.52555  160.430
 3537.00    0.53062   0.52872  158.604
 3538.00    0.52604   0.53315  156.954
 3539.00    0.54208   0.53699  158.555
 3540.00    0.53978   0.53852  161.415
 3541.00    0.52920   0.53926  162.494
 3542.00    0.53100   0.54144  161.252
 3543.00    0.54829   0.54479  159.014
 3544.00    0.54290   0.54727  158.959
 3545.00    0.54454   0.54724  162.050
 3546.00    0.54791   0.54489  165.427
 3547.00    0.53764   0.54200  165.913
 3548.00    0.52871   0.54047  165.446
 3549.00    0.53527   0.54092  164.669
 3550.00    0.53035   0.54185  167.329
 3551.00    0.52679   0.54044  172.568
 3552.00    0.52780   0.53537  177.305
 3553.00    0.52521   0.52872  179.610
 3554.00    0.51964   0.52431  177.586
 3555.00    0.52645   0.52360  174.052
 3556.00    0.53068   0.52424  175.130
 3557.00    0.52134   0.52359  177.664
 3558.00    0.52926   0.52230  179.434
 3559.00    0.53252   0.52366  177.392
 3560.00    0.52580   0.52979  174.303
 3561.00    0.53975   0.53773  173.773
 3562.00    0.53819   0.53969  175.410
 3563.00    0.53473   0.52905   92.277
 3564.00    0.52256   0.50821   20.268
 3565.00    0.50630   0.48798   20.969
 3566.00    0.49151   0.47693   20.731
 3567.00    0.48535   0.47345   20.718
 3568.00    0.49538   0.46957   21.397
 3569.00    0.49117   0.46176   21.649
 3570.00    0.48711   0.45477   20.920
 3571.00    0.49339   0.45470   22.644
 3572.00    0.48935   0.46134   -1.000
 3573.00    0.49237   0.46916   -1.000
 3574.00    0.50069   0.47406   -1.000
 3575.00    0.50261   0.47617   -1.000
 3576.00    0.50911   0.47668   -1.000
 3577.00    0.51990   0.47453   -1.000
 3578.00    0.51066   0.46716   21.046
 3579.00    0.50019   0.45448   22.669
 3580.00    0.49603   0.44079   23.766
 3581.00    0.47974   0.43210   23.901
 3582.00    0.48288   0.43070   24.064
 3583.00    0.47259   0.43253   24.703
 3584.00    0.46500   0.43198   25.462
 3585.00    0.45947   0.42844   25.590
 3586.00    0.45987   0.42651   24.268
 3587.00    0.46127   0.43085   22.989
 3588.00    0.47057   0.44232   21.743
 3589.00    0.48335   0.45804   22.687
 3590.00    0.49169   0.47353   -1.000
 3591.00    0.50235   0.48498   -1.000
 3592.00    0.51132   0.49170   -1.000
 3593.00    0.52268   0.49672   -1.000
 3594.00    0.52270   0.50414   -1.000
 3595.00    0.52152   0.51497  160.335
 3596.00    0.52822   0.52652  155.751
 3597.00    0.53624   0.53555  151.881
 3598.00    0.54948   0.54019  149.989
 3599.00    0.55465   0.53955  152.567
 3600.00    0.54469   0.53323  160.186
 3601.00    0.53720   0.52204   -1.000
 3602.00    0.52719   0.50881   -1.000
 3603.00    0.50927   0.49768   -1.000
 3604.00    0.50855   0.49150   -1.000
 3605.00    0.51845   0.48953   -1.000
 3606.00    0.52459   0.48838   -1.000
 3607.00    0.51466   0.48568   -1.000
 3608.00    0.51451   0.48270   -1.000
 3609.00    0.50893   0.48288   -1.000
 3610.00    0.50171   0.48743   -1.000
 3611.00    0.50540   0.49389  175.530
 3612.00    0.50778   0.49980  171.528
 3613.00    0.50742   0.50526  167.970
 3614.00    0.51243   0.51033  162.699
 3615.00    0.51922   0.51146  164.966
 3616.00    0.53183   0.50385   -1.000
 3617.00    0.51797   0.48927   -1.000
 3618.00    0.50360   0.47742   22.709
 3619.00    0.49449   0.47710   -1.000
 3620.00    0.51030   0.48870   -1.000
 3621.00    0.52753   0.50566   -1.000
 3622.00    0.53542   0.52098  156.388
 3623.00    0.54957   0.53275   -1.000
 3624.00    0.54435   0.54399  148.021
 3625.00    0.54486   0.55704  142.374
 3626.00    0.56446   0.56912  141.006
 3627.00    0.57376   0.57317  144.518
 3628.00    0.55885   0.56321  154.654
 3629.00    0.54518   0.54084  172.601
 3630.00    0.52221   0.51614  185.178
 3631.00    0.50630   0.50054  185.998
 3632.00    0.50948   0.49841   -1.000
 3633.00    0.51277   0.50506  173.930
 3634.00    0.52525   0.51256   -1.000
 3635.00    0.52885   0.51746  162.908
 3636.00    0.53280   0.52275  155.240
 3637.00    0.54517   0.53197  148.521
 3638.00    0.54830   0.54371  144.276
 3639.00    0.54964   0.55226  144.733
 3640.00    0.55663   0.55263  148.631
 3641.00    0.55106   0.54473  154.128
 3642.00    0.54403   0.53269  162.024
 3643.00    0.53420   0.52139  166.410
 3644.00    0.52293   0.51341  169.183
 3645.00    0.51638   0.50809  171.842
 3646.00    0.51855   0.50378   -1.000
 3647.00    0.52033   0.50088   -1.000
 3648.00    0.51978   0.50173   -1.000
 3649.00    0.52206   0.50810  161.636
 3650.00    0.53052   0.51951  153.932
 3651.00    0.54345   0.53307  147.900
 3652.00    0.54480   0.54541  144.545
 3653.00    0.55515   0.55470  142.792
 3654.00    0.55997   0.56126  142.153
 3655.00    0.56780   0.56695  140.510
 3656.00    0.56398   0.57324  138.909
 3657.00    0.57521   0.57945  136.904
 3658.00    0.57403   0.58349  137.073
 3659.00    0.56677   0.58368  137.293
 3660.00    0.56581   0.57964  138.843
 3661.00    0.57084   0.57239  140.471
 3662.00    0.56727   0.56418  142.698
 3663.00    0.57412   0.55782  143.312
 3664.00    0.57015   0.55503  141.803
 3665.00    0.56865   0.55491  142.383
 3666.00    0.57454   0.55461  145.230
 3667.00    0.57714   0.55213   -1.000
 3668.00    0.57469   0.54895   -1.000
 3669.00    0.56439   0.54877  148.255
 3670.00    0.55509   0.55324  143.006
 3671.00    0.55715   0.56015  140.556
 3672.00    0.57186   0.56560  140.176
 3673.00    0.57610   0.56693  140.207
 3674.00    0.57952   0.56346  141.172
 3675.00    0.58012   0.55572   -1.000
 3676.00    0.56470   0.54560   -1.000
 3677.00    0.55413   0.53590   -1.000
 3678.00    0.55234   0.52914   -1.000
 3679.00    0.55309   0.52640   -1.000
 3680.00    0.56387   0.52715   -1.000
 3681.00    0.56908   0.53016   -1.000
 3682.00    0.56687   0.53341   -1.000
 3683.00    0.55912   0.53346   -1.000
 3684.00    0.55552   0.52752   -1.000
 3685.00    0.55049   0.51729   -1.000
 3686.00    0.54420   0.50940   -1.000
 3687.00    0.54150   0.51035   -1.000
 3688.00    0.55357   0.52118   -1.000
 3689.00    0.57629   0.53698   -1.000
 3690.00    0.57201   0.55105   -1.000
 3691.00    0.57970   0.55981  138.635
 3692.00    0.58287   0.56407  142.233
 3693.00    0.58629   0.56546   -1.000
 3694.00    0.59895   0.56397   -1.000
 3695.00    0.60359   0.56058   -1.000
 3696.00    0.58359   0.55989   -1.000
 3697.00    0.58618   0.56740  134.843
 3698.00    0.59655   0.58289  131.715
 3699.00    0.61440   0.59787  130.697
 3700.00    0.62760   0.60066   -1.000
 3701.00    0.62049   0.58445   -1.000
 3702.00    0.60337   0.55262   -1.000
 3703.00    0.57672   0.51765   -1.000
 3704.00    0.54937   0.49353   -1.000
 3705.00    0.54644   0.48642   -1.000
 3706.00    0.55884   0.49247   -1.000
 3707.00    0.58198   0.50400   -1.000
 3708.00    0.59051   0.51437   -1.000
 3709.00    0.58415   0.51998   -1.000
 3710.00    0.57212   0.52326   -1.000
 3711.00    0.56777   0.53159   -1.000
 3712.00    0.57941   0.55020   -1.000
 3713.00    0.60844   0.57659   -1.000
 3714.00    0.63248   0.60197   -1.000
 3715.00    0.65485   0.61754   -1.000
 3716.00    0.67914   0.61793   -1.000
 3717.00    0.67709   0.60013   -1.000
 3718.00    0.64836   0.56423   -1.000
 3719.00    0.59138   0.51812   -1.000
 3720.00    0.53488   0.47810   23.955
 3721.00    0.50232   0.46070   -1.000
 3722.00    0.50950   0.47286   -1.000
 3723.00    0.54610   0.50792   -1.000
 3724.00    0.60005   0.54978   -1.000
 3725.00    0.64011   0.58327   -1.000
 3726.00    0.65518   0.60323   -1.000
 3727.00    0.66170   0.61358   -1.000
 3728.00    0.66717   0.61775   -1.000
 3729.00    0.65857   0.61234   -1.000
 3730.00    0.65310   0.59049   -1.000
 3731.00    0.63079   0.55027   -1.000
 3732.00    0.58216   0.49937   20.286
 3733.00    0.52615   0.45265   22.460
 3734.00    0.48833   0.42521   22.922
 3735.00    0.48174   0.42576   21.561
 3736.00    0.51440   0.45402   23.589
 3737.00    0.56286   0.50193   -1.000
 3738.00    0.61790   0.55646   -1.000
 3739.00    0.65511   0.60404   -1.000
 3740.00    0.69641   0.63506   -1.000
 3741.00    0.70242   0.64572   -1.000
 3742.00    0.69469   0.63783   -1.000
 3743.00    0.68023   0.61698   -1.000
 3744.00    0.66936   0.58924   -1.000
 3745.00    0.63321   0.55764   -1.000
 3746.00    0.60523   0.52176   20.406
 3747.00    0.57846   0.48247   21.538
 3748.00    0.52999   0.44809   25.889
 3749.00    0.48408   0.43251   -1.000
 3750.00    0.49309   0.44558   -1.000
 3751.00    0.53778   0.48577   -1.000
 3752.00    0.60092   0.54130   -1.000
 3753.00    0.65302   0.59660   -1.000
 3754.00    0.70585   0.63830   -1.000
 3755.00    0.73109   0.65850   -1.000
 3756.00    0.72934   0.65727   -1.000
 3757.00    0.70954   0.64339   -1.000
 3758.00    0.68224   0.62975   -1.000
 3759.00    0.67681   0.62536   -1.000
 3760.00    0.68864   0.63048   -1.000
 3761.00    0.71748   0.63912   -1.000
 3762.00    0.72479   0.64469   -1.000
 3763.00    0.72419   0.64317   -1.000
 3764.00    0.72490   0.63316   -1.000
 3765.00    0.71234   0.61494   -1.000
 3766.00    0.68181   0.58961   -1.000
 3767.00    0.64822   0.55898   -1.000
 3768.00    0.61619   0.52688   -1.000
 3769.00    0.58790   0.50110   -1.000
 3770.00    0.57512   0.49232   -1.000
 3771.00    0.58399   0.50670   -1.000
 3772.00    0.61664   0.53929   -1.000
 3773.00    0.65274   0.57811   -1.000
 3774.00    0.68812   0.61402   -1.000
 3775.00    0.72381   0.64531   -1.000
 3776.00    0.74047   0.67436   -1.000
 3777.00    0.75847   0.70251   -1.000
 3778.00    0.77953   0.72888   -1.000
 3779.00    0.79829   0.75178   -1.000
 3780.00    0.81744   0.76998   -1.000
 3781.00    0.82774   0.78298   -1.000
 3782.00    0.83320   0.79000   -1.000
 3783.00    0.82755   0.78912   -1.000
 3784.00    0.81815   0.77852   -1.000
 3785.00    0.80634   0.75948   -1.000
 3786.00    0.78817   0.73697   -1.000
 3787.00    0.77357   0.71659   -1.000
 3788.00    0.76361   0.70116   -1.000
 3789.00    0.74666   0.68993   -1.000
 3790.00    0.75769   0.67909   -1.000
 3791.00    0.75178   0.66344   -1.000
 3792.00    0.73011   0.63902   -1.000
 3793.00    0.69736   0.60515   -1.000
 3794.00    0.65977   0.56438   -1.000
 3795.00    0.61907   0.52086   -1.000
 3796.00    0.58550   0.48113   -1.000
 3797.00    0.54617   0.45612   -1.000
 3798.00    0.53337   0.45735   -1.000
 3799.00    0.55109   0.48804   -1.000
 3800.00    0.60484   0.53966   -1.000
 3801.00    0.65877   0.59736   -1.000
 3802.00    0.71779   0.64826   -1.000
 3803.00    0.75217   0.68573   -1.000
 3804.00    0.76675   0.70899   -1.000
 3805.00    0.78341   0.72181   -1.000
 3806.00    0.78145   0.73143   -1.000
 3807.00    0.79582   0.74495   -1.000
 3808.00    0.80772   0.76499   -1.000
 3809.00    0.81878   0.78820   -1.000
 3810.00    0.82941   0.80612   -1.000
 3811.00    0.82816   0.80893  151.867
 3812.00    0.82255   0.79330   -1.000
 3813.00    0.80126   0.76671   -1.000
 3814.00    0.79236   0.74305   -1.000
 3815.00    0.79013   0.73264   -1.000
 3816.00    0.79472   0.73422   -1.000
 3817.00    0.79939   0.73713   -1.000
 3818.00    0.80290   0.73190   -1.000
 3819.00    0.79026   0.71917   -1.000
 3820.00    0.75943   0.70752   -1.000
 3821.00    0.75707   0.70183   -1.000
 3822.00    0.78340   0.69699   -1.000
 3823.00    0.77439   0.68458   -1.000
 3824.00    0.74995   0.66306   20.954
 3825.00    0.72484   0.63880   21.266
 3826.00    0.71397   0.61842   21.037
 3827.00    0.70736   0.60291   20.692
 3828.00    0.69564   0.58838   20.476
 3829.00    0.68677   0.56981   20.884
 3830.00    0.66874   0.54372   22.001
 3831.00    0.63741   0.50945   -1.000
 3832.00    0.58664   0.47015   -1.000
 3833.00    0.53576   0.43326   23.400
 3834.00    0.51051   0.40795   22.535
 3835.00    0.51445   0.40044   22.255
 3836.00    0.52621   0.41088   22.765
 3837.00    0.54272   0.43495   23.111
 3838.00    0.57549   0.46856   22.475
 3839.00    0.61326   0.50974   26.364
 3840.00    0.65090   0.55664   -1.000
 3841.00    0.69882   0.60572   -1.000
 3842.00    0.73768   0.65198   -1.000
 3843.00    0.76855   0.69085   -1.000
 3844.00    0.79027   0.72123   -1.000
 3845.00    0.80703   0.74545   -1.000
 3846.00    0.82436   0.76510   -1.000
 3847.00    0.82563   0.77883   -1.000
 3848.00    0.81395   0.78574   -1.000
 3849.00    0.81392   0.78913   -1.000
 3850.00    0.81583   0.79439   -1.000
 3851.00    0.81817   0.80322  166.718
 3852.00    0.83276   0.81147   -1.000
 3853.00    0.83547   0.81365   -1.000
 3854.00    0.82653   0.80849   -1.000
 3855.00    0.82397   0.79891   -1.000
 3856.00    0.81628   0.78813   66.118
 3857.00    0.80972   0.77787   20.016
 3858.00    0.80038   0.77046   20.909
 3859.00    0.79000   0.76975   25.392
 3860.00    0.78698   0.77805  179.276
 3861.00    0.80802   0.79276  163.290
 3862.00    0.84019   0.80729   -1.000
 3863.00    0.86044   0.81617   -1.000
 3864.00    0.86004   0.81906   -1.000
 3865.00    0.85925   0.81922   -1.000
 3866.00    0.85806   0.81925   -1.000
 3867.00    0.84572   0.81847   -1.000
 3868.00    0.84567   0.81343   -1.000
 3869.00    0.83812   0.80114   66.950
 3870.00    0.81869   0.78261   24.923
 3871.00    0.80611   0.76420   -1.000
 3872.00    0.79612   0.75443   -1.000
 3873.00    0.79495   0.75679   -1.000
 3874.00    0.81366   0.76492   -1.000
 3875.00    0.82747   0.76693   -1.000
 3876.00    0.81387   0.75630   -1.000
 3877.00    0.78745   0.73742   -1.000
 3878.00    0.75786   0.71977   -1.000
 3879.00    0.75023   0.70793   -1.000
 3880.00    0.76171   0.69870   -1.000
 3881.00    0.75058   0.68628   -1.000
 3882.00    0.73483   0.66744   -1.000
 3883.00    0.72197   0.64108   -1.000
 3884.00    0.71355   0.60586   -1.000
 3885.00    0.68918   0.56192   -1.000
 3886.00    0.64270   0.51536   -1.000
 3887.00    0.59799   0.47794   -1.000
 3888.00    0.57114   0.46177   -1.000
 3889.00    0.55991   0.47308   -1.000
 3890.00    0.59478   0.50785   -1.000
 3891.00    0.66202   0.55329   -1.000
 3892.00    0.70563   0.59590   -1.000
 3893.00    0.71850   0.62983   -1.000
 3894.00    0.73124   0.65759   -1.000
 3895.00    0.75500   0.68358   -1.000
 3896.00    0.78351   0.70810   -1.000
 3897.00    0.79935   0.72831   -1.000
 3898.00    0.80844   0.74329   -1.000
 3899.00    0.81195   0.75579   -1.000
 3900.00    0.81794   0.76847   -1.000
 3901.00    0.83275   0.78020   -1.000
 3902.00    0.84964   0.78747   -1.000
 3903.00    0.85264   0.78904   -1.000
 3904.00    0.83561   0.78864   -1.000
 3905.00    0.82990   0.79293   -1.000
 3906.00    0.83312   0.80658   -1.000
 3907.00    0.84799   0.82850  125.585
 3908.00    0.87304   0.85203  123.151
 3909.00    0.89101   0.87031  122.061
 3910.00    0.90381   0.88109  120.997
 3911.00    0.90218   0.88585  120.800
 3912.00    0.89667   0.88680  122.538
 3913.00    0.89143   0.88553  125.197
 3914.00    0.88755   0.88309  127.836
 3915.00    0.89380   0.87997  129.449
 3916.00    0.89252   0.87573  131.671
 3917.00    0.88173   0.86937  136.052
 3918.00    0.87517   0.86059  142.263
 3919.00    0.86442   0.85105  148.178
 3920.00    0.85521   0.84394  150.070
 3921.00    0.85540   0.84174  148.269
 3922.00    0.85723   0.84355  146.434
 3923.00    0.86573   0.84473   -1.000
 3924.00    0.87347   0.83939   -1.000
 3925.00    0.85041   0.82362   -1.000
 3926.00    0.82236   0.79711   67.871
 3927.00    0.79126   0.76231   22.890
 3928.00    0.74104   0.72167   26.830
 3929.00    0.67652   0.67510   31.467
 3930.00    0.60417   0.62143   37.159
 3931.00    0.50770   0.56441   42.811
 3932.00    0.41811   0.51668   -1.000
 3933.00    0.38292   0.49476   -1.000
 3934.00    0.41165   0.50808   36.112
 3935.00    0.48362   0.55214   29.782
 3936.00    0.56717   0.61233   24.612
 3937.00    0.64798   0.67307   27.509
 3938.00    0.71855   0.72477  187.791
 3939.00    0.77778   0.76419   -1.000
 3940.00    0.80049   0.79067  170.516
 3941.00    0.81329   0.80477  169.396
 3942.00    0.81911   0.80946  167.157
 3943.00    0.81834   0.81069  156.744
 3944.00    0.82742   0.81460  143.623
 3945.00    0.85479   0.82293   -1.000
 3946.00    0.87189   0.83255   -1.000
 3947.00    0.87286   0.84011   -1.000
 3948.00    0.86873   0.84487   -1.000
 3949.00    0.87427   0.84706   -1.000
 3950.00    0.87594   0.84653   -1.000
 3951.00    0.87438   0.84415   -1.000
 3952.00    0.87635   0.84191   -1.000
 3953.00    0.88826   0.83975   -1.000
 3954.00    0.88999   0.83471   -1.000
 3955.00    0.88326   0.82511   -1.000
 3956.00    0.86980   0.81334   -1.000
 3957.00    0.85105   0.80178   -1.000
 3958.00    0.84488   0.78757   -1.000
 3959.00    0.84143   0.76454   -1.000
 3960.00    0.81671   0.73045   -1.000
 3961.00    0.77374   0.69000   -1.000
 3962.00    0.73809   0.64891   -1.000
 3963.00    0.70154   0.60704   21.580
 3964.00    0.65465   0.55872   25.626
 3965.00    0.57319   0.49951   31.593
 3966.00    0.46893   0.43328   37.767
 3967.00    0.37536   0.37294   39.885
 3968.00    0.32358   0.33410   35.747
 3969.00    0.32681   0.32752   29.399
 3970.00    0.36669   0.35425   24.277
 3971.00    0.44083   0.40598   27.400
 3972.00    0.53141   0.47037   -1.000
 3973.00    0.61964   0.53648   -1.000
 3974.00    0.68558   0.59759   -1.000
 3975.00    0.73766   0.65146   -1.000
 3976.00    0.77801   0.69883   -1.000
 3977.00    0.80250   0.74105   -1.000
 3978.00    0.83331   0.77762   -1.000
 3979.00    0.85986   0.80600   -1.000
 3980.00    0.87387   0.82467   -1.000
 3981.00    0.88230   0.83594   -1.000
 3982.00    0.88269   0.84481   -1.000
 3983.00    0.88238   0.85505  111.829
 3984.00    0.89927   0.86718   -1.000
 3985.00    0.91745   0.88013   -1.000
 3986.00    0.92542   0.89333   -1.000
 3987.00    0.92990   0.90658  105.440
 3988.00    0.93165   0.91922  105.581
 3989.00    0.94506   0.93072  104.405
 3990.00    0.95241   0.94132  101.905
 3991.00    0.96216   0.95083  100.396
 3992.00    0.96887   0.95740  102.012
 3993.00    0.96887   0.95861  104.485
 3994.00    0.96266   0.95404  106.786
 3995.00    0.95400   0.94661  108.522
 3996.00    0.93298   0.94129  108.496
 3997.00    0.92800   0.94204  105.264
 3998.00    0.93406   0.94936  100.703
 3999.00    0.94458   0.96051   97.804
 4000.00    0.96788   0.97117   96.324
 4001.00    0.97783   0.97672   95.818
 4002.00    0.98642   0.97384   98.993
 4003.00    0.97969   0.96270  105.474
 4004.00    0.95842   0.94874  109.196
 4005.00    0.94649   0.94107  106.657
 4006.00    0.95037   0.94590  100.889
 4007.00    0.95989   0.96121   97.663
 4008.00    0.96785   0.97922   96.497
 4009.00    0.98651   0.99304   95.654
 4010.00    0.99194   1.00044   95.624
 4011.00    0.97423   1.00313   -1.000
 4012.00    0.98232   1.00403   96.472
 4013.00    1.00860   1.00509   95.539
 4014.00    0.99341   1.00668   94.754
 4015.00    1.00258   1.00852   95.725
 4016.00    1.00295   1.01071   96.471
 4017.00    1.00039   1.01380   95.679
 4018.00    1.00698   1.01782   94.635
 4019.00    1.00956   1.02165   95.222
 4020.00    0.99977   1.02363   -1.000
 4021.00    0.99522   1.02258   -1.000
 4022.00    0.99555   1.01866   -1.000
 4023.00    0.99042   1.01406   -1.000
 4024.00    0.98439   1.01254   -1.000
 4025.00    0.98851   1.01649   -1.000
 4026.00    1.00069   1.02348   -1.000
 4027.00    1.01088   1.02687   92.319
 4028.00    1.00445   1.02122   96.902
 4029.00    0.99031   1.00746  102.957
 4030.00    0.96892   0.99205   -1.000
 4031.00    0.95912   0.98199   -1.000
 4032.00    0.95762   0.98071   -1.000
 4033.00    0.95921   0.98769   -1.000
 4034.00    0.96933   1.00058   -1.000
 4035.00    0.98685   1.01709   -1.000
 4036.00    1.00559   1.03418   -1.000
 4037.00    1.02474   1.04702   89.402
 4038.00    1.02979   1.05168   91.433
 4039.00    1.01988   1.04884   -1.000
 4040.00    1.01306   1.04205   -1.000
 4041.00    1.01429   1.03213   95.691
 4042.00    1.01689   1.01581  101.709
 4043.00    0.99966   0.99188  111.296
 4044.00    0.96778   0.96800  116.037
 4045.00    0.94477   0.95711  108.987
 4046.00    0.94006   0.96618   -1.000
 4047.00    0.96572   0.99013   94.368
 4048.00    0.99765   1.01644   92.195
 4049.00    1.00966   1.03442   -1.000
 4050.00    1.00799   1.04044   -1.000
 4051.00    1.00591   1.03690   -1.000
 4052.00    1.00446   1.02853   -1.000
 4053.00    1.00067   1.01974   98.902
 4054.00    0.99710   1.01288   99.638
 4055.00    1.00000   1.00801  100.417
 4056.00    1.00024   1.00503  100.834
 4057.00    0.99995   1.00518   98.856
 4058.00    1.00122   1.00881   95.671
 4059.00    1.00592   1.01213   94.819
 4060.00    1.00871   1.00837   98.013
 4061.00    0.99929   0.99401  105.287
 4062.00    0.98074   0.97337  109.985
 4063.00    0.96298   0.95586  106.945
 4064.00    0.96349   0.94860  102.353
 4065.00    0.97839   0.95205   99.836
 4066.00    0.98512   0.96175   96.966
 4067.00    0.98775   0.97201   94.369
 4068.00    0.99801   0.97739   94.610
 4069.00    1.00693   0.97435   98.667
 4070.00    1.00156   0.96463  101.692
 4071.00    0.98131   0.95531   99.928
 4072.00    0.97143   0.95193   97.082
 4073.00    0.98076   0.95204   98.123
 4074.00    0.99154   0.94796   -1.000
 4075.00    0.97673   0.93604   -1.000
 4076.00    0.94646   0.92141  112.560
 4077.00    0.92876   0.91378  107.432
 4078.00    0.93242   0.91924   99.932
 4079.00    0.95391   0.93524   94.192
 4080.00    0.98198   0.95211   92.712
 4081.00    0.99750   0.96017   -1.000
 4082.00    0.98972   0.95671   97.650
 4083.00    0.97716   0.94723   98.218
 4084.00    0.97110   0.94048   96.115
 4085.00    0.96927   0.94164   92.675
 4086.00    0.97373   0.94889   89.268
 4087.00    0.98578   0.95557   87.376
 4088.00    0.99073   0.95551   88.270
 4089.00    0.98685   0.94728   90.091
 4090.00    0.97906   0.93372   -1.000
 4091.00    0.97434   0.91810   -1.000
 4092.00    0.96906   0.90076   -1.000
 4093.00    0.95501   0.87971   -1.000
 4094.00    0.93138   0.85348   -1.000
 4095.00    0.90547   0.82266   -1.000
 4096.00    0.88407   0.78824   -1.000
 4097.00    0.86265   0.74890   -1.000
 4098.00    0.82798   0.70202   -1.000
 4099.00    0.77795   0.64960   -1.000
 4100.00    0.71182   0.60302   -1.000
 4101.00    0.65755   0.57925   -1.000
 4102.00    0.65799   0.58962   -1.000
 4103.00    0.71236   0.63073   -1.000
 4104.00    0.77547   0.68662   -1.000
 4105.00    0.82859   0.74014   -1.000
 4106.00    0.86207   0.78207   -1.000
 4107.00    0.88241   0.81182   -1.000
 4108.00    0.89593   0.83329   -1.000
 4109.00    0.89952   0.85119   -1.000
 4110.00    0.90684   0.86881   -1.000
 4111.00    0.92749   0.88732   -1.000
 4112.00    0.94540   0.90655   -1.000
 4113.00    0.95880   0.92558   94.322
 4114.00    0.97467   0.94246   93.838
 4115.00    0.98755   0.95434   94.808
 4116.00    0.98776   0.95942   97.241
 4117.00    0.98277   0.95885   99.923
 4118.00    0.97636   0.95664  100.283
 4119.00    0.96832   0.95684   99.032
 4120.00    0.96938   0.96091   98.359
 4121.00    0.97351   0.96766   98.128
 4122.00    0.97724   0.97544   96.824
 4123.00    0.98243   0.98302   95.513
 4124.00    0.98968   0.98870   95.724
 4125.00    0.99901   0.99054   97.303
 4126.00    1.00505   0.98844   99.034
 4127.00    0.99712   0.98490   99.720
 4128.00    0.98412   0.98211  100.449
 4129.00    0.97802   0.97917  102.325
 4130.00    0.96895   0.97388  105.628
 4131.00    0.95857   0.96702  108.018
 4132.00    0.95394   0.96350  106.995
 4133.00    0.95839   0.96837  102.751
 4134.00    0.96926   0.98267   98.089
 4135.00    0.99017   1.00272   95.449
 4136.00    1.01026   1.02311   93.960
 4137.00    1.01939   1.03920   92.837
 4138.00    1.02535   1.04771   -1.000
 4139.00    1.02812   1.04619   96.108
 4140.00    1.02024   1.03396  102.210
 4141.00    1.00980   1.01408  110.002
 4142.00    0.98343   0.99421  112.545
 4143.00    0.95364   0.98357   -1.000
 4144.00    0.95647   0.98667   -1.000
 4145.00    0.98288   0.99954   98.694
 4146.00    1.00659   1.01306   98.648
 4147.00    1.00975   1.02088  100.891
 4148.00    0.99944   1.02321   -1.000
 4149.00    0.99499   1.02358   -1.000
 4150.00    0.99724   1.02363   -1.000
 4151.00    0.99463   1.02190   -1.000
 4152.00    0.99353   1.01714   -1.000
 4153.00    0.98980   1.01107   -1.000
 4154.00    0.98392   1.00747   -1.000
 4155.00    1.01837   1.00916  102.278
 4156.00    1.17716   1.01628   -1.000
 4157.00    1.17371   1.02664   -1.000
 4158.00    0.85493   1.03725   -1.000
 4159.00    0.81854   1.04585   -1.000
 4160.00    1.02290   1.05204   -1.000
 4161.00    1.04588   1.05688   95.072
 4162.00    1.01758   1.06117   -1.000
 4163.00    1.02562   1.06397   -1.000
 4164.00    1.02302   1.06318   -1.000
 4165.00    1.01820   1.05787   -1.000
 4166.00    1.01361   1.05006   -1.000
 4167.00    1.00900   1.04282   -1.000
 4168.00    1.00807   1.03621   -1.000
 4169.00    1.01258   1.02655  102.716
 4170.00    1.00187   1.01095  109.076
 4171.00    0.97558   0.99281  113.684
 4172.00    0.96077   0.98037   -1.000
 4173.00    0.95469   0.97939   -1.000
 4174.00    0.95963   0.98769   -1.000
 4175.00    0.97273   0.99817   -1.000
 4176.00    0.97815   1.00611   -1.000
 4177.00    0.97561   1.01210   -1.000
 4178.00    0.97824   1.01818   -1.000
 4179.00    0.98604   1.02383   -1.000
 4180.00    0.99166   1.02707   -1.000
 4181.00    0.99015   1.02808   -1.000
 4182.00    0.98458   1.02925   -1.000
 4183.00    0.98893   1.03142   -1.000
 4184.00    0.99516   1.03211   -1.000
 4185.00    0.99417   1.02864   -1.000
 4186.00    0.98792   1.02216   -1.000
 4187.00    0.97712   1.01706   -1.000
 4188.00    0.97642   1.01686   -1.000
 4189.00    0.99403   1.02170   -1.000
 4190.00    1.00021   1.02942   -1.000
 4191.00    0.99108   1.03741   -1.000
 4192.00    0.99719   1.04270   -1.000
 4193.00    1.01078   1.04212   -1.000
 4194.00    1.01169   1.03382   -1.000
 4195.00    0.99833   1.01909   -1.000
 4196.00    0.98261   1.00210   -1.000
 4197.00    0.97088   0.98748  109.142
 4198.00    0.96630   0.97818  107.708
 4199.00    0.96456   0.97482  106.444
 4200.00    0.96846   0.97650  106.065
 4201.00    0.97646   0.98208  105.025
 4202.00    0.97399   0.99108  103.644
 4203.00    0.97078   1.00310   -1.000
 4204.00    0.97293   1.01708   -1.000
 4205.00    0.97527   1.03108   -1.000
 4206.00    0.98408   1.04261   -1.000
 4207.00    0.99405   1.04973   -1.000
 4208.00    0.99974   1.05249   -1.000
 4209.00    1.00146   1.05335   -1.000
 4210.00    1.00184   1.05501   -1.000
 4211.00    1.00594   1.05699   -1.000
 4212.00    1.00938   1.05529   -1.000
 4213.00    1.00367   1.04694   -1.000
 4214.00    0.98427   1.03438   -1.000
 4215.00    0.96932   1.02476   -1.000
 4216.00    0.96857   1.02439   -1.000
 4217.00    0.98048   1.03333   -1.000
 4218.00    0.99596   1.04590   -1.000
 4219.00    1.01188   1.05522   -1.000
 4220.00    1.02185   1.05658   -1.000
 4221.00    1.01578   1.04722   -1.000
 4222.00    1.00025   1.02589   -1.000
 4223.00    0.98014   0.99403  115.043
 4224.00    0.95356   0.95786  128.710
 4225.00    0.91682   0.92881  132.306
 4226.00    0.88895   0.91954   -1.000
 4227.00    0.89658   0.93539   -1.000
 4228.00    0.93567   0.96880   -1.000
 4229.00    0.97881   1.00350   92.757
 4230.00    0.99947   1.02549   93.125
 4231.00    1.00093   1.03075   -1.000
 4232.00    0.98859   1.02450   -1.000
 4233.00    0.97576   1.01477   -1.000
 4234.00    0.97709   1.00696   -1.000
 4235.00    0.97736   1.00296   -1.000
 4236.00    0.96985   1.00320   -1.000
 4237.00    0.96660   1.00770   -1.000
 4238.00    0.97900   1.01558   -1.000
 4239.00    0.99166   1.02487   -1.000
 4240.00    0.99956   1.03356   -1.000
 4241.00    1.00149   1.04094   -1.000
 4242.00    1.00389   1.04693   -1.000
 4243.00    1.00976   1.05038   -1.000
 4244.00    1.00665   1.04862   -1.000
 4245.00    0.99564   1.03980   -1.000
 4246.00    0.98055   1.02607   -1.000
 4247.00    0.96893   1.01293   -1.000
 4248.00    0.96148   1.00565   -1.000
 4249.00    0.95926   1.00603   -1.000
 4250.00    0.96520   1.01191   -1.000
 4251.00    0.97475   1.01853   -1.000
 4252.00    0.98514   1.02141   -1.000
 4253.00    0.98291   1.02018   -1.000
 4254.00    0.97708   1.01877   -1.000
 4255.00    0.98015   1.02015   -1.000
 4256.00    0.98810   1.02170   -1.000
 4257.00    0.99613   1.01781   99.750
 4258.00    0.98704   1.00757  104.327
 4259.00    0.97222   0.99781   -1.000
 4260.00    0.96786   0.99774   -1.000
 4261.00    0.97278   1.01063   -1.000
 4262.00    0.99005   1.03119   -1.000
 4263.00    1.01028   1.05066   -1.000
 4264.00    1.01856   1.06266   -1.000
 4265.00    1.01640   1.06528   -1.000
 4266.00    1.00999   1.05910   -1.000
 4267.00    1.00182   1.04504   -1.000
 4268.00    0.99590   1.02415   -1.000
 4269.00    0.98019   0.99914  108.819
 4270.00    0.95483   0.97495  113.521
 4271.00    0.93008   0.95775   -1.000
 4272.00    0.92673   0.95190   -1.000
 4273.00    0.92972   0.95789   -1.000
 4274.00    0.93846   0.97344   -1.000
 4275.00    0.96119   0.99507   -1.000
 4276.00    0.98438   1.01712   -1.000
 4277.00    1.00075   1.03245   -1.000
 4278.00    1.00533   1.03684   -1.000
 4279.00    0.99457   1.03254   -1.000
 4280.00    0.97952   1.02588   -1.000
 4281.00    0.97104   1.02165   -1.000
 4282.00    0.97239   1.01953   -1.000
 4283.00    0.97912   1.01651   -1.000
 4284.00    0.97868   1.01037   -1.000
 4285.00    0.96922   1.00047   -1.000
 4286.00    0.96055   0.98673   -1.000
 4287.00    0.94852   0.96942  112.464
 4288.00    0.92746   0.95161  116.168
 4289.00    0.90675   0.93997   -1.000
 4290.00    0.90307   0.93978   -1.000
 4291.00    0.91653   0.94961   -1.000
 4292.00    0.93749   0.96188  101.536
 4293.00    0.94477   0.96873  102.849
 4294.00    0.95025   0.96679  104.820
 4295.00    0.95334   0.95624  108.303
 4296.00    0.93650   0.93806  115.322
 4297.00    0.91373   0.91377  125.040
 4298.00    0.89060   0.88767  131.446
 4299.00    0.86741   0.86619  130.706
 4300.00    0.85280   0.85467  127.347
 4301.00    0.85599   0.85433  125.480
 4302.00    0.85976   0.86211  123.717
 4303.00    0.86644   0.87231  122.992
 4304.00    0.88110   0.87852  124.978
 4305.00    0.88469   0.87641  130.365
 4306.00    0.87297   0.86694  136.124
 4307.00    0.85176   0.85666  137.048
 4308.00    0.83620   0.85370  132.286
 4309.00    0.83700   0.86137  124.388
 4310.00    0.85387   0.87666  116.916
 4311.00    0.87774   0.89503  111.535
 4312.00    0.89425   0.91569  106.311
 4313.00    0.90297   0.94120   -1.000
 4314.00    0.91936   0.97327   -1.000
 4315.00    0.94854   1.00825   -1.000
 4316.00    0.98881   1.03842   -1.000
 4317.00    1.01014   1.05655   -1.000
 4318.00    1.01707   1.05993   -1.000
 4319.00    1.01409   1.05014   -1.000
 4320.00    1.01007   1.02980   91.476
 4321.00    0.99766   1.00111   96.885
 4322.00    0.97411   0.96710  104.753
 4323.00    0.94636   0.93386  112.335
 4324.00    0.91749   0.91063  111.972
 4325.00    0.90469   0.90534  102.447
 4326.00    0.91729   0.91854   92.831
 4327.00    0.94596   0.94104   88.174
 4328.00    0.97037   0.96061   87.444
 4329.00    0.97123   0.97011   87.559
 4330.00    0.96587   0.97002   86.622
 4331.00    0.96597   0.96427   85.307
 4332.00    0.95768   0.95428   84.728
 4333.00    0.95244   0.93747   85.201
 4334.00    0.94431   0.90918   88.249
 4335.00    0.92141   0.86573   -1.000
 4336.00    0.88862   0.80772   -1.000
 4337.00    0.83334   0.74260   -1.000
 4338.00    0.76048   0.68386   -1.000
 4339.00    0.69987   0.64732   -1.000
 4340.00    0.67332   0.64398  108.093
 4341.00    0.69008   0.67358   98.941
 4342.00    0.75211   0.72437   94.170
 4343.00    0.82063   0.78101   -1.000
 4344.00    0.86751   0.83272   89.353
 4345.00    0.90484   0.87589   88.101
 4346.00    0.92685   0.91055   86.985
 4347.00    0.94243   0.93622   86.186
 4348.00    0.95685   0.95028   88.237
 4349.00    0.95934   0.95129   94.019
 4350.00    0.95012   0.94382   98.934
 4351.00    0.93496   0.93804   97.879
 4352.00    0.93205   0.94305   93.497
 4353.00    0.94914   0.96021   89.785
 4354.00    0.97449   0.98315   87.431
 4355.00    0.98953   1.00421   86.379
 4356.00    1.00270   1.01920   87.222
 4357.00    1.01060   1.02844   88.881
 4358.00    1.00742   1.03514   88.806
 4359.00    1.00398   1.04306   -1.000
 4360.00    1.00836   1.05379   -1.000
 4361.00    1.02070   1.06600   -1.000
 4362.00    1.02806   1.07760   -1.000
 4363.00    1.02460   1.08640   -1.000
 4364.00    1.03009   1.08979   -1.000
 4365.00    1.03676   1.08564   -1.000
 4366.00    1.02457   1.07479   -1.000
 4367.00    1.01154   1.06127   -1.000
 4368.00    1.00325   1.04950   -1.000
 4369.00    0.99986   1.04140   -1.000
 4370.00    1.00931   1.03535   88.281
 4371.00    1.01472   1.02788   90.287
 4372.00    1.01300   1.01729   94.080
 4373.00    1.00282   1.00616   96.332
 4374.00    0.97915   1.00056   94.564
 4375.00    0.96836   1.00548   -1.000
 4376.00    0.98496   1.01985   -1.000
 4377.00    1.01325   1.03685   86.189
 4378.00    1.02703   1.04760   87.198
 4379.00    1.02319   1.04500   89.822
 4380.00    1.02347   1.02579   96.393
 4381.00    1.01338   0.99305  107.523
 4382.00    0.97723   0.95736  115.264
 4383.00    0.94073   0.93420  110.926
 4384.00    0.92774   0.93346  100.180
 4385.00    0.94850   0.95202   93.280
 4386.00    0.97663   0.97723   91.733
 4387.00    0.99486   0.99742   92.292
 4388.00    1.00413   1.00897   93.046
 4389.00    1.00481   1.01502   92.439
 4390.00    1.00394   1.01987   90.437
 4391.00    1.00653   1.02465   89.471
 4392.00    1.01273   1.02746   90.758
 4393.00    1.01598   1.02770   91.870
 4394.00    1.00635   1.02882   89.782
 4395.00    1.00386   1.03450   -1.000
 4396.00    1.01225   1.04302   -1.000
 4397.00    1.02027   1.04838   -1.000
 4398.00    1.02013   1.04676   90.448
 4399.00    1.00753   1.04021   -1.000
 4400.00    0.99650   1.03359   -1.000
 4401.00    1.00570   1.02840   90.370
 4402.00    1.01685   1.02225   94.639
 4403.00    1.01014   1.01424   98.325
 4404.00    0.99609   1.00774   97.175
 4405.00    0.99001   1.00711   94.522
 4406.00    0.99574   1.01329   93.452
 4407.00    1.00576   1.02437   91.463
 4408.00    1.00563   1.03912   -1.000
 4409.00    1.00740   1.05651   -1.000
 4410.00    1.02462   1.07265   -1.000
 4411.00    1.04511   1.08133   -1.000
 4412.00    1.05504   1.07768   86.018
 4413.00    1.04543   1.06241   90.354
 4414.00    1.01970   1.04313   91.941
 4415.00    1.00248   1.03073   -1.000
 4416.00    0.99605   1.03249   -1.000
 4417.00    0.99541   1.04767   -1.000
 4418.00    1.00600   1.06891   -1.000
 4419.00    1.02674   1.08618   -1.000
 4420.00    1.03570   1.09354   -1.000
 4421.00    1.03348   1.09197   -1.000
 4422.00    1.02626   1.08665   -1.000
 4423.00    1.02140   1.08208   -1.000
 4424.00    1.01988   1.07956   -1.000
 4425.00    1.02131   1.07868   -1.000
 4426.00    1.01616   1.07959   -1.000
 4427.00    1.01126   1.08229   -1.000
 4428.00    1.01541   1.08590   -1.000
 4429.00    1.01937   1.08879   -1.000
 4430.00    1.01990   1.08917   -1.000
 4431.00    1.02590   1.08561   -1.000
 4432.00    1.02721   1.07754   -1.000
 4433.00    1.02033   1.06708   -1.000
 4434.00    1.00542   1.06018   -1.000
 4435.00    0.99202   1.06313   -1.000
 4436.00    1.00780   1.07696   -1.000
 4437.00    1.04111   1.09534   -1.000
 4438.00    1.05893   1.10852   -1.000
 4439.00    1.06578   1.10938   -1.000
 4440.00    1.05675   1.09779   -1.000
 4441.00    1.03298   1.08127   -1.000
 4442.00    1.00866   1.07011   -1.000
 4443.00    0.99848   1.07122   -1.000
 4444.00    1.00854   1.08355   -1.000
 4445.00    1.03155   1.09989   -1.000
 4446.00    1.04448   1.11268   -1.000
 4447.00    1.04727   1.11899   -1.000
 4448.00    1.04783   1.12004   -1.000
 4449.00    1.04598   1.11810   -1.000
 4450.00    1.04522   1.11412   -1.000
 4451.00    1.04657   1.10703   -1.000
 4452.00    1.04820   1.09480   -1.000
 4453.00    1.04400   1.07851   -1.000
 4454.00    1.02290   1.06315   -1.000
 4455.00    1.00769   1.05436   -1.000
 4456.00    1.01861   1.05434   -1.000
 4457.00    1.03386   1.06069   89.733
 4458.00    1.03672   1.06929   -1.000
 4459.00    1.03068   1.07685   -1.000
 4460.00    1.02491   1.08218   -1.000
 4461.00    1.02781   1.08579   -1.000
 4462.00    1.03334   1.08946   -1.000
 4463.00    1.04255   1.09398   -1.000
 4464.00    1.05410   1.09754   -1.000
 4465.00    1.05642   1.09767   -1.000
 4466.00    1.05087   1.09364   -1.000
 4467.00    1.03939   1.08778   -1.000
 4468.00    1.02872   1.08478   -1.000
 4469.00    1.02735   1.08835   -1.000
 4470.00    1.03781   1.09910   -1.000
 4471.00    1.05148   1.11462   -1.000
 4472.00    1.06448   1.13080   -1.000
 4473.00    1.08475   1.14361   -1.000
 4474.00    1.09340   1.15132   -1.000
 4475.00    1.09004   1.15414   -1.000
 4476.00    1.09082   1.15257   -1.000
 4477.00    1.09240   1.14531   -1.000
 4478.00    1.09274   1.13056   -1.000
 4479.00    1.08243   1.11029   -1.000
 4480.00    1.05933   1.09223   -1.000
 4481.00    1.03639   1.08549   -1.000
 4482.00    1.03837   1.09407   -1.000
 4483.00    1.06018   1.11393   -1.000
 4484.00    1.07757   1.13563   -1.000
 4485.00    1.08670   1.14982   -1.000
 4486.00    1.08912   1.15205   -1.000
 4487.00    1.08545   1.14433   -1.000
 4488.00    1.07567   1.13307   -1.000
 4489.00    1.06365   1.12541   -1.000
 4490.00    1.05831   1.12472   -1.000
 4491.00    1.06835   1.12909   -1.000
 4492.00    1.08120   1.13374   -1.000
 4493.00    1.08184   1.13517   -1.000
 4494.00    1.06705   1.13450   -1.000
 4495.00    1.05712   1.13489   -1.000
 4496.00    1.06007   1.13788   -1.000
 4497.00    1.07016   1.14204   -1.000
 4498.00    1.07966   1.14472   -1.000
 4499.00    1.08446   1.14486   -1.000
 4500.00    1.07648   1.14460   -1.000
 4501.00    1.06896   1.14815   -1.000
 4502.00    1.07730   1.15711   -1.000
 4503.00    1.09814   1.16926   -1.000
 4504.00    1.11340   1.17952   -1.000
 4505.00    1.11855   1.18418   -1.000
 4506.00    1.11350   1.18307   -1.000
 4507.00    1.10492   1.17936   -1.000
 4508.00    1.10182   1.17671   -1.000
 4509.00    1.10575   1.17609   -1.000
 4510.00    1.11035   1.17573   -1.000
 4511.00    1.11076   1.17291   -1.000
 4512.00    1.10343   1.16689   -1.000
 4513.00    1.09616   1.15912   -1.000
 4514.00    1.09236   1.15190   -1.000
 4515.00    1.09198   1.14713   -1.000
 4516.00    1.08842   1.14480   -1.000
 4517.00    1.08696   1.14379   -1.000
 4518.00    1.08408   1.14366   -1.000
 4519.00    1.08720   1.14391   -1.000
 4520.00    1.08927   1.14370   -1.000
 4521.00    1.07896   1.14183   -1.000
 4522.00    1.07404   1.13741   -1.000
 4523.00    1.07023   1.13061   -1.000
 4524.00    1.06969   1.12176   -1.000
 4525.00    1.07372   1.11088   -1.000
 4526.00    1.06624   1.09852   -1.000
 4527.00    1.05295   1.08659   -1.000
 4528.00    1.04557   1.07856   -1.000
 4529.00    1.04807   1.07617   85.835
 4530.00    1.05604   1.07779   84.790
 4531.00    1.05955   1.07914   85.678
 4532.00    1.05825   1.07731   88.429
 4533.00    1.04401   1.07419   -1.000
 4534.00    1.02514   1.07549   -1.000
 4535.00    1.02635   1.08636   -1.000
 4536.00    1.05625   1.10599   -1.000
 4537.00    1.08954   1.12851   -1.000
 4538.00    1.10679   1.14586   -1.000
 4539.00    1.11107   1.15396   -1.000
 4540.00    1.10428   1.15445   -1.000
 4541.00    1.09446   1.15174   -1.000
 4542.00    1.08793   1.14892   -1.000
 4543.00    1.11469   1.14581   58.348
 4544.00    0.91592   1.14099   -1.000
 4545.00    0.32577   1.13401   -1.000
 4546.00   -0.04125   1.12490    0.000
 4547.00    0.20183   1.11435   -1.000
 4548.00    0.59168   1.10457   -1.000
 4549.00    0.53927   1.09918   -1.000
 4550.00    0.68730   1.10040   -1.000
 4551.00    1.09340   1.10567   82.718
 4552.00    1.06806   1.10996   -1.000
 4553.00    1.06070   1.11106   -1.000
 4554.00    1.05377   1.11120   -1.000
 4555.00    1.06328   1.11507   -1.000
 4556.00    1.07808   1.12515   -1.000
 4557.00    1.09138   1.13942   -1.000
 4558.00    1.10456   1.15395   -1.000
 4559.00    1.11186   1.16501   -1.000
 4560.00    1.10724   1.17022   -1.000
 4561.00    1.10536   1.16885   -1.000
 4562.00    1.10233   1.16183   -1.000
 4563.00    1.09263   1.15257   -1.000
 4564.00    1.08761   1.14602   -1.000
 4565.00    1.09068   1.14559   -1.000
 4566.00    1.10149   1.15127   -1.000
 4567.00    1.11440   1.15861   -1.000
 4568.00    1.12158   1.16222   -1.000
 4569.00    1.11719   1.15930   -1.000
 4570.00    1.09889   1.15183   -1.000
 4571.00    1.07954   1.14516   -1.000
 4572.00    1.07465   1.14432   -1.000
 4573.00    1.09003   1.14986   -1.000
 4574.00    1.10445   1.15796   -1.000
 4575.00    1.10741   1.16428   -1.000
 4576.00    1.11209   1.16565   -1.000
 4577.00    1.11394   1.16118   -1.000
 4578.00    1.10923   1.15146   -1.000
 4579.00    1.09775   1.13874   -1.000
 4580.00    1.08781   1.12611   -1.000
 4581.00    1.08404   1.11680   -1.000
 4582.00    1.08020   1.11224   -1.000
 4583.00    1.08033   1.11230   -1.000
 4584.00    1.08264   1.11595   -1.000
 4585.00    1.08620   1.12256   -1.000
 4586.00    1.09536   1.13116   -1.000
 4587.00    1.10046   1.14003   -1.000
 4588.00    1.10032   1.14700   -1.000
 4589.00    1.10231   1.14994   -1.000
 4590.00    1.09843   1.14846   -1.000
 4591.00    1.08888   1.14445   -1.000
 4592.00    1.08626   1.14099   -1.000
 4593.00    1.09243   1.14060   -1.000
 4594.00    1.10078   1.14327   -1.000
 4595.00    1.10594   1.14760   -1.000
 4596.00    1.11277   1.15178   -1.000
 4597.00    1.11275   1.15439   -1.000
 4598.00    1.11018   1.15459   -1.000
 4599.00    1.11277   1.15270   -1.000
 4600.00    1.10876   1.14943   -1.000
 4601.00    1.09712   1.14642   -1.000
 4602.00    1.09306   1.14524   -1.000
 4603.00    1.09889   1.14631   -1.000
 4604.00    1.10737   1.14950   -1.000
 4605.00    1.11301   1.15468   -1.000
 4606.00    1.11461   1.16150   -1.000
 4607.00    1.12020   1.16914   -1.000
 4608.00    1.13067   1.17606   -1.000
 4609.00    1.13723   1.18022   -1.000
 4610.00    1.13357   1.18021   -1.000
 4611.00    1.12348   1.17728   -1.000
 4612.00    1.11636   1.17348   -1.000
 4613.00    1.11593   1.17087   -1.000
 4614.00    1.11845   1.16970   -1.000
 4615.00    1.12040   1.16865   -1.000
 4616.00    1.12456   1.16677   -1.000
 4617.00    1.12406   1.16426   -1.000
 4618.00    1.12069   1.16280   -1.000
 4619.00    1.12320   1.16402   -1.000
 4620.00    1.12916   1.16849   -1.000
 4621.00    1.13582   1.17484   -1.000
 4622.00    1.14035   1.18038   -1.000
 4623.00    1.14313   1.18322   -1.000
 4624.00    1.13475   1.18324   -1.000
 4625.00    1.12380   1.18109   -1.000
 4626.00    1.12056   1.17819   -1.000
 4627.00    1.11902   1.17556   -1.000
 4628.00    1.11897   1.17385   -1.000
 4629.00    1.11945   1.17364   -1.000
 4630.00    1.12027   1.17494   -1.000
 4631.00    1.12491   1.17652   -1.000
 4632.00    1.12764   1.17617   -1.000
 4633.00    1.12641   1.17334   -1.000
 4634.00    1.12775   1.16936   -1.000
 4635.00    1.12697   1.16582   -1.000
 4636.00    1.12384   1.16351   -1.000
 4637.00    1.12194   1.16289   -1.000
 4638.00    1.12055   1.16423   -1.000
 4639.00    1.12332   1.16794   -1.000
 4640.00    1.13232   1.17334   -1.000
 4641.00    1.13730   1.17876   -1.000
 4642.00    1.14026   1.18133   -1.000
 4643.00    1.14040   1.17869   -1.000
 4644.00    1.13980   1.17063   78.527
 4645.00    1.13621   1.15931   79.797
 4646.00    1.12140   1.14898   79.204
 4647.00    1.10815   1.14428   -1.000
 4648.00    1.11440   1.14696   76.064
 4649.00    1.12392   1.15495   75.495
 4650.00    1.12174   1.16363   -1.000
 4651.00    1.12301   1.16910   -1.000
 4652.00    1.12613   1.17011   -1.000
 4653.00    1.12510   1.16727   -1.000
 4654.00    1.11986   1.16345   -1.000
 4655.00    1.11508   1.16235   -1.000
 4656.00    1.11145   1.16697   -1.000
 4657.00    1.11776   1.17754   -1.000
 4658.00    1.13708   1.19111   -1.000
 4659.00    1.15042   1.20195   -1.000
 4660.00    1.15321   1.20622   -1.000
 4661.00    1.15171   1.20312   -1.000
 4662.00    1.14344   1.19450   -1.000
 4663.00    1.13741   1.18243   -1.000
 4664.00    1.13757   1.16824   78.285
 4665.00    1.13326   1.15233   81.681
 4666.00    1.11943   1.13699   83.423
 4667.00    1.10018   1.12664   82.055
 4668.00    1.09222   1.12531   -1.000
 4669.00    1.10299   1.13314   76.238
 4670.00    1.11788   1.14664   75.021
 4671.00    1.13017   1.16037   74.878
 4672.00    1.13765   1.17115   74.882
 4673.00    1.14077   1.17824   -1.000
 4674.00    1.14705   1.18261   73.268
 4675.00    1.15133   1.18448   72.898
 4676.00    1.14793   1.18238   73.926
 4677.00    1.14581   1.17594   75.504
 4678.00    1.14527   1.16667   76.870
 4679.00    1.13692   1.15789   77.869
 4680.00    1.12573   1.15249   77.729
 4681.00    1.12355   1.15135   76.193
 4682.00    1.12752   1.15389   74.707
 4683.00    1.13562   1.15855   74.382
 4684.00    1.14559   1.16347   74.561
 4685.00    1.15101   1.16724   74.783
 4686.00    1.15357   1.16937   75.010
 4687.00    1.15013   1.16995   75.001
 4688.00    1.14322   1.16958   75.281
 4689.00    1.14308   1.16896   75.646
 4690.00    1.14376   1.16851   75.249
 4691.00    1.13966   1.16894   74.204
 4692.00    1.14001   1.17077   72.807
 4693.00    1.14588   1.17348   71.520
 4694.00    1.15332   1.17579   71.274
 4695.00    1.15673   1.17636   72.530
 4696.00    1.15861   1.17406   74.737
 4697.00    1.15619   1.16842   76.296
 4698.00    1.14794   1.16040   76.367
 4699.00    1.14520   1.15089   76.310
 4700.00    1.14492   1.14133   77.323
 4701.00    1.13765   1.13295   78.227
 4702.00    1.12528   1.12787   77.621
 4703.00    1.11821   1.12785   76.257
 4704.00    1.12038   1.13189   76.261
 4705.00    1.12854   1.13633   77.639
 4706.00    1.13173   1.13819   78.801
 4707.00    1.12334   1.13783   78.929
 4708.00    1.11812   1.13845   77.479
 4709.00    1.12053   1.14251   75.217
 4710.00    1.12661   1.14948   73.842
 4711.00    1.13815   1.15693   73.891
 4712.00    1.15168   1.16189   75.003
 4713.00    1.14881   1.16367   75.715
 4714.00    1.13620   1.16434   74.884
 4715.00    1.13544   1.16677   73.374
 4716.00    1.14359   1.17229   72.462
 4717.00    1.15094   1.17941   72.143
 4718.00    1.15473   1.18595   71.897
 4719.00    1.15520   1.19017   72.095
 4720.00    1.15375   1.19220   -1.000
 4721.00    1.15252   1.19314   -1.000
 4722.00    1.15126   1.19395   -1.000
 4723.00    1.15162   1.19461   -1.000
 4724.00    1.15301   1.19376   -1.000
 4725.00    1.15114   1.18944   -1.000
 4726.00    1.14483   1.18067   -1.000
 4727.00    1.13633   1.16919   77.988
 4728.00    1.13024   1.15861   77.369
 4729.00    1.13333   1.15221   76.659
 4730.00    1.14164   1.15078   75.893
 4731.00    1.14604   1.15345   75.101
 4732.00    1.14664   1.15808   74.575
 4733.00    1.14474   1.16242   74.163
 4734.00    1.14604   1.16479   74.381
 4735.00    1.14876   1.16512   74.853
 4736.00    1.14613   1.16457   74.362
 4737.00    1.14459   1.16507   73.887
 4738.00    1.14778   1.16760   74.161
 4739.00    1.15070   1.17148   74.430
 4740.00    1.15478   1.17544   74.150
 4741.00    1.15898   1.17901   73.418
 4742.00    1.15830   1.18244   73.109
 4743.00    1.15735   1.18604   73.244
 4744.00    1.15835   1.18982   72.980
 4745.00    1.15500   1.19355   -1.000
 4746.00    1.15103   1.19737   -1.000
 4747.00    1.15917   1.20156   -1.000
 4748.00    1.16514   1.20519   -1.000
 4749.00    1.16111   1.20791   -1.000
 4750.00    1.16158   1.20899   -1.000
 4751.00    1.16175   1.20752   -1.000
 4752.00    1.15803   1.20338   -1.000
 4753.00    1.15063   1.19748   -1.000
 4754.00    1.14692   1.19235   -1.000
 4755.00    1.14518   1.19019   -1.000
 4756.00    1.14019   1.19180   -1.000
 4757.00    1.14059   1.19609   -1.000
 4758.00    1.13986   1.20070   -1.000
 4759.00    1.14213   1.20267   -1.000
 4760.00    1.14437   1.19961   -1.000
 4761.00    1.13839   1.19149   -1.000
 4762.00    1.13223   1.18049   -1.000
 4763.00    1.12833   1.17062   -1.000
 4764.00    1.12684   1.16442   -1.000
 4765.00    1.13002   1.16319   77.373
 4766.00    1.13829   1.16684   75.912
 4767.00    1.14655   1.17462   74.526
 4768.00    1.15063   1.18462   74.131
 4769.00    1.15488   1.19396   -1.000
 4770.00    1.15865   1.19994   -1.000
 4771.00    1.15819   1.20292   -1.000
 4772.00    1.15769   1.20507   -1.000
 4773.00    1.15832   1.20918   -1.000
 4774.00    1.15989   1.21532   -1.000
 4775.00    1.16242   1.22108   -1.000
 4776.00    1.16087   1.22414   -1.000
 4777.00    1.15885   1.22346   -1.000
 4778.00    1.15852   1.22045   -1.000
 4779.00    1.15476   1.21685   -1.000
 4780.00    1.15426   1.21360   -1.000
 4781.00    1.15469   1.21030   -1.000
 4782.00    1.14801   1.20627   -1.000
 4783.00    1.14628   1.20168   -1.000
 4784.00    1.15045   1.19708   -1.000
 4785.00    1.14703   1.19326   -1.000
 4786.00    1.14294   1.19085   -1.000
 4787.00    1.14625   1.19058   -1.000
 4788.00    1.14660   1.19274   -1.000
 4789.00    1.14371   1.19711   -1.000
 4790.00    1.15042   1.20355   -1.000
 4791.00    1.16237   1.21202   -1.000
 4792.00    1.16575   1.22210   -1.000
 4793.00    1.16669   1.23234   -1.000
 4794.00    1.17100   1.24057   -1.000
 4795.00    1.17432   1.24443   -1.000
 4796.00    1.17638   1.24306   -1.000
 4797.00    1.17177   1.23788   -1.000
 4798.00    1.15616   1.23175   -1.000
 4799.00    1.14792   1.22800   -1.000
 4800.00    1.15338   1.22800   -1.000
 4801.00    1.16333   1.23039   -1.000
 4802.00    1.17117   1.23217   -1.000
 4803.00    1.17149   1.23130   -1.000
 4804.00    1.16506   1.22766   -1.000
 4805.00    1.16136   1.22323   -1.000
 4806.00    1.16369   1.22009   -1.000
 4807.00    1.16363   1.21897   -1.000
 4808.00    1.16321   1.21971   -1.000
 4809.00    1.16171   1.22140   -1.000
 4810.00    1.16267   1.22310   -1.000
 4811.00    1.16578   1.22463   -1.000
 4812.00    1.17031   1.22670   -1.000
 4813.00    1.17638   1.23009   -1.000
 4814.00    1.17953   1.23492   -1.000
 4815.00    1.18224   1.24033   -1.000
 4816.00    1.17965   1.24507   -1.000
 4817.00    1.17547   1.24818   -1.000
 4818.00    1.17462   1.24929   -1.000
 4819.00    1.17397   1.24815   -1.000
 4820.00    1.17307   1.24385   -1.000
 4821.00    1.17346   1.23557   -1.000
 4822.00    1.16508   1.22440   -1.000
 4823.00    1.15126   1.21355   -1.000
 4824.00    1.15200   1.20749   -1.000
 4825.00    1.15893   1.20779   -1.000
 4826.00    1.16155   1.21190   -1.000
 4827.00    1.16605   1.21602   -1.000
 4828.00    1.16972   1.21713   -1.000
 4829.00    1.16437   1.21535   -1.000
 4830.00    1.15648   1.21156   -1.000
 4831.00    1.15843   1.20722   -1.000
 4832.00    1.16384   1.20416   -1.000
 4833.00    1.16509   1.20319   72.449
 4834.00    1.16978   1.20410   72.413
 4835.00    1.17664   1.20529   72.668
 4836.00    1.17526   1.20468   73.380
 4837.00    1.16606   1.20121   74.576
 4838.00    1.15863   1.19492   75.206
 4839.00    1.15430   1.18736   75.103
 4840.00    1.14993   1.18036   74.818
 4841.00    1.15082   1.17557   74.334
 4842.00    1.15388   1.17328   73.669
 4843.00    1.15329   1.17317   72.690
 4844.00    1.15754   1.17431   71.963
 4845.00    1.16181   1.17515   72.625
 4846.00    1.15528   1.17343   73.937
 4847.00    1.14147   1.16802   74.411
 4848.00    1.12932   1.16061   73.794
 4849.00    1.12980   1.15332   73.213
 4850.00    1.13430   1.14669   73.392
 4851.00    1.13158   1.13825   73.941
 4852.00    1.12627   1.12472   75.452
 4853.00    1.11630   1.10456   77.692
 4854.00    1.09647   1.07889   78.567
 4855.00    1.07631   1.05068   77.982
 4856.00    1.05918   1.02044   78.792
 4857.00    1.04583   0.98506   -1.000
 4858.00    1.01155   0.93957   -1.000
 4859.00    0.93752   0.88494   -1.000
 4860.00    0.84586   0.83397   98.190
 4861.00    0.79459   0.80376   90.370
 4862.00    0.82776   0.80769   83.818
 4863.00    0.91306   0.84249   -1.000
 4864.00    0.98514   0.89549   -1.000
 4865.00    1.02689   0.95047   -1.000
 4866.00    1.05170   0.99754   -1.000
 4867.00    1.06905   1.03243   76.556
 4868.00    1.08286   1.05438   78.079
 4869.00    1.08946   1.06480   80.164
 4870.00    1.08618   1.06745   80.633
 4871.00    1.07491   1.06851   78.966
 4872.00    1.07489   1.07496   77.176
 4873.00    1.09119   1.08843   76.273
 4874.00    1.10909   1.10601   75.795
 4875.00    1.11834   1.12225   75.475
 4876.00    1.11867   1.13503   74.745
 4877.00    1.11949   1.14586   73.800
 4878.00    1.12580   1.15683   73.829
 4879.00    1.13406   1.16762   74.836
 4880.00    1.13835   1.17596   75.646
 4881.00    1.13821   1.17980   -1.000
 4882.00    1.13696   1.17961   -1.000
 4883.00    1.13776   1.17680   -1.000
 4884.00    1.13931   1.17284   77.406
 4885.00    1.13928   1.16862   77.334
 4886.00    1.14185   1.16443   77.077
 4887.00    1.14421   1.16013   77.679
 4888.00    1.14154   1.15511   79.184
 4889.00    1.13113   1.14980   79.667
 4890.00    1.11535   1.14766   77.555
 4891.00    1.11253   1.15358   -1.000
 4892.00    1.13318   1.17018   71.357
 4893.00    1.16344   1.19502   69.710
 4894.00    1.18302   1.22018   68.965
 4895.00    1.19081   1.23939   -1.000
 4896.00    1.19278   1.24938   -1.000
 4897.00    1.18973   1.25155   -1.000
 4898.00    1.18254   1.24846   -1.000
 4899.00    1.17630   1.24327   -1.000
 4900.00    1.17325   1.23791   -1.000
 4901.00    1.16788   1.23331   -1.000
 4902.00    1.16228   1.22985   -1.000
 4903.00    1.16856   1.22842   -1.000
 4904.00    1.17499   1.23037   -1.000
 4905.00    1.17817   1.23516   -1.000
 4906.00    1.18639   1.23877   -1.000
 4907.00    1.19033   1.23732   -1.000
 4908.00    1.18238   1.22895   -1.000
 4909.00    1.17461   1.21727   -1.000
 4910.00    1.16610   1.20744   -1.000
 4911.00    1.16503   1.20451   73.196
 4912.00    1.17547   1.20933   72.227
 4913.00    1.18095   1.21925   71.459
 4914.00    1.18316   1.22877   -1.000
 4915.00    1.18791   1.23191   -1.000
 4916.00    1.19085   1.22378   76.377
 4917.00    1.17762   1.20378   80.307
 4918.00    1.15097   1.17652   82.486
 4919.00    1.12954   1.15084   81.284
 4920.00    1.11643   1.13529   78.397
 4921.00    1.12081   1.13301   76.508
 4922.00    1.13862   1.14166   76.007
 4923.00    1.14435   1.15545   75.436
 4924.00    1.14580   1.17113   73.868
 4925.00    1.15900   1.18800   72.269
 4926.00    1.17865   1.20591   71.339
 4927.00    1.19361   1.22343   70.782
 4928.00    1.19617   1.23752   70.333
 4929.00    1.19645   1.24554   -1.000
 4930.00    1.19816   1.24570   -1.000
 4931.00    1.19263   1.23819   -1.000
 4932.00    1.17872   1.22532   -1.000
 4933.00    1.16222   1.21207   -1.000
 4934.00    1.15638   1.20216   -1.000
 4935.00    1.16383   1.19635   75.482
 4936.00    1.17249   1.19194   77.676
 4937.00    1.16669   1.18700   78.193
 4938.00    1.15495   1.18415   76.305
 4939.00    1.14788   1.18740   73.755
 4940.00    1.15992   1.19891   71.973
 4941.00    1.18446   1.21559   71.046
 4942.00    1.19481   1.23163   70.810
 4943.00    1.19809   1.24276   -1.000
 4944.00    1.19917   1.24796   -1.000
 4945.00    1.19753   1.24966   -1.000
 4946.00    1.19776   1.25087   -1.000
 4947.00    1.19671   1.25370   -1.000
 4948.00    1.19662   1.25771   -1.000
 4949.00    1.20246   1.26106   -1.000
 4950.00    1.20608   1.26199   -1.000
 4951.00    1.20505   1.25995   -1.000
 4952.00    1.20377   1.25532   -1.000
 4953.00    1.20333   1.24739   -1.000
 4954.00    1.20103   1.23417   76.207
 4955.00    1.18780   1.21477   79.699
 4956.00    1.16126   1.19276   80.084
 4957.00    1.13477   1.17765   -1.000
 4958.00    1.13699   1.17696   73.212
 4959.00    1.16463   1.19168   71.854
 4960.00    1.18687   1.21339   71.844
 4961.00    1.19644   1.23208   72.332
 4962.00    1.20176   1.24184   73.076
 4963.00    1.20360   1.24233   74.348
 4964.00    1.19767   1.23670   75.587
 4965.00    1.18665   1.22867   -1.000
 4966.00    1.18014   1.22156   -1.000
 4967.00    1.18092   1.21727   75.437
 4968.00    1.18550   1.21634   74.727
 4969.00    1.19192   1.21863   73.922
 4970.00    1.19281   1.22356   73.074
 4971.00    1.19290   1.23048   72.306
 4972.00    1.19779   1.23806   71.853
 4973.00    1.20213   1.24481   72.030
 4974.00    1.20391   1.24885   -1.000
 4975.00    1.20452   1.24922   -1.000
 4976.00    1.20317   1.24553   -1.000
 4977.00    1.19814   1.23830   75.769
 4978.00    1.19415   1.22781   76.781
 4979.00    1.18841   1.21397   78.713
 4980.00    1.17603   1.19654   81.316
 4981.00    1.16090   1.17676   82.409
 4982.00    1.14620   1.15886   81.455
 4983.00    1.13970   1.14862   79.449
 4984.00    1.14568   1.15039   77.030
 4985.00    1.15905   1.16348   74.895
 4986.00    1.17477   1.18232   74.175
 4987.00    1.18633   1.19990   74.872
 4988.00    1.18765   1.21053   75.798
 4989.00    1.17804   1.21339   76.134
 4990.00    1.16996   1.21099   75.733
 4991.00    1.17270   1.20809   75.257
 4992.00    1.17730   1.20778   75.112
 4993.00    1.17923   1.21061   74.871
 4994.00    1.18252   1.21498   74.487
 4995.00    1.18961   1.21856   74.603
 4996.00    1.19997   1.21929   75.391
 4997.00    1.19988   1.21576   76.715
 4998.00    1.18486   1.20764   77.930
 4999.00    1.17218   1.19667   78.353
 5000.00    1.16460   1.18606   77.920
 5001.00    1.16841   1.17887   77.302
 5002.00    1.17747   1.17555   77.753
 5003.00    1.18198   1.17321   79.409
 5004.00    1.17986   1.16911   80.515
 5005.00    1.16660   1.16346   79.488
 5006.00    1.15638   1.16060   77.217
 5007.00    1.16094   1.16410   75.768
 5008.00    1.17327   1.17297   76.048
 5009.00    1.18724   1.18154   77.833
 5010.00    1.18886   1.18297   80.544
 5011.00    1.17178   1.17544   82.906
 5012.00    1.15389   1.16193   83.429
 5013.00    1.14255   1.14928   82.122
 5014.00    1.14011   1.14198   80.341
 5015.00    1.15105   1.14041   79.465
 5016.00    1.15833   1.14188   79.358
 5017.00    1.15498   1.14393   78.825
 5018.00    1.15771   1.14694   78.066
 5019.00    1.16666   1.15208   78.021
 5020.00    1.17666   1.15907   78.277
 5021.00    1.18435   1.16676   78.073
 5022.00    1.18251   1.17399   77.387
 5023.00    1.18041   1.18107   76.742
 5024.00    1.18549   1.18781   76.762
 5025.00    1.19164   1.19269   77.142
 5026.00    1.19035   1.19504   76.861
 5027.00    1.18903   1.19602   75.688
 5028.00    1.19264   1.19804   74.461
 5029.00    1.19301   1.20274   73.311
 5030.00    1.19806   1.20971   72.327
 5031.00    1.20692   1.21704   72.073
 5032.00    1.21064   1.22201   73.521
 5033.00    1.21125   1.22205   76.258
 5034.00    1.20075   1.21594   78.241
 5035.00    1.18439   1.20532   78.896
 5036.00    1.17267   1.19238   79.582
 5037.00    1.17535   1.17870   81.867
 5038.00    1.16999   1.16356   85.203
 5039.00    1.15081   1.14760   86.595
 5040.00    1.13207   1.13567   83.965
 5041.00    1.12666   1.13450   79.134
 5042.00    1.14369   1.14795   75.250
 5043.00    1.16613   1.17277   73.115
 5044.00    1.20044   1.20010   70.807
 5045.00    1.19749   1.22124   71.032
 5046.00    0.72617   1.23057   -1.000
 5047.00    0.22769   1.22800   -1.000
 5048.00    0.05890   1.21695   -1.000
 5049.00    0.56105   1.20359   -1.000
 5050.00    1.10102   1.19373   -1.000
 5051.00    1.19351   1.19141   74.788
 5052.00    1.18884   1.19697   73.220
 5053.00    1.20324   1.20795   72.285
 5054.00    1.21520   1.22007   71.885
 5055.00    1.22632   1.23079   71.884
 5056.00    1.22821   1.23905   72.022
 5057.00    1.22515   1.24558   72.056
 5058.00    1.22523   1.25073   71.738
 5059.00    1.22387   1.25442   71.568
 5060.00    1.22184   1.25581   72.186
 5061.00    1.22465   1.25357   73.870
 5062.00    1.22744   1.24637   76.344
 5063.00    1.21842   1.23449   77.946
 5064.00    1.19785   1.22114   77.668
 5065.00    1.18562   1.21002   76.550
 5066.00    1.19273   1.20406   75.954
 5067.00    1.20332   1.20257   75.652
 5068.00    1.20487   1.20359   75.203
 5069.00    1.20796   1.20493   75.390
 5070.00    1.21458   1.20527   76.011
 5071.00    1.21293   1.20428   75.650
 5072.00    1.20861   1.20275   74.906
 5073.00    1.21000   1.20220   74.628
 5074.00    1.20670   1.20322   74.561
 5075.00    1.20615   1.20447   74.991
 5076.00    1.21017   1.20287   76.903
 5077.00    1.20581   1.19618   80.235
 5078.00    1.18458   1.18470   82.283
 5079.00    1.16362   1.17249   81.493
 5080.00    1.16467   1.16458   79.719
 5081.00    1.17495   1.16386   78.412
 5082.00    1.18025   1.17009   77.096
 5083.00    1.18794   1.18048   75.716
 5084.00    1.20254   1.19275   74.896
 5085.00    1.21534   1.20492   74.645
 5086.00    1.22068   1.21575   74.376
 5087.00    1.21915   1.22463   73.893
 5088.00    1.21456   1.23143   73.435
 5089.00    1.21607   1.23669   73.048
 5090.00    1.21857   1.24075   72.374
 5091.00    1.22232   1.24402   71.646
 5092.00    1.22901   1.24631   71.823
 5093.00    1.23827   1.24626   73.034
 5094.00    1.24222   1.24182   74.611
 5095.00    1.23593   1.23157   76.350
 5096.00    1.22065   1.21694   78.050
 5097.00    1.20679   1.20178   78.806
 5098.00    1.19660   1.19141   77.635
 5099.00    1.19337   1.18903   75.469
 5100.00    1.20586   1.19485   74.244
 5101.00    1.21984   1.20512   74.308
 5102.00    1.22374   1.21464   75.109
 5103.00    1.22163   1.21947   76.085
 5104.00    1.21873   1.21805   77.028
 5105.00    1.21180   1.21173   77.987
 5106.00    1.20028   1.20298   78.268
 5107.00    1.18710   1.19498   77.884
 5108.00    1.17937   1.19045   77.340
 5109.00    1.18592   1.19107   76.425
 5110.00    1.19570   1.19685   75.419
 5111.00    1.20375   1.20636   74.501
 5112.00    1.21646   1.21715   73.744
 5113.00    1.22230   1.22738   73.256
 5114.00    1.22299   1.23593   72.622
 5115.00    1.22985   1.24288   71.949
 5116.00    1.23502   1.24804   71.872
 5117.00    1.24042   1.25099   72.566
 5118.00    1.24122   1.25086   73.623
 5119.00    1.23661   1.24683   74.805
 5120.00    1.23325   1.23889   76.486
 5121.00    1.22483   1.22767   78.689
 5122.00    1.21064   1.21488   79.901
 5123.00    1.19586   1.20247   79.605
 5124.00    1.18931   1.19271   79.081
 5125.00    1.19240   1.18671   78.644
 5126.00    1.19583   1.18454   78.549
 5127.00    1.19675   1.18485   78.555
 5128.00    1.19574   1.18675   77.859
 5129.00    1.19988   1.18972   76.621
 5130.00    1.20809   1.19380   75.752
 5131.00    1.21419   1.19867   75.078
 5132.00    1.21560   1.20363   74.395
 5133.00    1.22076   1.20794   74.042
 5134.00    1.22821   1.21071   74.844
 5135.00    1.22844   1.21087   76.532
 5136.00    1.22281   1.20740   77.993
 5137.00    1.21026   1.20071   78.487
 5138.00    1.19199   1.19247   78.042
 5139.00    1.18313   1.18548   78.158
 5140.00    1.18354   1.18119   79.217
 5141.00    1.18669   1.17987   79.378
 5142.00    1.18845   1.18087   78.307
 5143.00    1.19611   1.18343   77.655
 5144.00    1.20890   1.18647   78.056
 5145.00    1.21352   1.18863   78.455
 5146.00    1.21164   1.18918   77.876
 5147.00    1.20843   1.18892   77.237
 5148.00    1.20943   1.18882   77.722
 5149.00    1.21306   1.18873   79.014
 5150.00    1.20624   1.18780   79.865
 5151.00    1.19204   1.18565   79.761
 5152.00    1.18988   1.18376   78.598
 5153.00    1.19897   1.18451   76.743
 5154.00    1.21021   1.18971   74.782
 5155.00    1.22352   1.19964   73.212
 5156.00    1.23186   1.21224   72.397
 5157.00    1.23953   1.22470   72.222
 5158.00    1.24883   1.23388   72.387
 5159.00    1.25181   1.23822   72.749
 5160.00    1.24590   1.23702   73.437
 5161.00    1.24019   1.23035   74.479
 5162.00    1.23465   1.21754   76.749
 5163.00    1.23338   1.19696   -1.000
 5164.00    1.22098   1.16670   -1.000
 5165.00    1.18336   1.12809   -1.000
 5166.00    1.13192   1.08825   -1.000
 5167.00    1.09260   1.05686   -1.000
 5168.00    1.09133   1.04116   -1.000
 5169.00    1.11869   1.03756   -1.000
 5170.00    1.13902   1.03798   -1.000
 5171.00    1.12348   1.03802   -1.000
 5172.00    1.10100   1.04189   -1.000
 5173.00    1.11164   1.05977   -1.000
 5174.00    1.15364   1.09317   -1.000
 5175.00    1.20130   1.13485   -1.000
 5176.00    1.22808   1.17238   -1.000
 5177.00    1.24246   1.19610   -1.000
 5178.00    1.24825   1.20327   -1.000
 5179.00    1.24392   1.19308   -1.000
 5180.00    1.23578   1.16666   -1.000
 5181.00    1.20990   1.12846   -1.000
 5182.00    1.15620   1.08859   -1.000
 5183.00    1.11262   1.06254   -1.000
 5184.00    1.11053   1.06069   -1.000
 5185.00    1.15559   1.08330   -1.000
 5186.00    1.20465   1.11861   -1.000
 5187.00    1.21862   1.15168   -1.000
 5188.00    1.21754   1.17406   -1.000
 5189.00    1.21660   1.18354   -1.000
 5190.00    1.20989   1.18365   81.282
 5191.00    1.19298   1.17851   81.587
 5192.00    1.17736   1.17287   80.376
 5193.00    1.18128   1.17017   79.109
 5194.00    1.19126   1.17219   77.954
 5195.00    1.19733   1.17796   76.521
 5196.00    1.20921   1.18668   75.133
 5197.00    1.21776   1.19744   74.310
 5198.00    1.22279   1.20908   74.077
 5199.00    1.23180   1.21912   74.469
 5200.00    1.23548   1.22410   75.592
 5201.00    1.22990   1.22124   77.224
 5202.00    1.22126   1.21006   79.452
 5203.00    1.20887   1.19245   81.936
 5204.00    1.19113   1.17248   82.946
 5205.00    1.17835   1.15450   83.297
 5206.00    1.17616   1.14218   -1.000
 5207.00    1.17992   1.13732   -1.000
 5208.00    1.18098   1.14086   -1.000
 5209.00    1.18832   1.15283   -1.000
 5210.00    1.20359   1.17171   74.651
 5211.00    1.23126   1.19384   -1.000
 5212.00    1.24734   1.21318   72.770
 5213.00    1.25105   1.22477   74.253
 5214.00    1.24108   1.22681   75.451
 5215.00    1.22518   1.22310   75.290
 5216.00    1.22008   1.21983   73.939
 5217.00    1.23053   1.22219   72.649
 5218.00    1.24605   1.23102   71.930
 5219.00    1.25561   1.24277   71.570
 5220.00    1.26235   1.25264   72.119
 5221.00    1.26298   1.25599   73.950
 5222.00    1.25912   1.25023   76.785
 5223.00    1.25157   1.23425   80.272
 5224.00    1.23529   1.21008   83.002
 5225.00    1.20166   1.18391   82.448
 5226.00    1.17142   1.16488   78.616
 5227.00    1.16637   1.15993   74.993
 5228.00    1.19269   1.16997   73.151
 5229.00    1.22763   1.18724   -1.000
 5230.00    1.24517   1.20262   -1.000
 5231.00    1.24568   1.20943   -1.000
 5232.00    1.23505   1.20873   75.408
 5233.00    1.22309   1.20622   74.117
 5234.00    1.22298   1.20823   72.334
 5235.00    1.23219   1.21733   71.242
 5236.00    1.24676   1.23132   70.971
 5237.00    1.26218   1.24577   71.124
 5238.00    1.26784   1.25665   71.110
 5239.00    1.26829   1.26296   70.770
 5240.00    1.26905   1.26547   70.712
 5241.00    1.26723   1.26619   70.656
 5242.00    1.26588   1.26650   70.527
 5243.00    1.26598   1.26651   71.478
 5244.00    1.26968   1.26469   73.513
 5245.00    1.26191   1.25948   75.427
 5246.00    1.24941   1.25071   76.078
 5247.00    1.24124   1.24039   76.201
 5248.00    1.23222   1.23143   76.587
 5249.00    1.22703   1.22566   76.488
 5250.00    1.22365   1.22372   75.612
 5251.00    1.22630   1.22471   74.760
 5252.00    1.23643   1.22749   74.554
 5253.00    1.24546   1.23108   74.196
 5254.00    1.24185   1.23595   72.798
 5255.00    1.24467   1.24298   70.879
 5256.00    1.25418   1.25191   69.867
 5257.00    1.26647   1.26015   70.171
 5258.00    1.27731   1.26307   71.745
 5259.00    1.27616   1.25712   74.498
 5260.00    1.26464   1.24095   77.959
 5261.00    1.23801   1.21670   80.978
 5262.00    1.21338   1.18875   82.965
 5263.00    1.19506   1.16248   -1.000
 5264.00    1.18600   1.14265   -1.000
 5265.00    1.18525   1.13132   -1.000
 5266.00    1.19086   1.12654   -1.000
 5267.00    1.20130   1.12450   -1.000
 5268.00    1.19031   1.12243   -1.000
 5269.00    1.16467   1.12190   -1.000
 5270.00    1.16158   1.12779   -1.000
 5271.00    1.19073   1.14126   -1.000
 5272.00    1.21869   1.15992   -1.000
 5273.00    1.22804   1.17820   -1.000
 5274.00    1.23025   1.19310   -1.000
 5275.00    1.23308   1.20650   71.731
 5276.00    1.24449   1.22033   70.052
 5277.00    1.26284   1.23465   69.999
 5278.00    1.27447   1.24543   71.357
 5279.00    1.27268   1.24850   73.206
 5280.00    1.26550   1.24325   74.716
 5281.00    1.25452   1.23304   75.359
 5282.00    1.24150   1.22434   74.348
 5283.00    1.23534   1.22254   72.245
 5284.00    1.24072   1.23011   69.971
 5285.00    1.26121   1.24498   68.965
 5286.00    1.28102   1.26264   69.114
 5287.00    1.28649   1.27798   69.229
 5288.00    1.28287   1.28878   68.925
 5289.00    1.28482   1.29496   68.697
 5290.00    1.28986   1.29759   68.952
 5291.00    1.28721   1.29741   69.547
 5292.00    1.28121   1.29419   70.402
 5293.00    1.27756   1.28712   72.043
 5294.00    1.27478   1.27577   74.607
 5295.00    1.26846   1.26035   76.880
 5296.00    1.25178   1.24367   77.091
 5297.00    1.23939   1.23030   75.485
 5298.00    1.23724   1.22382   73.908
 5299.00    1.24420   1.22539   73.197
 5300.00    1.25179   1.23285   72.434
 5301.00    1.25221   1.24310   70.757
 5302.00    1.25375   1.25461   69.266
 5303.00    1.26295   1.26580   68.797
 5304.00    1.27303   1.27532   69.256
 5305.00    1.27950   1.28173   69.897
 5306.00    1.27915   1.28461   69.731
 5307.00    1.27326   1.28600   69.051
 5308.00    1.27798   1.28806   68.526
 5309.00    1.28723   1.29147   68.461
 5310.00    1.29306   1.29511   68.771
 5311.00    1.29664   1.29637   69.100
 5312.00    1.29142   1.29367   69.544
 5313.00    1.28534   1.28678   70.188
 5314.00    1.28202   1.27717   70.836
 5315.00    1.26929   1.26768   71.022
 5316.00    1.25915   1.26159   70.630
 5317.00    1.26176   1.26087   70.257
 5318.00    1.26803   1.26479   70.370
 5319.00    1.27511   1.26947   70.814
 5320.00    1.27941   1.27080   71.562
 5321.00    1.27693   1.26607   72.714
 5322.00    1.26806   1.25574   73.562
 5323.00    1.25489   1.24190   73.710
 5324.00    1.24822   1.22607   75.160
 5325.00    1.24950   1.20898   -1.000
 5326.00    1.23684   1.19090   -1.000
 5327.00    1.20450   1.17570   80.875
 5328.00    1.18440   1.16911   76.353
 5329.00    1.20032   1.17530   73.313
 5330.00    1.23564   1.19350   -1.000
 5331.00    1.26391   1.21623   -1.000
 5332.00    1.26946   1.23687   70.690
 5333.00    1.27136   1.25144   70.245
 5334.00    1.27932   1.25986   70.508
 5335.00    1.28035   1.26333   70.981
 5336.00    1.27372   1.26206   71.674
 5337.00    1.27088   1.25620   73.223
 5338.00    1.27222   1.24691   74.686
 5339.00    1.25944   1.23726   74.559
 5340.00    1.24380   1.23118   72.859
 5341.00    1.24418   1.23152   71.353
 5342.00    1.26560   1.23780   71.030
 5343.00    1.27950   1.24567   -1.000
 5344.00    1.28014   1.25101   71.869
 5345.00    1.27450   1.25141   72.250
 5346.00    1.27626   1.24836   72.824
 5347.00    1.27138   1.24492   73.131
 5348.00    1.26377   1.24374   72.321
 5349.00    1.26080   1.24636   70.753
 5350.00    1.27062   1.25272   69.665
 5351.00    1.28000   1.26151   69.294
 5352.00    1.28646   1.27077   68.843
 5353.00    1.29444   1.27956   68.039
 5354.00    1.29171   1.28745   67.429
 5355.00    1.29288   1.29453   67.353
 5356.00    1.29854   1.30038   67.457
 5357.00    1.29836   1.30361   67.668
 5358.00    1.30085   1.30345   68.327
 5359.00    1.30504   1.29933   69.400
 5360.00    1.29494   1.29148   70.464
 5361.00    1.28061   1.28088   71.093
 5362.00    1.27780   1.26916   71.516
 5363.00    1.27528   1.25841   71.942
 5364.00    1.27180   1.25018   71.884
 5365.00    1.27108   1.24473   71.812
 5366.00    1.27042   1.24055   72.365
 5367.00    1.26761   1.23528   -1.000
 5368.00    1.26374   1.22722   -1.000
 5369.00    1.25503   1.21680   -1.000
 5370.00    1.23881   1.20822   -1.000
 5371.00    1.23352   1.20652   71.389
 5372.00    1.24197   1.21510   69.254
 5373.00    1.26706   1.23240   -1.000
 5374.00    1.28946   1.25267   -1.000
 5375.00    1.29786   1.27001   68.619
 5376.00    1.30154   1.28038   68.723
 5377.00    1.30358   1.28395   69.060
 5378.00    1.29870   1.28224   69.682
 5379.00    1.29583   1.27755   70.377
 5380.00    1.28870   1.27156   70.806
 5381.00    1.27512   1.26580   70.846
 5382.00    1.27059   1.26202   70.572
 5383.00    1.27830   1.26163   69.907
 5384.00    1.28563   1.26509   69.613
 5385.00    1.29227   1.27085   69.833
 5386.00    1.29535   1.27595   70.434
 5387.00    1.29400   1.27777   71.427
 5388.00    1.29088   1.27492   72.309
 5389.00    1.28928   1.26844   72.741
 5390.00    1.28805   1.26020   72.834
 5391.00    1.27965   1.25188   73.008
 5392.00    1.27256   1.24457   73.480
 5393.00    1.27131   1.23817   -1.000
 5394.00    1.26357   1.23159   -1.000
 5395.00    1.25708   1.22494   -1.000
 5396.00    1.24485   1.21922   74.400
 5397.00    1.24083   1.21714   72.195
 5398.00    1.25813   1.22077   -1.000
 5399.00    1.27433   1.22855   -1.000
 5400.00    1.28145   1.23663   -1.000
 5401.00    1.28635   1.23982   -1.000
 5402.00    1.28165   1.23514   -1.000
 5403.00    1.26309   1.22372   -1.000
 5404.00    1.24088   1.21056   -1.000
 5405.00    1.23111   1.20080   75.680
 5406.00    1.23789   1.19809   -1.000
 5407.00    1.25311   1.20146   -1.000
 5408.00    1.26077   1.20719   -1.000
 5409.00    1.25834   1.21369   -1.000
 5410.00    1.25524   1.22041   -1.000
 5411.00    1.25878   1.22858   70.677
 5412.00    1.27657   1.23789   -1.000
 5413.00    1.28709   1.24633   -1.000
 5414.00    1.28070   1.25341   70.207
 5415.00    1.27818   1.25938   69.730
 5416.00    1.28705   1.26500   69.856
 5417.00    1.28912   1.27027   70.478
 5418.00    1.28650   1.27346   70.971
 5419.00    1.28624   1.27382   70.835
 5420.00    1.28356   1.27140   70.535
 5421.00    1.28409   1.26679   71.242
 5422.00    1.28271   1.26166   72.002
 5423.00    1.27647   1.25760   71.537
 5424.00    1.27227   1.25628   70.390
 5425.00    1.27638   1.25826   70.292
 5426.00    1.28492   1.26012   71.889
 5427.00    1.27852   1.25893   74.170
 5428.00    1.26913   1.25311   74.803
 5429.00    1.25801   1.24448   73.724
 5430.00    1.24903   1.23772   73.379
 5431.00    1.25895   1.23382   74.225
 5432.00    1.26468   1.23240   -1.000
 5433.00    1.25661   1.23226   75.116
 5434.00    1.25077   1.23374   73.854
 5435.00    1.25245   1.23986   71.907
 5436.00    1.26901   1.25139   70.290
 5437.00    1.28905   1.26668   69.214
 5438.00    1.29873   1.28199   68.565
 5439.00    1.30746   1.29371   68.360
 5440.00    1.30992   1.30047   68.342
 5441.00    1.30696   1.30134   68.912
 5442.00    1.30222   1.29641   70.531
 5443.00    1.29791   1.28504   73.254
 5444.00    1.28280   1.26865   75.836
 5445.00    1.25882   1.25142   75.911
 5446.00    1.23819   1.23884   73.783
 5447.00    1.23735   1.23597   71.619
 5448.00    1.26083   1.24282   70.670
 5449.00    1.28643   1.25549   70.565
 5450.00    1.30049   1.26774   -1.000
 5451.00    1.30364   1.27371   -1.000
 5452.00    1.29672   1.27140   74.543
 5453.00    1.28131   1.26225   76.283
 5454.00    1.26044   1.25092   75.733
 5455.00    1.24479   1.24390   73.350
 5456.00    1.25168   1.24528   71.209
 5457.00    1.27883   1.25416   70.503
 5458.00    1.30088   1.26599   -1.000
 5459.00    1.30751   1.27392   -1.000
 5460.00    1.30457   1.27472   -1.000
 5461.00    1.29581   1.26934   73.963
 5462.00    1.28547   1.26233   73.296
 5463.00    1.28582   1.25808   72.401
 5464.00    1.29155   1.25878   -1.000
 5465.00    1.30269   1.26366   -1.000
 5466.00    1.30353   1.27013   -1.000
 5467.00    1.30380   1.27591   71.338
 5468.00    1.30978   1.27930   72.091
 5469.00    1.30919   1.28001   72.446
 5470.00    1.30363   1.27811   72.785
 5471.00    1.30221   1.27357   73.460
 5472.00    1.29699   1.26663   -1.000
 5473.00    1.29100   1.25741   -1.000
 5474.00    1.28042   1.24647   -1.000
 5475.00    1.26656   1.23625   -1.000
 5476.00    1.25220   1.22982   74.819
 5477.00    1.25541   1.22958   73.196
 5478.00    1.27501   1.23540   -1.000
 5479.00    1.28688   1.24358   -1.000
 5480.00    1.28739   1.25132   -1.000
 5481.00    1.28436   1.25729   73.244
 5482.00    1.28283   1.26232   71.760
 5483.00    1.28741   1.26809   70.970
 5484.00    1.29433   1.27344   71.424
 5485.00    1.29609   1.27680   72.419
 5486.00    1.29044   1.27713   72.966
 5487.00    1.28724   1.27547   73.044
 5488.00    1.29222   1.27410   72.620
 5489.00    1.29064   1.27433   72.083
 5490.00    1.28855   1.27634   71.768
 5491.00    1.29527   1.27880   71.853
 5492.00    1.29711   1.28063   71.914
 5493.00    1.29865   1.28142   71.907
 5494.00    1.30296   1.28065   72.333
 5495.00    1.29633   1.27850   72.859
 5496.00    1.28654   1.27549   72.633
 5497.00    1.28148   1.27223   71.868
 5498.00    1.28171   1.26957   72.175
 5499.00    1.29044   1.26709   73.265
 5500.00    1.28992   1.26408   73.598
 5501.00    1.28183   1.26093   73.100
 5502.00    1.28388   1.25763   72.851
 5503.00    1.28918   1.25477   -1.000
 5504.00    1.29215   1.25257   -1.000
 5505.00    1.28166   1.25027   -1.000
 5506.00    1.26941   1.24913   72.884
 5507.00    1.27293   1.24978   72.404
 5508.00    1.27920   1.25206   72.758
 5509.00    1.29623   1.25446   -1.000
 5510.00    1.30160   1.25438   -1.000
 5511.00    1.29575   1.25163   -1.000
 5512.00    1.28227   1.24788   -1.000
 5513.00    1.28095   1.24625   -1.000
 5514.00    1.29121   1.24874   -1.000
 5515.00    1.29622   1.25549   -1.000
 5516.00    1.30455   1.26510   -1.000
 5517.00    1.30974   1.27523   -1.000
 5518.00    1.31442   1.28404   -1.000
 5519.00    1.31633   1.29023   70.334
 5520.00    1.31133   1.29337   70.562
 5521.00    1.31294   1.29348   70.706
 5522.00    1.31239   1.29103   71.076
 5523.00    1.30815   1.28562   71.954
 5524.00    1.30355   1.27691   73.509
 5525.00    1.29312   1.26483   -1.000
 5526.00    1.27681   1.25154   76.095
 5527.00    1.26283   1.24105   74.775
 5528.00    1.26133   1.23733   72.811
 5529.00    1.27207   1.24203   71.691
 5530.00    1.28810   1.25186   -1.000
 5531.00    1.29880   1.26228   -1.000
 5532.00    1.29391   1.26879   72.695
 5533.00    1.29085   1.27040   72.543
 5534.00    1.29072   1.26951   71.992
 5535.00    1.28887   1.26917   71.738
 5536.00    1.29495   1.27108   71.457
 5537.00    1.30107   1.27492   70.820
 5538.00    1.30715   1.27986   70.228
 5539.00    1.31355   1.28444   70.163
 5540.00    1.31298   1.28733   70.784
 5541.00    1.31289   1.28809   71.519
 5542.00    1.31239   1.28679   71.794
 5543.00    1.30640   1.28438   71.647
 5544.00    1.30358   1.28271   71.472
 5545.00    1.30594   1.28285   71.070
 5546.00    1.30737   1.28512   70.400
 5547.00    1.30856   1.28907   69.787
 5548.00    1.31246   1.29349   69.558
 5549.00    1.31697   1.29737   69.850
 5550.00    1.31748   1.29979   70.432
 5551.00    1.32054   1.29989   71.216
 5552.00    1.31802   1.29799   71.642
 5553.00    1.31385   1.29522   71.600
 5554.00    1.31178   1.29299   71.384
 5555.00    1.30955   1.29210   71.243
 5556.00    1.30824   1.29254   71.151
 5557.00    1.31499   1.29369   71.073
 5558.00    1.32008   1.29436   71.188
 5559.00    1.31806   1.29381   71.526
 5560.00    1.31830   1.29173   72.203
 5561.00    1.31407   1.28825   72.753
 5562.00    1.31112   1.28413   73.003
 5563.00    1.30546   1.28009   73.156
 5564.00    1.30429   1.27680   73.242
 5565.00    1.30169   1.27429   73.123
 5566.00    1.30037   1.27214   -1.000
 5567.00    1.30024   1.27010   -1.000
 5568.00    1.29654   1.26794   -1.000
 5569.00    1.29043   1.26572   73.108
 5570.00    1.28532   1.26361   73.293
 5571.00    1.26471   1.26188   73.065
 5572.00    1.19280   1.26132   -1.000
 5573.00    0.93598   1.26255   -1.000
 5574.00    0.54711   1.26523   -1.000
 5575.00    0.40350   1.26920   -1.000
 5576.00    0.73499   1.27391   -1.000
 5577.00    1.26881   1.27840   72.685
 5578.00    1.47751   1.28225   -1.000
 5579.00    1.39370   1.28491   -1.000
 5580.00    1.32594   1.28574   -1.000
 5581.00    1.30867   1.28490   72.039
 5582.00    1.30624   1.28234   72.381
 5583.00    1.30970   1.27759   -1.000
 5584.00    1.30872   1.26928   -1.000
 5585.00    1.29422   1.25669   -1.000
 5586.00    1.27282   1.24215   -1.000
 5587.00    1.25453   1.22895   77.471
 5588.00    1.25214   1.22140   -1.000
 5589.00    1.26472   1.22163   -1.000
 5590.00    1.27897   1.22785   -1.000
 5591.00    1.29031   1.23655   -1.000
 5592.00    1.28986   1.24445   -1.000
 5593.00    1.28529   1.25045   -1.000
 5594.00    1.27972   1.25457   72.864
 5595.00    1.28891   1.25760   -1.000
 5596.00    1.30233   1.25892   -1.000
 5597.00    1.29612   1.25780   -1.000
 5598.00    1.28936   1.25461   -1.000
 5599.00    1.28456   1.24969   -1.000
 5600.00    1.28909   1.24493   -1.000
 5601.00    1.27756   1.24328   -1.000
 5602.00    1.26405   1.24622   73.270
 5603.00    1.27892   1.25497   71.533
 5604.00    1.30288   1.26903   -1.000
 5605.00    1.31531   1.28478   -1.000
 5606.00    1.31976   1.29896   70.423
 5607.00    1.32243   1.30910   70.567
 5608.00    1.32730   1.31481   70.526
 5609.00    1.32459   1.31719   70.320
 5610.00    1.31936   1.31660   70.575
 5611.00    1.32361   1.31217   71.892
 5612.00    1.32291   1.30281   74.287
 5613.00    1.31203   1.28900   76.157
 5614.00    1.28800   1.27331   75.844
 5615.00    1.27594   1.26170   74.132
 5616.00    1.28234   1.25776   72.989
 5617.00    1.30030   1.26154   -1.000
 5618.00    1.31104   1.27088   -1.000
 5619.00    1.31105   1.28039   -1.000
 5620.00    1.31727   1.28677   -1.000
 5621.00    1.32080   1.28887   -1.000
 5622.00    1.31521   1.28666   -1.000
 5623.00    1.30633   1.28213   74.888
 5624.00    1.29824   1.27819   73.707
 5625.00    1.29862   1.27720   72.603
 5626.00    1.30899   1.28083   71.739
 5627.00    1.31441   1.28794   71.174
 5628.00    1.31772   1.29620   70.937
 5629.00    1.32601   1.30317   70.667
 5630.00    1.32842   1.30700   70.693
 5631.00    1.32372   1.30752   71.196
 5632.00    1.32102   1.30528   71.723
 5633.00    1.32390   1.30118   72.181
 5634.00    1.32192   1.29646   72.703
 5635.00    1.31520   1.29206   73.204
 5636.00    1.30948   1.28832   73.271
 5637.00    1.30714   1.28566   73.194
 5638.00    1.30781   1.28385   73.403
 5639.00    1.30719   1.28248   73.475
 5640.00    1.30697   1.28174   73.216
 5641.00    1.30804   1.28170   72.875
 5642.00    1.31661   1.28243   -1.000
 5643.00    1.31907   1.28421   -1.000
 5644.00    1.31743   1.28674   -1.000
 5645.00    1.31672   1.28928   71.843
 5646.00    1.32186   1.29134   -1.000
 5647.00    1.32638   1.29267   -1.000
 5648.00    1.32466   1.29300   -1.000
 5649.00    1.32405   1.29281   -1.000
 5650.00    1.32193   1.29245   -1.000
 5651.00    1.32656   1.29178   -1.000
 5652.00    1.32650   1.29044   -1.000
 5653.00    1.32460   1.28729   -1.000
 5654.00    1.31955   1.28162   -1.000
 5655.00    1.31070   1.27324   -1.000
 5656.00    1.30211   1.26303   -1.000
 5657.00    1.28760   1.25371   -1.000
 5658.00    1.27519   1.24792   74.979
 5659.00    1.28038   1.24678   -1.000
 5660.00    1.29887   1.25027   -1.000
 5661.00    1.30211   1.25647   -1.000
 5662.00    1.29711   1.26336   -1.000
 5663.00    1.30368   1.27028   -1.000
 5664.00    1.31281   1.27614   -1.000
 5665.00    1.31539   1.28049   -1.000
 5666.00    1.30957   1.28314   73.384
 5667.00    1.30503   1.28405   73.220
 5668.00    1.30585   1.28477   72.771
 5669.00    1.30875   1.28667   72.150
 5670.00    1.31207   1.29006   71.431
 5671.00    1.31926   1.29441   70.738
 5672.00    1.32598   1.29867   70.683
 5673.00    1.32592   1.30186   70.909
 5674.00    1.32081   1.30362   70.735
 5675.00    1.32059   1.30429   70.603
 5676.00    1.32740   1.30400   70.919
 5677.00    1.32782   1.30286   71.223
 5678.00    1.32229   1.30043   71.630
 5679.00    1.32055   1.29601   72.430
 5680.00    1.31789   1.28947   -1.000
 5681.00    1.31486   1.28189   -1.000
 5682.00    1.31192   1.27491   -1.000
 5683.00    1.30554   1.27019   -1.000
 5684.00    1.30605   1.26817   -1.000
 5685.00    1.30777   1.26769   -1.000
 5686.00    1.30644   1.26795   -1.000
 5687.00    1.30811   1.26856   -1.000
 5688.00    1.30392   1.27023   -1.000
 5689.00    1.30702   1.27422   -1.000
 5690.00    1.31621   1.28027   -1.000
 5691.00    1.31758   1.28733   -1.000
 5692.00    1.32243   1.29373   -1.000
 5693.00    1.32617   1.29835   -1.000
 5694.00    1.32425   1.30072   71.111
 5695.00    1.32307   1.30103   71.772
 5696.00    1.32424   1.29950   72.605
 5697.00    1.31706   1.29606   73.264
 5698.00    1.31541   1.29139   74.039
 5699.00    1.31104   1.28609   74.422
 5700.00    1.30098   1.28144   73.939
 5701.00    1.29730   1.27847   73.170
 5702.00    1.29383   1.27730   72.937
 5703.00    1.29791   1.27693   73.379
 5704.00    1.30187   1.27536   -1.000
 5705.00    1.30468   1.27132   -1.000
 5706.00    1.30255   1.26438   -1.000
 5707.00    1.29750   1.25543   -1.000
 5708.00    1.27754   1.24712   -1.000
 5709.00    1.26618   1.24200   76.579
 5710.00    1.27175   1.24183   -1.000
 5711.00    1.28416   1.24768   -1.000
 5712.00    1.29787   1.25808   -1.000
 5713.00    1.31818   1.27030   -1.000
 5714.00    1.32645   1.28170   -1.000
 5715.00    1.31903   1.29067   -1.000
 5716.00    1.31431   1.29694   70.992
 5717.00    1.31899   1.30135   70.538
 5718.00    1.32111   1.30536   70.197
 5719.00    1.32157   1.30924   70.018
 5720.00    1.32374   1.31290   69.907
 5721.00    1.32634   1.31608   69.822
 5722.00    1.33260   1.31810   69.970
 5723.00    1.33600   1.31856   70.533
 5724.00    1.32917   1.31727   71.276
 5725.00    1.32311   1.31454   71.859
 5726.00    1.32176   1.31137   71.542
 5727.00    1.32039   1.30858   71.103
 5728.00    1.32496   1.30693   71.252
 5729.00    1.32719   1.30627   71.613
 5730.00    1.32530   1.30621   71.393
 5731.00    1.32707   1.30678   70.716
 5732.00    1.32793   1.30805   70.247
 5733.00    1.32804   1.31037   70.276
 5734.00    1.32504   1.31333   70.364
 5735.00    1.32727   1.31620   70.569
 5736.00    1.33090   1.31811   70.634
 5737.00    1.33128   1.31867   70.779
 5738.00    1.32826   1.31840   70.889
 5739.00    1.33012   1.31758   71.046
 5740.00    1.32354   1.31657   70.900
 5741.00    1.32656   1.31590   70.823
 5742.00    1.32618   1.31574   70.331
 5743.00    1.32733   1.31614   69.937
 5744.00    1.32714   1.31670   70.269
 5745.00    1.32848   1.31677   70.962
 5746.00    1.32369   1.31625   71.264
 5747.00    1.31630   1.31523   70.884
 5748.00    1.31915   1.31407   70.646
 5749.00    1.33021   1.31221   71.155
 5750.00    1.33105   1.30888   72.014
 5751.00    1.32485   1.30408   72.749
 5752.00    1.31738   1.29886   72.781
 5753.00    1.30551   1.29586   71.901
 5754.00    1.30731   1.29686   70.579
 5755.00    1.31996   1.30179   69.710
 5756.00    1.33003   1.30852   69.862
 5757.00    1.33393   1.31394   70.623
 5758.00    1.33644   1.31594   71.549
 5759.00    1.33221   1.31396   72.528
 5760.00    1.32372   1.30914   72.931
 5761.00    1.31922   1.30426   72.209
 5762.00    1.31628   1.30188   70.935
 5763.00    1.31375   1.30350   70.039
 5764.00    1.32159   1.30883   69.785
 5765.00    1.33237   1.31568   69.711
 5766.00    1.33589   1.32185   69.596
 5767.00    1.33531   1.32568   69.722
 5768.00    1.33159   1.32679   69.951
 5769.00    1.32875   1.32574   70.332
 5770.00    1.32447   1.32317   70.769
 5771.00    1.32578   1.31962   70.962
 5772.00    1.32783   1.31595   71.052
 5773.00    1.32020   1.31292   70.917
 5774.00    1.31348   1.31096   70.569
 5775.00    1.30773   1.31012   70.483
 5776.00    1.29633   1.30900   70.692
 5777.00    1.28493   1.30614   71.677
 5778.00    1.27747   1.30103   73.278
 5779.00    1.27970   1.29394   74.282
 5780.00    1.29185   1.28658   74.210
 5781.00    1.30186   1.28091   73.920
 5782.00    1.30822   1.27804   -1.000
 5783.00    1.31448   1.27802   -1.000
 5784.00    1.31982   1.28024   -1.000
 5785.00    1.31754   1.28448   -1.000
 5786.00    1.31752   1.28981   71.059
 5787.00    1.32419   1.29500   -1.000
 5788.00    1.33397   1.29929   -1.000
 5789.00    1.32645   1.30179   71.338
 5790.00    1.32129   1.30308   70.771
 5791.00    1.32536   1.30447   70.277
 5792.00    1.32385   1.30687   69.850
 5793.00    1.31837   1.31047   69.780
 5794.00    1.31630   1.31417   70.175
 5795.00    1.31709   1.31668   70.628
 5796.00    1.31779   1.31775   70.338
 5797.00    1.32377   1.31824   69.464
 5798.00    1.32846   1.31904   68.507
 5799.00    1.33540   1.32076   68.301
 5800.00    1.33858   1.32316   68.839
 5801.00    1.34390   1.32495   69.385
 5802.00    1.33797   1.32513   69.951
 5803.00    1.33679   1.32367   70.278
 5804.00    1.33322   1.32150   70.141
 5805.00    1.33338   1.31979   69.878
 5806.00    1.33006   1.31930   69.667
 5807.00    1.33063   1.32019   69.652
 5808.00    1.33315   1.32203   69.590
 5809.00    1.33720   1.32404   69.336
 5810.00    1.33838   1.32545   69.128
 5811.00    1.34457   1.32586   69.248
 5812.00    1.33958   1.32505   69.806
 5813.00    1.34281   1.32306   70.145
 5814.00    1.34382   1.32059   69.820
 5815.00    1.34198   1.31891   69.340
 5816.00    1.34346   1.31913   68.955
 5817.00    1.34273   1.32136   68.614
 5818.00    1.33997   1.32503   68.380
 5819.00    1.34333   1.32902   68.474
 5820.00    1.35205   1.33208   68.714
 5821.00    1.35260   1.33397   68.609
 5822.00    1.34832   1.33505   68.504
 5823.00    1.35290   1.33562   68.377
 5824.00    1.35581   1.33612   68.309
 5825.00    1.35039   1.33661   68.324
 5826.00    1.34953   1.33703   68.458
 5827.00    1.35451   1.33745   68.334
 5828.00    1.35371   1.33769   68.345
 5829.00    1.34964   1.33771   68.255
 5830.00    1.35226   1.33739   68.382
 5831.00    1.35640   1.33670   68.830
 5832.00    1.35726   1.33583   68.959
 5833.00    1.35535   1.33496   68.742
 5834.00    1.35249   1.33445   68.601
 5835.00    1.35250   1.33458   68.810
 5836.00    1.35601   1.33512   68.972
 5837.00    1.35487   1.33591   68.767
 5838.00    1.34666   1.33687   68.266
 5839.00    1.34434   1.33767   67.904
 5840.00    1.34877   1.33808   67.905
 5841.00    1.34925   1.33793   68.126
 5842.00    1.34511   1.33692   68.390
 5843.00    1.35021   1.33476   68.843
 5844.00    1.34878   1.33167   69.191
 5845.00    1.34942   1.32834   69.534
 5846.00    1.33820   1.32553   69.471
 5847.00    1.34130   1.32349   69.575
 5848.00    1.34028   1.32180   69.964
 5849.00    1.34376   1.31974   70.403
 5850.00    1.34413   1.31638   -1.000
 5851.00    1.34376   1.31157   -1.000
 5852.00    1.33429   1.30584   -1.000
 5853.00    1.32588   1.29968   -1.000
 5854.00    1.32502   1.29331   -1.000
 5855.00    1.32851   1.28646   -1.000
 5856.00    1.32415   1.28035   -1.000
 5857.00    1.31449   1.27687   -1.000
 5858.00    1.32776   1.27699   -1.000
 5859.00    1.33589   1.28130   -1.000
 5860.00    1.33662   1.28846   -1.000
 5861.00    1.34519   1.29593   -1.000
 5862.00    1.34052   1.30217   -1.000
 5863.00    1.34108   1.30599   -1.000
 5864.00    1.34229   1.30740   -1.000
 5865.00    1.34122   1.30740   -1.000
 5866.00    1.33965   1.30699   -1.000
 5867.00    1.33804   1.30768   -1.000
 5868.00    1.34340   1.31024   -1.000
 5869.00    1.35106   1.31413   -1.000
 5870.00    1.35587   1.31801   -1.000
 5871.00    1.35550   1.32039   -1.000
 5872.00    1.35018   1.32061   -1.000
 5873.00    1.34825   1.31896   -1.000
 5874.00    1.34863   1.31635   -1.000
 5875.00    1.34698   1.31351   -1.000
 5876.00    1.34931   1.31073   -1.000
 5877.00    1.34816   1.30805   -1.000
 5878.00    1.34094   1.30532   -1.000
 5879.00    1.33637   1.30232   -1.000
 5880.00    1.33147   1.29883   -1.000
 5881.00    1.32617   1.29472   -1.000
 5882.00    1.32362   1.28974   -1.000
 5883.00    1.31005   1.28333   -1.000
 5884.00    1.27045   1.27432   72.548
 5885.00    1.18178   1.25983   -1.000
 5886.00    1.04364   1.23701   -1.000
 5887.00    0.93938   1.20595   -1.000
 5888.00    0.94612   1.17154   -1.000
 5889.00    1.03795   1.14370   -1.000
 5890.00    1.12155   1.12883   81.123
 5891.00    1.13099   1.12743   79.532
 5892.00    1.06965   1.13444   -1.000
 5893.00    1.00172   1.14075   -1.000
 5894.00    1.00590   1.14266   -1.000
 5895.00    1.08941   1.14367   -1.000
 5896.00    1.18836   1.15034   -1.000
 5897.00    1.24874   1.16553   -1.000
 5898.00    1.28675   1.18817   -1.000
 5899.00    1.30588   1.21433   -1.000
 5900.00    1.31945   1.23816   -1.000
 5901.00    1.33282   1.25696   -1.000
 5902.00    1.33313   1.27073   -1.000
 5903.00    1.32750   1.27995   -1.000
 5904.00    1.33803   1.28566   -1.000
 5905.00    1.33487   1.28926   -1.000
 5906.00    1.33703   1.29185   -1.000
 5907.00    1.33115   1.29395   -1.000
 5908.00    1.33252   1.29569   -1.000
 5909.00    1.33245   1.29672   -1.000
 5910.00    1.32936   1.29638   -1.000
 5911.00    1.32907   1.29411   -1.000
 5912.00    1.32389   1.29010   -1.000
 5913.00    1.31876   1.28543   -1.000
 5914.00    1.31457   1.28142   -1.000
 5915.00    1.30944   1.27960   -1.000
 5916.00    1.30516   1.28065   -1.000
 5917.00    1.31206   1.28386   -1.000
 5918.00    1.31481   1.28783   -1.000
 5919.00    1.31741   1.29145   -1.000
 5920.00    1.32012   1.29404   -1.000
 5921.00    1.31430   1.29564   71.845
 5922.00    1.31340   1.29687   71.621
 5923.00    1.32558   1.29816   -1.000
 5924.00    1.33196   1.29947   -1.000
 5925.00    1.32780   1.30007   -1.000
 5926.00    1.32984   1.29908   -1.000
 5927.00    1.33961   1.29638   -1.000
 5928.00    1.33413   1.29288   -1.000
 5929.00    1.32704   1.29020   -1.000
 5930.00    1.33264   1.28953   -1.000
 5931.00    1.33293   1.29065   -1.000
 5932.00    1.33628   1.29284   -1.000
 5933.00    1.33403   1.29540   -1.000
 5934.00    1.32908   1.29772   -1.000
 5935.00    1.32952   1.30011   -1.000
 5936.00    1.33202   1.30267   -1.000
 5937.00    1.33238   1.30455   -1.000
 5938.00    1.32469   1.30498   72.366
 5939.00    1.31615   1.30372   72.755
 5940.00    1.31526   1.30149   72.698
 5941.00    1.31550   1.29953   72.263
 5942.00    1.32261   1.29852   -1.000
 5943.00    1.32666   1.29858   -1.000
 5944.00    1.31990   1.29907   71.774
 5945.00    1.32227   1.29896   -1.000
 5946.00    1.31918   1.29780   73.201
 5947.00    1.31124   1.29617   73.348
 5948.00    1.31448   1.29480   72.963
 5949.00    1.32196   1.29413   -1.000
 5950.00    1.32542   1.29405   -1.000
 5951.00    1.32137   1.29422   -1.000
 5952.00    1.32501   1.29437   -1.000
 5953.00    1.32831   1.29395   -1.000
 5954.00    1.32641   1.29312   -1.000
 5955.00    1.32113   1.29266   -1.000
 5956.00    1.31563   1.29291   72.822
 5957.00    1.31522   1.29437   71.965
 5958.00    1.31937   1.29741   71.280
 5959.00    1.33766   1.30145   -1.000
 5960.00    1.34658   1.30548   -1.000
 5961.00    1.34194   1.30832   -1.000
 5962.00    1.33572   1.30925   -1.000
 5963.00    1.33477   1.30846   -1.000
 5964.00    1.32856   1.30669   72.007
 5965.00    1.31859   1.30500   71.825
 5966.00    1.31282   1.30427   71.264
 5967.00    1.31883   1.30497   71.107
 5968.00    1.33034   1.30711   -1.000
 5969.00    1.32883   1.30989   70.928
 5970.00    1.33543   1.31218   -1.000
 5971.00    1.33034   1.31310   71.257
 5972.00    1.33677   1.31197   -1.000
 5973.00    1.33354   1.30878   -1.000
 5974.00    1.33213   1.30439   -1.000
 5975.00    1.32550   1.30019   -1.000
 5976.00    1.32601   1.29763   -1.000
 5977.00    1.32217   1.29740   -1.000
 5978.00    1.32326   1.29924   -1.000
 5979.00    1.33474   1.30169   -1.000
 5980.00    1.33552   1.30290   -1.000
 5981.00    1.33269   1.30172   -1.000
 5982.00    1.33139   1.29838   -1.000
 5983.00    1.32945   1.29438   -1.000
 5984.00    1.32068   1.29151   -1.000
 5985.00    1.31728   1.29091   -1.000
 5986.00    1.31785   1.29268   -1.000
 5987.00    1.31691   1.29593   71.664
 5988.00    1.32247   1.29931   -1.000
 5989.00    1.32194   1.30211   71.962
 5990.00    1.32500   1.30438   71.585
 5991.00    1.32941   1.30643   -1.000
 5992.00    1.33194   1.30827   -1.000
 5993.00    1.33188   1.30935   -1.000
 5994.00    1.33932   1.30933   -1.000
 5995.00    1.34009   1.30801   -1.000
 5996.00    1.33183   1.30577   -1.000
 5997.00    1.32835   1.30363   -1.000
 5998.00    1.32774   1.30232   -1.000
 5999.00    1.32761   1.30176   -1.000
 6000.00    1.32714   1.30139   -1.000
 6001.00    1.32485   1.30083   -1.000
 6002.00    1.31795   1.30004   72.636
 6003.00    1.31189   1.29904   72.698
 6004.00    1.31328   1.29753   73.245
 6005.00    1.31975   1.29524   -1.000
 6006.00    1.31730   1.29255   -1.000
 6007.00    1.30801   1.29041   73.065
 6008.00    1.30779   1.29001   72.317
 6009.00    1.31287   1.29162   72.386
 6010.00    1.31731   1.29424   -1.000
 6011.00    1.32010   1.29664   -1.000
 6012.00    1.32438   1.29767   -1.000
 6013.00    1.32497   1.29718   -1.000
 6014.00    1.32380   1.29603   -1.000
 6015.00    1.32398   1.29486   -1.000
 6016.00    1.32153   1.29376   -1.000
 6017.00    1.32216   1.29230   -1.000
 6018.00    1.32180   1.29031   -1.000
 6019.00    1.32287   1.28821   -1.000
 6020.00    1.31562   1.28664   -1.000
 6021.00    1.31045   1.28602   -1.000
 6022.00    1.31295   1.28684   -1.000
 6023.00    1.31478   1.28956   -1.000
 6024.00    1.31932   1.29359   -1.000
 6025.00    1.32114   1.29816   -1.000
 6026.00    1.32447   1.30304   -1.000
 6027.00    1.32997   1.30773   -1.000
 6028.00    1.32684   1.31162   71.378
 6029.00    1.32936   1.31482   71.554
 6030.00    1.33513   1.31758   71.406
 6031.00    1.32777   1.31987   71.079
 6032.00    1.32305   1.32179   70.908
 6033.00    1.32665   1.32337   70.883
 6034.00    1.32661   1.32443   70.743
 6035.00    1.32884   1.32482   70.835
 6036.00    1.32484   1.32431   71.258
 6037.00    1.32866   1.32283   71.384
 6038.00    1.33404   1.32067   71.620
 6039.00    1.32883   1.31830   71.442
 6040.00    1.32931   1.31630   71.354
 6041.00    1.32632   1.31536   70.968
 6042.00    1.32496   1.31579   70.392
 6043.00    1.33286   1.31747   70.470
 6044.00    1.32911   1.31999   70.479
 6045.00    1.32987   1.32291   70.356
 6046.00    1.33449   1.32575   70.438
 6047.00    1.33568   1.32809   70.696
 6048.00    1.33187   1.32970   70.846
 6049.00    1.33866   1.33031   70.906
 6050.00    1.33119   1.32965   71.047
 6051.00    1.33253   1.32752   71.348
 6052.00    1.32711   1.32411   71.560
 6053.00    1.31895   1.32002   71.972
 6054.00    1.32725   1.31609   72.176
 6055.00    1.32939   1.31333   72.035
 6056.00    1.32996   1.31244   71.638
 6057.00    1.33128   1.31331   71.274
 6058.00    1.32885   1.31514   71.386
 6059.00    1.32586   1.31676   71.548
 6060.00    1.33039   1.31686   72.631
 6061.00    1.32247   1.31470   74.074
 6062.00    1.29421   1.31037   71.380
 6063.00    1.29492   1.30510  116.973
 6064.00    1.27894   1.30105   22.865
 6065.00    1.17416   1.29998   -1.000
 6066.00    1.21852   1.30249   -1.000
 6067.00    1.30991   1.30811   71.524
 6068.00    1.31383   1.31500   69.531
 6069.00    1.38936   1.32122   -1.000
 6070.00    0.57068   1.32590   -1.000
 6071.00    0.69750   1.32893   -1.000
 6072.00    1.35505   1.33055   -1.000
 6073.00    1.32452   1.33088   71.008
 6074.00    1.33045   1.32990   71.384
 6075.00    1.33270   1.32753   71.794
 6076.00    1.32130   1.32394   72.364
 6077.00    1.31578   1.31987   72.797
 6078.00    1.32214   1.31610   72.814
 6079.00    1.32268   1.31287   72.885
 6080.00    1.31572   1.31036   73.104
 6081.00    1.31513   1.30850   73.084
 6082.00    1.31782   1.30697   73.030
 6083.00    1.31691   1.30604   72.951
 6084.00    1.31642   1.30618   72.730
 6085.00    1.31932   1.30736   72.432
 6086.00    1.31867   1.30905   72.603
 6087.00    1.31957   1.31059   73.060
 6088.00    1.31988   1.31142   73.359
 6089.00    1.31543   1.31143   73.302
 6090.00    1.31071   1.31116   72.806
 6091.00    1.31558   1.31139   72.453
 6092.00    1.31979   1.31255   72.037
 6093.00    1.31969   1.31460   71.732
 6094.00    1.31944   1.31716   71.778
 6095.00    1.32656   1.31960   71.965
 6096.00    1.32549   1.32109   72.002
 6097.00    1.31753   1.32060   72.006
 6098.00    1.32045   1.31699   72.923
 6099.00    1.32089   1.30959   74.773
 6100.00    1.31142   1.29939   75.927
 6101.00    1.29761   1.28932   75.279
 6102.00    1.28964   1.28288   73.795
 6103.00    1.29351   1.28213   72.707
 6104.00    1.29510   1.28715   72.504
 6105.00    1.31401   1.29594   72.809
 6106.00    1.31233   1.30529   72.977
 6107.00    1.30467   1.31292   72.936
 6108.00    1.31188   1.31828   72.770
 6109.00    1.31636   1.32179   72.439
 6110.00    1.31595   1.32415   72.447
 6111.00    1.31593   1.32581   72.032
 6112.00    1.31354   1.32697   71.877
 6113.00    1.31849   1.32770   72.183
 6114.00    1.31703   1.32785   72.673
 6115.00    1.31880   1.32713   72.747
 6116.00    1.31770   1.32497   73.121
 6117.00    1.31353   1.32056   74.231
 6118.00    1.31092   1.31321   75.181
 6119.00    1.29627   1.30293   75.883
 6120.00    1.29521   1.29124   75.902
 6121.00    1.27918   1.28094   74.589
 6122.00    1.27265   1.27494   73.657
 6123.00    1.28382   1.27488   73.692
 6124.00    1.29321   1.28026   74.147
 6125.00    1.30167   1.28860   74.013
 6126.00    1.30757   1.29728   73.852
 6127.00    1.30156   1.30466   73.216
 6128.00    1.30729   1.31053   72.522
 6129.00    1.30390   1.31525   72.409
 6130.00    1.30650   1.31899   72.563
 6131.00    1.31086   1.32081   73.290
 6132.00    1.30754   1.31882   75.020
 6133.00    1.30241   1.31156   77.282
 6134.00    1.29288   1.29943   79.197
 6135.00    1.26880   1.28518   79.310
 6136.00    1.24700   1.27260   77.180
 6137.00    1.24150   1.26434   74.992
 6138.00    1.25769   1.26183   74.255
 6139.00    1.27551   1.26500   74.442
 6140.00    1.28455   1.27210   74.556
 6141.00    1.27712   1.28121   73.737
 6142.00    1.28564   1.29125   72.850
 6143.00    1.29083   1.30070   72.798
 6144.00    1.30051   1.30778   73.160
 6145.00    1.30703   1.31142   73.634
 6146.00    1.30623   1.31161   74.172
 6147.00    1.29248   1.30939   74.596
 6148.00    1.29363   1.30627   74.569
 6149.00    1.29403   1.30369   74.277
 6150.00    1.29295   1.30238   73.739
 6151.00    1.29856   1.30204   73.686
 6152.00    1.29629   1.30197   74.368
 6153.00    1.29840   1.30146   74.721
 6154.00    1.30058   1.29989   74.752
 6155.00    1.29876   1.29699   75.089
 6156.00    1.29633   1.29258   75.926
 6157.00    1.28811   1.28581   77.429
 6158.00    1.28588   1.27552   79.855
 6159.00    1.27716   1.26154   82.155
 6160.00    1.25505   1.24592   82.818
 6161.00    1.24236   1.23233   81.441
 6162.00    1.23690   1.22435   79.116
 6163.00    1.24292   1.22358   -1.000
 6164.00    1.25782   1.22882   -1.000
 6165.00    1.26263   1.23634   -1.000
 6166.00    1.26789   1.24212   -1.000
 6167.00    1.26730   1.24491   -1.000
 6168.00    1.25711   1.24604   79.117
 6169.00    1.25222   1.24775   77.508
 6170.00    1.25214   1.25190   76.476
 6171.00    1.26763   1.25906   76.647
 6172.00    1.27973   1.26780   76.691
 6173.00    1.27860   1.27595   76.481
 6174.00    1.27780   1.28240   76.343
 6175.00    1.27551   1.28702   76.128
 6176.00    1.28145   1.29026   75.735
 6177.00    1.28046   1.29276   75.474
 6178.00    1.28012   1.29510   75.234
 6179.00    1.28144   1.29754   74.871
 6180.00    1.27757   1.29993   74.700
 6181.00    1.28028   1.30188   74.882
 6182.00    1.28391   1.30287   75.153
 6183.00    1.28646   1.30238   75.789
 6184.00    1.29208   1.30011   76.640
 6185.00    1.28767   1.29617   77.424
 6186.00    1.28572   1.29088   78.155
 6187.00    1.27975   1.28444   78.702
 6188.00    1.27526   1.27718   79.794
 6189.00    1.26717   1.27045   80.234
 6190.00    1.26282   1.26601   79.203
 6191.00    1.25460   1.26508   77.132
 6192.00    1.25436   1.26813   75.963
 6193.00    1.26712   1.27456   75.563
 6194.00    1.27844   1.28234   75.479
 6195.00    1.28556   1.28905   76.036
 6196.00    1.28725   1.29331   76.958
 6197.00    1.27851   1.29508   77.548
 6198.00    1.27334   1.29530   77.403
 6199.00    1.27129   1.29526   76.548
 6200.00    1.24985   1.29612   75.574
 6201.00    1.25759   1.29851   75.450
 6202.00    1.27039   1.30222   75.467
 6203.00    1.27732   1.30635   75.320
 6204.00    1.28520   1.31002   75.336
 6205.00    1.29129   1.31270   75.662
 6206.00    1.29586   1.31413   75.613
 6207.00    1.29214   1.31411   75.996
 6208.00    1.28735   1.31232   76.732
 6209.00    1.29002   1.30840   77.310
 6210.00    1.28552   1.30226   78.094
 6211.00    1.27951   1.29454   79.338
 6212.00    1.26867   1.28648   80.077
 6213.00    1.27043   1.27945   80.227
 6214.00    1.26460   1.27446   79.031
 6215.00    1.26632   1.27159   78.757
 6216.00    1.27050   1.27031   79.462
 6217.00    1.26928   1.26994   79.038
 6218.00    1.27286   1.27033   78.438
 6219.00    1.26787   1.27158   79.061
 6220.00    1.26858   1.27379   85.679
 6221.00    1.27787   1.27683   81.682
 6222.00    1.25970   1.28006   77.917
 6223.00    1.28135   1.28256   78.131
 6224.00    1.28678   1.28345   78.140
 6225.00    1.28501   1.28217   78.638
 6226.00    1.28738   1.27832   79.784
 6227.00    1.28051   1.27190   81.130
 6228.00    1.27485   1.26398   82.124
 6229.00    1.26132   1.25652   81.614
 6230.00    1.25293   1.25177   80.365
 6231.00    1.24865   1.25129   78.808
 6232.00    1.25462   1.25502   77.557
 6233.00    1.27161   1.26126   77.304
 6234.00    1.27508   1.26739   77.913
 6235.00    1.28301   1.27137   78.723
 6236.00    1.28825   1.27244   79.520
 6237.00    1.27840   1.27108   80.375
 6238.00    1.27198   1.26835   80.643
 6239.00    1.26936   1.26512   80.580
 6240.00    1.26924   1.26164   81.255
 6241.00    1.27116   1.25776   81.769
 6242.00    1.26436   1.25339   81.649
 6243.00    1.26241   1.24904   81.081
 6244.00    1.25702   1.24600   80.248
 6245.00    1.25564   1.24569   79.201
 6246.00    1.25070   1.24866   78.402
 6247.00    1.25630   1.25389   78.407
 6248.00    1.26722   1.25929   79.221
 6249.00    1.26906   1.26234   80.771
 6250.00    1.26034   1.26162   81.692
 6251.00    1.25046   1.25738   82.210
 6252.00    1.24212   1.25139   82.404
 6253.00    1.23479   1.24578   82.344
 6254.00    1.23290   1.24194   83.196
 6255.00    1.23933   1.24034   83.920
 6256.00    1.24155   1.24072   83.433
 6257.00    1.24242   1.24285   82.085
 6258.00    1.24352   1.24662   80.866
 6259.00    1.25073   1.25204   79.781
 6260.00    1.25782   1.25866   78.521
 6261.00    1.26537   1.26548   78.233
 6262.00    1.26217   1.27157   78.963
 6263.00    1.26374   1.27639   79.459
 6264.00    1.26183   1.27995   79.003
 6265.00    1.25518   1.28232   78.415
 6266.00    1.25809   1.28365   78.796
 6267.00    1.26004   1.28406   79.195
 6268.00    1.26069   1.28360   79.031
 6269.00    1.26064   1.28235   78.746
 6270.00    1.26952   1.28050   78.573
 6271.00    1.26884   1.27779   78.826
 6272.00    1.25533   1.27369   79.439
 6273.00    1.24344   1.26760   80.083
 6274.00    1.22392   1.25959   81.448
 6275.00    1.20831   1.25066   83.603
 6276.00    1.19350   1.24230   85.029
 6277.00    1.18478   1.23633   85.456
 6278.00    1.18377   1.23398   85.041
 6279.00    1.17557   1.23557   -1.000
 6280.00    1.16749   1.24068   -1.000
 6281.00    1.17585   1.24835   -1.000
 6282.00    1.19030   1.25732   -1.000
 6283.00    1.20491   1.26607   -1.000
 6284.00    1.22534   1.27340   78.589
 6285.00    1.23821   1.27863   78.062
 6286.00    1.24510   1.28141   77.951
 6287.00    1.25503   1.28190   78.431
 6288.00    1.25725   1.28062   79.122
 6289.00    1.25689   1.27824   79.697
 6290.00    1.25618   1.27551   79.802
 6291.00    1.25188   1.27306   79.886
 6292.00    1.24953   1.27106   80.036
 6293.00    1.24014   1.26899   80.717
 6294.00    1.21299   1.26638   81.229
 6295.00    1.18876   1.26311   -1.000
 6296.00    1.13732   1.25944   -1.000
 6297.00    1.05804   1.25573   -1.000
 6298.00    1.05769   1.25240   -1.000
 6299.00    1.14170   1.25015   -1.000
 6300.00    1.22118   1.24971   82.191
 6301.00    1.23578   1.25150   81.308
 6302.00    1.23029   1.25572   79.969
 6303.00    1.24445   1.26210   79.028
 6304.00    1.24930   1.26958   78.383
 6305.00    1.25379   1.27655   77.660
 6306.00    1.26317   1.28178   77.606
 6307.00    1.25951   1.28493   77.996
 6308.00    1.25759   1.28615   78.546
 6309.00    1.26661   1.28581   78.817
 6310.00    1.26695   1.28416   79.149
 6311.00    1.25949   1.28144   79.190
 6312.00    1.25899   1.27783   80.012
 6313.00    1.24978   1.27359   80.231
 6314.00    1.24220   1.26917   80.144
 6315.00    1.23990   1.26527   80.068
 6316.00    1.24357   1.26293   80.204
 6317.00    1.24108   1.26295   79.857
 6318.00    1.24276   1.26544   78.813
 6319.00    1.24655   1.26997   78.073
 6320.00    1.25090   1.27592   77.826
 6321.00    1.26178   1.28237   77.563
 6322.00    1.26246   1.28835   77.122
 6323.00    1.26429   1.29326   76.904
 6324.00    1.26993   1.29697   76.884
 6325.00    1.26867   1.29948   76.451
 6326.00    1.26736   1.30074   76.587
 6327.00    1.27677   1.30099   76.631
 6328.00    1.27413   1.30072   76.686
 6329.00    1.27340   1.30017   76.364
 6330.00    1.26649   1.29901   76.262
 6331.00    1.26466   1.29660   76.508
 6332.00    1.26200   1.29251   76.693
 6333.00    1.29904   1.28706   78.699
 6334.00    1.33251   1.28136   -1.000
 6335.00    1.24407   1.27696   77.913
 6336.00    1.24065   1.27529   77.111
 6337.00    1.24793   1.27693   76.252
 6338.00    1.25523   1.28120   75.939
 6339.00    1.26463   1.28633   75.559
 6340.00    1.26868   1.29060   75.672
 6341.00    1.26725   1.29300   76.433
 6342.00    1.26709   1.29344   76.461
 6343.00    1.26317   1.29256   76.220
 6344.00    1.25428   1.29158   75.784
 6345.00    1.25874   1.29181   75.238
 6346.00    1.26264   1.29381   74.984
 6347.00    1.26629   1.29746   75.035
 6348.00    1.26079   1.30193   74.843
 6349.00    1.26433   1.30601   74.945
 6350.00    1.26321   1.30849   75.297
 6351.00    1.26501   1.30867   75.644
 6352.00    1.26153   1.30674   76.584
 6353.00    1.26017   1.30339   77.209
 6354.00    1.25767   1.29935   77.172
 6355.00    1.25376   1.29521   77.431
 6356.00    1.25346   1.29142   78.395
 6357.00    1.24301   1.28813   78.650
 6358.00    1.23265   1.28524   78.265
 6359.00    1.21706   1.28272   -1.000
 6360.00    1.21319   1.28074   -1.000
 6361.00    1.19962   1.27957   -1.000
 6362.00    1.21813   1.27939   -1.000
 6363.00    1.24430   1.28034   76.650
 6364.00    1.25463   1.28252   76.247
 6365.00    1.25933   1.28552   75.751
 6366.00    1.26631   1.28867   75.245
 6367.00    1.26346   1.29133   75.089
 6368.00    1.26316   1.29334   75.166
 6369.00    1.25400   1.29497   74.873
 6370.00    1.24955   1.29665   74.579
 6371.00    1.25096   1.29867   74.833
 6372.00    1.25216   1.30086   74.871
 6373.00    1.25804   1.30258   75.048
 6374.00    1.24494   1.30311   75.340
 6375.00    1.24020   1.30213   75.736
 6376.00    1.24261   1.29987   76.267
 6377.00    1.24095   1.29693   76.527
 6378.00    1.24219   1.29403   76.555
 6379.00    1.23680   1.29168   76.715
 6380.00    1.23077   1.29018   76.672
 6381.00    1.22967   1.28965   76.453
 6382.00    1.22729   1.29015   76.875
 6383.00    1.22698   1.29158   77.020
 6384.00    1.22419   1.29359   -1.000
 6385.00    1.21597   1.29571   -1.000
 6386.00    1.21419   1.29745   -1.000
 6387.00    1.21871   1.29826   -1.000
 6388.00    1.20754   1.29756   -1.000
 6389.00    1.20117   1.29504   -1.000
 6390.00    1.19795   1.29102   -1.000
 6391.00    1.19317   1.28652   -1.000
 6392.00    1.18075   1.28295   -1.000
 6393.00    1.17343   1.28141   -1.000
 6394.00    1.16815   1.28207   -1.000
 6395.00    1.17237   1.28376   -1.000
 6396.00    1.16967   1.28474   -1.000
 6397.00    1.16819   1.28402   -1.000
 6398.00    1.15057   1.28206   -1.000
 6399.00    1.14272   1.28059   -1.000
 6400.00    1.13163   1.28127   -1.000
 6401.00    1.13935   1.28456   -1.000
 6402.00    1.14723   1.28931   -1.000
 6403.00    1.15190   1.29341   -1.000
 6404.00    1.14606   1.29519   -1.000
 6405.00    1.13760   1.29435   -1.000
 6406.00    1.12252   1.29180   -1.000
 6407.00    1.11518   1.28871   -1.000
 6408.00    1.10121   1.28617   -1.000
 6409.00    1.09788   1.28485   -1.000
 6410.00    1.09137   1.28491   -1.000
 6411.00    1.07814   1.28610   -1.000
 6412.00    1.08364   1.28806   -1.000
 6413.00    1.07643   1.29050   -1.000
 6414.00    1.07182   1.29284   -1.000
 6415.00    1.07047   1.29415   -1.000
 6416.00    1.06956   1.29377   -1.000
 6417.00    1.04929   1.29170   -1.000
 6418.00    1.03731   1.28874   -1.000
 6419.00    1.02263   1.28628   -1.000
 6420.00    1.01937   1.28570   -1.000
 6421.00    1.00624   1.28788   -1.000
 6422.00    0.99224   1.29270   -1.000
 6423.00    0.99280   1.29894   -1.000
 6424.00    0.98811   1.30485   -1.000
 6425.00    0.98275   1.30856   -1.000
 6426.00    0.97824   1.30901   -1.000
 6427.00    0.96462   1.30622   -1.000
 6428.00    0.93287   1.30114   -1.000
