###################################################################
## OUTPUT of StarlightChains_v04.for    [Cid@UFSC - 01/Apr/2007] ##
###################################################################

## Some input info
NGC5904_a_1.cxt                          [arq_obs]
Base.BC03.N                              [arq_base]
NGC5904_a_1.msk                          [arq_masks]
StCv04.C99.config                        [arq_config]
   45                                    [N_base]
    0                                    [N_YAV_components = # of components with extra extinction!]
    0                                    [i_FitPowerLaw (1/0 = Yes/No)]
-9.99                                    [alpha_PowerLaw]
CCM                                      [red_law_option]
 1.458241                                [q_norm = A(l_norm)/A(V)]

## (Re)Sampling Parameters
 3359.00                                 [l_ini (A)]
 6428.00                                 [l_fin (A)]
    1.00                                 [dl    (A)]     (OBS: dl_cushion =    50.00 A)

## Normalization info
 4020.00                                 [l_norm (A) - for base]
 4010.00                                 [llow_norm (A) - window for f_obs]
 4060.00                                 [lupp_norm (A) - window for f_obs]
5.027376E-14                             [fobs_norm (in input units)]

## S/N
 4730.00                                 [llow_SN (A) - window for S/N]
 4780.00                                 [lupp_SN (A) - window for S/N]
  94.495                                 [S/N in S/N window]
  88.383                                 [S/N in norm. window]
 203.063                                 [S/N_err in S/N window]
 189.929                                 [S/N_err in norm. window]
  1.0000                                 [fscale_chi2]

## etc...
  2147483635                             [idum_orig]
  3069                                   [NOl_eff]
  1021                                   [Nl_eff]
  2048    NSIGMA                         [Ntot_cliped & clip_method]
  1024800                                [Nglobal_steps]
   7                                     [N_chains]
   5                                     [NEX0s_base = N_base in EX0s-fits]
 0   0   1      257   2.0   3.991E+02    [Clip-Bug, RC-Crash & Burn-In warning-flags, n_censored_weights, wei_nsig_threshold & wei_limit]
    19     19.673     19.673      0.000  [idt_all, wdt_TotTime, wdt_UsrTime & wdt_SysTime (sec)]

## Synthesis Results - Best model ##

 2.88004E+00                             [chi2/Nl_eff]
     0.91066                             [adev (%)]

   102.88844                             [sum-of-x (%)]
 7.56890E-14                             [Flux_tot (units of input spectrum!)]
 5.27324E-10                             [Mini_tot (???)]
 2.89654E-10                             [Mcor_tot (???)]

  -6.50                                  [v0_min  (km/s)]
  86.56                                  [vd_min  (km/s)]
 0.2834                                  [AV_min  (mag)]
 0.0000                                  [YAV_min (mag)]

# j     x_j(%)      Mini_j(%)     Mcor_j(%)     age_j(yr)     Z_j      (L/M)_j    YAV?  Mstars   component_j        a/Fe...       SSP_chi2r SSP_adev(%)   SSP_AV   SSP_x(%)
  1      0.0000     0.0000E+00    0.0000E+00    1.000000E+06  0.00400  1.114E-02    0   1.0000   age020_m42            0.0000     9.5053E+02    14.4650   3.6231    77.1266
  2     13.8537     4.7450E-02    8.6376E-02    3.160000E+06  0.00400  4.073E-02    0   0.9999   age045_m42            0.0000     2.0662E+02     7.2348   2.5913    91.9109
  3      0.0000     0.0000E+00    0.0000E+00    5.010000E+06  0.00400  2.534E-02    0   0.9488   age055_m42            0.0000     4.8379E+02    10.8098   3.0325    85.0953
  4      0.0000     0.0000E+00    0.0000E+00    1.000000E+07  0.00400  1.271E-02    0   0.8862   age070_m42            0.0000     4.1286E+02    10.4729   2.2423    88.5201
  5      0.0000     0.0000E+00    0.0000E+00    2.512000E+07  0.00400  5.070E-03    0   0.8174   age090_m42            0.0000     3.5340E+02     9.7468   2.1006    90.2295
  6      0.0000     0.0000E+00    0.0000E+00    4.000000E+07  0.00400  3.505E-03    0   0.7851   age104_m42            0.0000     2.0718E+02     7.4933   1.7576    93.5788
  7     15.8386     9.7423E-01    1.2783E+00    1.015200E+08  0.00400  2.268E-03    0   0.7207   age116_m42            0.0000     4.2749E+02     6.5747   1.6399   105.5710
  8      0.0000     0.0000E+00    0.0000E+00    2.861200E+08  0.00400  1.079E-03    0   0.6613   age125_m42            0.0000     4.7885E+02     7.3566   1.1309   108.1697
  9      0.0000     0.0000E+00    0.0000E+00    6.405400E+08  0.00400  5.077E-04    0   0.6197   age132_m42            0.0000     5.3628E+02     7.7790   0.7647   112.3463
 10      4.9331     1.9468E+00    2.1350E+00    9.047900E+08  0.00400  3.535E-04    0   0.6024   age135_m42            0.0000     3.0202E+02     6.0045   0.5352   111.1248
 11      0.0000     0.0000E+00    0.0000E+00    1.434000E+09  0.00400  1.910E-04    0   0.5716   age139_m42            0.0000     1.0511E+02     4.3746  -0.0069   109.5673
 12     68.2396     9.6962E+01    9.6434E+01    2.500000E+09  0.00400  9.818E-05    0   0.5463   age150_m42            0.0000     5.4188E+01     3.4004  -0.2696   104.2705
 13      0.0235     6.9486E-02    6.6135E-02    5.000000E+09  0.00400  4.718E-05    0   0.5228   age161_m42            0.0000     1.2062E+02     4.1241  -0.4244   100.4699
 14      0.0000     0.0000E+00    0.0000E+00    1.100000E+10  0.00400  2.205E-05    0   0.4980   age185_m42            0.0000     2.8687E+02     6.1636  -0.7044    98.3743
 15      0.0000     0.0000E+00    0.0000E+00    1.300000E+10  0.00400  1.883E-05    0   0.4927   age193_m42            0.0000     3.1457E+02     6.4200  -0.7214    98.1905
 16      0.0000     0.0000E+00    0.0000E+00    1.000000E+06  0.02000  1.989E-02    0   1.0000   age020_m62            0.0000     9.5246E+02    14.3538   3.5839    77.8548
 17      0.0000     0.0000E+00    0.0000E+00    3.160000E+06  0.02000  3.772E-02    0   0.9858   age045_m62            0.0000     8.4819E+02    13.7124   3.4331    80.0581
 18      0.0000     0.0000E+00    0.0000E+00    5.010000E+06  0.02000  3.227E-02    0   0.9342   age055_m62            0.0000     3.2056E+02     8.9700   2.8662    88.2947
 19      0.0000     0.0000E+00    0.0000E+00    1.000000E+07  0.02000  1.011E-02    0   0.8751   age070_m62            0.0000     9.6787E+02    15.4437   2.2889    84.0985
 20      0.0000     0.0000E+00    0.0000E+00    2.512000E+07  0.02000  4.206E-03    0   0.8099   age090_m62            0.0000     7.0640E+02    13.0505   2.1980    85.5508
 21      0.0000     0.0000E+00    0.0000E+00    4.000000E+07  0.02000  3.373E-03    0   0.7799   age104_m62            0.0000     1.9579E+02     7.1700   1.9482    95.4926
 22      0.0000     0.0000E+00    0.0000E+00    1.015200E+08  0.02000  1.878E-03    0   0.7221   age116_m62            0.0000     3.5846E+02     6.2151   1.6805   105.5082
 23      0.0000     0.0000E+00    0.0000E+00    2.861200E+08  0.02000  8.869E-04    0   0.6700   age125_m62            0.0000     9.1405E+02    10.1096   1.0953   114.2108
 24      0.0000     0.0000E+00    0.0000E+00    6.405400E+08  0.02000  3.657E-04    0   0.6322   age132_m62            0.0000     5.4501E+02     8.9403   0.3827   118.0519
 25      0.0000     0.0000E+00    0.0000E+00    9.047900E+08  0.02000  2.312E-04    0   0.6152   age135_m62            0.0000     2.6222E+02     6.8500   0.0231   116.2710
 26      0.0000     0.0000E+00    0.0000E+00    1.434000E+09  0.02000  1.168E-04    0   0.5865   age139_m62            0.0000     8.8469E+01     4.4221  -0.3640   109.1626
 27      0.0000     0.0000E+00    0.0000E+00    2.500000E+09  0.02000  5.505E-05    0   0.5610   age150_m62            0.0000     2.0749E+02     5.9688  -0.7450   105.9143
 28      0.0000     0.0000E+00    0.0000E+00    5.000000E+09  0.02000  2.596E-05    0   0.5353   age161_m62            0.0000     5.1921E+02     8.5699  -1.0000   104.3681
 29      0.0000     0.0000E+00    0.0000E+00    1.100000E+10  0.02000  1.169E-05    0   0.5103   age185_m62            0.0000     1.2626E+03    13.8280  -1.0000    98.2220
 30      0.0000     0.0000E+00    0.0000E+00    1.300000E+10  0.02000  9.691E-06    0   0.5047   age193_m62            0.0000     1.4171E+03    14.7504  -1.0000    97.3809
 31      0.0000     0.0000E+00    0.0000E+00    1.000000E+06  0.05000  2.651E-02    0   0.9998   age020_m72            0.0000     8.8394E+02    13.6877   3.5825    78.7749
 32      0.0000     0.0000E+00    0.0000E+00    3.160000E+06  0.05000  4.817E-02    0   0.9577   age045_m72            0.0000     5.8938E+02    11.4932   3.2728    83.5407
 33      0.0000     0.0000E+00    0.0000E+00    5.010000E+06  0.05000  3.101E-02    0   0.9147   age055_m72            0.0000     5.4580E+02    11.3389   2.9024    86.0667
 34      0.0000     0.0000E+00    0.0000E+00    1.000000E+07  0.05000  8.954E-03    0   0.8524   age070_m72            0.0000     5.7670E+02    11.2461   3.1391    84.7780
 35      0.0000     0.0000E+00    0.0000E+00    2.512000E+07  0.05000  4.207E-03    0   0.7902   age090_m72            0.0000     2.7032E+02     8.0185   2.6607    91.0051
 36      0.0000     0.0000E+00    0.0000E+00    4.000000E+07  0.05000  3.198E-03    0   0.7618   age104_m72            0.0000     1.9209E+02     4.8875   2.0664   100.7025
 37      0.0000     0.0000E+00    0.0000E+00    1.015200E+08  0.05000  1.716E-03    0   0.7092   age116_m72            0.0000     4.5276E+02     6.8903   1.7472   106.1036
 38      0.0000     0.0000E+00    0.0000E+00    2.861200E+08  0.05000  7.047E-04    0   0.6618   age125_m72            0.0000     8.6188E+02    10.2250   0.8601   115.0901
 39      0.0000     0.0000E+00    0.0000E+00    6.405400E+08  0.05000  2.633E-04    0   0.6253   age132_m72            0.0000     3.8699E+02     8.1004  -0.0099   117.3421
 40      0.0000     0.0000E+00    0.0000E+00    9.047900E+08  0.05000  1.484E-04    0   0.6088   age135_m72            0.0000     1.6624E+02     6.2390  -0.4764   111.2323
 41      0.0000     0.0000E+00    0.0000E+00    1.434000E+09  0.05000  7.827E-05    0   0.5847   age139_m72            0.0000     2.9100E+02     7.4697  -0.8730   107.2060
 42      0.0000     0.0000E+00    0.0000E+00    2.500000E+09  0.05000  3.759E-05    0   0.5583   age150_m72            0.0000     6.0411E+02     9.1072  -1.0000   102.5977
 43      0.0000     0.0000E+00    0.0000E+00    5.000000E+09  0.05000  1.548E-05    0   0.5320   age161_m72            0.0000     1.5034E+03    15.6102  -1.0000    93.4636
 44      0.0000     0.0000E+00    0.0000E+00    1.100000E+10  0.05000  6.532E-06    0   0.5070   age185_m72            0.0000     2.9170E+03    22.2826  -1.0000    84.1687
 45      0.0000     0.0000E+00    0.0000E+00    1.300000E+10  0.05000  5.316E-06    0   0.5018   age193_m72            0.0000     3.4742E+03    24.2513  -1.0000    81.2682


## Synthesis Results - Average & Chains ##

# j      x_j: min, <> & last-chain-values for 1 ...  7 chains
  1      0.0000      0.0019      0.0000      0.0000      0.0000      0.0000      0.0000      0.0000      0.0000
  2     13.8537     13.6211     13.7845     13.7833     13.7781     13.8658     13.8245     13.9500     13.8297
  3      0.0000      0.0205      0.0000      0.0000      0.0000      0.0000      0.0000      0.0000      0.0000
  4      0.0000      0.0574      0.1704      0.1317      0.0000      0.0292      0.0341      0.0000      0.0013
  5      0.0000      0.0253      0.0000      0.0000      0.0000      0.0000      0.0160      0.0000      0.0000
  6      0.0000      0.0259      0.0000      0.0119      0.0544      0.0000      0.0000      0.0000      0.0000
  7     15.8386     14.5137     14.6192     14.5723     14.7298     14.6803     14.5669     14.5897     14.6514
  8      0.0000      0.0313      0.0000      0.0000      0.0000      0.0559      0.0000      0.0000      0.0000
  9      0.0000      0.0633      0.0000      0.1442      0.0000      0.0000      0.0000      0.1348      0.0079
 10      4.9331      6.3770      6.3677      6.4674      6.3310      6.0957      6.3640      6.2803      6.4381
 11      0.0000      0.1145      0.1779      0.0000      0.0000      0.0000      0.1582      0.0000      0.1902
 12     68.2396     67.4099     67.6050     67.5638     67.5113     67.8268     67.4831     67.7063     67.1433
 13      0.0235      0.1385      0.0872      0.0342      0.2070      0.2057      0.1957      0.0016      0.2218
 14      0.0000      0.0573      0.0530      0.0000      0.0000      0.0000      0.0000      0.0000      0.0924
 15      0.0000      0.0470      0.0000      0.1279      0.2087      0.0000      0.0000      0.0943      0.1157
 16      0.0000      0.0031      0.0000      0.0000      0.0000      0.0000      0.0000      0.0000      0.0000
 17      0.0000      0.0024      0.0000      0.0000      0.0000      0.0000      0.0000      0.0000      0.0000
 18      0.0000      0.0425      0.0000      0.0000      0.0000      0.0116      0.0953      0.0000      0.1311
 19      0.0000      0.0075      0.0000      0.0000      0.0000      0.0000      0.0000      0.0000      0.0000
 20      0.0000      0.0057      0.0000      0.0000      0.0000      0.0000      0.0000      0.0000      0.0000
 21      0.0000      0.0142      0.0000      0.0000      0.0000      0.0103      0.0000      0.0006      0.0054
 22      0.0000      0.0221      0.0043      0.0000      0.0386      0.0000      0.1400      0.0000      0.0000
 23      0.0000      0.0161      0.0000      0.0000      0.0000      0.0509      0.0000      0.0000      0.0000
 24      0.0000      0.0125      0.0000      0.0000      0.0000      0.0000      0.0000      0.0000      0.0000
 25      0.0000      0.0254      0.0000      0.0000      0.0000      0.0010      0.0000      0.0000      0.0000
 26      0.0000      0.0248      0.0000      0.0000      0.0000      0.0000      0.0000      0.0000      0.0628
 27      0.0000      0.0305      0.0580      0.0000      0.0000      0.0000      0.0000      0.0000      0.0000
 28      0.0000      0.0185      0.0000      0.0000      0.0000      0.0000      0.0000      0.0000      0.0000
 29      0.0000      0.0101      0.0000      0.0538      0.0000      0.0000      0.0000      0.0000      0.0000
 30      0.0000      0.0089      0.0232      0.0000      0.0000      0.0000      0.0000      0.0000      0.0000
 31      0.0000      0.0033      0.0000      0.0000      0.0000      0.0000      0.0000      0.0000      0.0000
 32      0.0000      0.0071      0.0000      0.0000      0.0000      0.0000      0.0000      0.0000      0.0000
 33      0.0000      0.0123      0.0000      0.0000      0.0000      0.0000      0.0000      0.0000      0.0000
 34      0.0000      0.0035      0.0000      0.0000      0.0000      0.0000      0.0000      0.0000      0.0000
 35      0.0000      0.0055      0.0000      0.0000      0.0000      0.0000      0.0000      0.0000      0.0000
 36      0.0000      0.0182      0.0000      0.0000      0.0000      0.0055      0.0000      0.0431      0.0000
 37      0.0000      0.0173      0.0000      0.0000      0.0079      0.0482      0.0000      0.0000      0.0000
 38      0.0000      0.0151      0.0000      0.0000      0.0000      0.0000      0.0000      0.0000      0.0000
 39      0.0000      0.0302      0.0000      0.0000      0.0412      0.0000      0.0373      0.0000      0.0000
 40      0.0000      0.0500      0.0000      0.0000      0.0000      0.0000      0.0000      0.0000      0.0000
 41      0.0000      0.0266      0.0000      0.0131      0.0508      0.0000      0.0000      0.1157      0.0486
 42      0.0000      0.0132      0.0000      0.0819      0.0000      0.0000      0.0197      0.0000      0.0000
 43      0.0000      0.0060      0.0000      0.0000      0.0000      0.0151      0.0000      0.0000      0.0000
 44      0.0000      0.0072      0.0000      0.0000      0.0000      0.0268      0.0000      0.0249      0.0000
 45      0.0000      0.0157      0.0000      0.0000      0.0000      0.0000      0.0000      0.0000      0.0000

# j      m_j: min, <> & last-chain-values for 1 ...  7 chains
  1  0.0000E+00  4.1837E-05  0.0000E+00  0.0000E+00  0.0000E+00  0.0000E+00  0.0000E+00  0.0000E+00  0.0000E+00
  2  8.6376E-02  8.3557E-02  8.5344E-02  8.4698E-02  8.4621E-02  8.5574E-02  8.6053E-02  8.6074E-02  8.5218E-02
  3  0.0000E+00  1.9139E-04  0.0000E+00  0.0000E+00  0.0000E+00  0.0000E+00  0.0000E+00  0.0000E+00  0.0000E+00
  4  0.0000E+00  1.0006E-03  2.9966E-03  2.2983E-03  0.0000E+00  5.1143E-04  6.0361E-04  0.0000E+00  2.2285E-05
  5  0.0000E+00  1.0184E-03  0.0000E+00  0.0000E+00  0.0000E+00  0.0000E+00  6.5530E-04  0.0000E+00  0.0000E+00
  6  0.0000E+00  1.4484E-03  0.0000E+00  6.6775E-04  3.0495E-03  0.0000E+00  0.0000E+00  0.0000E+00  0.0000E+00
  7  1.2783E+00  1.1524E+00  1.1716E+00  1.1591E+00  1.1710E+00  1.1727E+00  1.1737E+00  1.1652E+00  1.1686E+00
  8  0.0000E+00  4.7976E-03  0.0000E+00  0.0000E+00  0.0000E+00  8.6164E-03  0.0000E+00  0.0000E+00  0.0000E+00
  9  0.0000E+00  1.9296E-02  0.0000E+00  4.4053E-02  0.0000E+00  0.0000E+00  0.0000E+00  4.1354E-02  2.4233E-03
 10  2.1350E+00  2.7155E+00  2.7366E+00  2.7587E+00  2.6991E+00  2.6114E+00  2.7498E+00  2.6899E+00  2.7538E+00
 11  0.0000E+00  8.5616E-02  1.3427E-01  0.0000E+00  0.0000E+00  0.0000E+00  1.2002E-01  0.0000E+00  1.4290E-01
 12  9.6434E+01  9.3726E+01  9.4870E+01  9.4102E+01  9.3979E+01  9.4878E+01  9.5208E+01  9.4687E+01  9.3775E+01
 13  6.6135E-02  3.8360E-01  2.4367E-01  9.4810E-02  5.7379E-01  5.7288E-01  5.4978E-01  4.4973E-03  6.1693E-01
 14  0.0000E+00  3.2311E-01  3.0197E-01  0.0000E+00  0.0000E+00  0.0000E+00  0.0000E+00  0.0000E+00  5.2407E-01
 15  0.0000E+00  3.0736E-01  0.0000E+00  8.3756E-01  1.3659E+00  0.0000E+00  0.0000E+00  6.2033E-01  7.5986E-01
 16  0.0000E+00  3.8396E-05  0.0000E+00  0.0000E+00  0.0000E+00  0.0000E+00  0.0000E+00  0.0000E+00  0.0000E+00
 17  0.0000E+00  1.5688E-05  0.0000E+00  0.0000E+00  0.0000E+00  0.0000E+00  0.0000E+00  0.0000E+00  0.0000E+00
 18  0.0000E+00  3.0756E-04  0.0000E+00  0.0000E+00  0.0000E+00  8.4125E-05  6.9974E-04  0.0000E+00  9.5284E-04
 19  0.0000E+00  1.6182E-04  0.0000E+00  0.0000E+00  0.0000E+00  0.0000E+00  0.0000E+00  0.0000E+00  0.0000E+00
 20  0.0000E+00  2.7287E-04  0.0000E+00  0.0000E+00  0.0000E+00  0.0000E+00  0.0000E+00  0.0000E+00  0.0000E+00
 21  0.0000E+00  8.2113E-04  0.0000E+00  0.0000E+00  0.0000E+00  6.0067E-04  0.0000E+00  3.4620E-05  3.1371E-04
 22  0.0000E+00  2.1281E-03  4.2123E-04  0.0000E+00  3.7099E-03  0.0000E+00  1.3647E-02  0.0000E+00  0.0000E+00
 23  0.0000E+00  3.0428E-03  0.0000E+00  0.0000E+00  0.0000E+00  9.6654E-03  0.0000E+00  0.0000E+00  0.0000E+00
 24  0.0000E+00  5.4105E-03  0.0000E+00  0.0000E+00  0.0000E+00  0.0000E+00  0.0000E+00  0.0000E+00  0.0000E+00
 25  0.0000E+00  1.6875E-02  0.0000E+00  0.0000E+00  0.0000E+00  6.6985E-04  0.0000E+00  0.0000E+00  0.0000E+00
 26  0.0000E+00  3.1142E-02  0.0000E+00  0.0000E+00  0.0000E+00  0.0000E+00  0.0000E+00  0.0000E+00  7.9132E-02
 27  0.0000E+00  7.7640E-02  1.4897E-01  0.0000E+00  0.0000E+00  0.0000E+00  0.0000E+00  0.0000E+00  0.0000E+00
 28  0.0000E+00  9.5249E-02  0.0000E+00  0.0000E+00  0.0000E+00  0.0000E+00  0.0000E+00  0.0000E+00  0.0000E+00
 29  0.0000E+00  1.0976E-01  0.0000E+00  5.8774E-01  0.0000E+00  0.0000E+00  0.0000E+00  0.0000E+00  0.0000E+00
 30  0.0000E+00  1.1604E-01  3.0431E-01  0.0000E+00  0.0000E+00  0.0000E+00  0.0000E+00  0.0000E+00  0.0000E+00
 31  0.0000E+00  3.1528E-05  0.0000E+00  0.0000E+00  0.0000E+00  0.0000E+00  0.0000E+00  0.0000E+00  0.0000E+00
 32  0.0000E+00  3.5047E-05  0.0000E+00  0.0000E+00  0.0000E+00  0.0000E+00  0.0000E+00  0.0000E+00  0.0000E+00
 33  0.0000E+00  9.0779E-05  0.0000E+00  0.0000E+00  0.0000E+00  0.0000E+00  0.0000E+00  0.0000E+00  0.0000E+00
 34  0.0000E+00  8.4359E-05  0.0000E+00  0.0000E+00  0.0000E+00  0.0000E+00  0.0000E+00  0.0000E+00  0.0000E+00
 35  0.0000E+00  2.5747E-04  0.0000E+00  0.0000E+00  0.0000E+00  0.0000E+00  0.0000E+00  0.0000E+00  0.0000E+00
 36  0.0000E+00  1.0838E-03  0.0000E+00  0.0000E+00  0.0000E+00  3.2895E-04  0.0000E+00  2.5777E-03  0.0000E+00
 37  0.0000E+00  1.7834E-03  0.0000E+00  0.0000E+00  8.1201E-04  5.0054E-03  0.0000E+00  0.0000E+00  0.0000E+00
 38  0.0000E+00  3.5421E-03  0.0000E+00  0.0000E+00  0.0000E+00  0.0000E+00  0.0000E+00  0.0000E+00  0.0000E+00
 39  0.0000E+00  1.7908E-02  0.0000E+00  0.0000E+00  2.4456E-02  0.0000E+00  2.2454E-02  0.0000E+00  0.0000E+00
 40  0.0000E+00  5.1261E-02  0.0000E+00  0.0000E+00  0.0000E+00  0.0000E+00  0.0000E+00  0.0000E+00  0.0000E+00
 41  0.0000E+00  4.9593E-02  0.0000E+00  2.4416E-02  9.4988E-02  0.0000E+00  0.0000E+00  2.1726E-01  9.1100E-02
 42  0.0000E+00  4.9135E-02  0.0000E+00  3.0444E-01  0.0000E+00  0.0000E+00  7.4232E-02  0.0000E+00  0.0000E+00
 43  0.0000E+00  5.1127E-02  0.0000E+00  0.0000E+00  0.0000E+00  1.3050E-01  0.0000E+00  0.0000E+00  0.0000E+00
 44  0.0000E+00  1.3985E-01  0.0000E+00  0.0000E+00  0.0000E+00  5.2371E-01  0.0000E+00  4.8552E-01  0.0000E+00
 45  0.0000E+00  3.7017E-01  0.0000E+00  0.0000E+00  0.0000E+00  0.0000E+00  0.0000E+00  0.0000E+00  0.0000E+00

# AV, chi2 & Mass for <> & i_chain = 1 ...  7 solutions
AV       0.2834      0.2733      0.2773      0.2744      0.2743      0.2766      0.2799      0.2765      0.2779
chi2 2.8800E+00  2.9095E+00  2.8942E+00  2.9003E+00  2.8973E+00  2.8935E+00  2.8920E+00  2.8935E+00  2.8930E+00
Mass 2.8965E-10  2.9043E-10  2.8930E-10  2.9034E-10  2.9046E-10  2.8997E-10  2.8878E-10  2.8999E-10  2.9090E-10
  -6.50                                  [v0_min (km/s) before EX0s...]
  86.62                                  [vd_min (km/s) before EX0s...]


## Synthetic spectrum (Best Model) ##l_obs f_obs f_syn wei
 3070    [Nl_obs]
 3359.00    0.15448   0.51913   -1.000
 3360.00    0.27405   0.49906   -1.000
 3361.00    0.27348   0.49723   -1.000
 3362.00    0.28661   0.51533   -1.000
 3363.00    0.31002   0.54231   -1.000
 3364.00    0.33095   0.56248   -1.000
 3365.00    0.34387   0.56591   -1.000
 3366.00    0.34780   0.55323   -1.000
 3367.00    0.34238   0.53348   -1.000
 3368.00    0.33999   0.51715   -1.000
 3369.00    0.33587   0.50826   -1.000
 3370.00    0.32856   0.50426   -1.000
 3371.00    0.32691   0.50132   -1.000
 3372.00    0.33144   0.50177   -1.000
 3373.00    0.34460   0.51242   -1.000
 3374.00    0.36061   0.53448   -1.000
 3375.00    0.37355   0.56007   -1.000
 3376.00    0.39041   0.57538   -1.000
 3377.00    0.40531   0.57166   -1.000
 3378.00    0.41251   0.55323   -1.000
 3379.00    0.40490   0.53334   -1.000
 3380.00    0.39434   0.52481   -1.000
 3381.00    0.39673   0.53095   -1.000
 3382.00    0.40255   0.54571   -1.000
 3383.00    0.40746   0.56039   -1.000
 3384.00    0.41402   0.57193   -1.000
 3385.00    0.42115   0.58143   -1.000
 3386.00    0.42824   0.58755   -1.000
 3387.00    0.43389   0.58843   -1.000
 3388.00    0.43499   0.58575   -1.000
 3389.00    0.43897   0.58186   -1.000
 3390.00    0.44420   0.57626   -1.000
 3391.00    0.44754   0.56741   -1.000
 3392.00    0.44568   0.55772   -1.000
 3393.00    0.44080   0.55427   -1.000
 3394.00    0.44988   0.56216   -1.000
 3395.00    0.46213   0.57916   -1.000
 3396.00    0.46931   0.59867   -1.000
 3397.00    0.48714   0.61440   -1.000
 3398.00    0.50456   0.62235   -1.000
 3399.00    0.51018   0.62061   -1.000
 3400.00    0.50922   0.61029   -1.000
 3401.00    0.50545   0.59505   -1.000
 3402.00    0.49006   0.57968   -1.000
 3403.00    0.47735   0.56898   -1.000
 3404.00    0.47352   0.56437   -1.000
 3405.00    0.47139   0.56164   -1.000
 3406.00    0.46822   0.55627   -1.000
 3407.00    0.46361   0.54923   -1.000
 3408.00    0.46384   0.54628   -1.000
 3409.00    0.46103   0.55098   -1.000
 3410.00    0.45908   0.55960   -1.000
 3411.00    0.46697   0.56472   -1.000
 3412.00    0.47159   0.56277   -1.000
 3413.00    0.46901   0.55715   -1.000
 3414.00    0.46625   0.55409   -1.000
 3415.00    0.46804   0.55726   -1.000
 3416.00    0.47663   0.56704   -1.000
 3417.00    0.49504   0.58129   -1.000
 3418.00    0.50331   0.59654   -1.000
 3419.00    0.50836   0.60805   -1.000
 3420.00    0.51692   0.61170   -1.000
 3421.00    0.52066   0.60736   -1.000
 3422.00    0.51511   0.59951   -1.000
 3423.00    0.50653   0.59244   -1.000
 3424.00    0.50784   0.58820   -1.000
 3425.00    0.51119   0.58756   -1.000
 3426.00    0.51546   0.59183   -1.000
 3427.00    0.52182   0.60281   -1.000
 3428.00    0.52802   0.61840   -1.000
 3429.00    0.53337   0.62985   -1.000
 3430.00    0.54022   0.62953   -1.000
 3431.00    0.54554   0.61810   -1.000
 3432.00    0.53854   0.60400   -1.000
 3433.00    0.52789   0.59604   -1.000
 3434.00    0.52605   0.59650   -1.000
 3435.00    0.53305   0.60097   -1.000
 3436.00    0.53741   0.60216   -1.000
 3437.00    0.53288   0.59557   -1.000
 3438.00    0.51867   0.58000   -1.000
 3439.00    0.50434   0.55736   58.911
 3440.00    0.48994   0.53287   62.310
 3441.00    0.47525   0.51489   63.430
 3442.00    0.46908   0.50904   63.307
 3443.00    0.47455   0.51410   61.726
 3444.00    0.48750   0.52519   58.716
 3445.00    0.50588   0.53996   55.472
 3446.00    0.52225   0.55903   53.066
 3447.00    0.53687   0.58144   -1.000
 3448.00    0.54731   0.60178   -1.000
 3449.00    0.55296   0.61242   -1.000
 3450.00    0.55353   0.60872   -1.000
 3451.00    0.55234   0.59356   -1.000
 3452.00    0.55107   0.57599   -1.000
 3453.00    0.54802   0.56605   -1.000
 3454.00    0.54410   0.56670   -1.000
 3455.00    0.55651   0.57261   -1.000
 3456.00    0.57090   0.57515  399.090
 3457.00    0.56575   0.56961  399.090
 3458.00    0.55492   0.55845   83.081
 3459.00    0.54692   0.54657   51.356
 3460.00    0.54190   0.53877   51.456
 3461.00    0.53928   0.54016  104.679
 3462.00    0.54373   0.55160  399.090
 3463.00    0.55811   0.56552  399.090
 3464.00    0.57015   0.57372  399.090
 3465.00    0.57475   0.57600  399.090
 3466.00    0.57478   0.57759  399.090
 3467.00    0.57361   0.58243   -1.000
 3468.00    0.57931   0.58959   -1.000
 3469.00    0.58758   0.59568   -1.000
 3470.00    0.59309   0.59752  399.090
 3471.00    0.58902   0.59320  399.090
 3472.00    0.57860   0.58228  399.090
 3473.00    0.56826   0.56561  399.090
 3474.00    0.55366   0.54656   83.389
 3475.00    0.53240   0.53263   52.485
 3476.00    0.52408   0.53085   52.643
 3477.00    0.53541   0.54143  106.364
 3478.00    0.55820   0.55771  399.090
 3479.00    0.58035   0.57214   -1.000
 3480.00    0.59379   0.57998   -1.000
 3481.00    0.59811   0.58024   -1.000
 3482.00    0.59482   0.57523   -1.000
 3483.00    0.59078   0.57029   -1.000
 3484.00    0.58655   0.57181   -1.000
 3485.00    0.58776   0.58185  399.090
 3486.00    0.60143   0.59399   -1.000
 3487.00    0.61016   0.59728   -1.000
 3488.00    0.59923   0.58759   -1.000
 3489.00    0.58181   0.57104   -1.000
 3490.00    0.56590   0.55873   -1.000
 3491.00    0.56020   0.55651  399.090
 3492.00    0.56615   0.56009  399.090
 3493.00    0.57056   0.56131   -1.000
 3494.00    0.57048   0.55582   -1.000
 3495.00    0.56525   0.54704   -1.000
 3496.00    0.55689   0.54380   -1.000
 3497.00    0.55397   0.55284  399.090
 3498.00    0.56977   0.57036  399.090
 3499.00    0.59211   0.58471   -1.000
 3500.00    0.60933   0.59055   -1.000
 3501.00    0.61072   0.59196   -1.000
 3502.00    0.60684   0.59403   -1.000
 3503.00    0.61073   0.59533   -1.000
 3504.00    0.61046   0.59148   -1.000
 3505.00    0.60758   0.58410   -1.000
 3506.00    0.60010   0.57911   -1.000
 3507.00    0.59756   0.57842   -1.000
 3508.00    0.60180   0.57852   -1.000
 3509.00    0.59803   0.57533   -1.000
 3510.00    0.59095   0.56880   -1.000
 3511.00    0.58421   0.56141   -1.000
 3512.00    0.57753   0.55441   -1.000
 3513.00    0.57348   0.54967   -1.000
 3514.00    0.56978   0.55225   -1.000
 3515.00    0.57080   0.56475  399.090
 3516.00    0.58638   0.58311  399.090
 3517.00    0.60575   0.59855  399.090
 3518.00    0.60981   0.60337  399.090
 3519.00    0.60235   0.59621  399.090
 3520.00    0.58775   0.58172  399.090
 3521.00    0.57341   0.56655   -1.000
 3522.00    0.56503   0.55290   -1.000
 3523.00    0.55794   0.53954   81.815
 3524.00    0.54316   0.52803   51.997
 3525.00    0.53519   0.52386   52.576
 3526.00    0.53512   0.53227  108.692
 3527.00    0.54438   0.55161  399.090
 3528.00    0.56500   0.57319   -1.000
 3529.00    0.59109   0.58805  399.090
 3530.00    0.59990   0.59310  399.090
 3531.00    0.59643   0.59238  399.090
 3532.00    0.59558   0.59197  399.090
 3533.00    0.59675   0.59482  399.090
 3534.00    0.59792   0.59943  399.090
 3535.00    0.59991   0.60349  399.090
 3536.00    0.60027   0.60704  399.090
 3537.00    0.60273   0.61172   -1.000
 3538.00    0.60990   0.61766   -1.000
 3539.00    0.61743   0.62172  399.090
 3540.00    0.61865   0.62133  399.090
 3541.00    0.61163   0.61915   -1.000
 3542.00    0.60695   0.61969   -1.000
 3543.00    0.60867   0.62350   -1.000
 3544.00    0.61628   0.62733   -1.000
 3545.00    0.61583   0.62777   -1.000
 3546.00    0.60832   0.62554   -1.000
 3547.00    0.60410   0.62406   -1.000
 3548.00    0.60244   0.62523   -1.000
 3549.00    0.60556   0.62767   -1.000
 3550.00    0.60973   0.62822   -1.000
 3551.00    0.60436   0.62510   -1.000
 3552.00    0.59106   0.61891   -1.000
 3553.00    0.58301   0.61281   -1.000
 3554.00    0.57894   0.60950   -1.000
 3555.00    0.57862   0.60912   -1.000
 3556.00    0.58123   0.60967   -1.000
 3557.00    0.58485   0.60867   -1.000
 3558.00    0.58301   0.60593   -1.000
 3559.00    0.58118   0.60464   -1.000
 3560.00    0.58609   0.60859   -1.000
 3561.00    0.58927   0.61671   -1.000
 3562.00    0.59198   0.62086   -1.000
 3563.00    0.59290   0.61123   -1.000
 3564.00    0.57500   0.58745   81.549
 3565.00    0.54371   0.56272   52.682
 3566.00    0.52781   0.54861   53.198
 3567.00    0.52700   0.54415   52.760
 3568.00    0.53092   0.54054   53.699
 3569.00    0.52727   0.53265   55.048
 3570.00    0.51650   0.52539   54.409
 3571.00    0.51730   0.52548   52.247
 3572.00    0.52630   0.53214  108.174
 3573.00    0.53566   0.53954  399.090
 3574.00    0.54568   0.54384  399.090
 3575.00    0.54997   0.54607  399.090
 3576.00    0.55276   0.54803  399.090
 3577.00    0.55412   0.54799  399.090
 3578.00    0.55075   0.54170   84.186
 3579.00    0.54332   0.52794   55.619
 3580.00    0.52475   0.51232   59.260
 3581.00    0.50882   0.50195   60.802
 3582.00    0.50374   0.49871   61.096
 3583.00    0.51012   0.49779   62.113
 3584.00    0.50788   0.49282   63.978
 3585.00    0.49013   0.48458   65.378
 3586.00    0.48214   0.47985   63.716
 3587.00    0.48381   0.48375   60.365
 3588.00    0.49474   0.49709   57.328
 3589.00    0.51255   0.51738   53.092
 3590.00    0.53234   0.54001  107.910
 3591.00    0.55412   0.55884  399.090
 3592.00    0.56893   0.57000  399.090
 3593.00    0.56991   0.57498  399.090
 3594.00    0.57310   0.57951  399.090
 3595.00    0.58008   0.58790   -1.000
 3596.00    0.58729   0.59936   -1.000
 3597.00    0.59455   0.61067   -1.000
 3598.00    0.59972   0.61899   -1.000
 3599.00    0.60904   0.62142   -1.000
 3600.00    0.61251   0.61525  397.805
 3601.00    0.60196   0.60025  399.090
 3602.00    0.58353   0.58103  399.090
 3603.00    0.56576   0.56507  399.090
 3604.00    0.56043   0.55789  399.090
 3605.00    0.56471   0.55870  399.090
 3606.00    0.56761   0.56067   -1.000
 3607.00    0.56477   0.55772   -1.000
 3608.00    0.55300   0.55033  399.090
 3609.00    0.54283   0.54549  399.090
 3610.00    0.54405   0.54813  399.090
 3611.00    0.55573   0.55529  399.090
 3612.00    0.56064   0.56273  399.090
 3613.00    0.56001   0.57027   -1.000
 3614.00    0.56922   0.57920   -1.000
 3615.00    0.58234   0.58605  399.090
 3616.00    0.58449   0.58224  399.090
 3617.00    0.56807   0.56618  399.090
 3618.00    0.54226   0.55005   79.690
 3619.00    0.53277   0.54690  108.170
 3620.00    0.54920   0.55853   -1.000
 3621.00    0.57458   0.57622  399.090
 3622.00    0.59360   0.59126  399.090
 3623.00    0.59941   0.60210  396.799
 3624.00    0.59777   0.61363   -1.000
 3625.00    0.60514   0.62977   -1.000
 3626.00    0.62106   0.64711   -1.000
 3627.00    0.63166   0.65674   -1.000
 3628.00    0.63087   0.64956   -1.000
 3629.00    0.61328   0.62414   -1.000
 3630.00    0.57991   0.59101   -1.000
 3631.00    0.55189   0.56592   -1.000
 3632.00    0.54417   0.55862   -1.000
 3633.00    0.55230   0.56640   -1.000
 3634.00    0.56731   0.57913   -1.000
 3635.00    0.57932   0.58876   -1.000
 3636.00    0.59186   0.59566  399.090
 3637.00    0.60263   0.60485  387.876
 3638.00    0.61229   0.61793  373.145
 3639.00    0.62034   0.63022   -1.000
 3640.00    0.62281   0.63420   -1.000
 3641.00    0.61574   0.62659   -1.000
 3642.00    0.60278   0.61070  399.090
 3643.00    0.58916   0.59386  399.090
 3644.00    0.57695   0.58213  399.090
 3645.00    0.57335   0.57601  399.090
 3646.00    0.57531   0.57261  399.090
 3647.00    0.56910   0.57080  399.090
 3648.00    0.56491   0.57202  399.090
 3649.00    0.57032   0.57801  399.090
 3650.00    0.58201   0.58929  399.090
 3651.00    0.59335   0.60423   -1.000
 3652.00    0.60658   0.61939   -1.000
 3653.00    0.61640   0.63162   -1.000
 3654.00    0.62425   0.63983   -1.000
 3655.00    0.62925   0.64625   -1.000
 3656.00    0.63462   0.65315   -1.000
 3657.00    0.63990   0.65962   -1.000
 3658.00    0.64091   0.66322   -1.000
 3659.00    0.64264   0.66252   -1.000
 3660.00    0.64072   0.65769   -1.000
 3661.00    0.63697   0.65022   -1.000
 3662.00    0.62779   0.64235   -1.000
 3663.00    0.62110   0.63653   -1.000
 3664.00    0.62473   0.63435   -1.000
 3665.00    0.63327   0.63444  361.950
 3666.00    0.63135   0.63327  366.771
 3667.00    0.62591   0.62826  372.316
 3668.00    0.61652   0.62166  379.537
 3669.00    0.60613   0.61989   -1.000
 3670.00    0.60830   0.62612   -1.000
 3671.00    0.62193   0.63707   -1.000
 3672.00    0.63017   0.64598   -1.000
 3673.00    0.63409   0.64838   -1.000
 3674.00    0.63662   0.64418  358.104
 3675.00    0.63324   0.63480  365.236
 3676.00    0.62512   0.62214  376.711
 3677.00    0.61323   0.60892  388.266
 3678.00    0.60050   0.59842  398.891
 3679.00    0.58926   0.59340  399.090
 3680.00    0.58885   0.59443  394.988
 3681.00    0.59911   0.59982  383.876
 3682.00    0.60640   0.60583  377.431
 3683.00    0.60734   0.60770  381.791
 3684.00    0.60418   0.60175  395.144
 3685.00    0.59376   0.58934  399.090
 3686.00    0.58271   0.57844  399.090
 3687.00    0.57954   0.57780  399.090
 3688.00    0.58822   0.59013  395.831
 3689.00    0.60838   0.61032  369.451
 3690.00    0.62615   0.62925  353.285
 3691.00    0.63381   0.63997  350.958
 3692.00    0.63951   0.64270  358.120
 3693.00    0.64557   0.64153  365.035
 3694.00    0.64450   0.63861  365.883
 3695.00    0.63755   0.63467  363.186
 3696.00    0.63005   0.63302  359.178
 3697.00    0.63200   0.63952  350.094
 3698.00    0.64802   0.65602   -1.000
 3699.00    0.67161   0.67487  334.101
 3700.00    0.68159   0.68278  336.384
 3701.00    0.67304   0.67006  348.487
 3702.00    0.64417   0.63780  374.987
 3703.00    0.60282   0.59805  399.090
 3704.00    0.57128   0.56645  399.090
 3705.00    0.56391   0.55360   -1.000
 3706.00    0.57458   0.55844   -1.000
 3707.00    0.59083   0.57116   -1.000
 3708.00    0.60218   0.58175   -1.000
 3709.00    0.60808   0.58580   -1.000
 3710.00    0.60489   0.58700   -1.000
 3711.00    0.60367   0.59442   -1.000
 3712.00    0.61475   0.61396  345.034
 3713.00    0.64342   0.64259  333.559
 3714.00    0.68050   0.67139  329.869
 3715.00    0.70315   0.69109   -1.000
 3716.00    0.71107   0.69541   -1.000
 3717.00    0.69935   0.68048   -1.000
 3718.00    0.66389   0.64416   -1.000
 3719.00    0.60944   0.59253   -1.000
 3720.00    0.55224   0.54369   79.381
 3721.00    0.51886   0.51766  113.902
 3722.00    0.52392   0.52463  399.090
 3723.00    0.56575   0.56035  398.875
 3724.00    0.62369   0.60750   -1.000
 3725.00    0.66974   0.64509   -1.000
 3726.00    0.68400   0.66511   -1.000
 3727.00    0.67905   0.67474  384.947
 3728.00    0.67798   0.68094  382.023
 3729.00    0.68211   0.68049  382.028
 3730.00    0.67327   0.66318   -1.000
 3731.00    0.64450   0.62315   -1.000
 3732.00    0.59483   0.56726   77.236
 3733.00    0.53419   0.51217   54.390
 3734.00    0.48856   0.47593   58.212
 3735.00    0.47758   0.47014   57.156
 3736.00    0.50034   0.49583   52.648
 3737.00    0.54800   0.54507  111.415
 3738.00    0.60933   0.60484  399.090
 3739.00    0.66192   0.65925  388.578
 3740.00    0.69557   0.69511  378.871
 3741.00    0.70679   0.70753  387.434
 3742.00    0.69878   0.69943  399.090
 3743.00    0.67932   0.67763  399.090
 3744.00    0.65166   0.64881  399.090
 3745.00    0.62540   0.61607   -1.000
 3746.00    0.59867   0.57894   78.499
 3747.00    0.56481   0.53700   53.508
 3748.00    0.51962   0.49748   55.196
 3749.00    0.48646   0.47686  122.587
 3750.00    0.50101   0.48832   -1.000
 3751.00    0.55262   0.53057   -1.000
 3752.00    0.61568   0.59013   -1.000
 3753.00    0.67244   0.65050   -1.000
 3754.00    0.71792   0.69787   -1.000
 3755.00    0.74688   0.72198   -1.000
 3756.00    0.74254   0.71917   -1.000
 3757.00    0.71047   0.69814   -1.000
 3758.00    0.67863   0.67643  399.090
 3759.00    0.67235   0.66764  399.090
 3760.00    0.68826   0.67268   -1.000
 3761.00    0.70743   0.68382   -1.000
 3762.00    0.71655   0.69394   -1.000
 3763.00    0.71487   0.69842   -1.000
 3764.00    0.71249   0.69348   -1.000
 3765.00    0.70292   0.67723   -1.000
 3766.00    0.68245   0.65134   -1.000
 3767.00    0.65726   0.61950   -1.000
 3768.00    0.63157   0.58620   -1.000
 3769.00    0.60142   0.55836   -1.000
 3770.00    0.57927   0.54620   -1.000
 3771.00    0.58896   0.55798   -1.000
 3772.00    0.63006   0.59068   -1.000
 3773.00    0.67525   0.63073   -1.000
 3774.00    0.70148   0.66676   -1.000
 3775.00    0.72142   0.69651   -1.000
 3776.00    0.74442   0.72337   -1.000
 3777.00    0.76532   0.75067   -1.000
 3778.00    0.78751   0.77839  337.363
 3779.00    0.80637   0.80361  328.177
 3780.00    0.82100   0.82309  324.017
 3781.00    0.83182   0.83541  322.012
 3782.00    0.83631   0.84092  321.418
 3783.00    0.83808   0.83914  326.211
 3784.00    0.83540   0.82762  340.040
 3785.00    0.81702   0.80570   -1.000
 3786.00    0.78604   0.77867   -1.000
 3787.00    0.76367   0.75507   -1.000
 3788.00    0.75664   0.74013   -1.000
 3789.00    0.75479   0.73302   -1.000
 3790.00    0.74848   0.72847   -1.000
 3791.00    0.73810   0.71908   -1.000
 3792.00    0.72165   0.69897   -1.000
 3793.00    0.69213   0.66679   -1.000
 3794.00    0.65737   0.62532   -1.000
 3795.00    0.61998   0.57945   -1.000
 3796.00    0.57854   0.53528   -1.000
 3797.00    0.54143   0.50314   -1.000
 3798.00    0.52735   0.49765   -1.000
 3799.00    0.55586   0.52607   -1.000
 3800.00    0.61400   0.58035   -1.000
 3801.00    0.67515   0.64333   -1.000
 3802.00    0.72291   0.69897   -1.000
 3803.00    0.75558   0.73848   -1.000
 3804.00    0.77517   0.76001   -1.000
 3805.00    0.78245   0.76707   -1.000
 3806.00    0.77657   0.76965  381.822
 3807.00    0.78067   0.77960  377.916
 3808.00    0.80199   0.80048  364.700
 3809.00    0.82395   0.82453  356.959
 3810.00    0.83551   0.83860  360.076
 3811.00    0.83254   0.83319  375.140
 3812.00    0.81238   0.80908  397.551
 3813.00    0.78546   0.77740   -1.000
 3814.00    0.76557   0.75323   -1.000
 3815.00    0.75367   0.74618   -1.000
 3816.00    0.76201   0.75318   -1.000
 3817.00    0.78296   0.76085   -1.000
 3818.00    0.78387   0.75745   -1.000
 3819.00    0.75687   0.74281   -1.000
 3820.00    0.73249   0.72818  399.090
 3821.00    0.73875   0.72263   -1.000
 3822.00    0.75500   0.72117   -1.000
 3823.00    0.74929   0.71204   -1.000
 3824.00    0.72203   0.69168   79.699
 3825.00    0.69169   0.66797   53.938
 3826.00    0.67480   0.65015   54.044
 3827.00    0.66925   0.63977   53.299
 3828.00    0.66430   0.63148   52.423
 3829.00    0.65730   0.61834   52.535
 3830.00    0.64320   0.59529   54.318
 3831.00    0.61061   0.56080   -1.000
 3832.00    0.56702   0.51812   -1.000
 3833.00    0.52564   0.47598   -1.000
 3834.00    0.49723   0.44596   -1.000
 3835.00    0.48985   0.43579   -1.000
 3836.00    0.50430   0.44532   -1.000
 3837.00    0.52699   0.46853   -1.000
 3838.00    0.55156   0.49957   -1.000
 3839.00    0.58112   0.53730   55.903
 3840.00    0.61488   0.58237   -1.000
 3841.00    0.65915   0.63217   -1.000
 3842.00    0.71024   0.68034   -1.000
 3843.00    0.75289   0.72006   -1.000
 3844.00    0.77819   0.74883   -1.000
 3845.00    0.78690   0.76948   -1.000
 3846.00    0.79351   0.78555  399.090
 3847.00    0.80009   0.79656  399.090
 3848.00    0.79942   0.80092  399.090
 3849.00    0.79017   0.80171   -1.000
 3850.00    0.78606   0.80483   -1.000
 3851.00    0.79832   0.81278   -1.000
 3852.00    0.81590   0.82134  399.090
 3853.00    0.82371   0.82369  399.090
 3854.00    0.81874   0.81791  399.090
 3855.00    0.80544   0.80714  399.090
 3856.00    0.79200   0.79444  399.090
 3857.00    0.78267   0.78137   74.927
 3858.00    0.76732   0.77070   52.407
 3859.00    0.74893   0.76839   52.804
 3860.00    0.74981   0.77894   -1.000
 3861.00    0.78011   0.79916   -1.000
 3862.00    0.81905   0.81895  399.090
 3863.00    0.84309   0.82959   -1.000
 3864.00    0.84802   0.83085   -1.000
 3865.00    0.83959   0.82823   -1.000
 3866.00    0.83009   0.82646  399.090
 3867.00    0.82611   0.82621  399.090
 3868.00    0.82637   0.82352  399.090
 3869.00    0.81359   0.81312  399.090
 3870.00    0.79048   0.79373   75.827
 3871.00    0.76958   0.77207  118.900
 3872.00    0.75479   0.75930  399.090
 3873.00    0.76152   0.76266  399.090
 3874.00    0.78606   0.77717   -1.000
 3875.00    0.80404   0.78750   -1.000
 3876.00    0.79590   0.78211   -1.000
 3877.00    0.76446   0.76417  399.090
 3878.00    0.73617   0.74626   -1.000
 3879.00    0.72868   0.73612  399.090
 3880.00    0.73022   0.73044  399.090
 3881.00    0.72031   0.72219  399.090
 3882.00    0.70750   0.70825  399.090
 3883.00    0.69930   0.68794   -1.000
 3884.00    0.68924   0.65880   -1.000
 3885.00    0.65839   0.61787   -1.000
 3886.00    0.61748   0.56925   -1.000
 3887.00    0.57613   0.52552   -1.000
 3888.00    0.54329   0.50155   -1.000
 3889.00    0.54428   0.50700   -1.000
 3890.00    0.58711   0.54078   -1.000
 3891.00    0.64836   0.58971   -1.000
 3892.00    0.69405   0.63627   -1.000
 3893.00    0.71952   0.67091   -1.000
 3894.00    0.73018   0.69572   -1.000
 3895.00    0.74278   0.71746   -1.000
 3896.00    0.76442   0.73839   -1.000
 3897.00    0.78501   0.75537   -1.000
 3898.00    0.79024   0.76708   -1.000
 3899.00    0.78822   0.77729   -1.000
 3900.00    0.79982   0.78932   -1.000
 3901.00    0.81412   0.80095   -1.000
 3902.00    0.82216   0.80653   -1.000
 3903.00    0.82343   0.80365   -1.000
 3904.00    0.81817   0.79701   -1.000
 3905.00    0.80439   0.79551   -1.000
 3906.00    0.80224   0.80609  353.180
 3907.00    0.82332   0.82932  330.153
 3908.00    0.85460   0.85770  317.412
 3909.00    0.87537   0.88132  313.092
 3910.00    0.88827   0.89514  310.198
 3911.00    0.89515   0.89901  307.976
 3912.00    0.88986   0.89470  309.771
 3913.00    0.87401   0.88564   -1.000
 3914.00    0.86343   0.87618   -1.000
 3915.00    0.86403   0.86900  327.811
 3916.00    0.86230   0.86366  332.084
 3917.00    0.85638   0.85747  340.014
 3918.00    0.84723   0.84850  353.409
 3919.00    0.83334   0.83784  370.001
 3920.00    0.82125   0.82962   -1.000
 3921.00    0.81562   0.82758   -1.000
 3922.00    0.81732   0.83087   -1.000
 3923.00    0.82161   0.83351   -1.000
 3924.00    0.82145   0.82798  388.356
 3925.00    0.80698   0.80986  399.090
 3926.00    0.77370   0.77870  399.090
 3927.00    0.73354   0.73680   82.097
 3928.00    0.68785   0.68709   62.279
 3929.00    0.63171   0.63066   72.928
 3930.00    0.56960   0.56814   85.938
 3931.00    0.49733   0.50316  100.989
 3932.00    0.42005   0.44648  113.159
 3933.00    0.37034   0.41512   -1.000
 3934.00    0.37464   0.42216   -1.000
 3935.00    0.43133   0.46560   85.192
 3936.00    0.51262   0.53095   70.081
 3937.00    0.59337   0.60155   58.489
 3938.00    0.65859   0.66593  129.655
 3939.00    0.70731   0.71808   -1.000
 3940.00    0.74361   0.75483   -1.000
 3941.00    0.76684   0.77593   -1.000
 3942.00    0.77667   0.78546   -1.000
 3943.00    0.78112   0.79054   -1.000
 3944.00    0.79091   0.79789  384.370
 3945.00    0.81463   0.80939  357.754
 3946.00    0.83772   0.82106   -1.000
 3947.00    0.84094   0.82896   -1.000
 3948.00    0.83800   0.83377  336.105
 3949.00    0.84395   0.83745  324.564
 3950.00    0.85287   0.83985   -1.000
 3951.00    0.85426   0.84103   -1.000
 3952.00    0.84992   0.84292  323.513
 3953.00    0.85483   0.84586  316.078
 3954.00    0.86499   0.84573   -1.000
 3955.00    0.85440   0.83882   -1.000
 3956.00    0.82998   0.82818  332.243
 3957.00    0.81505   0.81935  330.009
 3958.00    0.81676   0.81072  333.023
 3959.00    0.81590   0.79387   -1.000
 3960.00    0.78726   0.76295   -1.000
 3961.00    0.74020   0.72177   -1.000
 3962.00    0.69722   0.67845   -1.000
 3963.00    0.66069   0.63488   76.929
 3964.00    0.61346   0.58490   58.707
 3965.00    0.54364   0.52115   71.112
 3966.00    0.45552   0.44616   87.326
 3967.00    0.36572   0.37564  100.204
 3968.00    0.30430   0.33030   98.657
 3969.00    0.29722   0.32308   84.287
 3970.00    0.34284   0.35347   69.275
 3971.00    0.41948   0.41003   57.634
 3972.00    0.50366   0.47873  128.586
 3973.00    0.58082   0.54900   -1.000
 3974.00    0.64769   0.61465   -1.000
 3975.00    0.70362   0.67293   -1.000
 3976.00    0.74594   0.72323   -1.000
 3977.00    0.78403   0.76686   -1.000
 3978.00    0.82005   0.80442   -1.000
 3979.00    0.84997   0.83324   -1.000
 3980.00    0.86874   0.84987   -1.000
 3981.00    0.87405   0.85591   -1.000
 3982.00    0.87181   0.85892   -1.000
 3983.00    0.87814   0.86589   -1.000
 3984.00    0.89415   0.87745   -1.000
 3985.00    0.90625   0.89005   -1.000
 3986.00    0.91752   0.90153   -1.000
 3987.00    0.93024   0.91251   -1.000
 3988.00    0.93763   0.92346   -1.000
 3989.00    0.94259   0.93385  268.663
 3990.00    0.94639   0.94391  263.834
 3991.00    0.95563   0.95412  257.453
 3992.00    0.97004   0.96231  257.492
 3993.00    0.97202   0.96439  262.809
 3994.00    0.96824   0.95829  269.009
 3995.00    0.95594   0.94650  274.512
 3996.00    0.93691   0.93539  277.774
 3997.00    0.92770   0.93198  274.212
 3998.00    0.93976   0.93905  263.485
 3999.00    0.96159   0.95360  253.471
 4000.00    0.98040   0.96899  248.000
 4001.00    0.99378   0.97807  244.363
 4002.00    1.00084   0.97575   -1.000
 4003.00    0.98942   0.96151   -1.000
 4004.00    0.95991   0.94091   -1.000
 4005.00    0.93426   0.92612  277.552
 4006.00    0.93569   0.92798  265.561
 4007.00    0.96360   0.94561   -1.000
 4008.00    0.98622   0.96807   -1.000
 4009.00    0.99640   0.98503  245.151
 4010.00    0.99924   0.99328  243.752
 4011.00    1.00135   0.99554  244.705
 4012.00    0.99947   0.99636  246.206
 4013.00    0.99476   0.99849  245.369
 4014.00    0.99868   1.00151  242.355
 4015.00    1.00815   1.00397  242.653
 4016.00    1.01183   1.00601  245.442
 4017.00    1.00476   1.00945  245.616
 4018.00    1.00375   1.01509   -1.000
 4019.00    1.01047   1.02089   -1.000
 4020.00    1.01186   1.02333   -1.000
 4021.00    1.00891   1.02049   -1.000
 4022.00    1.00622   1.01321  248.100
 4023.00    0.99933   1.00460  249.949
 4024.00    0.99329   0.99963  246.289
 4025.00    0.99624   1.00261  238.213
 4026.00    1.00774   1.01206  232.198
 4027.00    1.02142   1.01883  232.168
 4028.00    1.01901   1.01327  239.432
 4029.00    0.99590   0.99437  253.872
 4030.00    0.97029   0.97015  266.891
 4031.00    0.95534   0.95139  272.597
 4032.00    0.95085   0.94494  271.160
 4033.00    0.95465   0.95175  263.879
 4034.00    0.96983   0.96923  252.079
 4035.00    0.99159   0.99404  239.567
 4036.00    1.01808   1.02132  230.080
 4037.00    1.03927   1.04335  226.966
 4038.00    1.04402   1.05289  230.070
 4039.00    1.03547   1.04995   -1.000
 4040.00    1.02208   1.04108   -1.000
 4041.00    1.01644   1.03061   -1.000
 4042.00    1.01304   1.01519  248.846
 4043.00    0.99615   0.98949  269.338
 4044.00    0.95540   0.95902  292.291
 4045.00    0.92145   0.94068   -1.000
 4046.00    0.92629   0.94667   -1.000
 4047.00    0.96245   0.97305   -1.000
 4048.00    1.00093   1.00444  238.152
 4049.00    1.02018   1.02677  234.210
 4050.00    1.02145   1.03491   -1.000
 4051.00    1.02388   1.03056  239.498
 4052.00    1.01455   1.01825  245.903
 4053.00    0.99867   1.00442  250.531
 4054.00    0.98794   0.99450  253.096
 4055.00    0.98769   0.98917  254.883
 4056.00    0.98768   0.98697  257.263
 4057.00    0.98452   0.98883  256.009
 4058.00    0.98716   0.99652   -1.000
 4059.00    1.00000   1.00642  242.255
 4060.00    1.01265   1.00844  243.648
 4061.00    1.00477   0.99551  257.256
 4062.00    0.96941   0.97170  275.704
 4063.00    0.93411   0.94912   -1.000
 4064.00    0.93456   0.93783  267.410
 4065.00    0.95756   0.93932   -1.000
 4066.00    0.97297   0.94895   -1.000
 4067.00    0.98098   0.96165   -1.000
 4068.00    0.99594   0.97162   -1.000
 4069.00    1.00706   0.97216   -1.000
 4070.00    0.99022   0.96207   -1.000
 4071.00    0.96593   0.94950   -1.000
 4072.00    0.96188   0.94411   -1.000
 4073.00    0.97423   0.94523   -1.000
 4074.00    0.98255   0.94206   -1.000
 4075.00    0.96789   0.92728   -1.000
 4076.00    0.93216   0.90646   -1.000
 4077.00    0.90834   0.89371   -1.000
 4078.00    0.91393   0.89959   -1.000
 4079.00    0.93964   0.92246   -1.000
 4080.00    0.97112   0.94914   -1.000
 4081.00    0.99216   0.96498   -1.000
 4082.00    0.98911   0.96461   -1.000
 4083.00    0.96956   0.95430   -1.000
 4084.00    0.95714   0.94563  249.053
 4085.00    0.95825   0.94696  241.934
 4086.00    0.96978   0.95857  232.889
 4087.00    0.98291   0.97347  224.926
 4088.00    0.99274   0.98255  223.428
 4089.00    0.99011   0.98076  227.052
 4090.00    0.98074   0.96996  231.496
 4091.00    0.97161   0.95580   -1.000
 4092.00    0.95708   0.94129   -1.000
 4093.00    0.94632   0.92447   -1.000
 4094.00    0.93159   0.90190   -1.000
 4095.00    0.90273   0.87301   -1.000
 4096.00    0.87487   0.83971   -1.000
 4097.00    0.85329   0.80194   -1.000
 4098.00    0.82417   0.75656   -1.000
 4099.00    0.77414   0.70273   -1.000
 4100.00    0.70422   0.64970   -1.000
 4101.00    0.64465   0.61652   -1.000
 4102.00    0.64082   0.61925   -1.000
 4103.00    0.69714   0.65798   -1.000
 4104.00    0.77194   0.71623   -1.000
 4105.00    0.82991   0.77310   -1.000
 4106.00    0.86337   0.81657   -1.000
 4107.00    0.88271   0.84560   -1.000
 4108.00    0.89202   0.86432   -1.000
 4109.00    0.89828   0.87799   -1.000
 4110.00    0.90606   0.89121   -1.000
 4111.00    0.91697   0.90647  251.215
 4112.00    0.93800   0.92413  246.458
 4113.00    0.95861   0.94331   -1.000
 4114.00    0.96696   0.96149  239.777
 4115.00    0.97591   0.97422  239.919
 4116.00    0.98084   0.97784  243.905
 4117.00    0.97004   0.97300  251.320
 4118.00    0.95553   0.96487  255.997
 4119.00    0.95410   0.95924  254.558
 4120.00    0.96300   0.95845  251.681
 4121.00    0.96328   0.96122  251.094
 4122.00    0.96442   0.96600  249.299
 4123.00    0.97363   0.97265  245.334
 4124.00    0.98424   0.97964  243.432
 4125.00    0.99310   0.98274  245.534
 4126.00    0.99168   0.97917  250.316
 4127.00    0.97945   0.97144  253.419
 4128.00    0.97129   0.96442  254.900
 4129.00    0.97054   0.95925  257.535
 4130.00    0.96420   0.95272  264.245
 4131.00    0.94955   0.94365  272.687
 4132.00    0.93710   0.93734  275.767
 4133.00    0.93545   0.94122  269.420
 4134.00    0.94519   0.95752   -1.000
 4135.00    0.96730   0.98140   -1.000
 4136.00    0.99021   1.00549   -1.000
 4137.00    1.00697   1.02487   -1.000
 4138.00    1.02035   1.03745   -1.000
 4139.00    1.02476   1.04035   -1.000
 4140.00    1.01901   1.02961   -1.000
 4141.00    0.99803   1.00593  269.024
 4142.00    0.96049   0.97831   -1.000
 4143.00    0.92904   0.96035   -1.000
 4144.00    0.93355   0.96108   -1.000
 4145.00    0.96543   0.97685   -1.000
 4146.00    0.99100   0.99466  250.915
 4147.00    0.99717   1.00442  253.591
 4148.00    0.99261   1.00576   -1.000
 4149.00    0.98479   1.00446   -1.000
 4150.00    0.98305   1.00434   -1.000
 4151.00    0.98564   1.00372   -1.000
 4152.00    0.98345   0.99921   -1.000
 4153.00    0.96801   0.99088   -1.000
 4154.00    1.01361   0.98329   -1.000
 4155.00    1.07508   0.98174   -1.000
 4156.00    0.99610   0.98804  262.303
 4157.00    0.90762   0.99973   -1.000
 4158.00    0.94322   1.01244   -1.000
 4159.00    1.00084   1.02238   -1.000
 4160.00    1.01222   1.02858   -1.000
 4161.00    1.01136   1.03298   -1.000
 4162.00    1.00849   1.03751   -1.000
 4163.00    1.00819   1.04167   -1.000
 4164.00    1.00908   1.04302   -1.000
 4165.00    1.00381   1.03971   -1.000
 4166.00    0.99777   1.03283   -1.000
 4167.00    0.99398   1.02557   -1.000
 4168.00    0.99633   1.01860   -1.000
 4169.00    0.99936   1.00736  256.331
 4170.00    0.98295   0.98696  268.011
 4171.00    0.95307   0.96001  284.508
 4172.00    0.92398   0.93767   -1.000
 4173.00    0.91412   0.93108   -1.000
 4174.00    0.92729   0.94075   -1.000
 4175.00    0.94825   0.95628   -1.000
 4176.00    0.96010   0.96733  270.471
 4177.00    0.95787   0.97288   -1.000
 4178.00    0.95704   0.97828   -1.000
 4179.00    0.97015   0.98590   -1.000
 4180.00    0.98113   0.99226   -1.000
 4181.00    0.97760   0.99430   -1.000
 4182.00    0.97306   0.99429   -1.000
 4183.00    0.97522   0.99627   -1.000
 4184.00    0.97749   0.99953   -1.000
 4185.00    0.97909   0.99951   -1.000
 4186.00    0.97290   0.99475   -1.000
 4187.00    0.95930   0.98948   -1.000
 4188.00    0.95969   0.98890   -1.000
 4189.00    0.97080   0.99377   -1.000
 4190.00    0.97659   1.00151   -1.000
 4191.00    0.98024   1.01025   -1.000
 4192.00    0.99088   1.01792   -1.000
 4193.00    1.00171   1.01994   -1.000
 4194.00    1.00068   1.01213   -1.000
 4195.00    0.98274   0.99488   -1.000
 4196.00    0.96077   0.97334   -1.000
 4197.00    0.93921   0.95406   -1.000
 4198.00    0.92586   0.94150   -1.000
 4199.00    0.92737   0.93695   -1.000
 4200.00    0.93631   0.93876  271.376
 4201.00    0.93971   0.94392  269.954
 4202.00    0.94070   0.95095   -1.000
 4203.00    0.94577   0.96072   -1.000
 4204.00    0.95189   0.97393   -1.000
 4205.00    0.95718   0.98938   -1.000
 4206.00    0.96340   1.00441   -1.000
 4207.00    0.97796   1.01574   -1.000
 4208.00    0.98617   1.02155   -1.000
 4209.00    0.98732   1.02346   -1.000
 4210.00    0.98503   1.02509   -1.000
 4211.00    0.98745   1.02742   -1.000
 4212.00    0.99480   1.02650   -1.000
 4213.00    0.98871   1.01752   -1.000
 4214.00    0.96341   1.00172   -1.000
 4215.00    0.94104   0.98755   -1.000
 4216.00    0.94079   0.98421   -1.000
 4217.00    0.96274   0.99428   -1.000
 4218.00    0.98530   1.01180   -1.000
 4219.00    0.99606   1.02711   -1.000
 4220.00    1.00266   1.03293   -1.000
 4221.00    1.00352   1.02546   -1.000
 4222.00    0.99106   1.00286   -1.000
 4223.00    0.96150   0.96628  273.386
 4224.00    0.92533   0.92266  307.546
 4225.00    0.87372   0.88544   -1.000
 4226.00    0.83009   0.87042   -1.000
 4227.00    0.83815   0.88630   -1.000
 4228.00    0.89627   0.92561   -1.000
 4229.00    0.95457   0.96771   -1.000
 4230.00    0.98411   0.99425   -1.000
 4231.00    0.98523   0.99985   -1.000
 4232.00    0.97022   0.99077   -1.000
 4233.00    0.95843   0.97736   -1.000
 4234.00    0.95688   0.96691   -1.000
 4235.00    0.95047   0.96141   -1.000
 4236.00    0.94249   0.96053   -1.000
 4237.00    0.94457   0.96442   -1.000
 4238.00    0.94853   0.97297   -1.000
 4239.00    0.95745   0.98420   -1.000
 4240.00    0.97202   0.99513   -1.000
 4241.00    0.97919   1.00390   -1.000
 4242.00    0.98265   1.01049   -1.000
 4243.00    0.98471   1.01480   -1.000
 4244.00    0.98604   1.01451   -1.000
 4245.00    0.98286   1.00654   -1.000
 4246.00    0.96612   0.99143   -1.000
 4247.00    0.94383   0.97500   -1.000
 4248.00    0.93326   0.96430   -1.000
 4249.00    0.92862   0.96256   -1.000
 4250.00    0.92945   0.96829   -1.000
 4251.00    0.94183   0.97681   -1.000
 4252.00    0.96290   0.98241   -1.000
 4253.00    0.96614   0.98232   -1.000
 4254.00    0.95310   0.98033   -1.000
 4255.00    0.95395   0.98185   -1.000
 4256.00    0.97356   0.98541   -1.000
 4257.00    0.97844   0.98339  246.796
 4258.00    0.96176   0.97190   -1.000
 4259.00    0.94335   0.95754   -1.000
 4260.00    0.92840   0.95261   -1.000
 4261.00    0.93339   0.96401   -1.000
 4262.00    0.96024   0.98745   -1.000
 4263.00    0.98999   1.01176   -1.000
 4264.00    1.00391   1.02765   -1.000
 4265.00    1.00818   1.03205   -1.000
 4266.00    1.00249   1.02647   -1.000
 4267.00    0.98682   1.01311   -1.000
 4268.00    0.97452   0.99289   -1.000
 4269.00    0.95998   0.96697  266.672
 4270.00    0.93105   0.93933  283.644
 4271.00    0.89719   0.91697   -1.000
 4272.00    0.88473   0.90642   -1.000
 4273.00    0.89532   0.90961   -1.000
 4274.00    0.90651   0.92433   -1.000
 4275.00    0.92416   0.94734   -1.000
 4276.00    0.95612   0.97338   -1.000
 4277.00    0.98370   0.99391   -1.000
 4278.00    0.98950   1.00178   -1.000
 4279.00    0.97195   0.99749   -1.000
 4280.00    0.94787   0.98842   -1.000
 4281.00    0.94175   0.98170   -1.000
 4282.00    0.94735   0.97863   -1.000
 4283.00    0.95012   0.97570   -1.000
 4284.00    0.94725   0.96967   -1.000
 4285.00    0.93537   0.95960   -1.000
 4286.00    0.92487   0.94529   -1.000
 4287.00    0.91609   0.92693   -1.000
 4288.00    0.89649   0.90693   -1.000
 4289.00    0.86692   0.89209   -1.000
 4290.00    0.85913   0.89023   -1.000
 4291.00    0.87822   0.90183   -1.000
 4292.00    0.90986   0.91761  259.358
 4293.00    0.92619   0.92667  260.043
 4294.00    0.92314   0.92475  263.974
 4295.00    0.91709   0.91384  269.617
 4296.00    0.90819   0.89613   -1.000
 4297.00    0.88523   0.87183   -1.000
 4298.00    0.85203   0.84318   -1.000
 4299.00    0.81748   0.81702  336.472
 4300.00    0.80184   0.80075  329.686
 4301.00    0.80649   0.79692  323.269
 4302.00    0.81526   0.80303   -1.000
 4303.00    0.82625   0.81438   -1.000
 4304.00    0.83567   0.82491   -1.000
 4305.00    0.83951   0.82798   -1.000
 4306.00    0.82853   0.82107  338.995
 4307.00    0.80435   0.80965  350.134
 4308.00    0.78825   0.80381   -1.000
 4309.00    0.79781   0.81009   -1.000
 4310.00    0.82154   0.82635  309.870
 4311.00    0.84038   0.84562  293.029
 4312.00    0.85574   0.86498   -1.000
 4313.00    0.86832   0.88822   -1.000
 4314.00    0.88354   0.92030   -1.000
 4315.00    0.92010   0.96008   -1.000
 4316.00    0.96959   0.99847   -1.000
 4317.00    0.99984   1.02451   -1.000
 4318.00    1.00595   1.03300   -1.000
 4319.00    0.99729   1.02623   -1.000
 4320.00    0.98584   1.00915   -1.000
 4321.00    0.97149   0.98421   -1.000
 4322.00    0.94852   0.95192  253.590
 4323.00    0.91614   0.91604  275.561
 4324.00    0.87586   0.88668  290.318
 4325.00    0.85690   0.87621   -1.000
 4326.00    0.86958   0.88978   -1.000
 4327.00    0.90838   0.91895  230.978
 4328.00    0.94487   0.94693  223.694
 4329.00    0.95696   0.96209  223.544
 4330.00    0.94813   0.96467   -1.000
 4331.00    0.94112   0.96133   -1.000
 4332.00    0.94088   0.95602   -1.000
 4333.00    0.94146   0.94633  216.049
 4334.00    0.93863   0.92609  218.769
 4335.00    0.91818   0.88920   -1.000
 4336.00    0.87826   0.83360   -1.000
 4337.00    0.81700   0.76552   -1.000
 4338.00    0.74879   0.69989   -1.000
 4339.00    0.68272   0.65469   -1.000
 4340.00    0.64329   0.64363  293.767
 4341.00    0.66745   0.66910  265.944
 4342.00    0.73958   0.71940   -1.000
 4343.00    0.81063   0.77623   -1.000
 4344.00    0.85432   0.82722   -1.000
 4345.00    0.88292   0.86968  226.689
 4346.00    0.90608   0.90473  223.994
 4347.00    0.92631   0.93153  220.632
 4348.00    0.94419   0.94595  220.205
 4349.00    0.94988   0.94437  229.659
 4350.00    0.92983   0.93005  246.097
 4351.00    0.89484   0.91530   -1.000
 4352.00    0.88584   0.91348   -1.000
 4353.00    0.91104   0.92840   -1.000
 4354.00    0.94312   0.95276  226.709
 4355.00    0.96938   0.97578  221.512
 4356.00    0.98327   0.99109  220.528
 4357.00    0.98334   0.99851   -1.000
 4358.00    0.97625   1.00184   -1.000
 4359.00    0.97134   1.00626   -1.000
 4360.00    0.97976   1.01506   -1.000
 4361.00    0.99550   1.02716   -1.000
 4362.00    1.00587   1.03897   -1.000
 4363.00    1.01114   1.04778   -1.000
 4364.00    1.01471   1.05146   -1.000
 4365.00    1.01303   1.04749   -1.000
 4366.00    1.00037   1.03589   -1.000
 4367.00    0.98308   1.02099   -1.000
 4368.00    0.97904   1.00821   -1.000
 4369.00    0.98235   0.99979   -1.000
 4370.00    0.98320   0.99379  224.370
 4371.00    0.98613   0.98602  226.067
 4372.00    0.98860   0.97345   -1.000
 4373.00    0.97063   0.95791  243.251
 4374.00    0.94300   0.94687  245.618
 4375.00    0.93841   0.94870  237.606
 4376.00    0.95752   0.96448  225.958
 4377.00    0.98491   0.98595  220.239
 4378.00    1.00300   1.00190  220.463
 4379.00    1.00843   1.00417  223.888
 4380.00    1.00593   0.98840   -1.000
 4381.00    0.98561   0.95485   -1.000
 4382.00    0.93600   0.91191   -1.000
 4383.00    0.88135   0.87668  294.461
 4384.00    0.86477   0.86583  273.295
 4385.00    0.89748   0.88175   -1.000
 4386.00    0.94017   0.91071   -1.000
 4387.00    0.96766   0.93611   -1.000
 4388.00    0.97788   0.95068   -1.000
 4389.00    0.97370   0.95720   -1.000
 4390.00    0.97222   0.96169  234.166
 4391.00    0.98014   0.96698  228.954
 4392.00    0.98879   0.97108   -1.000
 4393.00    0.98589   0.97146  233.385
 4394.00    0.97042   0.97076  233.954
 4395.00    0.96350   0.97476   -1.000
 4396.00    0.98153   0.98380  217.702
 4397.00    1.00248   0.99047  218.681
 4398.00    1.00269   0.98833  225.817
 4399.00    0.98069   0.97997  233.022
 4400.00    0.96302   0.97331  232.416
 4401.00    0.97078   0.97167  228.367
 4402.00    0.98681   0.97040   -1.000
 4403.00    0.97963   0.96431   -1.000
 4404.00    0.95678   0.95555  251.250
 4405.00    0.94631   0.95075  244.864
 4406.00    0.95966   0.95312  240.103
 4407.00    0.96859   0.96122  237.746
 4408.00    0.96765   0.97382  230.153
 4409.00    0.97808   0.99134   -1.000
 4410.00    1.00221   1.01108  212.458
 4411.00    1.02432   1.02511  208.939
 4412.00    1.03754   1.02552  212.838
 4413.00    1.02913   1.01058   -1.000
 4414.00    0.99797   0.98689  233.167
 4415.00    0.97112   0.96707  233.904
 4416.00    0.96451   0.96264  227.024
 4417.00    0.97226   0.97630  217.783
 4418.00    0.99160   1.00067  210.983
 4419.00    1.01406   1.02339  210.664
 4420.00    1.02559   1.03476  215.415
 4421.00    1.01704   1.03396   -1.000
 4422.00    1.00969   1.02794   -1.000
 4423.00    1.01280   1.02357  218.468
 4424.00    1.01420   1.02221  218.885
 4425.00    1.01167   1.02169  219.903
 4426.00    1.00151   1.02112   -1.000
 4427.00    0.99925   1.02158   -1.000
 4428.00    1.00661   1.02335   -1.000
 4429.00    1.01163   1.02530   -1.000
 4430.00    1.00759   1.02603   -1.000
 4431.00    1.01239   1.02403   -1.000
 4432.00    1.01505   1.01752  221.898
 4433.00    1.00157   1.00666  232.206
 4434.00    0.97860   0.99664   -1.000
 4435.00    0.96518   0.99615   -1.000
 4436.00    0.98162   1.00951   -1.000
 4437.00    1.01665   1.03119   -1.000
 4438.00    1.04147   1.04910  204.042
 4439.00    1.04968   1.05292  209.104
 4440.00    1.03954   1.04023  218.564
 4441.00    1.01097   1.01803  228.179
 4442.00    0.97589   0.99932   -1.000
 4443.00    0.95789   0.99531   -1.000
 4444.00    0.97116   1.00791   -1.000
 4445.00    0.99830   1.02890   -1.000
 4446.00    1.01553   1.04699   -1.000
 4447.00    1.02137   1.05616   -1.000
 4448.00    1.02311   1.05737   -1.000
 4449.00    1.01986   1.05453   -1.000
 4450.00    1.01471   1.05027   -1.000
 4451.00    1.01538   1.04390   -1.000
 4452.00    1.01701   1.03231   -1.000
 4453.00    1.00373   1.01422  229.471
 4454.00    0.97905   0.99440   -1.000
 4455.00    0.96503   0.98109   -1.000
 4456.00    0.97294   0.97839  229.084
 4457.00    0.98937   0.98295  228.323
 4458.00    0.99143   0.98856  229.357
 4459.00    0.98500   0.99217  231.525
 4460.00    0.97977   0.99486   -1.000
 4461.00    0.97580   0.99930   -1.000
 4462.00    0.98471   1.00712   -1.000
 4463.00    1.00088   1.01717   -1.000
 4464.00    1.01282   1.02571   -1.000
 4465.00    1.01581   1.02899   -1.000
 4466.00    1.01230   1.02575   -1.000
 4467.00    1.00346   1.01808   -1.000
 4468.00    0.99064   1.01115   -1.000
 4469.00    0.98465   1.01087   -1.000
 4470.00    0.99419   1.01994   -1.000
 4471.00    1.01191   1.03617   -1.000
 4472.00    1.03187   1.05451   -1.000
 4473.00    1.04732   1.07015   -1.000
 4474.00    1.05829   1.08048   -1.000
 4475.00    1.05847   1.08548   -1.000
 4476.00    1.05738   1.08609   -1.000
 4477.00    1.06412   1.08164   -1.000
 4478.00    1.06272   1.06983  203.365
 4479.00    1.04346   1.05029  212.375
 4480.00    1.01660   1.02856  219.206
 4481.00    0.99498   1.01493   -1.000
 4482.00    0.99490   1.01708   -1.000
 4483.00    1.01459   1.03397   -1.000
 4484.00    1.03750   1.05690   -1.000
 4485.00    1.05718   1.07504   -1.000
 4486.00    1.06235   1.08100   -1.000
 4487.00    1.05506   1.07423   -1.000
 4488.00    1.03386   1.06077   -1.000
 4489.00    1.01591   1.04950   -1.000
 4490.00    1.01464   1.04658   -1.000
 4491.00    1.02961   1.05162   -1.000
 4492.00    1.04321   1.05885   -1.000
 4493.00    1.03879   1.06254   -1.000
 4494.00    1.02906   1.06203   -1.000
 4495.00    1.02010   1.06138   -1.000
 4496.00    1.02189   1.06404   -1.000
 4497.00    1.03741   1.06929   -1.000
 4498.00    1.04924   1.07365   -1.000
 4499.00    1.05370   1.07465   -1.000
 4500.00    1.05071   1.07391   -1.000
 4501.00    1.04042   1.07661   -1.000
 4502.00    1.04798   1.08651   -1.000
 4503.00    1.07192   1.10153   -1.000
 4504.00    1.08600   1.11525   -1.000
 4505.00    1.08334   1.12206   -1.000
 4506.00    1.07290   1.12091   -1.000
 4507.00    1.06547   1.11547   -1.000
 4508.00    1.06246   1.11107   -1.000
 4509.00    1.06976   1.11034   -1.000
 4510.00    1.07606   1.11123   -1.000
 4511.00    1.07379   1.10967   -1.000
 4512.00    1.06729   1.10362   -1.000
 4513.00    1.05600   1.09443   -1.000
 4514.00    1.04837   1.08522   -1.000
 4515.00    1.04702   1.07865   -1.000
 4516.00    1.04563   1.07521   -1.000
 4517.00    1.04313   1.07315   -1.000
 4518.00    1.04181   1.07111   -1.000
 4519.00    1.04614   1.06966   -1.000
 4520.00    1.05107   1.06924   -1.000
 4521.00    1.04992   1.06818   -1.000
 4522.00    1.03779   1.06426   -1.000
 4523.00    1.02628   1.05732   -1.000
 4524.00    1.02472   1.04860   -1.000
 4525.00    1.02300   1.03826   -1.000
 4526.00    1.01478   1.02535  222.749
 4527.00    0.99943   1.01080  226.162
 4528.00    0.98506   0.99883   -1.000
 4529.00    0.98627   0.99390  221.784
 4530.00    0.99673   0.99602  217.723
 4531.00    1.00463   0.99992  216.060
 4532.00    1.00561   0.99966  220.694
 4533.00    0.99168   0.99502  228.064
 4534.00    0.97105   0.99276   -1.000
 4535.00    0.97099   1.00083   -1.000
 4536.00    0.99835   1.02104   -1.000
 4537.00    1.03678   1.04689  196.494
 4538.00    1.05962   1.06807  197.007
 4539.00    1.05832   1.07790   -1.000
 4540.00    1.05164   1.07756   -1.000
 4541.00    1.04212   1.07334   -1.000
 4542.00    1.08570   1.07019  199.961
 4543.00    0.80310   1.06826   -1.000
 4544.00    0.15256   1.06514   -1.000
 4545.00   -0.01538   1.05959    0.000
 4546.00    0.33456   1.05172   -1.000
 4547.00    0.66296   1.04129   -1.000
 4548.00    0.36828   1.02915   -1.000
 4549.00    0.81292   1.01952   -1.000
 4550.00    1.00119   1.01729   -1.000
 4551.00    1.01456   1.02191  209.247
 4552.00    1.02109   1.02692  212.124
 4553.00    1.01301   1.02710   -1.000
 4554.00    1.00151   1.02440   -1.000
 4555.00    1.00128   1.02555   -1.000
 4556.00    1.01972   1.03509   -1.000
 4557.00    1.04624   1.05150  192.692
 4558.00    1.06056   1.06924  192.916
 4559.00    1.06478   1.08351   -1.000
 4560.00    1.06419   1.09185   -1.000
 4561.00    1.06216   1.09290   -1.000
 4562.00    1.05556   1.08631   -1.000
 4563.00    1.03874   1.07480   -1.000
 4564.00    1.02522   1.06450   -1.000
 4565.00    1.02732   1.06149   -1.000
 4566.00    1.04253   1.06728   -1.000
 4567.00    1.05492   1.07763   -1.000
 4568.00    1.06536   1.08542   -1.000
 4569.00    1.06620   1.08539   -1.000
 4570.00    1.04815   1.07758   -1.000
 4571.00    1.02695   1.06763   -1.000
 4572.00    1.02961   1.06312   -1.000
 4573.00    1.04556   1.06745   -1.000
 4574.00    1.06131   1.07687   -1.000
 4575.00    1.06252   1.08460   -1.000
 4576.00    1.06170   1.08662   -1.000
 4577.00    1.05663   1.08252   -1.000
 4578.00    1.05068   1.07290   -1.000
 4579.00    1.04153   1.05891   -1.000
 4580.00    1.02862   1.04338   -1.000
 4581.00    1.02369   1.03027  206.040
 4582.00    1.02486   1.02257  204.210
 4583.00    1.02530   1.02104  204.414
 4584.00    1.02419   1.02461  205.598
 4585.00    1.02930   1.03141  203.580
 4586.00    1.03838   1.03982  198.663
 4587.00    1.04647   1.04868  194.211
 4588.00    1.05349   1.05656  193.167
 4589.00    1.05472   1.06136  195.425
 4590.00    1.05114   1.06157  198.965
 4591.00    1.04219   1.05794   -1.000
 4592.00    1.03521   1.05368   -1.000
 4593.00    1.03517   1.05216   -1.000
 4594.00    1.04042   1.05450   -1.000
 4595.00    1.04739   1.05940  199.600
 4596.00    1.05127   1.06474   -1.000
 4597.00    1.05309   1.06877   -1.000
 4598.00    1.05605   1.07015   -1.000
 4599.00    1.05516   1.06832  201.871
 4600.00    1.04829   1.06415   -1.000
 4601.00    1.04155   1.05988   -1.000
 4602.00    1.04019   1.05771   -1.000
 4603.00    1.04445   1.05846   -1.000
 4604.00    1.05008   1.06157  198.431
 4605.00    1.05404   1.06628  196.617
 4606.00    1.05932   1.07244  193.038
 4607.00    1.07049   1.07996  188.934
 4608.00    1.07844   1.08782  186.348
 4609.00    1.08077   1.09372  186.607
 4610.00    1.07831   1.09535   -1.000
 4611.00    1.07276   1.09263   -1.000
 4612.00    1.06654   1.08798   -1.000
 4613.00    1.06131   1.08410   -1.000
 4614.00    1.06379   1.08160   -1.000
 4615.00    1.06586   1.07936  189.427
 4616.00    1.06114   1.07608   -1.000
 4617.00    1.05941   1.07180  191.731
 4618.00    1.05813   1.06837  191.863
 4619.00    1.05582   1.06848  190.323
 4620.00    1.06219   1.07351  187.499
 4621.00    1.07328   1.08186  186.859
 4622.00    1.08189   1.08966  187.268
 4623.00    1.07995   1.09375  187.662
 4624.00    1.07590   1.09382   -1.000
 4625.00    1.06961   1.09149   -1.000
 4626.00    1.06959   1.08806   -1.000
 4627.00    1.07225   1.08413  190.818
 4628.00    1.06603   1.08057   -1.000
 4629.00    1.06023   1.07879   -1.000
 4630.00    1.06310   1.07986   -1.000
 4631.00    1.07148   1.08274  188.948
 4632.00    1.07215   1.08435  191.391
 4633.00    1.06630   1.08224   -1.000
 4634.00    1.06308   1.07718  193.920
 4635.00    1.06317   1.07206  195.131
 4636.00    1.06001   1.06882  197.559
 4637.00    1.05756   1.06773  198.731
 4638.00    1.05459   1.06890   -1.000
 4639.00    1.05624   1.07285   -1.000
 4640.00    1.06592   1.07937  191.246
 4641.00    1.07570   1.08677  188.215
 4642.00    1.08188   1.09181  188.373
 4643.00    1.08004   1.09127  191.413
 4644.00    1.07205   1.08401  196.512
 4645.00    1.05947   1.07179  202.010
 4646.00    1.04695   1.05847  203.768
 4647.00    1.04313   1.04913  200.924
 4648.00    1.04740   1.04793  196.370
 4649.00    1.05831   1.05492  193.308
 4650.00    1.06584   1.06541  192.562
 4651.00    1.05907   1.07367   -1.000
 4652.00    1.05508   1.07640   -1.000
 4653.00    1.05336   1.07356   -1.000
 4654.00    1.04450   1.06757   -1.000
 4655.00    1.03782   1.06240   -1.000
 4656.00    1.03722   1.06260   -1.000
 4657.00    1.05280   1.07091   -1.000
 4658.00    1.07741   1.08561  182.235
 4659.00    1.09451   1.10052  181.360
 4660.00    1.09822   1.10885  183.213
 4661.00    1.09150   1.10770   -1.000
 4662.00    1.08211   1.09903   -1.000
 4663.00    1.07465   1.08629  192.294
 4664.00    1.07405   1.07139  194.909
 4665.00    1.06895   1.05444  202.374
 4666.00    1.05078   1.03637   -1.000
 4667.00    1.03004   1.02125  212.752
 4668.00    1.01743   1.01490  207.317
 4669.00    1.02183   1.02017  198.942
 4670.00    1.04447   1.03433  193.000
 4671.00    1.06395   1.05115  191.147
 4672.00    1.06975   1.06530  191.111
 4673.00    1.07125   1.07501  190.989
 4674.00    1.07194   1.08162  188.907
 4675.00    1.07465   1.08623  186.093
 4676.00    1.08010   1.08756  186.343
 4677.00    1.08091   1.08324  189.881
 4678.00    1.07284   1.07336  193.753
 4679.00    1.05874   1.06162  197.069
 4680.00    1.04974   1.05256  199.217
 4681.00    1.04878   1.04867  197.506
 4682.00    1.05501   1.04984  192.897
 4683.00    1.06342   1.05448  189.916
 4684.00    1.07224   1.06031  190.028
 4685.00    1.07616   1.06514  190.245
 4686.00    1.07582   1.06800  191.145
 4687.00    1.07127   1.06928  191.363
 4688.00    1.07182   1.06964  191.365
 4689.00    1.07300   1.06930  192.505
 4690.00    1.07246   1.06838  193.102
 4691.00    1.06656   1.06768  191.271
 4692.00    1.06736   1.06848  188.485
 4693.00    1.07691   1.07138  184.512
 4694.00    1.08997   1.07515  181.828
 4695.00    1.09787   1.07747   -1.000
 4696.00    1.09603   1.07619   -1.000
 4697.00    1.08764   1.07027   -1.000
 4698.00    1.07316   1.06049  195.256
 4699.00    1.06411   1.04929  194.315
 4700.00    1.06133   1.03897   -1.000
 4701.00    1.05910   1.03048   -1.000
 4702.00    1.05092   1.02475   -1.000
 4703.00    1.04346   1.02321   -1.000
 4704.00    1.04909   1.02618   -1.000
 4705.00    1.05488   1.03071   -1.000
 4706.00    1.05402   1.03247   -1.000
 4707.00    1.04398   1.03030  201.577
 4708.00    1.03487   1.02766  201.020
 4709.00    1.03588   1.02896  195.887
 4710.00    1.04930   1.03536  190.381
 4711.00    1.06722   1.04409   -1.000
 4712.00    1.07782   1.05109   -1.000
 4713.00    1.07460   1.05414   -1.000
 4714.00    1.06359   1.05451  193.114
 4715.00    1.06130   1.05615  189.887
 4716.00    1.07049   1.06172  186.164
 4717.00    1.07963   1.07006  184.594
 4718.00    1.08217   1.07772  183.885
 4719.00    1.08607   1.08215  183.257
 4720.00    1.08723   1.08350  184.440
 4721.00    1.08409   1.08329  185.827
 4722.00    1.08171   1.08317  185.150
 4723.00    1.08040   1.08361  183.265
 4724.00    1.08608   1.08349  183.143
 4725.00    1.08776   1.08048  186.897
 4726.00    1.07895   1.07282  193.637
 4727.00    1.06419   1.06124  198.553
 4728.00    1.05306   1.04914  198.674
 4729.00    1.05428   1.04036  196.798
 4730.00    1.05808   1.03662   -1.000
 4731.00    1.05837   1.03742   -1.000
 4732.00    1.05929   1.04126   -1.000
 4733.00    1.06157   1.04614  189.973
 4734.00    1.06928   1.04968   -1.000
 4735.00    1.07127   1.05071   -1.000
 4736.00    1.06243   1.05024  191.016
 4737.00    1.06276   1.05036  188.972
 4738.00    1.06839   1.05236  188.588
 4739.00    1.06934   1.05583  189.549
 4740.00    1.06823   1.05936  189.957
 4741.00    1.06583   1.06224  188.720
 4742.00    1.06921   1.06492  186.725
 4743.00    1.07499   1.06787  186.685
 4744.00    1.08022   1.07060  186.917
 4745.00    1.07799   1.07271  185.778
 4746.00    1.07996   1.07476  183.955
 4747.00    1.07993   1.07776  183.313
 4748.00    1.08315   1.08198  183.500
 4749.00    1.08321   1.08648  183.656
 4750.00    1.08484   1.08956  184.787
 4751.00    1.08239   1.08949  186.779
 4752.00    1.07923   1.08518  188.452
 4753.00    1.07581   1.07758  189.785
 4754.00    1.07069   1.06975  189.722
 4755.00    1.06720   1.06491  190.262
 4756.00    1.06437   1.06446  191.580
 4757.00    1.06135   1.06754  192.002
 4758.00    1.06491   1.07202  190.690
 4759.00    1.07017   1.07506  190.115
 4760.00    1.06773   1.07362  192.543
 4761.00    1.06256   1.06566  197.114
 4762.00    1.05194   1.05232  200.087
 4763.00    1.04381   1.03827  200.738
 4764.00    1.03929   1.02883  200.415
 4765.00    1.04371   1.02686   -1.000
 4766.00    1.05087   1.03186   -1.000
 4767.00    1.05931   1.04209   -1.000
 4768.00    1.06671   1.05468  189.433
 4769.00    1.07268   1.06586  189.279
 4770.00    1.07503   1.07241  190.708
 4771.00    1.07076   1.07431  192.403
 4772.00    1.06588   1.07469  190.824
 4773.00    1.06790   1.07712  186.991
 4774.00    1.08037   1.08232  185.239
 4775.00    1.08846   1.08820  185.183
 4776.00    1.08919   1.09164  185.678
 4777.00    1.08742   1.09108  186.787
 4778.00    1.07928   1.08722  188.756
 4779.00    1.07152   1.08219  190.050
 4780.00    1.06783   1.07805  190.621
 4781.00    1.06973   1.07518  191.474
 4782.00    1.06550   1.07256  192.928
 4783.00    1.06140   1.06919  193.125
 4784.00    1.06610   1.06513  193.637
 4785.00    1.06455   1.06095  195.371
 4786.00    1.05639   1.05743  196.649
 4787.00    1.04874   1.05563  196.661
 4788.00    1.04727   1.05634  195.802
 4789.00    1.05072   1.05962  194.625
 4790.00    1.05245   1.06516  192.725
 4791.00    1.06008   1.07288  189.733
 4792.00    1.07007   1.08244  185.661
 4793.00    1.07959   1.09271  182.307
 4794.00    1.08827   1.10152  181.248
 4795.00    1.09250   1.10628  182.693
 4796.00    1.08716   1.10537   -1.000
 4797.00    1.07545   1.09934   -1.000
 4798.00    1.06377   1.09131   -1.000
 4799.00    1.05920   1.08525   -1.000
 4800.00    1.06380   1.08372   -1.000
 4801.00    1.07275   1.08649  184.621
 4802.00    1.07878   1.09046  184.430
 4803.00    1.08017   1.09206  186.577
 4804.00    1.07290   1.08987   -1.000
 4805.00    1.06593   1.08546   -1.000
 4806.00    1.06495   1.08155   -1.000
 4807.00    1.06766   1.08004  190.648
 4808.00    1.06896   1.08099  189.847
 4809.00    1.07036   1.08339  188.256
 4810.00    1.07450   1.08605  186.840
 4811.00    1.07262   1.08825   -1.000
 4812.00    1.07544   1.09041  185.523
 4813.00    1.08024   1.09349  185.121
 4814.00    1.08218   1.09768   -1.000
 4815.00    1.08248   1.10222   -1.000
 4816.00    1.08298   1.10616   -1.000
 4817.00    1.08524   1.10875   -1.000
 4818.00    1.08780   1.10973   -1.000
 4819.00    1.08651   1.10899   -1.000
 4820.00    1.08310   1.10559   -1.000
 4821.00    1.07927   1.09782   -1.000
 4822.00    1.07064   1.08535  190.794
 4823.00    1.06230   1.07172  191.061
 4824.00    1.05773   1.06286  188.110
 4825.00    1.05813   1.06246  185.103
 4826.00    1.06587   1.06855  185.294
 4827.00    1.07165   1.07524  187.304
 4828.00    1.07039   1.07820  188.655
 4829.00    1.06461   1.07700  188.788
 4830.00    1.05935   1.07323  190.242
 4831.00    1.05669   1.06861  190.816
 4832.00    1.05480   1.06464  188.270
 4833.00    1.06157   1.06298  185.652
 4834.00    1.06918   1.06411  184.688
 4835.00    1.07111   1.06659  184.853
 4836.00    1.07164   1.06807  185.656
 4837.00    1.07099   1.06662  187.942
 4838.00    1.06622   1.06172  191.209
 4839.00    1.05302   1.05453  191.861
 4840.00    1.04784   1.04739  191.502
 4841.00    1.04645   1.04274  190.623
 4842.00    1.04864   1.04149  189.266
 4843.00    1.05001   1.04289  187.443
 4844.00    1.05080   1.04544  184.655
 4845.00    1.05832   1.04767  183.383
 4846.00    1.06101   1.04774  186.383
 4847.00    1.05233   1.04423  189.384
 4848.00    1.04047   1.03826  189.808
 4849.00    1.03540   1.03306  187.526
 4850.00    1.03523   1.03008  186.713
 4851.00    1.03288   1.02700  187.564
 4852.00    1.02913   1.01959  189.094
 4853.00    1.02022   1.00480   -1.000
 4854.00    1.00039   0.98306   -1.000
 4855.00    0.97541   0.95776   -1.000
 4856.00    0.96310   0.93218   -1.000
 4857.00    0.95656   0.90481   -1.000
 4858.00    0.92977   0.86918   -1.000
 4859.00    0.86389   0.82175   -1.000
 4860.00    0.76798   0.77034  257.638
 4861.00    0.71240   0.73378   -1.000
 4862.00    0.74173   0.72868  224.902
 4863.00    0.82114   0.75679   -1.000
 4864.00    0.89005   0.80509   -1.000
 4865.00    0.93335   0.85642   -1.000
 4866.00    0.96177   0.90017   -1.000
 4867.00    0.97956   0.93238   -1.000
 4868.00    0.99416   0.95243   -1.000
 4869.00    1.00065   0.96049   -1.000
 4870.00    0.98961   0.95900   -1.000
 4871.00    0.97530   0.95401   -1.000
 4872.00    0.97742   0.95346   -1.000
 4873.00    0.99427   0.96196   -1.000
 4874.00    1.01438   0.97709   -1.000
 4875.00    1.02481   0.99201   -1.000
 4876.00    1.02396   1.00263   -1.000
 4877.00    1.02463   1.01046  189.934
 4878.00    1.02980   1.01941  187.771
 4879.00    1.03675   1.03027  188.858
 4880.00    1.04399   1.03975  191.794
 4881.00    1.04596   1.04417  193.282
 4882.00    1.03987   1.04287  192.895
 4883.00    1.04021   1.03806  193.649
 4884.00    1.04042   1.03240  196.357
 4885.00    1.03381   1.02701  197.747
 4886.00    1.03024   1.02240  197.007
 4887.00    1.03275   1.01848  196.594
 4888.00    1.03065   1.01401   -1.000
 4889.00    1.02382   1.00784   -1.000
 4890.00    1.00496   1.00177  202.839
 4891.00    1.00008   1.00157  195.695
 4892.00    1.02235   1.01298  186.700
 4893.00    1.05408   1.03586  180.677
 4894.00    1.07689   1.06320  176.998
 4895.00    1.08511   1.08586  175.763
 4896.00    1.09119   1.09883  175.964
 4897.00    1.09188   1.10239  179.242
 4898.00    1.08397   1.09889  183.475
 4899.00    1.07418   1.09161   -1.000
 4900.00    1.06349   1.08377   -1.000
 4901.00    1.06438   1.07743  185.483
 4902.00    1.06048   1.07300  187.470
 4903.00    1.05359   1.07081   -1.000
 4904.00    1.05719   1.07209  182.408
 4905.00    1.06911   1.07737  180.574
 4906.00    1.07700   1.08357  181.769
 4907.00    1.07519   1.08511  185.758
 4908.00    1.06650   1.07876  191.037
 4909.00    1.05610   1.06640  193.986
 4910.00    1.04621   1.05365  192.203
 4911.00    1.04815   1.04691  188.826
 4912.00    1.05693   1.04918  186.096
 4913.00    1.06467   1.05865  183.656
 4914.00    1.07115   1.06976  181.908
 4915.00    1.07664   1.07622  182.380
 4916.00    1.07629   1.07253  187.892
 4917.00    1.06111   1.05590  197.665
 4918.00    1.03277   1.02891  207.401
 4919.00    0.99945   1.00001  211.012
 4920.00    0.98319   0.97925  205.544
 4921.00    0.99237   0.97237   -1.000
 4922.00    1.01189   0.97791   -1.000
 4923.00    1.02014   0.98998   -1.000
 4924.00    1.02068   1.00413  191.811
 4925.00    1.03494   1.01973  187.162
 4926.00    1.05316   1.03740  183.551
 4927.00    1.06667   1.05558  181.589
 4928.00    1.07698   1.07131  180.280
 4929.00    1.08042   1.08172  179.169
 4930.00    1.08375   1.08468  180.482
 4931.00    1.07966   1.07929  184.928
 4932.00    1.06389   1.06665  191.440
 4933.00    1.04249   1.05131  192.981
 4934.00    1.02885   1.03943  190.075
 4935.00    1.03913   1.03397  189.396
 4936.00    1.04942   1.03191   -1.000
 4937.00    1.04367   1.02837   -1.000
 4938.00    1.02405   1.02303  198.995
 4939.00    1.02055   1.02172  192.926
 4940.00    1.03523   1.02971  186.631
 4941.00    1.05688   1.04580  182.785
 4942.00    1.06984   1.06363  180.857
 4943.00    1.07432   1.07652  180.715
 4944.00    1.07855   1.08203  181.838
 4945.00    1.07380   1.08226  182.385
 4946.00    1.06733   1.08125  181.051
 4947.00    1.07403   1.08229  178.964
 4948.00    1.07716   1.08616  178.172
 4949.00    1.07928   1.09087  177.462
 4950.00    1.08218   1.09338  178.124
 4951.00    1.08124   1.09237  179.315
 4952.00    1.07929   1.08874  181.266
 4953.00    1.07506   1.08324  183.509
 4954.00    1.07472   1.07418  188.009
 4955.00    1.06159   1.05872  197.015
 4956.00    1.03223   1.03727  205.393
 4957.00    1.00473   1.01713  203.181
 4958.00    1.00409   1.00947  192.555
 4959.00    1.03287   1.01939  185.195
 4960.00    1.06143   1.04082   -1.000
 4961.00    1.07617   1.06217  183.539
 4962.00    1.08075   1.07517  184.926
 4963.00    1.07372   1.07854  187.011
 4964.00    1.06684   1.07460  190.725
 4965.00    1.06038   1.06645  193.469
 4966.00    1.05190   1.05728  193.893
 4967.00    1.04855   1.04988  193.407
 4968.00    1.05233   1.04595  192.106
 4969.00    1.05565   1.04597  190.141
 4970.00    1.05816   1.04977  188.096
 4971.00    1.06178   1.05648  185.879
 4972.00    1.06683   1.06448  184.049
 4973.00    1.07197   1.07188  183.148
 4974.00    1.07624   1.07701  184.116
 4975.00    1.08047   1.07864  185.969
 4976.00    1.07394   1.07637  188.418
 4977.00    1.06609   1.07077  191.422
 4978.00    1.05995   1.06241  193.908
 4979.00    1.05596   1.05111  196.595
 4980.00    1.04507   1.03582  202.508
 4981.00    1.02084   1.01610  209.143
 4982.00    1.00322   0.99481  210.208
 4983.00    0.99522   0.97875   -1.000
 4984.00    0.99906   0.97481   -1.000
 4985.00    1.01576   0.98485   -1.000
 4986.00    1.03238   1.00381   -1.000
 4987.00    1.04780   1.02317   -1.000
 4988.00    1.05582   1.03615   -1.000
 4989.00    1.04810   1.04036  193.879
 4990.00    1.03495   1.03782  194.255
 4991.00    1.03592   1.03333  192.783
 4992.00    1.04128   1.03100  191.819
 4993.00    1.04311   1.03234  191.625
 4994.00    1.04572   1.03642  190.774
 4995.00    1.05131   1.04130  189.813
 4996.00    1.05756   1.04464  190.646
 4997.00    1.05827   1.04404  193.002
 4998.00    1.04690   1.03786  196.722
 4999.00    1.03459   1.02660  199.435
 5000.00    1.02414   1.01376  199.929
 5001.00    1.02374   1.00396   -1.000
 5002.00    1.02968   0.99947   -1.000
 5003.00    1.03290   0.99817   -1.000
 5004.00    1.02912   0.99561   -1.000
 5005.00    1.01225   0.99010   -1.000
 5006.00    0.99889   0.98532  201.532
 5007.00    1.01084   0.98703   -1.000
 5008.00    1.03265   0.99641   -1.000
 5009.00    1.04886   1.00752   -1.000
 5010.00    1.04919   1.01220   -1.000
 5011.00    1.03093   1.00629   -1.000
 5012.00    1.00872   0.99235   -1.000
 5013.00    0.99058   0.97746  212.565
 5014.00    0.98689   0.96792   -1.000
 5015.00    1.00007   0.96533   -1.000
 5016.00    1.01077   0.96668   -1.000
 5017.00    1.00953   0.96884   -1.000
 5018.00    1.00532   0.97150   -1.000
 5019.00    1.01068   0.97648   -1.000
 5020.00    1.02232   0.98416   -1.000
 5021.00    1.02774   0.99219   -1.000
 5022.00    1.02751   0.99878   -1.000
 5023.00    1.02994   1.00455   -1.000
 5024.00    1.03699   1.01054   -1.000
 5025.00    1.04119   1.01597   -1.000
 5026.00    1.03946   1.01865   -1.000
 5027.00    1.03108   1.01867  195.648
 5028.00    1.03429   1.01900  192.211
 5029.00    1.03978   1.02216   -1.000
 5030.00    1.05177   1.02854   -1.000
 5031.00    1.05678   1.03681   -1.000
 5032.00    1.05886   1.04405  183.980
 5033.00    1.06115   1.04661  189.077
 5034.00    1.05393   1.04192  196.439
 5035.00    1.03288   1.03071  200.385
 5036.00    1.01908   1.01690  201.446
 5037.00    1.01747   1.00349   -1.000
 5038.00    1.01268   0.98981   -1.000
 5039.00    0.99826   0.97398   -1.000
 5040.00    0.97132   0.95819   -1.000
 5041.00    0.95914   0.95052  211.628
 5042.00    0.97806   0.95812   -1.000
 5043.00    1.01343   0.98027   -1.000
 5044.00    1.04282   1.00880   -1.000
 5045.00    1.04326   1.03329  178.954
 5046.00    1.16272   1.04694   -1.000
 5047.00    0.47202   1.04797   -1.000
 5048.00    0.58193   1.03846   -1.000
 5049.00    1.00516   1.02352   -1.000
 5050.00    1.02566   1.00971   -1.000
 5051.00    1.02073   1.00280   -1.000
 5052.00    1.03253   1.00539   -1.000
 5053.00    1.04798   1.01599   -1.000
 5054.00    1.06264   1.02990   -1.000
 5055.00    1.07105   1.04200   -1.000
 5056.00    1.07418   1.05046   -1.000
 5057.00    1.07730   1.05656   -1.000
 5058.00    1.07324   1.06148  183.824
 5059.00    1.06690   1.06534  182.726
 5060.00    1.06716   1.06747  182.637
 5061.00    1.07038   1.06655  184.788
 5062.00    1.06816   1.06109  189.802
 5063.00    1.05291   1.05046  196.441
 5064.00    1.03491   1.03648  199.370
 5065.00    1.02342   1.02387  197.550
 5066.00    1.02705   1.01665  194.602
 5067.00    1.03588   1.01513   -1.000
 5068.00    1.04035   1.01679   -1.000
 5069.00    1.04534   1.01878   -1.000
 5070.00    1.05080   1.01966   -1.000
 5071.00    1.05203   1.01886   -1.000
 5072.00    1.04793   1.01676   -1.000
 5073.00    1.04587   1.01505   -1.000
 5074.00    1.04709   1.01538   -1.000
 5075.00    1.04881   1.01702   -1.000
 5076.00    1.05211   1.01679   -1.000
 5077.00    1.04681   1.01133   -1.000
 5078.00    1.02323   1.00005   -1.000
 5079.00    0.99972   0.98630   -1.000
 5080.00    0.99042   0.97585   -1.000
 5081.00    1.00452   0.97307   -1.000
 5082.00    1.01618   0.97777   -1.000
 5083.00    1.02154   0.98712   -1.000
 5084.00    1.03075   0.99839   -1.000
 5085.00    1.04747   1.00992   -1.000
 5086.00    1.05787   1.02043   -1.000
 5087.00    1.05667   1.02853   -1.000
 5088.00    1.05352   1.03411   -1.000
 5089.00    1.06127   1.03820   -1.000
 5090.00    1.06047   1.04197   -1.000
 5091.00    1.05961   1.04613  184.145
 5092.00    1.07315   1.05044   -1.000
 5093.00    1.07833   1.05323   -1.000
 5094.00    1.07369   1.05175   -1.000
 5095.00    1.06762   1.04373   -1.000
 5096.00    1.05556   1.02954   -1.000
 5097.00    1.04038   1.01296   -1.000
 5098.00    1.02507   0.99957   -1.000
 5099.00    1.02061   0.99402   -1.000
 5100.00    1.03101   0.99757   -1.000
 5101.00    1.04937   1.00740   -1.000
 5102.00    1.06204   1.01819   -1.000
 5103.00    1.05875   1.02476   -1.000
 5104.00    1.05329   1.02489   -1.000
 5105.00    1.04988   1.01939   -1.000
 5106.00    1.03611   1.01064   -1.000
 5107.00    1.02033   1.00176   -1.000
 5108.00    1.01619   0.99585   -1.000
 5109.00    1.02074   0.99501   -1.000
 5110.00    1.02267   0.99964   -1.000
 5111.00    1.03413   1.00845   -1.000
 5112.00    1.04699   1.01923   -1.000
 5113.00    1.05602   1.02950   -1.000
 5114.00    1.06246   1.03789   -1.000
 5115.00    1.06363   1.04447   -1.000
 5116.00    1.06808   1.04958   -1.000
 5117.00    1.07328   1.05293   -1.000
 5118.00    1.07310   1.05326   -1.000
 5119.00    1.06757   1.04948   -1.000
 5120.00    1.06009   1.04148   -1.000
 5121.00    1.05295   1.03034   -1.000
 5122.00    1.03679   1.01773   -1.000
 5123.00    1.01860   1.00550  204.131
 5124.00    1.01054   0.99540   -1.000
 5125.00    1.01920   0.98888   -1.000
 5126.00    1.02092   0.98598   -1.000
 5127.00    1.01936   0.98538   -1.000
 5128.00    1.01934   0.98585   -1.000
 5129.00    1.02366   0.98745   -1.000
 5130.00    1.03020   0.99094   -1.000
 5131.00    1.03408   0.99636   -1.000
 5132.00    1.03719   1.00274   -1.000
 5133.00    1.03961   1.00865   -1.000
 5134.00    1.04704   1.01292   -1.000
 5135.00    1.05175   1.01423   -1.000
 5136.00    1.04589   1.01144   -1.000
 5137.00    1.03243   1.00448   -1.000
 5138.00    1.01419   0.99541   -1.000
 5139.00    1.00452   0.98735   -1.000
 5140.00    1.00764   0.98254   -1.000
 5141.00    1.01029   0.98127   -1.000
 5142.00    1.00637   0.98235   -1.000
 5143.00    1.00811   0.98478   -1.000
 5144.00    1.02160   0.98775   -1.000
 5145.00    1.02877   0.98996   -1.000
 5146.00    1.02507   0.99044   -1.000
 5147.00    1.02439   0.98970   -1.000
 5148.00    1.02919   0.98931   -1.000
 5149.00    1.03255   0.98979   -1.000
 5150.00    1.02664   0.98936   -1.000
 5151.00    1.01419   0.98656   -1.000
 5152.00    1.01094   0.98268   -1.000
 5153.00    1.01790   0.98066   -1.000
 5154.00    1.02577   0.98334   -1.000
 5155.00    1.03666   0.99165   -1.000
 5156.00    1.04987   1.00404   -1.000
 5157.00    1.06160   1.01710   -1.000
 5158.00    1.06572   1.02753   -1.000
 5159.00    1.06767   1.03347   -1.000
 5160.00    1.06590   1.03446   -1.000
 5161.00    1.06243   1.03072   -1.000
 5162.00    1.05462   1.02218   -1.000
 5163.00    1.05106   1.00738   -1.000
 5164.00    1.04010   0.98363   -1.000
 5165.00    1.00550   0.94969   -1.000
 5166.00    0.94863   0.90947   -1.000
 5167.00    0.89970   0.87411   -1.000
 5168.00    0.89438   0.85416   -1.000
 5169.00    0.92497   0.85100   -1.000
 5170.00    0.94975   0.85541   -1.000
 5171.00    0.93610   0.85655   -1.000
 5172.00    0.90310   0.85624   -1.000
 5173.00    0.90831   0.86519   -1.000
 5174.00    0.95723   0.89099   -1.000
 5175.00    1.01059   0.92940   -1.000
 5176.00    1.04266   0.96683   -1.000
 5177.00    1.05395   0.99322   -1.000
 5178.00    1.05719   1.00513   -1.000
 5179.00    1.05020   1.00217   -1.000
 5180.00    1.04026   0.98427   -1.000
 5181.00    1.01499   0.95187   -1.000
 5182.00    0.96283   0.91212   -1.000
 5183.00    0.91239   0.87904   -1.000
 5184.00    0.90711   0.86724   -1.000
 5185.00    0.95383   0.88163   -1.000
 5186.00    1.00813   0.91266   -1.000
 5187.00    1.03112   0.94519   -1.000
 5188.00    1.03098   0.96784   -1.000
 5189.00    1.02917   0.97828   -1.000
 5190.00    1.02652   0.97943   -1.000
 5191.00    1.01161   0.97462   -1.000
 5192.00    0.99303   0.96767   -1.000
 5193.00    0.99434   0.96305   -1.000
 5194.00    1.00419   0.96294   -1.000
 5195.00    1.00855   0.96698   -1.000
 5196.00    1.01829   0.97385   -1.000
 5197.00    1.02868   0.98291   -1.000
 5198.00    1.04046   0.99395   -1.000
 5199.00    1.04725   1.00508   -1.000
 5200.00    1.04942   1.01271   -1.000
 5201.00    1.05157   1.01354   -1.000
 5202.00    1.04245   1.00590   -1.000
 5203.00    1.02399   0.99078   -1.000
 5204.00    1.00313   0.97153   -1.000
 5205.00    0.98825   0.95293   -1.000
 5206.00    0.98291   0.93911   -1.000
 5207.00    0.98756   0.93227   -1.000
 5208.00    0.98379   0.93289   -1.000
 5209.00    0.98857   0.94077   -1.000
 5210.00    1.00835   0.95584   -1.000
 5211.00    1.03051   0.97612   -1.000
 5212.00    1.05479   0.99695   -1.000
 5213.00    1.06802   1.01183   -1.000
 5214.00    1.06100   1.01657   -1.000
 5215.00    1.04540   1.01264   -1.000
 5216.00    1.03228   1.00636   -1.000
 5217.00    1.03130   1.00524   -1.000
 5218.00    1.04794   1.01220   -1.000
 5219.00    1.06374   1.02484   -1.000
 5220.00    1.07148   1.03735   -1.000
 5221.00    1.07370   1.04456   -1.000
 5222.00    1.07174   1.04324   -1.000
 5223.00    1.05726   1.03159   -1.000
 5224.00    1.03211   1.00987   -1.000
 5225.00    1.00339   0.98234   -1.000
 5226.00    0.97551   0.95771   -1.000
 5227.00    0.97002   0.94645   -1.000
 5228.00    0.99523   0.95241   -1.000
 5229.00    1.02668   0.97012   -1.000
 5230.00    1.04839   0.98837   -1.000
 5231.00    1.05338   0.99819   -1.000
 5232.00    1.04466   0.99830   -1.000
 5233.00    1.03135   0.99363   -1.000
 5234.00    1.02680   0.99161   -1.000
 5235.00    1.04037   0.99700   -1.000
 5236.00    1.05679   1.00941   -1.000
 5237.00    1.06756   1.02405   -1.000
 5238.00    1.07052   1.03620   -1.000
 5239.00    1.07251   1.04354   -1.000
 5240.00    1.07312   1.04645   -1.000
 5241.00    1.07222   1.04695   -1.000
 5242.00    1.07341   1.04698   -1.000
 5243.00    1.07178   1.04750   -1.000
 5244.00    1.07161   1.04755   -1.000
 5245.00    1.06893   1.04484   -1.000
 5246.00    1.05507   1.03766   -1.000
 5247.00    1.03765   1.02733  194.152
 5248.00    1.03274   1.01707   -1.000
 5249.00    1.03023   1.00970   -1.000
 5250.00    1.02383   1.00628   -1.000
 5251.00    1.02320   1.00631   -1.000
 5252.00    1.03320   1.00853   -1.000
 5253.00    1.03951   1.01148   -1.000
 5254.00    1.03805   1.01478   -1.000
 5255.00    1.03997   1.01956   -1.000
 5256.00    1.05405   1.02732   -1.000
 5257.00    1.07053   1.03672   -1.000
 5258.00    1.07748   1.04348   -1.000
 5259.00    1.07636   1.04255   -1.000
 5260.00    1.06338   1.03089   -1.000
 5261.00    1.03937   1.00928   -1.000
 5262.00    1.01154   0.98164   -1.000
 5263.00    0.98784   0.95394   -1.000
 5264.00    0.97422   0.93221   -1.000
 5265.00    0.96876   0.91991   -1.000
 5266.00    0.97661   0.91616   -1.000
 5267.00    0.99271   0.91607   -1.000
 5268.00    0.98683   0.91422   -1.000
 5269.00    0.95772   0.91104   -1.000
 5270.00    0.94833   0.91176   -1.000
 5271.00    0.97903   0.92118   -1.000
 5272.00    1.01475   0.93807   -1.000
 5273.00    1.02805   0.95546   -1.000
 5274.00    1.02651   0.96916   -1.000
 5275.00    1.02442   0.98027   -1.000
 5276.00    1.03742   0.99252   -1.000
 5277.00    1.05547   1.00728   -1.000
 5278.00    1.06906   1.02075   -1.000
 5279.00    1.07634   1.02757   -1.000
 5280.00    1.06555   1.02472   -1.000
 5281.00    1.04769   1.01457   -1.000
 5282.00    1.03392   1.00316   -1.000
 5283.00    1.02796   0.99703   -1.000
 5284.00    1.03266   1.00025   -1.000
 5285.00    1.04950   1.01299   -1.000
 5286.00    1.07046   1.03078   -1.000
 5287.00    1.08201   1.04741   -1.000
 5288.00    1.08061   1.05888   -1.000
 5289.00    1.07976   1.06480  175.633
 5290.00    1.08104   1.06703  175.211
 5291.00    1.08094   1.06711  176.155
 5292.00    1.07794   1.06531  177.793
 5293.00    1.07604   1.06128  180.118
 5294.00    1.07258   1.05364   -1.000
 5295.00    1.06299   1.04105   -1.000
 5296.00    1.04197   1.02475   -1.000
 5297.00    1.01995   1.00901  196.348
 5298.00    1.01594   0.99914   -1.000
 5299.00    1.03171   0.99815   -1.000
 5300.00    1.04297   1.00398   -1.000
 5301.00    1.04208   1.01313   -1.000
 5302.00    1.04371   1.02316   -1.000
 5303.00    1.05709   1.03313   -1.000
 5304.00    1.06974   1.04239   -1.000
 5305.00    1.07721   1.04885   -1.000
 5306.00    1.07253   1.05157   -1.000
 5307.00    1.06636   1.05225  177.640
 5308.00    1.07058   1.05344   -1.000
 5309.00    1.07790   1.05687   -1.000
 5310.00    1.07928   1.06145   -1.000
 5311.00    1.07948   1.06452  175.672
 5312.00    1.08150   1.06393   -1.000
 5313.00    1.07962   1.05885   -1.000
 5314.00    1.07570   1.04998   -1.000
 5315.00    1.06588   1.03955   -1.000
 5316.00    1.05453   1.03097   -1.000
 5317.00    1.05414   1.02786   -1.000
 5318.00    1.05984   1.03107   -1.000
 5319.00    1.06701   1.03743   -1.000
 5320.00    1.06960   1.04173   -1.000
 5321.00    1.06534   1.03981   -1.000
 5322.00    1.05614   1.03155   -1.000
 5323.00    1.04358   1.01899   -1.000
 5324.00    1.03602   1.00477   -1.000
 5325.00    1.03538   0.98963   -1.000
 5326.00    1.02413   0.97291   -1.000
 5327.00    0.98852   0.95628   -1.000
 5328.00    0.96109   0.94467   -1.000
 5329.00    0.97536   0.94532   -1.000
 5330.00    1.01388   0.95948   -1.000
 5331.00    1.04332   0.98107   -1.000
 5332.00    1.05153   1.00167   -1.000
 5333.00    1.05016   1.01609   -1.000
 5334.00    1.05714   1.02452   -1.000
 5335.00    1.06308   1.02862   -1.000
 5336.00    1.05757   1.02879   -1.000
 5337.00    1.05553   1.02497   -1.000
 5338.00    1.05272   1.01739   -1.000
 5339.00    1.03964   1.00788   -1.000
 5340.00    1.02536   0.99985   -1.000
 5341.00    1.02268   0.99763   -1.000
 5342.00    1.03934   1.00238   -1.000
 5343.00    1.05939   1.01111   -1.000
 5344.00    1.06158   1.01830   -1.000
 5345.00    1.05908   1.02018   -1.000
 5346.00    1.05356   1.01753   -1.000
 5347.00    1.04790   1.01325   -1.000
 5348.00    1.04819   1.01064   -1.000
 5349.00    1.04493   1.01155   -1.000
 5350.00    1.04936   1.01644   -1.000
 5351.00    1.06384   1.02434   -1.000
 5352.00    1.07103   1.03335   -1.000
 5353.00    1.07050   1.04184   -1.000
 5354.00    1.07687   1.04924   -1.000
 5355.00    1.08313   1.05598   -1.000
 5356.00    1.08552   1.06169   -1.000
 5357.00    1.08611   1.06546   -1.000
 5358.00    1.08691   1.06649   -1.000
 5359.00    1.08615   1.06419   -1.000
 5360.00    1.07815   1.05843   -1.000
 5361.00    1.06915   1.04934   -1.000
 5362.00    1.06222   1.03808   -1.000
 5363.00    1.05573   1.02701   -1.000
 5364.00    1.04879   1.01831   -1.000
 5365.00    1.04518   1.01304   -1.000
 5366.00    1.04693   1.01007   -1.000
 5367.00    1.05095   1.00687   -1.000
 5368.00    1.04713   1.00060   -1.000
 5369.00    1.03541   0.99051   -1.000
 5370.00    1.01587   0.97959   -1.000
 5371.00    1.00518   0.97336   -1.000
 5372.00    1.01636   0.97727   -1.000
 5373.00    1.04693   0.99148   -1.000
 5374.00    1.07109   1.01142   -1.000
 5375.00    1.08176   1.02970   -1.000
 5376.00    1.08138   1.04150   -1.000
 5377.00    1.07960   1.04594   -1.000
 5378.00    1.07645   1.04459   -1.000
 5379.00    1.07287   1.03984   -1.000
 5380.00    1.06436   1.03363   -1.000
 5381.00    1.05679   1.02760   -1.000
 5382.00    1.05300   1.02334   -1.000
 5383.00    1.05460   1.02230   -1.000
 5384.00    1.05524   1.02529   -1.000
 5385.00    1.06476   1.03123   -1.000
 5386.00    1.07426   1.03750   -1.000
 5387.00    1.07142   1.04093   -1.000
 5388.00    1.06677   1.03980   -1.000
 5389.00    1.06226   1.03455   -1.000
 5390.00    1.05363   1.02679   -1.000
 5391.00    1.05043   1.01843   -1.000
 5392.00    1.04607   1.01108   -1.000
 5393.00    1.04106   1.00490   -1.000
 5394.00    1.03787   0.99906   -1.000
 5395.00    1.03009   0.99246   -1.000
 5396.00    1.01686   0.98515   -1.000
 5397.00    1.01012   0.98030   -1.000
 5398.00    1.02214   0.98095   -1.000
 5399.00    1.04057   0.98763   -1.000
 5400.00    1.05181   0.99685   -1.000
 5401.00    1.05466   1.00278   -1.000
 5402.00    1.05091   1.00125   -1.000
 5403.00    1.03885   0.99173   -1.000
 5404.00    1.01409   0.97788   -1.000
 5405.00    0.99707   0.96584   -1.000
 5406.00    1.00544   0.96099   -1.000
 5407.00    1.02190   0.96311   -1.000
 5408.00    1.03065   0.96882   -1.000
 5409.00    1.02596   0.97446   -1.000
 5410.00    1.02576   0.97954   -1.000
 5411.00    1.03363   0.98625   -1.000
 5412.00    1.05003   0.99466   -1.000
 5413.00    1.05937   1.00301   -1.000
 5414.00    1.05210   1.00969   -1.000
 5415.00    1.04843   1.01473   -1.000
 5416.00    1.05610   1.01973   -1.000
 5417.00    1.06464   1.02468   -1.000
 5418.00    1.06221   1.02825   -1.000
 5419.00    1.06206   1.02959   -1.000
 5420.00    1.05753   1.02847   -1.000
 5421.00    1.05806   1.02536   -1.000
 5422.00    1.05852   1.02084   -1.000
 5423.00    1.04882   1.01568   -1.000
 5424.00    1.03859   1.01246   -1.000
 5425.00    1.03965   1.01290   -1.000
 5426.00    1.05039   1.01540   -1.000
 5427.00    1.05579   1.01618   -1.000
 5428.00    1.04237   1.01127   -1.000
 5429.00    1.01936   1.00249   -1.000
 5430.00    1.01215   0.99465   -1.000
 5431.00    1.02445   0.99058   -1.000
 5432.00    1.03046   0.98961   -1.000
 5433.00    1.02316   0.98869   -1.000
 5434.00    1.01340   0.98790   -1.000
 5435.00    1.01420   0.99047   -1.000
 5436.00    1.03091   0.99886   -1.000
 5437.00    1.04810   1.01278   -1.000
 5438.00    1.06271   1.02795   -1.000
 5439.00    1.07084   1.04055   -1.000
 5440.00    1.07268   1.04829   -1.000
 5441.00    1.07365   1.05110   -1.000
 5442.00    1.07314   1.04905   -1.000
 5443.00    1.06744   1.04099   -1.000
 5444.00    1.05253   1.02706   -1.000
 5445.00    1.02828   1.00973   -1.000
 5446.00    1.00806   0.99486   -1.000
 5447.00    1.00651   0.98873   -1.000
 5448.00    1.02729   0.99342   -1.000
 5449.00    1.05631   1.00620   -1.000
 5450.00    1.06700   1.02016   -1.000
 5451.00    1.06735   1.02915   -1.000
 5452.00    1.06218   1.02972   -1.000
 5453.00    1.05327   1.02210   -1.000
 5454.00    1.03345   1.00983   -1.000
 5455.00    1.01367   0.99969   -1.000
 5456.00    1.01384   0.99713   -1.000
 5457.00    1.03862   1.00403   -1.000
 5458.00    1.06162   1.01602   -1.000
 5459.00    1.07069   1.02611   -1.000
 5460.00    1.06037   1.02936   -1.000
 5461.00    1.05491   1.02526   -1.000
 5462.00    1.04419   1.01754   -1.000
 5463.00    1.03968   1.01116   -1.000
 5464.00    1.04216   1.00980   -1.000
 5465.00    1.05174   1.01352   -1.000
 5466.00    1.05269   1.02007   -1.000
 5467.00    1.05327   1.02649   -1.000
 5468.00    1.05352   1.03104   -1.000
 5469.00    1.05722   1.03309   -1.000
 5470.00    1.05601   1.03249   -1.000
 5471.00    1.05200   1.02927   -1.000
 5472.00    1.05025   1.02375   -1.000
 5473.00    1.04567   1.01575   -1.000
 5474.00    1.03570   1.00525   -1.000
 5475.00    1.01982   0.99362   -1.000
 5476.00    1.00802   0.98385   -1.000
 5477.00    1.00517   0.98005   -1.000
 5478.00    1.02194   0.98370   -1.000
 5479.00    1.04188   0.99207   -1.000
 5480.00    1.04463   1.00089   -1.000
 5481.00    1.03764   1.00696   -1.000
 5482.00    1.03571   1.01140   -1.000
 5483.00    1.04047   1.01623   -1.000
 5484.00    1.04954   1.02177   -1.000
 5485.00    1.05357   1.02629   -1.000
 5486.00    1.05149   1.02751   -1.000
 5487.00    1.04950   1.02564   -1.000
 5488.00    1.04227   1.02289   -1.000
 5489.00    1.04213   1.02165   -1.000
 5490.00    1.04607   1.02269   -1.000
 5491.00    1.04289   1.02482   -1.000
 5492.00    1.04829   1.02678   -1.000
 5493.00    1.05140   1.02770   -1.000
 5494.00    1.04961   1.02719   -1.000
 5495.00    1.04918   1.02525   -1.000
 5496.00    1.04473   1.02221   -1.000
 5497.00    1.03629   1.01906   -1.000
 5498.00    1.03398   1.01682   -1.000
 5499.00    1.04280   1.01508   -1.000
 5500.00    1.04258   1.01276   -1.000
 5501.00    1.03493   1.00960   -1.000
 5502.00    1.03349   1.00639   -1.000
 5503.00    1.03736   1.00457   -1.000
 5504.00    1.04363   1.00338   -1.000
 5505.00    1.03584   1.00148   -1.000
 5506.00    1.02434   0.99920   -1.000
 5507.00    1.02459   0.99807   -1.000
 5508.00    1.03701   0.99967   -1.000
 5509.00    1.04234   1.00274   -1.000
 5510.00    1.04443   1.00445   -1.000
 5511.00    1.03577   1.00295   -1.000
 5512.00    1.02513   0.99893   -1.000
 5513.00    1.02245   0.99554   -1.000
 5514.00    1.02278   0.99566   -1.000
 5515.00    1.03339   1.00044   -1.000
 5516.00    1.04572   1.00850   -1.000
 5517.00    1.05202   1.01771   -1.000
 5518.00    1.05681   1.02589   -1.000
 5519.00    1.06204   1.03189   -1.000
 5520.00    1.06014   1.03514   -1.000
 5521.00    1.05765   1.03596   -1.000
 5522.00    1.05645   1.03478   -1.000
 5523.00    1.05625   1.03139   -1.000
 5524.00    1.05411   1.02497   -1.000
 5525.00    1.04488   1.01468   -1.000
 5526.00    1.02918   1.00188   -1.000
 5527.00    1.01315   0.98996   -1.000
 5528.00    1.00800   0.98376   -1.000
 5529.00    1.01810   0.98595   -1.000
 5530.00    1.03562   0.99500   -1.000
 5531.00    1.04619   1.00591   -1.000
 5532.00    1.04562   1.01321   -1.000
 5533.00    1.04362   1.01513   -1.000
 5534.00    1.03847   1.01353   -1.000
 5535.00    1.03260   1.01208   -1.000
 5536.00    1.03841   1.01307   -1.000
 5537.00    1.04704   1.01656   -1.000
 5538.00    1.04968   1.02109   -1.000
 5539.00    1.05361   1.02532   -1.000
 5540.00    1.05831   1.02834   -1.000
 5541.00    1.05844   1.02944   -1.000
 5542.00    1.05350   1.02808   -1.000
 5543.00    1.04846   1.02514   -1.000
 5544.00    1.04443   1.02253   -1.000
 5545.00    1.04503   1.02188   -1.000
 5546.00    1.04723   1.02371   -1.000
 5547.00    1.04846   1.02742   -1.000
 5548.00    1.05250   1.03189   -1.000
 5549.00    1.05687   1.03593   -1.000
 5550.00    1.06194   1.03826   -1.000
 5551.00    1.05963   1.03816   -1.000
 5552.00    1.05495   1.03597   -1.000
 5553.00    1.05010   1.03272   -1.000
 5554.00    1.04927   1.03000   -1.000
 5555.00    1.04502   1.02884   -1.000
 5556.00    1.04771   1.02937   -1.000
 5557.00    1.05193   1.03078   -1.000
 5558.00    1.05225   1.03205   -1.000
 5559.00    1.05298   1.03234   -1.000
 5560.00    1.05492   1.03094   -1.000
 5561.00    1.05046   1.02761   -1.000
 5562.00    1.03991   1.02293   -1.000
 5563.00    1.03538   1.01806   -1.000
 5564.00    1.03165   1.01409   -1.000
 5565.00    1.03161   1.01135   -1.000
 5566.00    1.03265   1.00951   -1.000
 5567.00    1.03236   1.00799   -1.000
 5568.00    1.02906   1.00644   -1.000
 5569.00    1.02569   1.00467   -1.000
 5570.00    1.02611   1.00275   -1.000
 5571.00    1.02578   1.00083   -1.000
 5572.00    1.02252   0.99949   -1.000
 5573.00    1.01612   0.99959   -1.000
 5574.00    1.00379   1.00146  182.700
 5575.00    1.07965   1.00482   -1.000
 5576.00    1.21466   1.00874   -1.000
 5577.00    1.26881   1.01283   -1.000
 5578.00    1.20214   1.01675   -1.000
 5579.00    1.10148   1.01982   -1.000
 5580.00    1.06385   1.02147   -1.000
 5581.00    1.04409   1.02168   -1.000
 5582.00    1.04062   1.02064   -1.000
 5583.00    1.04008   1.01810   -1.000
 5584.00    1.03902   1.01246   -1.000
 5585.00    1.02884   1.00224   -1.000
 5586.00    1.01139   0.98795   -1.000
 5587.00    0.99168   0.97290   -1.000
 5588.00    0.98159   0.96239   -1.000
 5589.00    0.98899   0.95952   -1.000
 5590.00    1.00343   0.96421   -1.000
 5591.00    1.01352   0.97281   -1.000
 5592.00    1.01836   0.98134   -1.000
 5593.00    1.01628   0.98735   -1.000
 5594.00    1.01247   0.99111   -1.000
 5595.00    1.02001   0.99389   -1.000
 5596.00    1.03033   0.99564   -1.000
 5597.00    1.02511   0.99540   -1.000
 5598.00    1.01087   0.99256   -1.000
 5599.00    1.01210   0.98793   -1.000
 5600.00    1.01390   0.98317   -1.000
 5601.00    1.00899   0.97992   -1.000
 5602.00    1.00043   0.98023   -1.000
 5603.00    1.00565   0.98629   -1.000
 5604.00    1.02291   0.99803   -1.000
 5605.00    1.04254   1.01276   -1.000
 5606.00    1.05183   1.02663   -1.000
 5607.00    1.05332   1.03677   -1.000
 5608.00    1.05508   1.04275  180.104
 5609.00    1.05278   1.04545  179.903
 5610.00    1.04739   1.04583  179.323
 5611.00    1.05200   1.04351  180.227
 5612.00    1.05473   1.03699   -1.000
 5613.00    1.04511   1.02530   -1.000
 5614.00    1.02284   1.00998   -1.000
 5615.00    1.00420   0.99623  193.157
 5616.00    1.00390   0.98912   -1.000
 5617.00    1.02071   0.99099   -1.000
 5618.00    1.03395   0.99902   -1.000
 5619.00    1.03658   1.00854   -1.000
 5620.00    1.03927   1.01587   -1.000
 5621.00    1.04255   1.01936   -1.000
 5622.00    1.03803   1.01860   -1.000
 5623.00    1.02741   1.01466  191.853
 5624.00    1.01969   1.00979  190.863
 5625.00    1.01716   1.00726  187.532
 5626.00    1.02698   1.00911   -1.000
 5627.00    1.04067   1.01495   -1.000
 5628.00    1.04515   1.02272   -1.000
 5629.00    1.04833   1.02990   -1.000
 5630.00    1.05006   1.03485   -1.000
 5631.00    1.04961   1.03676  180.414
 5632.00    1.05254   1.03563   -1.000
 5633.00    1.05251   1.03207   -1.000
 5634.00    1.04464   1.02727   -1.000
 5635.00    1.04173   1.02219   -1.000
 5636.00    1.03782   1.01773   -1.000
 5637.00    1.03565   1.01440   -1.000
 5638.00    1.03325   1.01234   -1.000
 5639.00    1.03208   1.01121   -1.000
 5640.00    1.03104   1.01061   -1.000
 5641.00    1.02968   1.01043   -1.000
 5642.00    1.03013   1.01103   -1.000
 5643.00    1.03348   1.01262   -1.000
 5644.00    1.03609   1.01492   -1.000
 5645.00    1.03779   1.01737   -1.000
 5646.00    1.04094   1.01935   -1.000
 5647.00    1.04180   1.02036   -1.000
 5648.00    1.04396   1.02029   -1.000
 5649.00    1.04435   1.01966   -1.000
 5650.00    1.04258   1.01899   -1.000
 5651.00    1.03953   1.01853   -1.000
 5652.00    1.04030   1.01763   -1.000
 5653.00    1.04142   1.01532   -1.000
 5654.00    1.03532   1.01078   -1.000
 5655.00    1.03133   1.00355   -1.000
 5656.00    1.02437   0.99404   -1.000
 5657.00    1.00763   0.98404   -1.000
 5658.00    0.99231   0.97647   -1.000
 5659.00    0.99292   0.97385   -1.000
 5660.00    1.00838   0.97634   -1.000
 5661.00    1.01605   0.98170   -1.000
 5662.00    1.01783   0.98781   -1.000
 5663.00    1.02144   0.99380   -1.000
 5664.00    1.02792   0.99959   -1.000
 5665.00    1.03563   1.00457   -1.000
 5666.00    1.03257   1.00754   -1.000
 5667.00    1.02606   1.00829   -1.000
 5668.00    1.02676   1.00813   -1.000
 5669.00    1.03031   1.00876   -1.000
 5670.00    1.03395   1.01113   -1.000
 5671.00    1.03776   1.01483   -1.000
 5672.00    1.04169   1.01887   -1.000
 5673.00    1.04611   1.02212   -1.000
 5674.00    1.04981   1.02418   -1.000
 5675.00    1.04631   1.02509   -1.000
 5676.00    1.04513   1.02530   -1.000
 5677.00    1.04696   1.02492   -1.000
 5678.00    1.04573   1.02348   -1.000
 5679.00    1.04422   1.02027   -1.000
 5680.00    1.04078   1.01494   -1.000
 5681.00    1.03953   1.00803   -1.000
 5682.00    1.03312   1.00098   -1.000
 5683.00    1.02470   0.99561   -1.000
 5684.00    1.02579   0.99293   -1.000
 5685.00    1.02771   0.99249   -1.000
 5686.00    1.02671   0.99280   -1.000
 5687.00    1.02469   0.99277   -1.000
 5688.00    1.02320   0.99305   -1.000
 5689.00    1.02618   0.99502   -1.000
 5690.00    1.03380   0.99944   -1.000
 5691.00    1.03997   1.00549   -1.000
 5692.00    1.03891   1.01144   -1.000
 5693.00    1.04270   1.01609   -1.000
 5694.00    1.04285   1.01894   -1.000
 5695.00    1.04087   1.02018   -1.000
 5696.00    1.03765   1.01965   -1.000
 5697.00    1.03126   1.01737   -1.000
 5698.00    1.02805   1.01338   -1.000
 5699.00    1.02441   1.00838   -1.000
 5700.00    1.01887   1.00353   -1.000
 5701.00    1.01354   0.99991   -1.000
 5702.00    1.01569   0.99819   -1.000
 5703.00    1.01865   0.99779   -1.000
 5704.00    1.02251   0.99737   -1.000
 5705.00    1.02021   0.99519   -1.000
 5706.00    1.01222   0.99032   -1.000
 5707.00    1.00517   0.98310   -1.000
 5708.00    0.99423   0.97500   -1.000
 5709.00    0.98417   0.96842   -1.000
 5710.00    0.98372   0.96574   -1.000
 5711.00    0.98929   0.96839   -1.000
 5712.00    1.00303   0.97598   -1.000
 5713.00    1.01639   0.98658   -1.000
 5714.00    1.02673   0.99722   -1.000
 5715.00    1.03173   1.00580   -1.000
 5716.00    1.03060   1.01161   -1.000
 5717.00    1.03177   1.01570   -1.000
 5718.00    1.03662   1.01919   -1.000
 5719.00    1.04006   1.02279   -1.000
 5720.00    1.03916   1.02640  178.594
 5721.00    1.04050   1.02963  178.327
 5722.00    1.04460   1.03193  178.116
 5723.00    1.04388   1.03288  178.594
 5724.00    1.04242   1.03208  180.189
 5725.00    1.04021   1.02963  182.124
 5726.00    1.03340   1.02610  183.532
 5727.00    1.02641   1.02270  182.352
 5728.00    1.02765   1.02056  181.267
 5729.00    1.03670   1.01982   -1.000
 5730.00    1.03558   1.02000   -1.000
 5731.00    1.03187   1.02042  182.026
 5732.00    1.03085   1.02129  180.168
 5733.00    1.03417   1.02301  179.089
 5734.00    1.03970   1.02549  179.350
 5735.00    1.04164   1.02795  179.554
 5736.00    1.03683   1.02950  180.133
 5737.00    1.03530   1.03003  180.224
 5738.00    1.03789   1.02985  180.648
 5739.00    1.03911   1.02940  180.901
 5740.00    1.03638   1.02865  181.327
 5741.00    1.03638   1.02766  180.821
 5742.00    1.03650   1.02672  180.683
 5743.00    1.03385   1.02635  179.239
 5744.00    1.03673   1.02649  178.319
 5745.00    1.04010   1.02663  179.457
 5746.00    1.03983   1.02614  181.307
 5747.00    1.03211   1.02520  181.893
 5748.00    1.03139   1.02431  180.680
 5749.00    1.02828   1.02341  180.188
 5750.00    1.03256   1.02159  181.776
 5751.00    1.02877   1.01785  184.049
 5752.00    1.01974   1.01270  185.851
 5753.00    1.01252   1.00834  185.654
 5754.00    1.01723   1.00712  183.096
 5755.00    1.02534   1.01015   -1.000
 5756.00    1.03321   1.01601   -1.000
 5757.00    1.03859   1.02217   -1.000
 5758.00    1.04091   1.02596   -1.000
 5759.00    1.03745   1.02618  182.871
 5760.00    1.03092   1.02307  185.386
 5761.00    1.02556   1.01843  186.166
 5762.00    1.01994   1.01475  183.922
 5763.00    1.01981   1.01440  180.539
 5764.00    1.03064   1.01792  178.434
 5765.00    1.03740   1.02384  178.007
 5766.00    1.03908   1.02958  177.841
 5767.00    1.04151   1.03314  177.525
 5768.00    1.04023   1.03416  177.951
 5769.00    1.04007   1.03316  178.554
 5770.00    1.04034   1.03097  179.586
 5771.00    1.03926   1.02810  180.709
 5772.00    1.03546   1.02501  181.098
 5773.00    1.03284   1.02225  181.309
 5774.00    1.03614   1.02044   -1.000
 5775.00    1.03446   1.01978   -1.000
 5776.00    1.03070   1.01971  179.825
 5777.00    1.03225   1.01879  180.449
 5778.00    1.03204   1.01556   -1.000
 5779.00    1.02508   1.00966   -1.000
 5780.00    1.01902   1.00248   -1.000
 5781.00    1.01568   0.99608   -1.000
 5782.00    1.01641   0.99222   -1.000
 5783.00    1.02003   0.99123   -1.000
 5784.00    1.02048   0.99257   -1.000
 5785.00    1.02248   0.99553   -1.000
 5786.00    1.02563   0.99963   -1.000
 5787.00    1.02992   1.00429   -1.000
 5788.00    1.03136   1.00825   -1.000
 5789.00    1.03199   1.01043   -1.000
 5790.00    1.03023   1.01095   -1.000
 5791.00    1.03127   1.01112   -1.000
 5792.00    1.03212   1.01250   -1.000
 5793.00    1.03758   1.01543   -1.000
 5794.00    1.03990   1.01903   -1.000
 5795.00    1.04021   1.02190   -1.000
 5796.00    1.03645   1.02314  180.347
 5797.00    1.03211   1.02302  179.318
 5798.00    1.03390   1.02278  176.924
 5799.00    1.03733   1.02361  174.485
 5800.00    1.04061   1.02545   -1.000
 5801.00    1.04374   1.02730   -1.000
 5802.00    1.04434   1.02790   -1.000
 5803.00    1.03864   1.02673  178.659
 5804.00    1.03461   1.02435  179.396
 5805.00    1.03393   1.02200  178.889
 5806.00    1.03583   1.02089   -1.000
 5807.00    1.03793   1.02130   -1.000
 5808.00    1.03751   1.02285   -1.000
 5809.00    1.03704   1.02482  177.528
 5810.00    1.04203   1.02671   -1.000
 5811.00    1.04690   1.02797   -1.000
 5812.00    1.04949   1.02809   -1.000
 5813.00    1.05047   1.02682   -1.000
 5814.00    1.04542   1.02456   -1.000
 5815.00    1.03900   1.02228   -1.000
 5816.00    1.03814   1.02128   -1.000
 5817.00    1.04493   1.02231   -1.000
 5818.00    1.05052   1.02499   -1.000
 5819.00    1.04876   1.02806   -1.000
 5820.00    1.04863   1.03043   -1.000
 5821.00    1.05220   1.03179   -1.000
 5822.00    1.05088   1.03251   -1.000
 5823.00    1.04851   1.03291   -1.000
 5824.00    1.04929   1.03311   -1.000
 5825.00    1.04918   1.03320   -1.000
 5826.00    1.05158   1.03340   -1.000
 5827.00    1.05125   1.03378   -1.000
 5828.00    1.05159   1.03423   -1.000
 5829.00    1.05465   1.03443   -1.000
 5830.00    1.05405   1.03425   -1.000
 5831.00    1.05070   1.03360   -1.000
 5832.00    1.04962   1.03248   -1.000
 5833.00    1.04972   1.03109   -1.000
 5834.00    1.04690   1.02985   -1.000
 5835.00    1.04921   1.02934   -1.000
 5836.00    1.04697   1.02978   -1.000
 5837.00    1.04660   1.03088   -1.000
 5838.00    1.04675   1.03200   -1.000
 5839.00    1.05079   1.03281   -1.000
 5840.00    1.04977   1.03321   -1.000
 5841.00    1.05412   1.03327   -1.000
 5842.00    1.04967   1.03284   -1.000
 5843.00    1.04967   1.03172   -1.000
 5844.00    1.05264   1.02985   -1.000
 5845.00    1.04836   1.02740   -1.000
 5846.00    1.04477   1.02487   -1.000
 5847.00    1.04374   1.02292   -1.000
 5848.00    1.04210   1.02171   -1.000
 5849.00    1.04348   1.02064   -1.000
 5850.00    1.04599   1.01856   -1.000
 5851.00    1.04416   1.01484   -1.000
 5852.00    1.03442   1.00965   -1.000
 5853.00    1.02516   1.00392   -1.000
 5854.00    1.02659   0.99818   -1.000
 5855.00    1.02799   0.99239   -1.000
 5856.00    1.02354   0.98657   -1.000
 5857.00    1.01696   0.98168   -1.000
 5858.00    1.01501   0.97986   -1.000
 5859.00    1.02412   0.98218   -1.000
 5860.00    1.03255   0.98771   -1.000
 5861.00    1.03689   0.99445   -1.000
 5862.00    1.03659   1.00042   -1.000
 5863.00    1.03574   1.00477   -1.000
 5864.00    1.03870   1.00721   -1.000
 5865.00    1.03585   1.00765   -1.000
 5866.00    1.03197   1.00699   -1.000
 5867.00    1.03188   1.00668   -1.000
 5868.00    1.03653   1.00804   -1.000
 5869.00    1.04075   1.01126   -1.000
 5870.00    1.04206   1.01502   -1.000
 5871.00    1.04260   1.01770   -1.000
 5872.00    1.04500   1.01836   -1.000
 5873.00    1.04539   1.01720   -1.000
 5874.00    1.04330   1.01511   -1.000
 5875.00    1.04388   1.01286   -1.000
 5876.00    1.04517   1.01077   -1.000
 5877.00    1.04466   1.00878   -1.000
 5878.00    1.03979   1.00662   -1.000
 5879.00    1.02997   1.00412   -1.000
 5880.00    1.02539   1.00116   -1.000
 5881.00    1.02598   0.99771   -1.000
 5882.00    1.02355   0.99372   -1.000
 5883.00    1.02270   0.98918   -1.000
 5884.00    1.02197   0.98367   -1.000
 5885.00    1.01654   0.97543   -1.000
 5886.00    1.00147   0.96125   -1.000
 5887.00    0.97718   0.93829   -1.000
 5888.00    0.94309   0.90841   -1.000
 5889.00    0.92131   0.87913   -1.000
 5890.00    0.92538   0.86020   -1.000
 5891.00    0.94774   0.85644   -1.000
 5892.00    0.96783   0.86252   -1.000
 5893.00    0.97145   0.86969   -1.000
 5894.00    0.95797   0.87125   -1.000
 5895.00    0.94327   0.86898   -1.000
 5896.00    0.94673   0.86965   -1.000
 5897.00    0.96582   0.87887   -1.000
 5898.00    0.98919   0.89706   -1.000
 5899.00    0.99870   0.91920   -1.000
 5900.00    1.00902   0.94065   -1.000
 5901.00    1.02064   0.95838   -1.000
 5902.00    1.01993   0.97155   -1.000
 5903.00    1.02384   0.98042   -1.000
 5904.00    1.02266   0.98585   -1.000
 5905.00    1.02088   0.98906   -1.000
 5906.00    1.02306   0.99141   -1.000
 5907.00    1.02106   0.99350   -1.000
 5908.00    1.02169   0.99543   -1.000
 5909.00    1.02034   0.99683   -1.000
 5910.00    1.02324   0.99720   -1.000
 5911.00    1.02580   0.99595   -1.000
 5912.00    1.02357   0.99294   -1.000
 5913.00    1.01275   0.98857   -1.000
 5914.00    1.00487   0.98438   -1.000
 5915.00    1.00274   0.98186   -1.000
 5916.00    1.00506   0.98189   -1.000
 5917.00    1.00924   0.98425   -1.000
 5918.00    1.00684   0.98782   -1.000
 5919.00    1.01097   0.99135   -1.000
 5920.00    1.01387   0.99379   -1.000
 5921.00    1.01400   0.99510   -1.000
 5922.00    1.01499   0.99565   -1.000
 5923.00    1.01624   0.99628   -1.000
 5924.00    1.02123   0.99730   -1.000
 5925.00    1.02597   0.99847   -1.000
 5926.00    1.02861   0.99881   -1.000
 5927.00    1.02443   0.99752   -1.000
 5928.00    1.02058   0.99462   -1.000
 5929.00    1.01623   0.99141   -1.000
 5930.00    1.01262   0.98946   -1.000
 5931.00    1.01794   0.98949   -1.000
 5932.00    1.02245   0.99092   -1.000
 5933.00    1.02225   0.99245   -1.000
 5934.00    1.02073   0.99374   -1.000
 5935.00    1.01444   0.99507   -1.000
 5936.00    1.01581   0.99671   -1.000
 5937.00    1.02362   0.99825   -1.000
 5938.00    1.02052   0.99871   -1.000
 5939.00    1.01275   0.99766   -1.000
 5940.00    1.00843   0.99551  185.715
 5941.00    1.00725   0.99338   -1.000
 5942.00    1.00487   0.99233  184.244
 5943.00    1.00506   0.99244  183.184
 5944.00    1.00884   0.99319   -1.000
 5945.00    1.01285   0.99348   -1.000
 5946.00    1.01276   0.99274   -1.000
 5947.00    1.00676   0.99106   -1.000
 5948.00    1.00224   0.98934  187.156
 5949.00    1.00070   0.98838  186.043
 5950.00    1.00208   0.98822   -1.000
 5951.00    1.01062   0.98837   -1.000
 5952.00    1.01138   0.98814   -1.000
 5953.00    1.01154   0.98770   -1.000
 5954.00    1.00655   0.98732   -1.000
 5955.00    1.00474   0.98691   -1.000
 5956.00    1.00078   0.98673   -1.000
 5957.00    1.00077   0.98729   -1.000
 5958.00    1.00712   0.98909   -1.000
 5959.00    1.01832   0.99222   -1.000
 5960.00    1.02235   0.99580   -1.000
 5961.00    1.02234   0.99879   -1.000
 5962.00    1.02323   1.00050   -1.000
 5963.00    1.02108   1.00068   -1.000
 5964.00    1.01596   0.99970   -1.000
 5965.00    1.01315   0.99823   -1.000
 5966.00    1.00830   0.99705  183.192
 5967.00    1.01392   0.99672   -1.000
 5968.00    1.01546   0.99742   -1.000
 5969.00    1.02000   0.99884   -1.000
 5970.00    1.02346   1.00056   -1.000
 5971.00    1.02286   1.00179   -1.000
 5972.00    1.02530   1.00183   -1.000
 5973.00    1.02096   1.00017   -1.000
 5974.00    1.01273   0.99676   -1.000
 5975.00    1.00566   0.99250   -1.000
 5976.00    1.00132   0.98867  186.871
 5977.00    1.00255   0.98670   -1.000
 5978.00    1.00604   0.98712   -1.000
 5979.00    1.01068   0.98914   -1.000
 5980.00    1.01461   0.99119   -1.000
 5981.00    1.01506   0.99147   -1.000
 5982.00    1.00942   0.98940   -1.000
 5983.00    1.00233   0.98577   -1.000
 5984.00    0.99685   0.98252   -1.000
 5985.00    0.99986   0.98126   -1.000
 5986.00    1.00312   0.98245   -1.000
 5987.00    1.00540   0.98522   -1.000
 5988.00    1.00514   0.98817   -1.000
 5989.00    1.00662   0.99038   -1.000
 5990.00    1.00735   0.99172   -1.000
 5991.00    1.00922   0.99295   -1.000
 5992.00    1.00814   0.99453   -1.000
 5993.00    1.00915   0.99649  180.601
 5994.00    1.01557   0.99774   -1.000
 5995.00    1.01216   0.99758   -1.000
 5996.00    1.00638   0.99609  184.073
 5997.00    1.00567   0.99400  184.404
 5998.00    1.00683   0.99235   -1.000
 5999.00    1.00642   0.99129   -1.000
 6000.00    1.00579   0.99057   -1.000
 6001.00    1.00695   0.98960   -1.000
 6002.00    1.00286   0.98830   -1.000
 6003.00    0.99923   0.98682  185.270
 6004.00    0.99730   0.98526  185.507
 6005.00    0.99814   0.98327   -1.000
 6006.00    0.99835   0.98055   -1.000
 6007.00    0.99142   0.97780   -1.000
 6008.00    0.98899   0.97650  186.188
 6009.00    0.99113   0.97745   -1.000
 6010.00    0.99725   0.98020   -1.000
 6011.00    1.00276   0.98280   -1.000
 6012.00    1.00297   0.98394   -1.000
 6013.00    1.00053   0.98364   -1.000
 6014.00    0.99609   0.98256   -1.000
 6015.00    0.99687   0.98164   -1.000
 6016.00    0.99430   0.98080   -1.000
 6017.00    0.99731   0.97973   -1.000
 6018.00    0.99566   0.97805   -1.000
 6019.00    0.98724   0.97578  188.766
 6020.00    0.98551   0.97347  187.724
 6021.00    0.98620   0.97199   -1.000
 6022.00    0.98635   0.97201   -1.000
 6023.00    0.99068   0.97349   -1.000
 6024.00    0.98915   0.97634  184.655
 6025.00    0.99151   0.98024  184.226
 6026.00    0.99501   0.98459  182.932
 6027.00    0.99887   0.98884  182.218
 6028.00    0.99680   0.99269  182.039
 6029.00    1.00058   0.99587  182.124
 6030.00    1.00159   0.99828  182.608
 6031.00    1.00119   0.99999  182.143
 6032.00    1.00374   1.00117  181.272
 6033.00    1.00580   1.00212  180.880
 6034.00    1.00832   1.00289  180.851
 6035.00    1.00629   1.00330  180.459
 6036.00    1.00490   1.00306  180.756
 6037.00    1.00414   1.00204  181.916
 6038.00    1.00077   1.00020  182.150
 6039.00    0.99957   0.99782  182.791
 6040.00    1.00069   0.99542  182.226
 6041.00    0.99764   0.99369  182.036
 6042.00    0.99854   0.99312  180.973
 6043.00    0.99762   0.99381  179.465
 6044.00    1.00304   0.99551  179.834
 6045.00    0.99971   0.99763  179.820
 6046.00    0.99962   0.99975  179.478
 6047.00    1.00275   1.00173  179.741
 6048.00    0.99863   1.00320  180.436
 6049.00    1.00024   1.00407  180.790
 6050.00    1.00032   1.00411  180.923
 6051.00    1.00071   1.00324  181.305
 6052.00    0.99722   1.00132  182.110
 6053.00    0.99765   0.99840  182.624
 6054.00    0.99728   0.99509  183.728
 6055.00    0.99202   0.99230  184.191
 6056.00    0.99004   0.99107  183.753
 6057.00    0.98855   0.99166  182.686
 6058.00    0.99578   0.99352  181.770
 6059.00    0.99150   0.99544  182.170
 6060.00    1.03814   0.99628   -1.000
 6061.00    1.01905   0.99506   -1.000
 6062.00    0.98048   0.99155  189.320
 6063.00    1.00555   0.98638   -1.000
 6064.00    0.63164   0.98123   -1.000
 6065.00    0.66399   0.97821   -1.000
 6066.00    1.00505   0.97893   -1.000
 6067.00    0.97843   0.98284  182.279
 6068.00    0.98888   0.98837  182.513
 6069.00    1.00862   0.99377   -1.000
 6070.00    1.00777   0.99776  175.038
 6071.00    0.99345   1.00040  179.754
 6072.00    0.99387   1.00194  180.437
 6073.00    0.99566   1.00265  180.538
 6074.00    0.99582   1.00242  181.230
 6075.00    0.99370   1.00094  182.214
 6076.00    0.98794   0.99815  183.267
 6077.00    0.98226   0.99450  184.757
 6078.00    0.97848   0.99072  185.826
 6079.00    0.97859   0.98783  185.774
 6080.00    0.97814   0.98589  185.979
 6081.00    0.97578   0.98438  186.569
 6082.00    0.97529   0.98299  186.459
 6083.00    0.97210   0.98170  186.318
 6084.00    0.97433   0.98097  186.111
 6085.00    0.97674   0.98131  185.516
 6086.00    0.97626   0.98264  184.741
 6087.00    0.97772   0.98427  185.285
 6088.00    0.97822   0.98528  186.508
 6089.00    0.97493   0.98531  187.229
 6090.00    0.97237   0.98463  187.005
 6091.00    0.97095   0.98408  185.648
 6092.00    0.97216   0.98438  184.788
 6093.00    0.97653   0.98566  183.709
 6094.00    0.97991   0.98776  182.958
 6095.00    0.97890   0.99005  183.152
 6096.00    0.98066   0.99202  183.653
 6097.00    0.98114   0.99284  183.710
 6098.00    0.97866   0.99141  183.723
 6099.00    0.98052   0.98683  186.272
 6100.00    0.97352   0.97879  191.177
 6101.00    0.95897   0.96912  193.935
 6102.00    0.94639   0.96088  191.899
 6103.00    0.94976   0.95754  187.976
 6104.00    0.96170   0.96023  185.300
 6105.00    0.97139   0.96697  184.966
 6106.00    0.97312   0.97512  185.833
 6107.00    0.97057   0.98210  186.225
 6108.00    0.96895   0.98717  186.076
 6109.00    0.96991   0.99048   -1.000
 6110.00    0.97180   0.99228   -1.000
 6111.00    0.96968   0.99314   -1.000
 6112.00    0.97557   0.99343  183.698
 6113.00    0.97643   0.99359  183.366
 6114.00    0.97443   0.99374  184.239
 6115.00    0.96995   0.99366   -1.000
 6116.00    0.97056   0.99298   -1.000
 6117.00    0.96843   0.99116   -1.000
 6118.00    0.96915   0.98723  189.627
 6119.00    0.96114   0.98057   -1.000
 6120.00    0.94935   0.97163   -1.000
 6121.00    0.94340   0.96227  193.629
 6122.00    0.94050   0.95571  190.041
 6123.00    0.94687   0.95402  187.771
 6124.00    0.95468   0.95726  188.047
 6125.00    0.96074   0.96329  189.264
 6126.00    0.96235   0.96937  188.802
 6127.00    0.95893   0.97411  188.387
 6128.00    0.95663   0.97744   -1.000
 6129.00    0.96215   0.98069  184.910
 6130.00    0.96554   0.98432  184.736
 6131.00    0.96656   0.98752   -1.000
 6132.00    0.96696   0.98863   -1.000
 6133.00    0.95984   0.98532   -1.000
 6134.00    0.94839   0.97654   -1.000
 6135.00    0.93260   0.96380   -1.000
 6136.00    0.91370   0.95048   -1.000
 6137.00    0.90750   0.94099   -1.000
 6138.00    0.91949   0.93755  190.963
 6139.00    0.93816   0.93901  189.354
 6140.00    0.94719   0.94374  189.977
 6141.00    0.94139   0.95043  190.218
 6142.00    0.94101   0.95807  187.967
 6143.00    0.94766   0.96608  185.726
 6144.00    0.95742   0.97263  185.748
 6145.00    0.96345   0.97641  186.739
 6146.00    0.95837   0.97720  187.962
 6147.00    0.95585   0.97576   -1.000
 6148.00    0.95430   0.97359   -1.000
 6149.00    0.95182   0.97193   -1.000
 6150.00    0.94961   0.97141   -1.000
 6151.00    0.94612   0.97186   -1.000
 6152.00    0.95195   0.97257   -1.000
 6153.00    0.95796   0.97252  189.869
 6154.00    0.95956   0.97129  190.698
 6155.00    0.95774   0.96920  190.736
 6156.00    0.95504   0.96658  191.665
 6157.00    0.95581   0.96293  193.903
 6158.00    0.94994   0.95697  197.869
 6159.00    0.94234   0.94725  204.205
 6160.00    0.93204   0.93404  209.987
 6161.00    0.91392   0.92018  211.339
 6162.00    0.90086   0.90988  207.490
 6163.00    0.90387   0.90658  201.477
 6164.00    0.91952   0.91003  198.847
 6165.00    0.93200   0.91723   -1.000
 6166.00    0.93286   0.92393  199.002
 6167.00    0.93139   0.92732  201.898
 6168.00    0.92390   0.92755  203.744
 6169.00    0.91462   0.92713  201.686
 6170.00    0.91867   0.92919  197.487
 6171.00    0.93026   0.93425  194.990
 6172.00    0.93555   0.94157  195.595
 6173.00    0.93533   0.94902  195.666
 6174.00    0.93988   0.95505  195.098
 6175.00    0.94571   0.95933  194.756
 6176.00    0.94386   0.96213  194.189
 6177.00    0.94314   0.96416   -1.000
 6178.00    0.94676   0.96577   -1.000
 6179.00    0.94664   0.96738   -1.000
 6180.00    0.94625   0.96915   -1.000
 6181.00    0.94692   0.97103   -1.000
 6182.00    0.94811   0.97269   -1.000
 6183.00    0.95206   0.97337   -1.000
 6184.00    0.94880   0.97264   -1.000
 6185.00    0.94816   0.97047   -1.000
 6186.00    0.94678   0.96699   -1.000
 6187.00    0.94292   0.96246   -1.000
 6188.00    0.93533   0.95687   -1.000
 6189.00    0.92988   0.95064   -1.000
 6190.00    0.92276   0.94484   -1.000
 6191.00    0.91215   0.94161   -1.000
 6192.00    0.91327   0.94269   -1.000
 6193.00    0.92821   0.94746   -1.000
 6194.00    0.94164   0.95428  192.745
 6195.00    0.94558   0.96078  192.597
 6196.00    0.94411   0.96506   -1.000
 6197.00    0.94141   0.96673   -1.000
 6198.00    0.93529   0.96616   -1.000
 6199.00    0.92658   0.96461   -1.000
 6200.00    0.92359   0.96373   -1.000
 6201.00    0.92738   0.96460   -1.000
 6202.00    0.93491   0.96724   -1.000
 6203.00    0.94196   0.97096   -1.000
 6204.00    0.94337   0.97468   -1.000
 6205.00    0.94247   0.97760   -1.000
 6206.00    0.94288   0.97937   -1.000
 6207.00    0.94141   0.98000   -1.000
 6208.00    0.93906   0.97924   -1.000
 6209.00    0.93922   0.97690   -1.000
 6210.00    0.93819   0.97264   -1.000
 6211.00    0.93044   0.96659   -1.000
 6212.00    0.92453   0.95960   -1.000
 6213.00    0.91712   0.95304   -1.000
 6214.00    0.90959   0.94816   -1.000
 6215.00    0.91302   0.94528   -1.000
 6216.00    0.91432   0.94393   -1.000
 6217.00    0.92123   0.94319   -1.000
 6218.00    0.91978   0.94267   -1.000
 6219.00    0.91134   0.94284   -1.000
 6220.00    0.91140   0.94409   -1.000
 6221.00    0.92434   0.94668   -1.000
 6222.00    0.92731   0.94968   -1.000
 6223.00    0.93061   0.95230   -1.000
 6224.00    0.92568   0.95393   -1.000
 6225.00    0.92357   0.95396   -1.000
 6226.00    0.92489   0.95213   -1.000
 6227.00    0.92364   0.94790   -1.000
 6228.00    0.91784   0.94140   -1.000
 6229.00    0.90517   0.93396   -1.000
 6230.00    0.89407   0.92788   -1.000
 6231.00    0.89243   0.92545   -1.000
 6232.00    0.89571   0.92740   -1.000
 6233.00    0.91164   0.93261   -1.000
 6234.00    0.92222   0.93845  197.254
 6235.00    0.92162   0.94254   -1.000
 6236.00    0.92592   0.94375  200.980
 6237.00    0.91898   0.94242   -1.000
 6238.00    0.91322   0.93995   -1.000
 6239.00    0.91180   0.93734   -1.000
 6240.00    0.90588   0.93495   -1.000
 6241.00    0.90421   0.93236   -1.000
 6242.00    0.89902   0.92893   -1.000
 6243.00    0.89551   0.92464   -1.000
 6244.00    0.89284   0.92049   -1.000
 6245.00    0.89386   0.91796   -1.000
 6246.00    0.89881   0.91860   -1.000
 6247.00    0.90268   0.92252   -1.000
 6248.00    0.90880   0.92821   -1.000
 6249.00    0.90935   0.93287   -1.000
 6250.00    0.90684   0.93416   -1.000
 6251.00    0.89900   0.93156   -1.000
 6252.00    0.88553   0.92627   -1.000
 6253.00    0.87960   0.92075   -1.000
 6254.00    0.87888   0.91665   -1.000
 6255.00    0.87820   0.91459   -1.000
 6256.00    0.87626   0.91423   -1.000
 6257.00    0.87611   0.91518   -1.000
 6258.00    0.87675   0.91749   -1.000
 6259.00    0.88375   0.92133   -1.000
 6260.00    0.89298   0.92660   -1.000
 6261.00    0.89836   0.93250   -1.000
 6262.00    0.90061   0.93805   -1.000
 6263.00    0.90301   0.94222   -1.000
 6264.00    0.90236   0.94497   -1.000
 6265.00    0.89692   0.94677   -1.000
 6266.00    0.89529   0.94802   -1.000
 6267.00    0.90185   0.94885   -1.000
 6268.00    0.90377   0.94885   -1.000
 6269.00    0.90085   0.94808   -1.000
 6270.00    0.90020   0.94705   -1.000
 6271.00    0.89821   0.94589   -1.000
 6272.00    0.89928   0.94435   -1.000
 6273.00    0.89525   0.94138   -1.000
 6274.00    0.88457   0.93624   -1.000
 6275.00    0.86903   0.92940   -1.000
 6276.00    0.85401   0.92175   -1.000
 6277.00    0.84755   0.91498   -1.000
 6278.00    0.84825   0.91030   -1.000
 6279.00    0.85265   0.90850   -1.000
 6280.00    0.85747   0.91023   -1.000
 6281.00    0.86219   0.91502   -1.000
 6282.00    0.87365   0.92190   -1.000
 6283.00    0.88335   0.92946   -1.000
 6284.00    0.88803   0.93622   -1.000
 6285.00    0.89383   0.94141   -1.000
 6286.00    0.89718   0.94466   -1.000
 6287.00    0.89801   0.94605   -1.000
 6288.00    0.89787   0.94573   -1.000
 6289.00    0.89497   0.94412   -1.000
 6290.00    0.88637   0.94205   -1.000
 6291.00    0.88413   0.94018   -1.000
 6292.00    0.88482   0.93886   -1.000
 6293.00    0.88324   0.93782   -1.000
 6294.00    0.88048   0.93641   -1.000
 6295.00    0.87933   0.93405   -1.000
 6296.00    0.88058   0.93074   -1.000
 6297.00    0.88178   0.92703   -1.000
 6298.00    0.88857   0.92354   -1.000
 6299.00    0.90424   0.92073  205.281
 6300.00    0.90338   0.91897  207.415
 6301.00    0.88411   0.91896   -1.000
 6302.00    0.87129   0.92156   -1.000
 6303.00    0.87810   0.92672   -1.000
 6304.00    0.88235   0.93320   -1.000
 6305.00    0.88424   0.93942   -1.000
 6306.00    0.89059   0.94406   -1.000
 6307.00    0.89629   0.94666   -1.000
 6308.00    0.89723   0.94756   -1.000
 6309.00    0.89434   0.94739   -1.000
 6310.00    0.88833   0.94641   -1.000
 6311.00    0.88679   0.94471   -1.000
 6312.00    0.88731   0.94218   -1.000
 6313.00    0.88155   0.93871   -1.000
 6314.00    0.87477   0.93476   -1.000
 6315.00    0.87345   0.93086   -1.000
 6316.00    0.87443   0.92779   -1.000
 6317.00    0.87505   0.92635   -1.000
 6318.00    0.87438   0.92707   -1.000
 6319.00    0.87953   0.93005   -1.000
 6320.00    0.88524   0.93455   -1.000
 6321.00    0.88857   0.93950   -1.000
 6322.00    0.88786   0.94432   -1.000
 6323.00    0.88820   0.94877   -1.000
 6324.00    0.89358   0.95232   -1.000
 6325.00    0.89841   0.95476   -1.000
 6326.00    0.89855   0.95597   -1.000
 6327.00    0.89719   0.95612   -1.000
 6328.00    0.89434   0.95585   -1.000
 6329.00    0.89691   0.95547   -1.000
 6330.00    0.89959   0.95501   -1.000
 6331.00    0.89738   0.95403   -1.000
 6332.00    0.90772   0.95170   -1.000
 6333.00    0.93752   0.94758  195.885
 6334.00    0.89215   0.94217   -1.000
 6335.00    0.87813   0.93697   -1.000
 6336.00    0.87417   0.93394   -1.000
 6337.00    0.88049   0.93410   -1.000
 6338.00    0.88905   0.93703   -1.000
 6339.00    0.89736   0.94156   -1.000
 6340.00    0.89795   0.94603   -1.000
 6341.00    0.90376   0.94895   -1.000
 6342.00    0.89920   0.94983   -1.000
 6343.00    0.89526   0.94895   -1.000
 6344.00    0.89333   0.94734   -1.000
 6345.00    0.89534   0.94633   -1.000
 6346.00    0.89843   0.94689   -1.000
 6347.00    0.90048   0.94943   -1.000
 6348.00    0.90327   0.95331   -1.000
 6349.00    0.90344   0.95722   -1.000
 6350.00    0.90320   0.95995   -1.000
 6351.00    0.90179   0.96072   -1.000
 6352.00    0.90203   0.95949   -1.000
 6353.00    0.89994   0.95690   -1.000
 6354.00    0.89564   0.95377   -1.000
 6355.00    0.89057   0.95080   -1.000
 6356.00    0.89079   0.94814   -1.000
 6357.00    0.88727   0.94562   -1.000
 6358.00    0.88473   0.94325   -1.000
 6359.00    0.88473   0.94107   -1.000
 6360.00    0.88756   0.93905   -1.000
 6361.00    0.89399   0.93742   -1.000
 6362.00    0.89969   0.93654   -1.000
 6363.00    0.89926   0.93672   -1.000
 6364.00    0.89818   0.93809   -1.000
 6365.00    0.89710   0.94027   -1.000
 6366.00    0.89480   0.94268   -1.000
 6367.00    0.88977   0.94463   -1.000
 6368.00    0.89460   0.94562   -1.000
 6369.00    0.89381   0.94588   -1.000
 6370.00    0.89030   0.94617   -1.000
 6371.00    0.89164   0.94718   -1.000
 6372.00    0.89317   0.94900   -1.000
 6373.00    0.88898   0.95103   -1.000
 6374.00    0.89010   0.95235   -1.000
 6375.00    0.88670   0.95249   -1.000
 6376.00    0.88884   0.95143   -1.000
 6377.00    0.88531   0.94969   -1.000
 6378.00    0.87655   0.94780   -1.000
 6379.00    0.87459   0.94606   -1.000
 6380.00    0.87462   0.94464   -1.000
 6381.00    0.86779   0.94359   -1.000
 6382.00    0.86969   0.94309   -1.000
 6383.00    0.86604   0.94332   -1.000
 6384.00    0.86442   0.94433   -1.000
 6385.00    0.86273   0.94592   -1.000
 6386.00    0.86105   0.94751   -1.000
 6387.00    0.86193   0.94852   -1.000
 6388.00    0.85310   0.94847   -1.000
 6389.00    0.84818   0.94702   -1.000
 6390.00    0.84364   0.94403   -1.000
 6391.00    0.83449   0.93984   -1.000
 6392.00    0.82645   0.93573   -1.000
 6393.00    0.81750   0.93323   -1.000
 6394.00    0.81440   0.93319   -1.000
 6395.00    0.81919   0.93490   -1.000
 6396.00    0.82387   0.93646   -1.000
 6397.00    0.81635   0.93621   -1.000
 6398.00    0.80823   0.93392   -1.000
 6399.00    0.79315   0.93126   -1.000
 6400.00    0.78632   0.93043   -1.000
 6401.00    0.78778   0.93249   -1.000
 6402.00    0.79358   0.93674   -1.000
 6403.00    0.79874   0.94119   -1.000
 6404.00    0.79872   0.94392   -1.000
 6405.00    0.78980   0.94398   -1.000
 6406.00    0.78138   0.94194   -1.000
 6407.00    0.77182   0.93920   -1.000
 6408.00    0.76826   0.93705   -1.000
 6409.00    0.76518   0.93585   -1.000
 6410.00    0.75877   0.93537   -1.000
 6411.00    0.75421   0.93559   -1.000
 6412.00    0.74785   0.93644   -1.000
 6413.00    0.74475   0.93770   -1.000
 6414.00    0.74447   0.93895   -1.000
 6415.00    0.74267   0.93987   -1.000
 6416.00    0.73537   0.94005   -1.000
 6417.00    0.72881   0.93901   -1.000
 6418.00    0.71797   0.93680   -1.000
 6419.00    0.71052   0.93425   -1.000
 6420.00    0.70004   0.93271   -1.000
 6421.00    0.69159   0.93367   -1.000
 6422.00    0.68969   0.93750   -1.000
 6423.00    0.68893   0.94296   -1.000
 6424.00    0.68676   0.94859   -1.000
 6425.00    0.68232   0.95295   -1.000
 6426.00    0.67496   0.95486   -1.000
 6427.00    0.66845   0.95386   -1.000
 6428.00    0.65825   0.94999   -1.000
