###################################################################
## OUTPUT of StarlightChains_v04.for    [Cid@UFSC - 01/Apr/2007] ##
###################################################################

## Some input info
NGC5286_c_1.cxt                          [arq_obs]
Base.BC03.N                              [arq_base]
NGC5286_c_1.msk                          [arq_masks]
StCv04.C99.config                        [arq_config]
   45                                    [N_base]
    0                                    [N_YAV_components = # of components with extra extinction!]
    0                                    [i_FitPowerLaw (1/0 = Yes/No)]
-9.99                                    [alpha_PowerLaw]
CCM                                      [red_law_option]
 1.458241                                [q_norm = A(l_norm)/A(V)]

## (Re)Sampling Parameters
 3359.00                                 [l_ini (A)]
 6428.00                                 [l_fin (A)]
    1.00                                 [dl    (A)]     (OBS: dl_cushion =    50.00 A)

## Normalization info
 4020.00                                 [l_norm (A) - for base]
 4010.00                                 [llow_norm (A) - window for f_obs]
 4060.00                                 [lupp_norm (A) - window for f_obs]
3.906300E-14                             [fobs_norm (in input units)]

## S/N
 4730.00                                 [llow_SN (A) - window for S/N]
 4780.00                                 [lupp_SN (A) - window for S/N]
 103.062                                 [S/N in S/N window]
  88.537                                 [S/N in norm. window]
 171.763                                 [S/N_err in S/N window]
 147.556                                 [S/N_err in norm. window]
  1.0000                                 [fscale_chi2]

## etc...
  2147483636                             [idum_orig]
  3068                                   [NOl_eff]
  1561                                   [Nl_eff]
  1507    NSIGMA                         [Ntot_cliped & clip_method]
  1740480                                [Nglobal_steps]
   7                                     [N_chains]
   7                                     [NEX0s_base = N_base in EX0s-fits]
 0   0   1      214   2.0   3.215E+02    [Clip-Bug, RC-Crash & Burn-In warning-flags, n_censored_weights, wei_nsig_threshold & wei_limit]
    24     24.643     24.643      0.000  [idt_all, wdt_TotTime, wdt_UsrTime & wdt_SysTime (sec)]

## Synthesis Results - Best model ##

 2.87425E+00                             [chi2/Nl_eff]
     0.96061                             [adev (%)]

   100.10628                             [sum-of-x (%)]
 2.30143E-13                             [Flux_tot (units of input spectrum!)]
 1.14862E-09                             [Mini_tot (???)]
 6.31927E-10                             [Mcor_tot (???)]

 -17.42                                  [v0_min  (km/s)]
 107.44                                  [vd_min  (km/s)]
 1.3197                                  [AV_min  (mag)]
 0.0000                                  [YAV_min (mag)]

# j     x_j(%)      Mini_j(%)     Mcor_j(%)     age_j(yr)     Z_j      (L/M)_j    YAV?  Mstars   component_j        a/Fe...       SSP_chi2r SSP_adev(%)   SSP_AV   SSP_x(%)
  1      0.0000     0.0000E+00    0.0000E+00    1.000000E+06  0.00400  1.114E-02    0   1.0000   age020_m42            0.0000     3.8246E+02     8.5377   4.0000    77.9866
  2     16.1284     7.9257E-02    1.4405E-01    3.160000E+06  0.00400  4.073E-02    0   0.9999   age045_m42            0.0000     5.3319E+01     3.5237   3.0758    91.6297
  3      0.0000     0.0000E+00    0.0000E+00    5.010000E+06  0.00400  2.534E-02    0   0.9488   age055_m42            0.0000     1.6828E+02     5.9564   3.4774    85.1675
  4     12.1547     1.9141E-01    3.0832E-01    1.000000E+07  0.00400  1.271E-02    0   0.8862   age070_m42            0.0000     1.4365E+02     6.0227   2.6926    89.1005
  5      0.0000     0.0000E+00    0.0000E+00    2.512000E+07  0.00400  5.070E-03    0   0.8174   age090_m42            0.0000     1.2030E+02     5.5277   2.5661    90.6035
  6      0.0000     0.0000E+00    0.0000E+00    4.000000E+07  0.00400  3.505E-03    0   0.7851   age104_m42            0.0000     5.7474E+01     3.8091   2.2550    93.5729
  7     15.2814     1.3486E+00    1.7666E+00    1.015200E+08  0.00400  2.268E-03    0   0.7207   age116_m42            0.0000     1.8200E+02     5.1994   2.2646   103.2128
  8      0.0000     0.0000E+00    0.0000E+00    2.861200E+08  0.00400  1.079E-03    0   0.6613   age125_m42            0.0000     2.1690E+02     6.0433   1.7773   105.0432
  9      0.0000     0.0000E+00    0.0000E+00    6.405400E+08  0.00400  5.077E-04    0   0.6197   age132_m42            0.0000     2.4569E+02     6.4022   1.4177   109.0699
 10     20.3571     1.1526E+01    1.2621E+01    9.047900E+08  0.00400  3.535E-04    0   0.6024   age135_m42            0.0000     1.4875E+02     5.2967   1.1797   108.1510
 11      0.0000     0.0000E+00    0.0000E+00    1.434000E+09  0.00400  1.910E-04    0   0.5716   age139_m42            0.0000     8.9000E+01     4.7258   0.6582   106.5955
 12     30.1444     6.1453E+01    6.1022E+01    2.500000E+09  0.00400  9.818E-05    0   0.5463   age150_m42            0.0000     7.8531E+01     4.0527   0.3841   101.6795
 13      5.9876     2.5401E+01    2.4138E+01    5.000000E+09  0.00400  4.718E-05    0   0.5228   age161_m42            0.0000     1.0950E+02     4.2305   0.2183    98.1602
 14      0.0000     0.0000E+00    0.0000E+00    1.100000E+10  0.00400  2.205E-05    0   0.4980   age185_m42            0.0000     2.0740E+02     5.6309  -0.0371    95.7692
 15      0.0000     0.0000E+00    0.0000E+00    1.300000E+10  0.00400  1.883E-05    0   0.4927   age193_m42            0.0000     2.2285E+02     5.8093  -0.0537    95.5760
 16      0.0000     0.0000E+00    0.0000E+00    1.000000E+06  0.02000  1.989E-02    0   1.0000   age020_m62            0.0000     3.8401E+02     8.6904   3.9941    77.9667
 17      0.0000     0.0000E+00    0.0000E+00    3.160000E+06  0.02000  3.772E-02    0   0.9858   age045_m62            0.0000     3.3325E+02     8.2204   3.8588    80.1305
 18      0.0528     3.2739E-04    5.5592E-04    5.010000E+06  0.02000  3.227E-02    0   0.9342   age055_m62            0.0000     9.9350E+01     4.7421   3.3386    88.1535
 19      0.0000     0.0000E+00    0.0000E+00    1.000000E+07  0.02000  1.011E-02    0   0.8751   age070_m62            0.0000     4.2841E+02    10.4587   2.7096    85.0613
 20      0.0000     0.0000E+00    0.0000E+00    2.512000E+07  0.02000  4.206E-03    0   0.8099   age090_m62            0.0000     2.8934E+02     8.3847   2.6461    86.0553
 21      0.0000     0.0000E+00    0.0000E+00    4.000000E+07  0.02000  3.373E-03    0   0.7799   age104_m62            0.0000     4.5701E+01     3.4220   2.4656    95.1000
 22      0.0000     0.0000E+00    0.0000E+00    1.015200E+08  0.02000  1.878E-03    0   0.7221   age116_m62            0.0000     1.3082E+02     4.1398   2.2898   103.5403
 23      0.0000     0.0000E+00    0.0000E+00    2.861200E+08  0.02000  8.869E-04    0   0.6700   age125_m62            0.0000     4.0165E+02     7.9116   1.7850   110.4332
 24      0.0000     0.0000E+00    0.0000E+00    6.405400E+08  0.02000  3.657E-04    0   0.6322   age132_m62            0.0000     2.9702E+02     7.7447   1.1136   113.4658
 25      0.0000     0.0000E+00    0.0000E+00    9.047900E+08  0.02000  2.312E-04    0   0.6152   age135_m62            0.0000     1.8400E+02     6.5887   0.7404   112.3524
 26      0.0000     0.0000E+00    0.0000E+00    1.434000E+09  0.02000  1.168E-04    0   0.5865   age139_m62            0.0000     1.1226E+02     5.0407   0.3238   106.1077
 27      0.0000     0.0000E+00    0.0000E+00    2.500000E+09  0.02000  5.505E-05    0   0.5610   age150_m62            0.0000     1.8784E+02     5.9118  -0.0438   102.8968
 28      0.0000     0.0000E+00    0.0000E+00    5.000000E+09  0.02000  2.596E-05    0   0.5353   age161_m62            0.0000     3.4900E+02     7.8019  -0.3695   102.6771
 29      0.0000     0.0000E+00    0.0000E+00    1.100000E+10  0.02000  1.169E-05    0   0.5103   age185_m62            0.0000     5.4215E+02     9.6487  -0.7319   104.0430
 30      0.0000     0.0000E+00    0.0000E+00    1.300000E+10  0.02000  9.691E-06    0   0.5047   age193_m62            0.0000     5.8060E+02     9.9473  -0.7766   104.2172
 31      0.0000     0.0000E+00    0.0000E+00    1.000000E+06  0.05000  2.651E-02    0   0.9998   age020_m72            0.0000     3.5663E+02     8.2929   4.0000    78.7617
 32      0.0000     0.0000E+00    0.0000E+00    3.160000E+06  0.05000  4.817E-02    0   0.9577   age045_m72            0.0000     2.2359E+02     6.7694   3.7177    83.4585
 33      0.0000     0.0000E+00    0.0000E+00    5.010000E+06  0.05000  3.101E-02    0   0.9147   age055_m72            0.0000     1.9953E+02     6.4882   3.3532    86.1163
 34      0.0000     0.0000E+00    0.0000E+00    1.000000E+07  0.05000  8.954E-03    0   0.8524   age070_m72            0.0000     2.2480E+02     6.7695   3.5935    84.5835
 35      0.0000     0.0000E+00    0.0000E+00    2.512000E+07  0.05000  4.207E-03    0   0.7902   age090_m72            0.0000     8.2976E+01     4.3278   3.1628    90.3685
 36      0.0000     0.0000E+00    0.0000E+00    4.000000E+07  0.05000  3.198E-03    0   0.7618   age104_m72            0.0000     5.6780E+01     2.9872   2.6570    99.0509
 37      0.0000     0.0000E+00    0.0000E+00    1.015200E+08  0.05000  1.716E-03    0   0.7092   age116_m72            0.0000     1.7480E+02     4.8905   2.3725   103.7860
 38      0.0000     0.0000E+00    0.0000E+00    2.861200E+08  0.05000  7.047E-04    0   0.6618   age125_m72            0.0000     4.0155E+02     8.2187   1.5800   110.8586
 39      0.0000     0.0000E+00    0.0000E+00    6.405400E+08  0.05000  2.633E-04    0   0.6253   age132_m72            0.0000     2.5179E+02     7.4268   0.7368   112.7926
 40      0.0000     0.0000E+00    0.0000E+00    9.047900E+08  0.05000  1.484E-04    0   0.6088   age135_m72            0.0000     1.7641E+02     6.4401   0.2590   107.1878
 41      0.0000     0.0000E+00    0.0000E+00    1.434000E+09  0.05000  7.827E-05    0   0.5847   age139_m72            0.0000     2.5706E+02     7.0947  -0.1271   103.3246
 42      0.0000     0.0000E+00    0.0000E+00    2.500000E+09  0.05000  3.759E-05    0   0.5583   age150_m72            0.0000     3.7992E+02     8.1809  -0.4475   102.3315
 43      0.0000     0.0000E+00    0.0000E+00    5.000000E+09  0.05000  1.548E-05    0   0.5320   age161_m72            0.0000     5.5794E+02     9.6456  -0.8646   101.9871
 44      0.0000     0.0000E+00    0.0000E+00    1.100000E+10  0.05000  6.532E-06    0   0.5070   age185_m72            0.0000     8.5403E+02    11.9663  -1.0000    94.8161
 45      0.0000     0.0000E+00    0.0000E+00    1.300000E+10  0.05000  5.316E-06    0   0.5018   age193_m72            0.0000     1.0255E+03    13.2184  -1.0000    91.4526


## Synthesis Results - Average & Chains ##

# j      x_j: min, <> & last-chain-values for 1 ...  7 chains
  1      0.0000      0.0049      0.0000      0.0224      0.0000      0.0000      0.0000      0.0000      0.0000
  2     16.1284     14.4873     14.4987     14.6870     14.5899     14.5518     14.5243     14.4385     14.7140
  3      0.0000      0.0514      0.0774      0.0951      0.0000      0.0000      0.0000      0.0237      0.1619
  4     12.1547     12.0413     12.0265     11.9559     12.2478     11.9726     12.1395     12.1365     12.0080
  5      0.0000      0.0626      0.0240      0.0927      0.0000      0.0685      0.1254      0.0823      0.0637
  6      0.0000      0.0267      0.0000      0.0000      0.0000      0.0000      0.0063      0.0000      0.0000
  7     15.2814     15.9482     15.9423     15.7493     16.0068     15.5134     16.1242     16.0118     16.0140
  8      0.0000      0.0712      0.0000      0.0000      0.2933      0.1182      0.1908      0.0000      0.0000
  9      0.0000      0.3405      0.5469      0.8154      0.5144      0.2864      0.0000      0.7407      0.0788
 10     20.3571     19.1022     19.4611     19.3023     19.2060     19.7360     19.1143     19.2734     19.5343
 11      0.0000      0.0741      0.2529      0.0162      0.0000      0.0000      0.0000      0.0000      0.0929
 12     30.1444     29.7253     29.1942     29.5494     29.4847     29.3431     29.8307     29.7087     29.5117
 13      5.9876      6.2710      6.2923      6.1853      6.1799      6.1472      5.9843      6.1102      6.2751
 14      0.0000      0.0075      0.0034      0.0000      0.0000      0.0000      0.0000      0.0000      0.0000
 15      0.0000      0.0077      0.0038      0.0000      0.0000      0.0000      0.0000      0.0000      0.0000
 16      0.0000      0.0071      0.0000      0.0000      0.0000      0.0000      0.0000      0.0000      0.0000
 17      0.0000      0.0079      0.0000      0.0000      0.0000      0.0000      0.0006      0.0000      0.0000
 18      0.0528      0.7694      0.8904      0.8186      0.8077      0.9400      0.8893      0.7966      0.6883
 19      0.0000      0.0169      0.0000      0.0000      0.0344      0.0000      0.0000      0.0000      0.0000
 20      0.0000      0.0095      0.0000      0.0000      0.0000      0.0000      0.0000      0.0000      0.0000
 21      0.0000      0.0178      0.0000      0.0000      0.0000      0.0000      0.0175      0.0336      0.0000
 22      0.0000      0.0323      0.0000      0.0000      0.0000      0.0000      0.0000      0.0000      0.0000
 23      0.0000      0.0277      0.0000      0.0347      0.0000      0.0000      0.0369      0.0000      0.0000
 24      0.0000      0.0260      0.0000      0.0000      0.0218      0.0000      0.0000      0.0000      0.0000
 25      0.0000      0.0366      0.0000      0.0000      0.0000      0.0063      0.0000      0.0000      0.0158
 26      0.0000      0.0908      0.0351      0.0000      0.0000      0.0060      0.0000      0.0000      0.2275
 27      0.0000      0.0495      0.0000      0.0826      0.0000      0.0000      0.0844      0.0000      0.0000
 28      0.0000      0.0259      0.0000      0.0187      0.1096      0.0705      0.0916      0.0000      0.0062
 29      0.0000      0.0639      0.0859      0.1402      0.0763      0.0246      0.0325      0.0000      0.0000
 30      0.0000      0.0215      0.1056      0.0174      0.0000      0.1184      0.0000      0.0094      0.0000
 31      0.0000      0.0050      0.0015      0.0000      0.0000      0.0000      0.0000      0.0000      0.0000
 32      0.0000      0.0160      0.0000      0.0000      0.0000      0.0255      0.0000      0.0000      0.0000
 33      0.0000      0.0407      0.1379      0.0317      0.0000      0.1067      0.0000      0.2359      0.0000
 34      0.0000      0.0099      0.0000      0.0292      0.0000      0.0511      0.0000      0.0000      0.0000
 35      0.0000      0.0114      0.0000      0.0000      0.0000      0.0000      0.0000      0.0000      0.0000
 36      0.0000      0.0240      0.0000      0.0000      0.0000      0.1056      0.0000      0.0000      0.0396
 37      0.0000      0.0444      0.0000      0.0000      0.0008      0.1120      0.0000      0.0000      0.0000
 38      0.0000      0.0276      0.0000      0.0000      0.0000      0.0291      0.0000      0.0000      0.0000
 39      0.0000      0.0490      0.0000      0.0000      0.0000      0.0000      0.1350      0.0000      0.0000
 40      0.0000      0.1033      0.0328      0.1989      0.0000      0.4337      0.3485      0.0000      0.1929
 41      0.0000      0.0707      0.2270      0.0145      0.1955      0.0000      0.1036      0.0969      0.2132
 42      0.0000      0.1250      0.0994      0.0331      0.1320      0.2240      0.0849      0.1589      0.0421
 43      0.0000      0.1453      0.1917      0.1831      0.2149      0.1547      0.0996      0.1374      0.2033
 44      0.0000      0.0278      0.0109      0.0362      0.0000      0.0000      0.0536      0.0298      0.0000
 45      0.0000      0.0420      0.0369      0.0673      0.0582      0.0242      0.1223      0.1213      0.0794

# j      m_j: min, <> & last-chain-values for 1 ...  7 chains
  1  0.0000E+00  1.4892E-04  0.0000E+00  6.7536E-04  0.0000E+00  0.0000E+00  0.0000E+00  0.0000E+00  0.0000E+00
  2  1.4405E-01  1.2077E-01  1.1989E-01  1.2087E-01  1.2169E-01  1.2186E-01  1.1946E-01  1.2009E-01  1.2348E-01
  3  0.0000E+00  6.5326E-04  9.7651E-04  1.1935E-03  0.0000E+00  0.0000E+00  0.0000E+00  3.0028E-04  2.0717E-03
  4  3.0832E-01  2.8511E-01  2.8245E-01  2.7946E-01  2.9014E-01  2.8476E-01  2.8358E-01  2.8669E-01  2.8620E-01
  5  0.0000E+00  3.4285E-03  1.3035E-03  5.0107E-03  0.0000E+00  3.7664E-03  6.7713E-03  4.4964E-03  3.5092E-03
  6  0.0000E+00  2.0321E-03  0.0000E+00  0.0000E+00  0.0000E+00  0.0000E+00  4.7022E-04  0.0000E+00  0.0000E+00
  7  1.7666E+00  1.7210E+00  1.7064E+00  1.6777E+00  1.7281E+00  1.6816E+00  1.7166E+00  1.7238E+00  1.7395E+00
  8  0.0000E+00  1.4812E-02  0.0000E+00  0.0000E+00  6.1080E-02  2.4704E-02  3.9169E-02  0.0000E+00  0.0000E+00
  9  0.0000E+00  1.4113E-01  2.2487E-01  3.3365E-01  2.1333E-01  1.1924E-01  0.0000E+00  3.0633E-01  3.2884E-02
 10  1.2621E+01  1.1054E+01  1.1171E+01  1.1027E+01  1.1120E+01  1.1472E+01  1.0913E+01  1.1127E+01  1.1379E+01
 11  0.0000E+00  7.5272E-02  2.5495E-01  1.6232E-02  0.0000E+00  0.0000E+00  0.0000E+00  0.0000E+00  9.5046E-02
 12  6.1022E+01  5.6167E+01  5.4716E+01  5.5120E+01  5.5739E+01  5.5695E+01  5.5611E+01  5.6006E+01  5.6132E+01
 13  2.4138E+01  2.3597E+01  2.3485E+01  2.2977E+01  2.3266E+01  2.3235E+01  2.2217E+01  2.2939E+01  2.3769E+01
 14  0.0000E+00  5.7574E-02  2.5788E-02  0.0000E+00  0.0000E+00  0.0000E+00  0.0000E+00  0.0000E+00  0.0000E+00
 15  0.0000E+00  6.8233E-02  3.3881E-02  0.0000E+00  0.0000E+00  0.0000E+00  0.0000E+00  0.0000E+00  0.0000E+00
 16  0.0000E+00  1.2081E-04  0.0000E+00  0.0000E+00  0.0000E+00  0.0000E+00  0.0000E+00  0.0000E+00  0.0000E+00
 17  0.0000E+00  6.9773E-05  0.0000E+00  0.0000E+00  0.0000E+00  0.0000E+00  5.6201E-06  0.0000E+00  0.0000E+00
 18  5.5592E-04  7.5634E-03  8.6828E-03  7.9446E-03  7.9440E-03  9.2828E-03  8.6258E-03  7.8127E-03  6.8111E-03
 19  0.0000E+00  4.9757E-04  0.0000E+00  0.0000E+00  1.0120E-03  0.0000E+00  0.0000E+00  0.0000E+00  0.0000E+00
 20  0.0000E+00  6.2396E-04  0.0000E+00  0.0000E+00  0.0000E+00  0.0000E+00  0.0000E+00  0.0000E+00  0.0000E+00
 21  0.0000E+00  1.3968E-03  0.0000E+00  0.0000E+00  0.0000E+00  0.0000E+00  1.3549E-03  2.6293E-03  0.0000E+00
 22  0.0000E+00  4.2151E-03  0.0000E+00  0.0000E+00  0.0000E+00  0.0000E+00  0.0000E+00  0.0000E+00  0.0000E+00
 23  0.0000E+00  7.1175E-03  0.0000E+00  8.7870E-03  0.0000E+00  0.0000E+00  9.3462E-03  0.0000E+00  0.0000E+00
 24  0.0000E+00  1.5239E-02  0.0000E+00  0.0000E+00  1.2806E-02  0.0000E+00  0.0000E+00  0.0000E+00  0.0000E+00
 25  0.0000E+00  3.3051E-02  0.0000E+00  0.0000E+00  0.0000E+00  5.7121E-03  0.0000E+00  0.0000E+00  1.4328E-02
 26  0.0000E+00  1.5481E-01  5.9337E-02  0.0000E+00  0.0000E+00  1.0311E-02  0.0000E+00  0.0000E+00  3.9052E-01
 27  0.0000E+00  1.7128E-01  0.0000E+00  2.8213E-01  0.0000E+00  0.0000E+00  2.8826E-01  0.0000E+00  0.0000E+00
 28  0.0000E+00  1.8146E-01  0.0000E+00  1.2953E-01  7.6751E-01  4.9572E-01  6.3288E-01  0.0000E+00  4.3351E-02
 29  0.0000E+00  9.4681E-01  1.2634E+00  2.0519E+00  1.1320E+00  3.6639E-01  4.7486E-01  0.0000E+00  0.0000E+00
 30  0.0000E+00  3.7988E-01  1.8521E+00  3.0376E-01  0.0000E+00  2.1027E+00  0.0000E+00  1.6516E-01  0.0000E+00
 31  0.0000E+00  6.3444E-05  1.8603E-05  0.0000E+00  0.0000E+00  0.0000E+00  0.0000E+00  0.0000E+00  0.0000E+00
 32  0.0000E+00  1.0770E-04  0.0000E+00  0.0000E+00  0.0000E+00  1.7283E-04  0.0000E+00  0.0000E+00  0.0000E+00
 33  0.0000E+00  4.0718E-04  1.3699E-03  3.1302E-04  0.0000E+00  1.0733E-03  0.0000E+00  2.3571E-03  0.0000E+00
 34  0.0000E+00  3.1926E-04  0.0000E+00  9.3246E-04  0.0000E+00  1.6604E-03  0.0000E+00  0.0000E+00  0.0000E+00
 35  0.0000E+00  7.2907E-04  0.0000E+00  0.0000E+00  0.0000E+00  0.0000E+00  0.0000E+00  0.0000E+00  0.0000E+00
 36  0.0000E+00  1.9433E-03  0.0000E+00  0.0000E+00  0.0000E+00  8.5780E-03  0.0000E+00  0.0000E+00  3.2212E-03
 37  0.0000E+00  6.2366E-03  0.0000E+00  0.0000E+00  1.1038E-04  1.5788E-02  0.0000E+00  0.0000E+00  0.0000E+00
 38  0.0000E+00  8.7905E-03  0.0000E+00  0.0000E+00  0.0000E+00  9.3318E-03  0.0000E+00  0.0000E+00  0.0000E+00
 39  0.0000E+00  3.9511E-02  0.0000E+00  0.0000E+00  0.0000E+00  0.0000E+00  1.0744E-01  0.0000E+00  0.0000E+00
 40  0.0000E+00  1.4394E-01  4.5367E-02  2.7358E-01  0.0000E+00  6.0694E-01  4.7896E-01  0.0000E+00  2.7050E-01
 41  0.0000E+00  1.7935E-01  5.7109E-01  3.6390E-02  4.9629E-01  0.0000E+00  2.5937E-01  2.4520E-01  5.4440E-01
 42  0.0000E+00  6.3057E-01  4.9707E-01  1.6483E-01  6.6624E-01  1.1347E+00  4.2239E-01  7.9948E-01  2.1360E-01
 43  0.0000E+00  1.6961E+00  2.2191E+00  2.1094E+00  2.5095E+00  1.8140E+00  1.1471E+00  1.6002E+00  2.3880E+00
 44  0.0000E+00  7.3148E-01  2.8610E-01  9.4169E-01  0.0000E+00  0.0000E+00  1.3941E+00  7.8402E-01  0.0000E+00
 45  0.0000E+00  1.3478E+00  1.1735E+00  2.1307E+00  1.8678E+00  7.7951E-01  3.8683E+00  3.8795E+00  2.5621E+00

# AV, chi2 & Mass for <> & i_chain = 1 ...  7 solutions
AV       1.3197      1.2982      1.2999      1.3003      1.3016      1.3009      1.2985      1.3048      1.2993
chi2 2.8742E+00  2.8995E+00  2.8891E+00  2.8887E+00  2.8872E+00  2.8904E+00  2.8929E+00  2.8866E+00  2.8903E+00
Mass 6.3193E-10  6.5777E-10  6.6459E-10  6.6813E-10  6.6042E-10  6.5719E-10  6.6694E-10  6.6516E-10  6.5442E-10
 -17.43                                  [v0_min (km/s) before EX0s...]
 108.56                                  [vd_min (km/s) before EX0s...]


## Synthetic spectrum (Best Model) ##l_obs f_obs f_syn wei
 3070    [Nl_obs]
 3359.00    0.18587   0.50232   -1.000
 3360.00    0.24109   0.49186   -1.000
 3361.00    0.24529   0.49134   -1.000
 3362.00    0.25920   0.50089   -1.000
 3363.00    0.27400   0.51443   -1.000
 3364.00    0.28935   0.52385   -1.000
 3365.00    0.30315   0.52412   -1.000
 3366.00    0.30835   0.51589   -1.000
 3367.00    0.31259   0.50435   -1.000
 3368.00    0.31069   0.49518   -1.000
 3369.00    0.30849   0.49061   -1.000
 3370.00    0.30990   0.48888   -1.000
 3371.00    0.30774   0.48781   -1.000
 3372.00    0.30735   0.48886   -1.000
 3373.00    0.31024   0.49588   -1.000
 3374.00    0.32298   0.50961   -1.000
 3375.00    0.33907   0.52432   -1.000
 3376.00    0.34460   0.53150   -1.000
 3377.00    0.35229   0.52756   -1.000
 3378.00    0.36165   0.51694   -1.000
 3379.00    0.35811   0.50796   -1.000
 3380.00    0.35675   0.50661   -1.000
 3381.00    0.35579   0.51312   -1.000
 3382.00    0.35616   0.52325   -1.000
 3383.00    0.35678   0.53258   -1.000
 3384.00    0.36609   0.53956   -1.000
 3385.00    0.37419   0.54444   -1.000
 3386.00    0.37920   0.54704   -1.000
 3387.00    0.38088   0.54726   -1.000
 3388.00    0.38078   0.54610   -1.000
 3389.00    0.38398   0.54450   -1.000
 3390.00    0.39209   0.54207   -1.000
 3391.00    0.39111   0.53815   -1.000
 3392.00    0.39103   0.53419   -1.000
 3393.00    0.39570   0.53362   -1.000
 3394.00    0.39872   0.53860   -1.000
 3395.00    0.40068   0.54771   -1.000
 3396.00    0.40856   0.55717   -1.000
 3397.00    0.41924   0.56335   -1.000
 3398.00    0.43191   0.56427   -1.000
 3399.00    0.43897   0.56018   -1.000
 3400.00    0.43827   0.55303   -1.000
 3401.00    0.43722   0.54489   -1.000
 3402.00    0.42970   0.53750   -1.000
 3403.00    0.42560   0.53228   -1.000
 3404.00    0.42478   0.52917   -1.000
 3405.00    0.42131   0.52646   -1.000
 3406.00    0.41681   0.52313   -1.000
 3407.00    0.41446   0.52052   -1.000
 3408.00    0.41585   0.52083   -1.000
 3409.00    0.41318   0.52436   -1.000
 3410.00    0.41013   0.52876   -1.000
 3411.00    0.41924   0.53135   -1.000
 3412.00    0.42638   0.53152   -1.000
 3413.00    0.42291   0.53075   -1.000
 3414.00    0.42118   0.53105   -1.000
 3415.00    0.42461   0.53388   -1.000
 3416.00    0.42941   0.53982   -1.000
 3417.00    0.43626   0.54827   -1.000
 3418.00    0.44341   0.55728   -1.000
 3419.00    0.44837   0.56398   -1.000
 3420.00    0.45604   0.56613   -1.000
 3421.00    0.46007   0.56385   -1.000
 3422.00    0.46015   0.55946   -1.000
 3423.00    0.45601   0.55551   -1.000
 3424.00    0.45189   0.55339   -1.000
 3425.00    0.45311   0.55377   -1.000
 3426.00    0.46111   0.55730   -1.000
 3427.00    0.46412   0.56411   -1.000
 3428.00    0.46857   0.57196   -1.000
 3429.00    0.47749   0.57661   -1.000
 3430.00    0.48126   0.57538   -1.000
 3431.00    0.48447   0.56949   -1.000
 3432.00    0.47813   0.56294   -1.000
 3433.00    0.47095   0.55936   -1.000
 3434.00    0.47137   0.55958   -1.000
 3435.00    0.48167   0.56136   -1.000
 3436.00    0.48256   0.56108   -1.000
 3437.00    0.47894   0.55601   -1.000
 3438.00    0.47163   0.54526   -1.000
 3439.00    0.45852   0.53023   -1.000
 3440.00    0.44854   0.51486   -1.000
 3441.00    0.44722   0.50438   49.297
 3442.00    0.44102   0.50181   49.149
 3443.00    0.43962   0.50578   -1.000
 3444.00    0.45139   0.51303   45.130
 3445.00    0.46502   0.52218   42.633
 3446.00    0.47226   0.53378   40.954
 3447.00    0.48053   0.54720   -1.000
 3448.00    0.49501   0.55861   -1.000
 3449.00    0.50190   0.56291   -1.000
 3450.00    0.49692   0.55817   -1.000
 3451.00    0.50006   0.54759   -1.000
 3452.00    0.50209   0.53717   -1.000
 3453.00    0.49984   0.53187   -1.000
 3454.00    0.49778   0.53245   -1.000
 3455.00    0.50711   0.53548   -1.000
 3456.00    0.51484   0.53642   -1.000
 3457.00    0.51390   0.53320   -1.000
 3458.00    0.50767   0.52709   50.286
 3459.00    0.50029   0.52086   40.010
 3460.00    0.49974   0.51741   39.928
 3461.00    0.49769   0.51916  126.364
 3462.00    0.49515   0.52593   -1.000
 3463.00    0.49914   0.53408   -1.000
 3464.00    0.50504   0.53983   -1.000
 3465.00    0.50946   0.54282   -1.000
 3466.00    0.51415   0.54498   -1.000
 3467.00    0.51168   0.54781   -1.000
 3468.00    0.51926   0.55124   -1.000
 3469.00    0.52908   0.55410   -1.000
 3470.00    0.53291   0.55476   -1.000
 3471.00    0.53702   0.55187   -1.000
 3472.00    0.53315   0.54496   -1.000
 3473.00    0.52403   0.53480  321.468
 3474.00    0.50321   0.52399   50.466
 3475.00    0.49328   0.51661   41.081
 3476.00    0.49485   0.51557   40.722
 3477.00    0.50006   0.52039  128.318
 3478.00    0.51387   0.52797   -1.000
 3479.00    0.53591   0.53495  321.468
 3480.00    0.55335   0.53905   -1.000
 3481.00    0.55452   0.53937   -1.000
 3482.00    0.55231   0.53697   -1.000
 3483.00    0.54784   0.53520   -1.000
 3484.00    0.54731   0.53778   -1.000
 3485.00    0.55061   0.54521  321.468
 3486.00    0.55578   0.55330  321.468
 3487.00    0.55529   0.55634  321.468
 3488.00    0.55758   0.55201  321.468
 3489.00    0.54500   0.54339  321.468
 3490.00    0.52596   0.53626  321.468
 3491.00    0.52006   0.53387   -1.000
 3492.00    0.51523   0.53444   -1.000
 3493.00    0.51885   0.53391   -1.000
 3494.00    0.52402   0.53056  321.468
 3495.00    0.52801   0.52677  321.468
 3496.00    0.51861   0.52692  321.468
 3497.00    0.51801   0.53294   -1.000
 3498.00    0.52739   0.54163   -1.000
 3499.00    0.53419   0.54787   -1.000
 3500.00    0.54249   0.55023  313.502
 3501.00    0.54521   0.55113  309.748
 3502.00    0.54777   0.55226  307.183
 3503.00    0.55198   0.55221  313.557
 3504.00    0.55610   0.54920  318.634
 3505.00    0.54763   0.54435  321.468
 3506.00    0.54497   0.54073  321.468
 3507.00    0.54434   0.53971  318.933
 3508.00    0.54888   0.53980   -1.000
 3509.00    0.55265   0.53866   -1.000
 3510.00    0.54672   0.53537   -1.000
 3511.00    0.53833   0.53060   -1.000
 3512.00    0.53024   0.52591  321.468
 3513.00    0.52675   0.52387  321.468
 3514.00    0.52606   0.52715  321.468
 3515.00    0.53122   0.53594  321.468
 3516.00    0.54269   0.54703  321.468
 3517.00    0.54737   0.55568  314.262
 3518.00    0.55488   0.55828  320.904
 3519.00    0.55231   0.55430  321.468
 3520.00    0.54392   0.54615  321.468
 3521.00    0.54267   0.53706  321.468
 3522.00    0.53393   0.52870  321.468
 3523.00    0.52355   0.52144   49.453
 3524.00    0.51364   0.51624   40.690
 3525.00    0.50342   0.51530   40.795
 3526.00    0.50101   0.52046  133.453
 3527.00    0.50401   0.53082   -1.000
 3528.00    0.51996   0.54241   -1.000
 3529.00    0.53391   0.55091   -1.000
 3530.00    0.53934   0.55470   -1.000
 3531.00    0.54902   0.55549  321.468
 3532.00    0.55044   0.55615  321.468
 3533.00    0.54583   0.55815   -1.000
 3534.00    0.54618   0.56098   -1.000
 3535.00    0.55071   0.56360   -1.000
 3536.00    0.54989   0.56585   -1.000
 3537.00    0.55246   0.56853   -1.000
 3538.00    0.55650   0.57179   -1.000
 3539.00    0.56444   0.57445  313.025
 3540.00    0.56679   0.57559  318.346
 3541.00    0.56536   0.57611   -1.000
 3542.00    0.56400   0.57756   -1.000
 3543.00    0.56794   0.57998   -1.000
 3544.00    0.57449   0.58195  314.642
 3545.00    0.57647   0.58236  319.090
 3546.00    0.57529   0.58160  321.468
 3547.00    0.57300   0.58097  321.468
 3548.00    0.56996   0.58120   -1.000
 3549.00    0.56407   0.58192   -1.000
 3550.00    0.56267   0.58206   -1.000
 3551.00    0.56103   0.58055   -1.000
 3552.00    0.56389   0.57724   -1.000
 3553.00    0.55842   0.57328   -1.000
 3554.00    0.55232   0.57033   -1.000
 3555.00    0.54843   0.56912   -1.000
 3556.00    0.54778   0.56888   -1.000
 3557.00    0.55238   0.56837   -1.000
 3558.00    0.55386   0.56755   -1.000
 3559.00    0.55034   0.56802   -1.000
 3560.00    0.55102   0.57124   -1.000
 3561.00    0.55167   0.57579   -1.000
 3562.00    0.55638   0.57682   -1.000
 3563.00    0.55299   0.56983   -1.000
 3564.00    0.54446   0.55589   49.399
 3565.00    0.52398   0.54159   41.270
 3566.00    0.51348   0.53259   41.234
 3567.00    0.51044   0.52855   40.950
 3568.00    0.50500   0.52501   42.013
 3569.00    0.50282   0.51933   42.929
 3570.00    0.49880   0.51362   42.003
 3571.00    0.49479   0.51149   40.225
 3572.00    0.50116   0.51359  135.642
 3573.00    0.50463   0.51737   -1.000
 3574.00    0.50841   0.52041   -1.000
 3575.00    0.51257   0.52230  321.468
 3576.00    0.51761   0.52320  321.468
 3577.00    0.52076   0.52210  321.468
 3578.00    0.52139   0.51741   50.905
 3579.00    0.52088   0.50929   43.902
 3580.00    0.50693   0.50052   46.547
 3581.00    0.49561   0.49452   47.299
 3582.00    0.48468   0.49225   47.511
 3583.00    0.48091   0.49137   48.510
 3584.00    0.48216   0.48905   50.041
 3585.00    0.47284   0.48547   50.940
 3586.00    0.46624   0.48372   48.990
 3587.00    0.46673   0.48663   46.393
 3588.00    0.47439   0.49482   44.106
 3589.00    0.49150   0.50672   40.487
 3590.00    0.51181   0.51926  135.231
 3591.00    0.52597   0.52934  321.468
 3592.00    0.53378   0.53576  321.468
 3593.00    0.54086   0.54005  321.468
 3594.00    0.54029   0.54488  321.468
 3595.00    0.53759   0.55164   -1.000
 3596.00    0.54549   0.55957   -1.000
 3597.00    0.55802   0.56683  303.404
 3598.00    0.56522   0.57162  297.854
 3599.00    0.56848   0.57239  299.794
 3600.00    0.56588   0.56818  312.130
 3601.00    0.55917   0.55959  321.468
 3602.00    0.54930   0.54918  321.468
 3603.00    0.54115   0.54054  321.468
 3604.00    0.53289   0.53606  321.468
 3605.00    0.53071   0.53522  321.468
 3606.00    0.52965   0.53517  321.468
 3607.00    0.52919   0.53361  321.468
 3608.00    0.52708   0.53107  321.468
 3609.00    0.52283   0.53010  321.468
 3610.00    0.51975   0.53209   -1.000
 3611.00    0.52361   0.53591   -1.000
 3612.00    0.53440   0.54003  321.468
 3613.00    0.53918   0.54427  321.468
 3614.00    0.54508   0.54856  321.468
 3615.00    0.55161   0.55071  321.468
 3616.00    0.55357   0.54758  321.468
 3617.00    0.55292   0.53975   -1.000
 3618.00    0.53993   0.53280   48.093
 3619.00    0.52781   0.53251  137.399
 3620.00    0.53394   0.53977  321.468
 3621.00    0.54935   0.55088  321.468
 3622.00    0.56155   0.56148  312.042
 3623.00    0.57032   0.57014  307.550
 3624.00    0.57387   0.57861  297.524
 3625.00    0.57616   0.58847   -1.000
 3626.00    0.58735   0.59781  279.596
 3627.00    0.59446   0.60155  283.018
 3628.00    0.59254   0.59528  298.128
 3629.00    0.58150   0.57962  321.468
 3630.00    0.55411   0.56115  321.468
 3631.00    0.53684   0.54813   -1.000
 3632.00    0.53295   0.54478   -1.000
 3633.00    0.54654   0.54902  321.468
 3634.00    0.55462   0.55529  321.468
 3635.00    0.56179   0.55990  321.468
 3636.00    0.56707   0.56366  312.809
 3637.00    0.57214   0.56922  298.580
 3638.00    0.57919   0.57664  287.944
 3639.00    0.59210   0.58263  285.905
 3640.00    0.59503   0.58352   -1.000
 3641.00    0.58574   0.57835  301.190
 3642.00    0.57424   0.56934  316.460
 3643.00    0.56442   0.56013  321.468
 3644.00    0.55960   0.55329  321.468
 3645.00    0.55729   0.54910  321.468
 3646.00    0.55737   0.54659   -1.000
 3647.00    0.55362   0.54550   -1.000
 3648.00    0.55009   0.54672  321.468
 3649.00    0.55594   0.55119  321.468
 3650.00    0.56140   0.55880  310.113
 3651.00    0.56698   0.56816  296.719
 3652.00    0.57446   0.57727  288.519
 3653.00    0.58289   0.58464  283.972
 3654.00    0.59287   0.59014  282.494
 3655.00    0.59936   0.59475  279.635
 3656.00    0.60192   0.59932  276.672
 3657.00    0.60502   0.60333  272.257
 3658.00    0.60383   0.60544  271.671
 3659.00    0.60371   0.60472  271.718
 3660.00    0.60334   0.60132  274.203
 3661.00    0.60562   0.59630  277.176
 3662.00    0.59612   0.59125  281.633
 3663.00    0.59677   0.58765  284.266
 3664.00    0.59826   0.58610   -1.000
 3665.00    0.59735   0.58572   -1.000
 3666.00    0.59665   0.58478   -1.000
 3667.00    0.58988   0.58246  289.933
 3668.00    0.58455   0.58020  296.428
 3669.00    0.58728   0.58058  296.143
 3670.00    0.57900   0.58455  286.491
 3671.00    0.58706   0.59021  279.836
 3672.00    0.59594   0.59439  278.069
 3673.00    0.59291   0.59496  277.862
 3674.00    0.59434   0.59163  278.384
 3675.00    0.59568   0.58527   -1.000
 3676.00    0.59313   0.57731   -1.000
 3677.00    0.58259   0.56966   -1.000
 3678.00    0.57626   0.56425   -1.000
 3679.00    0.56888   0.56232  312.204
 3680.00    0.56260   0.56369  305.201
 3681.00    0.57276   0.56687  296.472
 3682.00    0.57689   0.56956  292.726
 3683.00    0.57619   0.56933  298.194
 3684.00    0.57595   0.56478   -1.000
 3685.00    0.57071   0.55756   -1.000
 3686.00    0.55850   0.55256  321.468
 3687.00    0.55610   0.55459  321.468
 3688.00    0.56873   0.56416  303.229
 3689.00    0.58350   0.57692  283.065
 3690.00    0.59725   0.58749  272.812
 3691.00    0.60400   0.59369  273.174
 3692.00    0.60823   0.59682   -1.000
 3693.00    0.60996   0.59822   -1.000
 3694.00    0.61164   0.59751   -1.000
 3695.00    0.61498   0.59486   -1.000
 3696.00    0.60463   0.59358   -1.000
 3697.00    0.60333   0.59842  270.126
 3698.00    0.61953   0.61034  262.914
 3699.00    0.63359   0.62336  258.889
 3700.00    0.64280   0.62765   -1.000
 3701.00    0.64142   0.61645   -1.000
 3702.00    0.62485   0.59150   -1.000
 3703.00    0.59896   0.56261   -1.000
 3704.00    0.56952   0.54181   -1.000
 3705.00    0.56030   0.53580   -1.000
 3706.00    0.56883   0.54258   -1.000
 3707.00    0.58350   0.55424   -1.000
 3708.00    0.59862   0.56262   -1.000
 3709.00    0.59474   0.56417   -1.000
 3710.00    0.58887   0.56210   -1.000
 3711.00    0.58797   0.56403   -1.000
 3712.00    0.59118   0.57592   -1.000
 3713.00    0.60787   0.59739  257.861
 3714.00    0.63392   0.62211   -1.000
 3715.00    0.66257   0.64165   -1.000
 3716.00    0.67045   0.64897   -1.000
 3717.00    0.66500   0.63952   -1.000
 3718.00    0.63948   0.61246   -1.000
 3719.00    0.59661   0.57377   -1.000
 3720.00    0.54995   0.53673   47.875
 3721.00    0.52248   0.51613  150.361
 3722.00    0.52294   0.52025  321.468
 3723.00    0.55436   0.54658  303.165
 3724.00    0.60078   0.58332   -1.000
 3725.00    0.64316   0.61667   -1.000
 3726.00    0.66179   0.63955   -1.000
 3727.00    0.66799   0.65283   -1.000
 3728.00    0.67179   0.65856   -1.000
 3729.00    0.66702   0.65427   -1.000
 3730.00    0.65777   0.63472   -1.000
 3731.00    0.63298   0.59846   -1.000
 3732.00    0.59410   0.55220   46.773
 3733.00    0.54497   0.50915   43.318
 3734.00    0.50342   0.48314   45.577
 3735.00    0.49657   0.48263   43.931
 3736.00    0.51806   0.50776   40.080
 3737.00    0.55924   0.55120  146.591
 3738.00    0.60960   0.60128   -1.000
 3739.00    0.65183   0.64576  298.250
 3740.00    0.67959   0.67559  294.090
 3741.00    0.69403   0.68747  303.583
 3742.00    0.69093   0.68331  321.468
 3743.00    0.67874   0.66752   -1.000
 3744.00    0.65264   0.64393   -1.000
 3745.00    0.63043   0.61420   -1.000
 3746.00    0.60609   0.57862   47.357
 3747.00    0.57488   0.53943   42.142
 3748.00    0.53613   0.50434   42.980
 3749.00    0.51040   0.48546   -1.000
 3750.00    0.51000   0.49213   -1.000
 3751.00    0.54435   0.52419   -1.000
 3752.00    0.59275   0.57203   -1.000
 3753.00    0.64161   0.62220   -1.000
 3754.00    0.68165   0.66266   -1.000
 3755.00    0.70468   0.68569   -1.000
 3756.00    0.70668   0.68984   -1.000
 3757.00    0.69417   0.68090   -1.000
 3758.00    0.67412   0.66923  321.468
 3759.00    0.66529   0.66345  321.468
 3760.00    0.67380   0.66586  313.815
 3761.00    0.69390   0.67319   -1.000
 3762.00    0.70505   0.68001   -1.000
 3763.00    0.70778   0.68136   -1.000
 3764.00    0.69714   0.67397   -1.000
 3765.00    0.69225   0.65687   -1.000
 3766.00    0.67672   0.63106   -1.000
 3767.00    0.65277   0.59906   -1.000
 3768.00    0.62474   0.56538   -1.000
 3769.00    0.59638   0.53773   -1.000
 3770.00    0.57617   0.52573   -1.000
 3771.00    0.57922   0.53540   -1.000
 3772.00    0.60654   0.56385   -1.000
 3773.00    0.64292   0.60114   -1.000
 3774.00    0.67601   0.63799   -1.000
 3775.00    0.69869   0.67086   -1.000
 3776.00    0.71554   0.70055   -1.000
 3777.00    0.73466   0.72829  268.535
 3778.00    0.75328   0.75369  260.219
 3779.00    0.77480   0.77524  253.739
 3780.00    0.79042   0.79162  251.422
 3781.00    0.79723   0.80230  249.882
 3782.00    0.80517   0.80719  249.783
 3783.00    0.80608   0.80585  254.743
 3784.00    0.79866   0.79759  267.241
 3785.00    0.78211   0.78298  286.588
 3786.00    0.76516   0.76515  302.065
 3787.00    0.75061   0.74853  309.044
 3788.00    0.73966   0.73595  309.657
 3789.00    0.73784   0.72682   -1.000
 3790.00    0.73869   0.71766   -1.000
 3791.00    0.72940   0.70380   -1.000
 3792.00    0.71914   0.68149   -1.000
 3793.00    0.69214   0.64943   -1.000
 3794.00    0.65305   0.60918   -1.000
 3795.00    0.62262   0.56497   -1.000
 3796.00    0.59065   0.52420   -1.000
 3797.00    0.54680   0.49757   -1.000
 3798.00    0.53405   0.49567   -1.000
 3799.00    0.55488   0.52200   -1.000
 3800.00    0.60192   0.56940   -1.000
 3801.00    0.65500   0.62420   -1.000
 3802.00    0.69598   0.67375   -1.000
 3803.00    0.72812   0.71108   -1.000
 3804.00    0.74753   0.73497   -1.000
 3805.00    0.75647   0.74874  291.383
 3806.00    0.75755   0.75874  297.887
 3807.00    0.76480   0.77117  291.920
 3808.00    0.78020   0.78809  280.967
 3809.00    0.79898   0.80568  276.735
 3810.00    0.80268   0.81653   -1.000
 3811.00    0.80722   0.81443  294.911
 3812.00    0.80069   0.79925  313.001
 3813.00    0.77951   0.77812  321.468
 3814.00    0.76373   0.76123  321.468
 3815.00    0.76048   0.75474  321.468
 3816.00    0.76625   0.75656   -1.000
 3817.00    0.77808   0.75873   -1.000
 3818.00    0.78160   0.75469   -1.000
 3819.00    0.76351   0.74498   -1.000
 3820.00    0.74392   0.73574   -1.000
 3821.00    0.74479   0.73095   -1.000
 3822.00    0.74988   0.72753   -1.000
 3823.00    0.74685   0.71912   -1.000
 3824.00    0.73081   0.70374   48.076
 3825.00    0.70584   0.68552   42.101
 3826.00    0.69461   0.66959   41.908
 3827.00    0.69345   0.65690   41.268
 3828.00    0.68863   0.64417   40.588
 3829.00    0.67859   0.62681   40.936
 3830.00    0.66745   0.60137   42.628
 3831.00    0.64051   0.56693   -1.000
 3832.00    0.60346   0.52631   -1.000
 3833.00    0.55937   0.48662   -1.000
 3834.00    0.52690   0.45742   -1.000
 3835.00    0.51323   0.44634   -1.000
 3836.00    0.52092   0.45525   -1.000
 3837.00    0.54755   0.48036   -1.000
 3838.00    0.57478   0.51587   45.264
 3839.00    0.60627   0.55737   42.885
 3840.00    0.63468   0.60199   -1.000
 3841.00    0.66774   0.64676   -1.000
 3842.00    0.70898   0.68794   -1.000
 3843.00    0.74754   0.72225   -1.000
 3844.00    0.76389   0.74879   -1.000
 3845.00    0.77135   0.76881  320.550
 3846.00    0.78802   0.78363  321.058
 3847.00    0.79860   0.79336  321.468
 3848.00    0.79465   0.79837  321.468
 3849.00    0.79036   0.80122   -1.000
 3850.00    0.79135   0.80536   -1.000
 3851.00    0.79384   0.81173   -1.000
 3852.00    0.80216   0.81744   -1.000
 3853.00    0.81617   0.81873  321.468
 3854.00    0.81392   0.81451  321.468
 3855.00    0.80594   0.80674  321.468
 3856.00    0.79752   0.79817  321.468
 3857.00    0.78687   0.79078   45.179
 3858.00    0.77224   0.78640   41.280
 3859.00    0.76392   0.78727   40.812
 3860.00    0.76711   0.79423   -1.000
 3861.00    0.78724   0.80484   -1.000
 3862.00    0.82233   0.81445  314.620
 3863.00    0.84186   0.81981   -1.000
 3864.00    0.84221   0.82123   -1.000
 3865.00    0.83912   0.82128   -1.000
 3866.00    0.83614   0.82193   -1.000
 3867.00    0.83310   0.82267   -1.000
 3868.00    0.82959   0.82062   -1.000
 3869.00    0.81477   0.81286  321.468
 3870.00    0.79205   0.79951   45.658
 3871.00    0.76850   0.78522  169.454
 3872.00    0.75587   0.77684   -1.000
 3873.00    0.76020   0.77778   -1.000
 3874.00    0.77419   0.78416  306.577
 3875.00    0.79472   0.78721  313.592
 3876.00    0.79382   0.78109   -1.000
 3877.00    0.76846   0.76777  321.468
 3878.00    0.74050   0.75396   -1.000
 3879.00    0.72925   0.74363   -1.000
 3880.00    0.72937   0.73493  321.468
 3881.00    0.72068   0.72345  321.468
 3882.00    0.70637   0.70625  321.468
 3883.00    0.70264   0.68191   -1.000
 3884.00    0.69637   0.64889   -1.000
 3885.00    0.66865   0.60699   -1.000
 3886.00    0.63313   0.56080   -1.000
 3887.00    0.59700   0.52066   -1.000
 3888.00    0.56562   0.49886   -1.000
 3889.00    0.55739   0.50331   -1.000
 3890.00    0.58521   0.53258   -1.000
 3891.00    0.63069   0.57635   -1.000
 3892.00    0.67809   0.62145   -1.000
 3893.00    0.71394   0.65952   -1.000
 3894.00    0.72704   0.68958   -1.000
 3895.00    0.73809   0.71437   -1.000
 3896.00    0.75355   0.73542   -1.000
 3897.00    0.77302   0.75220   -1.000
 3898.00    0.78705   0.76483   -1.000
 3899.00    0.78949   0.77550   -1.000
 3900.00    0.79636   0.78635  259.441
 3901.00    0.80242   0.79663  261.382
 3902.00    0.81379   0.80347  271.674
 3903.00    0.81496   0.80543  278.900
 3904.00    0.81776   0.80503   -1.000
 3905.00    0.81429   0.80764  286.067
 3906.00    0.81344   0.81779  270.767
 3907.00    0.83536   0.83548  252.670
 3908.00    0.86102   0.85594  245.398
 3909.00    0.87068   0.87293  242.813
 3910.00    0.88449   0.88259  240.516
 3911.00    0.88974   0.88459  238.993
 3912.00    0.89029   0.88101  241.349
 3913.00    0.88531   0.87497  246.150
 3914.00    0.87799   0.86950  251.894
 3915.00    0.87150   0.86598  255.404
 3916.00    0.86960   0.86351  258.791
 3917.00    0.86809   0.86006  265.924
 3918.00    0.85879   0.85456  277.299
 3919.00    0.84515   0.84805  290.528
 3920.00    0.83590   0.84297  297.408
 3921.00    0.83028   0.84102  295.660
 3922.00    0.83087   0.84146  290.448
 3923.00    0.84009   0.84107  291.885
 3924.00    0.84198   0.83582  305.159
 3925.00    0.83406   0.82275   -1.000
 3926.00    0.81061   0.80100   -1.000
 3927.00    0.77709   0.77156   49.667
 3928.00    0.73350   0.73569   50.198
 3929.00    0.67822   0.69376   58.744
 3930.00    0.61409   0.64589   69.426
 3931.00    0.52475   0.59549   -1.000
 3932.00    0.43265   0.55253   -1.000
 3933.00    0.38408   0.53075   -1.000
 3934.00    0.39735   0.53924   -1.000
 3935.00    0.46414   0.57565   -1.000
 3936.00    0.55534   0.62782   -1.000
 3937.00    0.63658   0.68213   43.808
 3938.00    0.70123   0.72985   -1.000
 3939.00    0.75269   0.76723   -1.000
 3940.00    0.78450   0.79321  321.468
 3941.00    0.80347   0.80822  321.468
 3942.00    0.80709   0.81477  321.468
 3943.00    0.80306   0.81751   -1.000
 3944.00    0.81141   0.82095  292.446
 3945.00    0.83330   0.82683  274.418
 3946.00    0.85397   0.83375   -1.000
 3947.00    0.85891   0.83942   -1.000
 3948.00    0.85738   0.84283   -1.000
 3949.00    0.85921   0.84425   -1.000
 3950.00    0.86128   0.84434   -1.000
 3951.00    0.85961   0.84408   -1.000
 3952.00    0.85572   0.84442  250.334
 3953.00    0.86596   0.84464   -1.000
 3954.00    0.87349   0.84232   -1.000
 3955.00    0.86469   0.83606   -1.000
 3956.00    0.85016   0.82724   -1.000
 3957.00    0.84018   0.81787   -1.000
 3958.00    0.83616   0.80668   -1.000
 3959.00    0.82933   0.78942   -1.000
 3960.00    0.80297   0.76355   -1.000
 3961.00    0.76225   0.73091   -1.000
 3962.00    0.72153   0.69474   -1.000
 3963.00    0.69178   0.65526   46.386
 3964.00    0.65058   0.60850   47.356
 3965.00    0.57840   0.55119   58.073
 3966.00    0.48220   0.48655   71.141
 3967.00    0.38456   0.42576   -1.000
 3968.00    0.32012   0.38393   -1.000
 3969.00    0.31450   0.37249   -1.000
 3970.00    0.36530   0.39365   51.629
 3971.00    0.44533   0.44049   43.117
 3972.00    0.52778   0.50145   -1.000
 3973.00    0.60034   0.56554   -1.000
 3974.00    0.66891   0.62559   -1.000
 3975.00    0.72801   0.67836   -1.000
 3976.00    0.77351   0.72350   -1.000
 3977.00    0.80497   0.76182   -1.000
 3978.00    0.82852   0.79345   -1.000
 3979.00    0.85894   0.81741   -1.000
 3980.00    0.87155   0.83305   -1.000
 3981.00    0.86783   0.84230   -1.000
 3982.00    0.87256   0.84944   -1.000
 3983.00    0.87863   0.85795   -1.000
 3984.00    0.89986   0.86833   -1.000
 3985.00    0.91680   0.87895   -1.000
 3986.00    0.92440   0.88884   -1.000
 3987.00    0.92958   0.89826   -1.000
 3988.00    0.93352   0.90765   -1.000
 3989.00    0.94032   0.91697   -1.000
 3990.00    0.94776   0.92590   -1.000
 3991.00    0.95515   0.93393   -1.000
 3992.00    0.96206   0.93965   -1.000
 3993.00    0.96434   0.94113   -1.000
 3994.00    0.95415   0.93761   -1.000
 3995.00    0.94663   0.93096   -1.000
 3996.00    0.93903   0.92518  216.225
 3997.00    0.92868   0.92399  211.936
 3998.00    0.93052   0.92861  202.562
 3999.00    0.94885   0.93699  195.456
 4000.00    0.96160   0.94505  192.027
 4001.00    0.98058   0.94879   -1.000
 4002.00    0.98335   0.94594   -1.000
 4003.00    0.98119   0.93699   -1.000
 4004.00    0.96084   0.92644   -1.000
 4005.00    0.94559   0.92084   -1.000
 4006.00    0.94640   0.92445   -1.000
 4007.00    0.96170   0.93622   -1.000
 4008.00    0.98052   0.95037   -1.000
 4009.00    0.99608   0.96137   -1.000
 4010.00    1.00000   0.96736   -1.000
 4011.00    0.99655   0.96975   -1.000
 4012.00    0.98761   0.97105  191.536
 4013.00    0.98556   0.97290  190.313
 4014.00    0.98616   0.97564  187.692
 4015.00    0.99756   0.97888   -1.000
 4016.00    1.00336   0.98247   -1.000
 4017.00    1.00486   0.98662   -1.000
 4018.00    1.00370   0.99103  187.801
 4019.00    1.00714   0.99439  187.958
 4020.00    1.00372   0.99492  190.550
 4021.00    1.00060   0.99147  191.821
 4022.00    0.99526   0.98445  193.062
 4023.00    0.99112   0.97645  194.559
 4024.00    0.99228   0.97143   -1.000
 4025.00    0.99815   0.97216   -1.000
 4026.00    1.00984   0.97722   -1.000
 4027.00    1.01481   0.98128   -1.000
 4028.00    1.01095   0.97930   -1.000
 4029.00    0.99801   0.97060   -1.000
 4030.00    0.97768   0.95952   -1.000
 4031.00    0.96020   0.95161  212.341
 4032.00    0.94941   0.95045  210.047
 4033.00    0.95414   0.95666  203.476
 4034.00    0.96571   0.96886  193.624
 4035.00    0.98819   0.98487  184.046
 4036.00    1.00653   1.00135  177.357
 4037.00    1.02469   1.01410  176.242
 4038.00    1.02637   1.02007  179.667
 4039.00    1.02648   1.01928  183.957
 4040.00    1.01983   1.01399  186.158
 4041.00    1.01213   1.00557  187.139
 4042.00    1.00832   0.99235  195.540
 4043.00    0.99511   0.97416   -1.000
 4044.00    0.96720   0.95605  231.059
 4045.00    0.94131   0.94666  223.681
 4046.00    0.94257   0.95188  202.669
 4047.00    0.97440   0.96882  189.757
 4048.00    1.00481   0.98866  183.878
 4049.00    1.01652   1.00299  181.525
 4050.00    1.01897   1.00814  182.527
 4051.00    1.01704   1.00514  187.289
 4052.00    1.01452   0.99765  192.194
 4053.00    1.01000   0.98978   -1.000
 4054.00    1.00332   0.98416   -1.000
 4055.00    0.99466   0.98160  198.349
 4056.00    0.99142   0.98161  200.382
 4057.00    0.98881   0.98406  198.351
 4058.00    0.99450   0.98828  191.451
 4059.00    1.00237   0.99088  187.401
 4060.00    1.01649   0.98757   -1.000
 4061.00    0.99885   0.97623   -1.000
 4062.00    0.97343   0.95993  217.601
 4063.00    0.95966   0.94512  215.592
 4064.00    0.95790   0.93691   -1.000
 4065.00    0.96541   0.93675   -1.000
 4066.00    0.97319   0.94251   -1.000
 4067.00    0.98268   0.95013   -1.000
 4068.00    0.99789   0.95475   -1.000
 4069.00    1.00334   0.95336   -1.000
 4070.00    0.99570   0.94672   -1.000
 4071.00    0.97867   0.93949   -1.000
 4072.00    0.97069   0.93573   -1.000
 4073.00    0.97908   0.93423   -1.000
 4074.00    0.98216   0.92998   -1.000
 4075.00    0.96897   0.91994   -1.000
 4076.00    0.94484   0.90795   -1.000
 4077.00    0.92368   0.90193   -1.000
 4078.00    0.92885   0.90729   -1.000
 4079.00    0.94316   0.92202   -1.000
 4080.00    0.96873   0.93807   -1.000
 4081.00    0.99057   0.94740   -1.000
 4082.00    0.98645   0.94711   -1.000
 4083.00    0.97477   0.94103   -1.000
 4084.00    0.96584   0.93560   -1.000
 4085.00    0.95615   0.93553   -1.000
 4086.00    0.96215   0.94066   -1.000
 4087.00    0.97770   0.94687   -1.000
 4088.00    0.98713   0.94924   -1.000
 4089.00    0.98556   0.94540   -1.000
 4090.00    0.97400   0.93644   -1.000
 4091.00    0.96392   0.92442   -1.000
 4092.00    0.95474   0.91013   -1.000
 4093.00    0.94996   0.89204   -1.000
 4094.00    0.93480   0.86860   -1.000
 4095.00    0.91027   0.83963   -1.000
 4096.00    0.88777   0.80538   -1.000
 4097.00    0.86355   0.76533   -1.000
 4098.00    0.83302   0.71836   -1.000
 4099.00    0.78929   0.66721   -1.000
 4100.00    0.72552   0.62186   -1.000
 4101.00    0.66610   0.59672   -1.000
 4102.00    0.65492   0.60260   -1.000
 4103.00    0.70285   0.63813   -1.000
 4104.00    0.77347   0.69046   -1.000
 4105.00    0.82574   0.74378   -1.000
 4106.00    0.86159   0.78751   -1.000
 4107.00    0.88346   0.81927   -1.000
 4108.00    0.88928   0.84190   -1.000
 4109.00    0.89598   0.85948   -1.000
 4110.00    0.90566   0.87553   -1.000
 4111.00    0.91834   0.89196   -1.000
 4112.00    0.93333   0.90917   -1.000
 4113.00    0.94946   0.92623   -1.000
 4114.00    0.96186   0.94121   -1.000
 4115.00    0.97087   0.95163   -1.000
 4116.00    0.97671   0.95578   -1.000
 4117.00    0.97066   0.95450  196.833
 4118.00    0.96309   0.95099  199.413
 4119.00    0.95796   0.94878  197.177
 4120.00    0.95676   0.94939  195.091
 4121.00    0.96213   0.95259  195.168
 4122.00    0.97536   0.95755   -1.000
 4123.00    0.97937   0.96338  189.824
 4124.00    0.98152   0.96837  189.023
 4125.00    0.98970   0.97007   -1.000
 4126.00    0.99519   0.96738   -1.000
 4127.00    0.98905   0.96191   -1.000
 4128.00    0.98154   0.95649   -1.000
 4129.00    0.97401   0.95214   -1.000
 4130.00    0.97052   0.94822   -1.000
 4131.00    0.96760   0.94486   -1.000
 4132.00    0.95707   0.94480  214.353
 4133.00    0.95076   0.95124  207.666
 4134.00    0.96530   0.96475  197.292
 4135.00    0.98479   0.98234  190.664
 4136.00    0.99845   0.99974  187.427
 4137.00    1.01239   1.01373  184.497
 4138.00    1.02038   1.02186  183.651
 4139.00    1.02302   1.02206  187.194
 4140.00    1.02249   1.01319  196.789
 4141.00    1.00197   0.99700  213.209
 4142.00    0.96991   0.97953  224.930
 4143.00    0.94763   0.96898   -1.000
 4144.00    0.95395   0.96955   -1.000
 4145.00    0.97687   0.97917  196.843
 4146.00    0.99557   0.99078  194.532
 4147.00    1.00437   0.99839  197.971
 4148.00    0.99663   1.00124  203.477
 4149.00    0.98957   1.00178  206.184
 4150.00    0.98968   1.00193  204.873
 4151.00    0.99191   1.00119  203.664
 4152.00    0.99418   0.99832  205.426
 4153.00    0.98989   0.99393  208.770
 4154.00    0.98037   0.99061  203.941
 4155.00    0.96844   0.99106   -1.000
 4156.00    1.04293   0.99611   -1.000
 4157.00    1.12130   1.00428   -1.000
 4158.00    0.98775   1.01272   -1.000
 4159.00    0.90568   1.01930   -1.000
 4160.00    0.98557   1.02352   -1.000
 4161.00    1.03002   1.02645  188.248
 4162.00    1.01809   1.02930  189.235
 4163.00    1.02034   1.03204  192.294
 4164.00    1.02272   1.03323  195.186
 4165.00    1.01917   1.03161  199.541
 4166.00    1.01563   1.02746  202.677
 4167.00    1.00807   1.02194   -1.000
 4168.00    1.01022   1.01481  197.891
 4169.00    1.01654   1.00414  199.711
 4170.00    1.00656   0.98835   -1.000
 4171.00    0.98287   0.97027  224.223
 4172.00    0.96125   0.95682  225.473
 4173.00    0.94567   0.95336  217.660
 4174.00    0.94653   0.95936  209.752
 4175.00    0.96595   0.96865  209.254
 4176.00    0.97355   0.97579  210.466
 4177.00    0.97090   0.98013  209.646
 4178.00    0.97284   0.98427  206.429
 4179.00    0.98379   0.98976  204.382
 4180.00    0.99406   0.99529  204.464
 4181.00    0.99708   0.99915  202.362
 4182.00    0.99383   1.00169  198.342
 4183.00    0.99298   1.00374  194.804
 4184.00    0.99487   1.00495  194.944
 4185.00    0.99591   1.00391  201.346
 4186.00    0.98765   1.00060  207.197
 4187.00    0.97690   0.99761   -1.000
 4188.00    0.97480   0.99729   -1.000
 4189.00    0.98503   1.00033   -1.000
 4190.00    0.99264   1.00567  197.092
 4191.00    0.99434   1.01152   -1.000
 4192.00    1.00331   1.01571  190.228
 4193.00    1.01230   1.01560  195.515
 4194.00    1.00618   1.00902  205.748
 4195.00    0.99158   0.99647  212.728
 4196.00    0.97434   0.98105  216.584
 4197.00    0.96625   0.96678  217.160
 4198.00    0.95810   0.95695  214.859
 4199.00    0.95547   0.95271  211.420
 4200.00    0.96283   0.95352  210.757
 4201.00    0.96595   0.95816  209.426
 4202.00    0.97053   0.96567  206.167
 4203.00    0.96896   0.97553  204.636
 4204.00    0.96760   0.98728   -1.000
 4205.00    0.97624   0.99969   -1.000
 4206.00    0.98744   1.01070   -1.000
 4207.00    0.99708   1.01863   -1.000
 4208.00    0.99948   1.02296   -1.000
 4209.00    1.00281   1.02505   -1.000
 4210.00    1.00317   1.02664   -1.000
 4211.00    0.99827   1.02766   -1.000
 4212.00    1.00020   1.02565   -1.000
 4213.00    1.00551   1.01865  206.115
 4214.00    0.98555   1.00844   -1.000
 4215.00    0.96128   1.00037   -1.000
 4216.00    0.96143   0.99988   -1.000
 4217.00    0.98010   1.00765   -1.000
 4218.00    0.99568   1.01941   -1.000
 4219.00    1.01154   1.02906   -1.000
 4220.00    1.02083   1.03147  177.789
 4221.00    1.01226   1.02412  185.011
 4222.00    0.99674   1.00632  197.936
 4223.00    0.98439   0.97993  217.471
 4224.00    0.95573   0.95052  246.663
 4225.00    0.91782   0.92743  267.227
 4226.00    0.88615   0.92010   -1.000
 4227.00    0.88821   0.93243   -1.000
 4228.00    0.93052   0.95848   -1.000
 4229.00    0.98393   0.98617  184.865
 4230.00    1.00416   1.00342  183.243
 4231.00    1.00198   1.00662  187.285
 4232.00    0.98816   0.99992  192.231
 4233.00    0.97926   0.99069  194.194
 4234.00    0.96852   0.98431   -1.000
 4235.00    0.97656   0.98246  202.368
 4236.00    0.96719   0.98448   -1.000
 4237.00    0.96164   0.98953   -1.000
 4238.00    0.97037   0.99671   -1.000
 4239.00    0.98073   1.00489   -1.000
 4240.00    0.99077   1.01239   -1.000
 4241.00    0.99894   1.01864   -1.000
 4242.00    1.00234   1.02329   -1.000
 4243.00    1.00149   1.02562   -1.000
 4244.00    1.00664   1.02387   -1.000
 4245.00    1.00011   1.01678   -1.000
 4246.00    0.98427   1.00599   -1.000
 4247.00    0.96788   0.99555   -1.000
 4248.00    0.95137   0.98943   -1.000
 4249.00    0.94846   0.98909   -1.000
 4250.00    0.95303   0.99297   -1.000
 4251.00    0.96690   0.99814   -1.000
 4252.00    0.97680   1.00146   -1.000
 4253.00    0.98353   1.00252   -1.000
 4254.00    0.97249   1.00268   -1.000
 4255.00    0.97531   1.00341   -1.000
 4256.00    0.98672   1.00357   -1.000
 4257.00    0.99601   0.99995  193.648
 4258.00    0.98919   0.99233  204.415
 4259.00    0.96894   0.98514   -1.000
 4260.00    0.95563   0.98487   -1.000
 4261.00    0.96497   0.99463   -1.000
 4262.00    0.99126   1.01124   -1.000
 4263.00    1.00698   1.02845   -1.000
 4264.00    1.01783   1.03995   -1.000
 4265.00    1.02228   1.04346   -1.000
 4266.00    1.01936   1.03895   -1.000
 4267.00    1.00565   1.02760   -1.000
 4268.00    0.99120   1.01064   -1.000
 4269.00    0.97839   0.99015  210.573
 4270.00    0.95220   0.96967   -1.000
 4271.00    0.93304   0.95431   -1.000
 4272.00    0.92390   0.94774   -1.000
 4273.00    0.93174   0.95130   -1.000
 4274.00    0.93777   0.96366   -1.000
 4275.00    0.94520   0.98149   -1.000
 4276.00    0.97978   1.00003   -1.000
 4277.00    1.00149   1.01411  183.275
 4278.00    1.00104   1.02008   -1.000
 4279.00    0.98597   1.01881   -1.000
 4280.00    0.97303   1.01405   -1.000
 4281.00    0.96645   1.00984   -1.000
 4282.00    0.97278   1.00670   -1.000
 4283.00    0.97957   1.00353   -1.000
 4284.00    0.97302   0.99827   -1.000
 4285.00    0.95803   0.98966   -1.000
 4286.00    0.95046   0.97762   -1.000
 4287.00    0.94118   0.96256   -1.000
 4288.00    0.92299   0.94766   -1.000
 4289.00    0.89733   0.93786   -1.000
 4290.00    0.89031   0.93688   -1.000
 4291.00    0.90865   0.94380   -1.000
 4292.00    0.93333   0.95285   -1.000
 4293.00    0.94847   0.95751  202.581
 4294.00    0.94524   0.95528  205.947
 4295.00    0.93471   0.94653  210.668
 4296.00    0.92852   0.93272  221.379
 4297.00    0.91102   0.91426  240.727
 4298.00    0.87751   0.89364   -1.000
 4299.00    0.85176   0.87487   -1.000
 4300.00    0.83457   0.86295   -1.000
 4301.00    0.83793   0.85995   -1.000
 4302.00    0.84237   0.86496   -1.000
 4303.00    0.85099   0.87402   -1.000
 4304.00    0.86415   0.88178   -1.000
 4305.00    0.86986   0.88395   -1.000
 4306.00    0.86212   0.87989   -1.000
 4307.00    0.84224   0.87382   -1.000
 4308.00    0.82718   0.87216   -1.000
 4309.00    0.82519   0.87786   -1.000
 4310.00    0.83746   0.88924   -1.000
 4311.00    0.86162   0.90251   -1.000
 4312.00    0.87779   0.91666   -1.000
 4313.00    0.89225   0.93431   -1.000
 4314.00    0.91913   0.95873   -1.000
 4315.00    0.95325   0.98777   -1.000
 4316.00    0.99144   1.01564   -1.000
 4317.00    1.01856   1.03450   -1.000
 4318.00    1.02895   1.04081  168.197
 4319.00    1.02464   1.03527  172.040
 4320.00    1.01284   1.02079  177.915
 4321.00    0.99783   1.00000  186.743
 4322.00    0.97522   0.97493  200.657
 4323.00    0.94285   0.94936  218.855
 4324.00    0.90903   0.93008   -1.000
 4325.00    0.89385   0.92389   -1.000
 4326.00    0.90885   0.93278   -1.000
 4327.00    0.94201   0.95015  176.406
 4328.00    0.96964   0.96663  173.125
 4329.00    0.97660   0.97473  173.934
 4330.00    0.97538   0.97460  172.943
 4331.00    0.97094   0.96909  169.862
 4332.00    0.96144   0.95952  168.146
 4333.00    0.95384   0.94371  167.803
 4334.00    0.94737   0.91688   -1.000
 4335.00    0.92696   0.87557   -1.000
 4336.00    0.89300   0.82002   -1.000
 4337.00    0.84192   0.75725   -1.000
 4338.00    0.77590   0.69931   -1.000
 4339.00    0.71019   0.66130   -1.000
 4340.00    0.67705   0.65341   -1.000
 4341.00    0.69556   0.67702   -1.000
 4342.00    0.76164   0.72289   -1.000
 4343.00    0.83175   0.77770   -1.000
 4344.00    0.87694   0.82990   -1.000
 4345.00    0.90637   0.87479   -1.000
 4346.00    0.92626   0.91105  173.614
 4347.00    0.94426   0.93749  170.722
 4348.00    0.95833   0.95205  171.271
 4349.00    0.96861   0.95440  181.031
 4350.00    0.95882   0.94927  194.809
 4351.00    0.93281   0.94523  197.296
 4352.00    0.92469   0.94983   -1.000
 4353.00    0.94129   0.96477   -1.000
 4354.00    0.97047   0.98485  174.867
 4355.00    0.99150   1.00368  171.262
 4356.00    1.00172   1.01692  171.428
 4357.00    1.00653   1.02484   -1.000
 4358.00    1.00587   1.03013   -1.000
 4359.00    0.99892   1.03610   -1.000
 4360.00    1.00421   1.04439   -1.000
 4361.00    1.01990   1.05430   -1.000
 4362.00    1.02996   1.06399   -1.000
 4363.00    1.03409   1.07099   -1.000
 4364.00    1.03892   1.07332   -1.000
 4365.00    1.03884   1.06950   -1.000
 4366.00    1.02538   1.06017   -1.000
 4367.00    1.01061   1.04827   -1.000
 4368.00    1.00773   1.03764   -1.000
 4369.00    1.01104   1.02995   -1.000
 4370.00    1.01219   1.02394  174.314
 4371.00    1.01597   1.01685  176.119
 4372.00    1.01732   1.00720  183.538
 4373.00    0.99993   0.99705  190.852
 4374.00    0.98024   0.99144  190.753
 4375.00    0.97407   0.99492   -1.000
 4376.00    0.99276   1.00689  173.369
 4377.00    1.01185   1.02202  170.474
 4378.00    1.02745   1.03215  171.617
 4379.00    1.03508   1.03130  174.763
 4380.00    1.03329   1.01646  183.234
 4381.00    1.01966   0.98987   -1.000
 4382.00    0.98048   0.95869   -1.000
 4383.00    0.94117   0.93519  229.009
 4384.00    0.92748   0.92810  207.188
 4385.00    0.94768   0.93845  187.576
 4386.00    0.98088   0.95823   -1.000
 4387.00    1.00294   0.97728   -1.000
 4388.00    1.01131   0.99060   -1.000
 4389.00    1.00476   0.99843  184.743
 4390.00    1.00748   1.00366  181.006
 4391.00    1.01664   1.00753  176.898
 4392.00    1.02070   1.00932  178.295
 4393.00    1.01756   1.00924  182.390
 4394.00    1.00545   1.00949  181.532
 4395.00    1.00680   1.01296  172.905
 4396.00    1.01727   1.01900  167.993
 4397.00    1.03402   1.02327  170.634
 4398.00    1.03602   1.02261  177.146
 4399.00    1.01812   1.01832  182.365
 4400.00    1.00764   1.01460  179.936
 4401.00    1.01557   1.01280  176.633
 4402.00    1.02609   1.01089  183.262
 4403.00    1.02476   1.00713   -1.000
 4404.00    1.00475   1.00286  195.443
 4405.00    0.99957   1.00142  188.543
 4406.00    1.01278   1.00464  185.956
 4407.00    1.01672   1.01188  184.338
 4408.00    1.01303   1.02242  177.033
 4409.00    1.02387   1.03526  169.402
 4410.00    1.04374   1.04767  163.716
 4411.00    1.05879   1.05504  161.934
 4412.00    1.06911   1.05278  166.607
 4413.00    1.05815   1.04059  176.514
 4414.00    1.03944   1.02382  182.718
 4415.00    1.01730   1.01085  181.357
 4416.00    1.00755   1.00899  174.772
 4417.00    1.01657   1.01944  167.450
 4418.00    1.03065   1.03742  162.824
 4419.00    1.04886   1.05418  164.023
 4420.00    1.05790   1.06403  168.546
 4421.00    1.04722   1.06594   -1.000
 4422.00    1.03829   1.06364   -1.000
 4423.00    1.04407   1.06121   -1.000
 4424.00    1.04301   1.06006   -1.000
 4425.00    1.03490   1.05971   -1.000
 4426.00    1.02276   1.05995   -1.000
 4427.00    1.02436   1.06081   -1.000
 4428.00    1.03389   1.06249   -1.000
 4429.00    1.03386   1.06407   -1.000
 4430.00    1.03543   1.06435   -1.000
 4431.00    1.04206   1.06220   -1.000
 4432.00    1.05102   1.05709  173.980
 4433.00    1.04401   1.05043  182.690
 4434.00    1.02033   1.04635   -1.000
 4435.00    1.00631   1.04917   -1.000
 4436.00    1.02483   1.06008   -1.000
 4437.00    1.05633   1.07466   -1.000
 4438.00    1.07755   1.08522  158.539
 4439.00    1.08094   1.08577  163.870
 4440.00    1.07579   1.07554  171.923
 4441.00    1.05196   1.06039  179.146
 4442.00    1.01862   1.04859   -1.000
 4443.00    1.00912   1.04743   -1.000
 4444.00    1.02191   1.05719   -1.000
 4445.00    1.04630   1.07277   -1.000
 4446.00    1.06254   1.08677   -1.000
 4447.00    1.06302   1.09481   -1.000
 4448.00    1.06808   1.09675   -1.000
 4449.00    1.06945   1.09499   -1.000
 4450.00    1.06009   1.09129   -1.000
 4451.00    1.06276   1.08561   -1.000
 4452.00    1.06593   1.07651  172.321
 4453.00    1.05516   1.06442  180.398
 4454.00    1.03500   1.05213   -1.000
 4455.00    1.01975   1.04433   -1.000
 4456.00    1.03218   1.04296  177.205
 4457.00    1.04652   1.04654  177.496
 4458.00    1.04832   1.05168  178.457
 4459.00    1.04514   1.05599  180.388
 4460.00    1.03808   1.05941   -1.000
 4461.00    1.03698   1.06281   -1.000
 4462.00    1.04479   1.06719   -1.000
 4463.00    1.05889   1.07196  167.005
 4464.00    1.06652   1.07550  166.959
 4465.00    1.06290   1.07554  167.085
 4466.00    1.05633   1.07144  169.101
 4467.00    1.04812   1.06488   -1.000
 4468.00    1.03654   1.05985   -1.000
 4469.00    1.03782   1.06019   -1.000
 4470.00    1.04993   1.06769   -1.000
 4471.00    1.06199   1.08095   -1.000
 4472.00    1.07856   1.09659   -1.000
 4473.00    1.09912   1.11090  154.035
 4474.00    1.10193   1.12140   -1.000
 4475.00    1.10076   1.12694   -1.000
 4476.00    1.09865   1.12718   -1.000
 4477.00    1.10759   1.12121  153.598
 4478.00    1.10757   1.10859  159.579
 4479.00    1.09113   1.09108  166.936
 4480.00    1.07362   1.07488  171.483
 4481.00    1.05935   1.06756  169.186
 4482.00    1.05483   1.07319   -1.000
 4483.00    1.07018   1.08945   -1.000
 4484.00    1.08983   1.10829   -1.000
 4485.00    1.10224   1.12171   -1.000
 4486.00    1.10954   1.12490  156.598
 4487.00    1.10263   1.11898   -1.000
 4488.00    1.09266   1.10900   -1.000
 4489.00    1.07928   1.10156   -1.000
 4490.00    1.07023   1.10001   -1.000
 4491.00    1.07999   1.10369   -1.000
 4492.00    1.09453   1.10888  159.923
 4493.00    1.09038   1.11229   -1.000
 4494.00    1.08036   1.11395   -1.000
 4495.00    1.07250   1.11534   -1.000
 4496.00    1.07326   1.11807   -1.000
 4497.00    1.08542   1.12114   -1.000
 4498.00    1.10257   1.12275   -1.000
 4499.00    1.10123   1.12229   -1.000
 4500.00    1.08940   1.12189   -1.000
 4501.00    1.08140   1.12522   -1.000
 4502.00    1.08813   1.13368   -1.000
 4503.00    1.11567   1.14558   -1.000
 4504.00    1.13115   1.15578   -1.000
 4505.00    1.13332   1.16091   -1.000
 4506.00    1.13238   1.16023   -1.000
 4507.00    1.12281   1.15678   -1.000
 4508.00    1.11479   1.15407   -1.000
 4509.00    1.11874   1.15359   -1.000
 4510.00    1.12472   1.15406   -1.000
 4511.00    1.12422   1.15268   -1.000
 4512.00    1.11407   1.14808   -1.000
 4513.00    1.11254   1.14097   -1.000
 4514.00    1.10863   1.13360   -1.000
 4515.00    1.10603   1.12810   -1.000
 4516.00    1.10399   1.12489   -1.000
 4517.00    1.10011   1.12318   -1.000
 4518.00    1.10230   1.12191   -1.000
 4519.00    1.10351   1.12050  152.574
 4520.00    1.10637   1.11888  153.271
 4521.00    1.10881   1.11647  157.130
 4522.00    1.09395   1.11290   -1.000
 4523.00    1.08313   1.10823   -1.000
 4524.00    1.08431   1.10242   -1.000
 4525.00    1.08275   1.09502  169.551
 4526.00    1.07549   1.08585  174.313
 4527.00    1.06413   1.07594  176.217
 4528.00    1.06274   1.06831  174.716
 4529.00    1.06258   1.06481  171.524
 4530.00    1.06301   1.06510  168.383
 4531.00    1.07310   1.06569  167.708
 4532.00    1.07422   1.06421  172.811
 4533.00    1.05893   1.06201  178.763
 4534.00    1.03983   1.06369   -1.000
 4535.00    1.04379   1.07349   -1.000
 4536.00    1.07066   1.09042   -1.000
 4537.00    1.10134   1.10948  151.714
 4538.00    1.11905   1.12365  153.551
 4539.00    1.12195   1.12990  157.412
 4540.00    1.11815   1.12932  156.979
 4541.00    1.11498   1.12611  155.775
 4542.00    1.11473   1.12342  155.332
 4543.00    1.10376   1.12172   -1.000
 4544.00    1.15043   1.11974   70.113
 4545.00    0.77789   1.11607   -1.000
 4546.00   -0.02144   1.10973    0.000
 4547.00   -0.03811   1.10080    0.000
 4548.00    0.35244   1.09101   -1.000
 4549.00    0.78344   1.08409   -1.000
 4550.00    0.24629   1.08271   -1.000
 4551.00    1.07688   1.08579  162.856
 4552.00    1.08809   1.08918  165.504
 4553.00    1.07617   1.09015  166.942
 4554.00    1.07110   1.09005   -1.000
 4555.00    1.07342   1.09305   -1.000
 4556.00    1.08919   1.10175  151.547
 4557.00    1.10594   1.11491  149.123
 4558.00    1.12143   1.12922  150.159
 4559.00    1.12855   1.14098  150.000
 4560.00    1.13055   1.14774   -1.000
 4561.00    1.12405   1.14813   -1.000
 4562.00    1.11503   1.14265   -1.000
 4563.00    1.10402   1.13447   -1.000
 4564.00    1.09172   1.12842   -1.000
 4565.00    1.09982   1.12783   -1.000
 4566.00    1.12280   1.13295  149.979
 4567.00    1.13046   1.13987  148.653
 4568.00    1.13095   1.14425  150.502
 4569.00    1.12600   1.14298   -1.000
 4570.00    1.11117   1.13719   -1.000
 4571.00    1.09272   1.13090   -1.000
 4572.00    1.08435   1.12881   -1.000
 4573.00    1.09645   1.13229   -1.000
 4574.00    1.11984   1.13869   -1.000
 4575.00    1.12733   1.14416  151.013
 4576.00    1.12571   1.14557   -1.000
 4577.00    1.12626   1.14236  154.655
 4578.00    1.11786   1.13448  159.421
 4579.00    1.10683   1.12339   -1.000
 4580.00    1.10108   1.11094  161.880
 4581.00    1.09956   1.10012  159.496
 4582.00    1.09349   1.09295  158.406
 4583.00    1.09347   1.09122  158.984
 4584.00    1.09670   1.09458  159.979
 4585.00    1.10252   1.10187  157.545
 4586.00    1.10976   1.11060  153.297
 4587.00    1.11635   1.11855  150.125
 4588.00    1.12354   1.12420  150.110
 4589.00    1.12353   1.12681  152.466
 4590.00    1.11897   1.12671  155.349
 4591.00    1.11059   1.12519  158.031
 4592.00    1.10740   1.12420  158.005
 4593.00    1.10491   1.12536   -1.000
 4594.00    1.11391   1.12880  155.361
 4595.00    1.12335   1.13369  154.997
 4596.00    1.12633   1.13836  154.674
 4597.00    1.13006   1.14163  154.350
 4598.00    1.13031   1.14246  155.818
 4599.00    1.12975   1.14106  157.205
 4600.00    1.12119   1.13813  157.553
 4601.00    1.11032   1.13542   -1.000
 4602.00    1.10761   1.13413   -1.000
 4603.00    1.11047   1.13491   -1.000
 4604.00    1.11888   1.13764   -1.000
 4605.00    1.12879   1.14210  152.296
 4606.00    1.13477   1.14792  149.195
 4607.00    1.13967   1.15456  146.008
 4608.00    1.14503   1.16061  144.413
 4609.00    1.14882   1.16473  145.221
 4610.00    1.14686   1.16563   -1.000
 4611.00    1.14349   1.16412   -1.000
 4612.00    1.13701   1.16119   -1.000
 4613.00    1.13625   1.15848   -1.000
 4614.00    1.13898   1.15591  147.590
 4615.00    1.13808   1.15295  147.075
 4616.00    1.13891   1.14920  148.159
 4617.00    1.13787   1.14523  149.241
 4618.00    1.13594   1.14289  148.997
 4619.00    1.13752   1.14379  147.475
 4620.00    1.14119   1.14854  145.117
 4621.00    1.14453   1.15580  145.221
 4622.00    1.14987   1.16290  145.607
 4623.00    1.15032   1.16755  145.910
 4624.00    1.14348   1.16896   -1.000
 4625.00    1.14262   1.16739   -1.000
 4626.00    1.14029   1.16408   -1.000
 4627.00    1.13956   1.15990   -1.000
 4628.00    1.13316   1.15641   -1.000
 4629.00    1.12806   1.15493   -1.000
 4630.00    1.13095   1.15592   -1.000
 4631.00    1.13754   1.15809   -1.000
 4632.00    1.13931   1.15907   -1.000
 4633.00    1.13731   1.15764   -1.000
 4634.00    1.13642   1.15460   -1.000
 4635.00    1.14158   1.15197  151.979
 4636.00    1.13757   1.15093  154.016
 4637.00    1.13681   1.15206  154.538
 4638.00    1.13371   1.15498   -1.000
 4639.00    1.13359   1.15979   -1.000
 4640.00    1.14023   1.16557   -1.000
 4641.00    1.15429   1.17098  145.810
 4642.00    1.15570   1.17364  146.615
 4643.00    1.15928   1.17184  149.522
 4644.00    1.15366   1.16526  153.838
 4645.00    1.13645   1.15561   -1.000
 4646.00    1.12238   1.14606   -1.000
 4647.00    1.12282   1.14039  155.321
 4648.00    1.12946   1.14057  151.673
 4649.00    1.13893   1.14603  149.733
 4650.00    1.14443   1.15356  149.577
 4651.00    1.14030   1.15940   -1.000
 4652.00    1.14104   1.16154   -1.000
 4653.00    1.13560   1.15970   -1.000
 4654.00    1.12712   1.15615   -1.000
 4655.00    1.12415   1.15385   -1.000
 4656.00    1.12653   1.15617   -1.000
 4657.00    1.13586   1.16392   -1.000
 4658.00    1.15398   1.17544   -1.000
 4659.00    1.16543   1.18579   -1.000
 4660.00    1.16701   1.19125   -1.000
 4661.00    1.16639   1.18978   -1.000
 4662.00    1.16083   1.18277   -1.000
 4663.00    1.15800   1.17192  149.531
 4664.00    1.15622   1.15890  152.254
 4665.00    1.14881   1.14432  159.081
 4666.00    1.13365   1.13038  165.493
 4667.00    1.11230   1.12018  165.086
 4668.00    1.10520   1.11735  159.648
 4669.00    1.11574   1.12246  152.923
 4670.00    1.13326   1.13378  149.031
 4671.00    1.14441   1.14691  148.368
 4672.00    1.14862   1.15886  148.529
 4673.00    1.15235   1.16777  148.294
 4674.00    1.15630   1.17375  146.241
 4675.00    1.16456   1.17679  144.116
 4676.00    1.16529   1.17607  145.106
 4677.00    1.16195   1.17132  148.412
 4678.00    1.15472   1.16342  151.310
 4679.00    1.14592   1.15514  153.747
 4680.00    1.14174   1.14908  155.051
 4681.00    1.13183   1.14651  152.837
 4682.00    1.13773   1.14727  148.919
 4683.00    1.14599   1.15004  147.169
 4684.00    1.15439   1.15345  147.805
 4685.00    1.16298   1.15646  147.857
 4686.00    1.16086   1.15883  148.727
 4687.00    1.15814   1.16073  148.679
 4688.00    1.15801   1.16223  148.735
 4689.00    1.15550   1.16337  149.851
 4690.00    1.15578   1.16406  150.032
 4691.00    1.15011   1.16489  148.105
 4692.00    1.15885   1.16641  145.830
 4693.00    1.16871   1.16866  142.557
 4694.00    1.17064   1.17080  140.920
 4695.00    1.17424   1.17140  141.898
 4696.00    1.17770   1.16930  146.228
 4697.00    1.16884   1.16393  150.560
 4698.00    1.16083   1.15640  152.024
 4699.00    1.15532   1.14771  150.713
 4700.00    1.15242   1.13950  152.058
 4701.00    1.15313   1.13255   -1.000
 4702.00    1.14497   1.12827  155.310
 4703.00    1.12889   1.12750  152.160
 4704.00    1.13327   1.12974  150.135
 4705.00    1.14689   1.13254  152.542
 4706.00    1.14467   1.13372  155.604
 4707.00    1.13238   1.13305  156.907
 4708.00    1.13006   1.13282  155.781
 4709.00    1.13505   1.13531  150.972
 4710.00    1.14445   1.14053  146.966
 4711.00    1.15754   1.14682  145.787
 4712.00    1.16803   1.15160  147.418
 4713.00    1.16384   1.15430  150.185
 4714.00    1.15057   1.15619  149.880
 4715.00    1.15169   1.15931  146.725
 4716.00    1.16045   1.16478  143.996
 4717.00    1.16144   1.17125  143.238
 4718.00    1.16437   1.17712  142.751
 4719.00    1.16714   1.18084  142.336
 4720.00    1.16858   1.18272  143.652
 4721.00    1.16794   1.18358  144.574
 4722.00    1.16276   1.18423   -1.000
 4723.00    1.16489   1.18465   -1.000
 4724.00    1.16868   1.18369  142.531
 4725.00    1.16939   1.18005  146.296
 4726.00    1.16899   1.17291  151.906
 4727.00    1.15650   1.16348  154.976
 4728.00    1.14473   1.15401  154.117
 4729.00    1.14945   1.14713  152.501
 4730.00    1.15841   1.14397  151.295
 4731.00    1.16005   1.14473  149.451
 4732.00    1.15443   1.14811  148.208
 4733.00    1.15633   1.15227  147.393
 4734.00    1.15443   1.15534  146.685
 4735.00    1.15851   1.15666  148.352
 4736.00    1.15543   1.15691  148.347
 4737.00    1.15406   1.15757  146.389
 4738.00    1.16191   1.15951  146.618
 4739.00    1.16844   1.16259  147.489
 4740.00    1.16454   1.16602  147.572
 4741.00    1.16626   1.16938  146.282
 4742.00    1.16684   1.17257  144.750
 4743.00    1.17337   1.17568  145.153
 4744.00    1.17193   1.17862  145.205
 4745.00    1.17047   1.18145  144.025
 4746.00    1.16950   1.18438  142.600
 4747.00    1.17320   1.18797  142.397
 4748.00    1.17462   1.19176  142.639
 4749.00    1.17892   1.19526  142.773
 4750.00    1.17743   1.19715   -1.000
 4751.00    1.17756   1.19642   -1.000
 4752.00    1.17355   1.19285   -1.000
 4753.00    1.16532   1.18738   -1.000
 4754.00    1.16132   1.18223   -1.000
 4755.00    1.16403   1.17928  148.029
 4756.00    1.16325   1.17960  149.112
 4757.00    1.16613   1.18232  149.142
 4758.00    1.16051   1.18558   -1.000
 4759.00    1.15779   1.18681   -1.000
 4760.00    1.15904   1.18367   -1.000
 4761.00    1.14742   1.17588   -1.000
 4762.00    1.14076   1.16492   -1.000
 4763.00    1.13521   1.15497   -1.000
 4764.00    1.13292   1.14898  155.588
 4765.00    1.14200   1.14898  154.387
 4766.00    1.15044   1.15422  152.109
 4767.00    1.16268   1.16320  148.642
 4768.00    1.16875   1.17319  146.787
 4769.00    1.17472   1.18188  147.223
 4770.00    1.17592   1.18733  148.535
 4771.00    1.16788   1.19026   -1.000
 4772.00    1.16375   1.19223   -1.000
 4773.00    1.16751   1.19548   -1.000
 4774.00    1.17414   1.20010   -1.000
 4775.00    1.17815   1.20460   -1.000
 4776.00    1.18256   1.20710   -1.000
 4777.00    1.18192   1.20639   -1.000
 4778.00    1.17433   1.20333   -1.000
 4779.00    1.16402   1.19941   -1.000
 4780.00    1.16429   1.19628   -1.000
 4781.00    1.16839   1.19398   -1.000
 4782.00    1.16561   1.19185   -1.000
 4783.00    1.16924   1.18920   -1.000
 4784.00    1.16566   1.18584   -1.000
 4785.00    1.16369   1.18249   -1.000
 4786.00    1.15752   1.17997   -1.000
 4787.00    1.15379   1.17935   -1.000
 4788.00    1.15496   1.18092   -1.000
 4789.00    1.15559   1.18475   -1.000
 4790.00    1.16249   1.19054   -1.000
 4791.00    1.17138   1.19795   -1.000
 4792.00    1.17934   1.20657   -1.000
 4793.00    1.18217   1.21514   -1.000
 4794.00    1.19041   1.22210   -1.000
 4795.00    1.18998   1.22550   -1.000
 4796.00    1.18270   1.22450   -1.000
 4797.00    1.17855   1.22013   -1.000
 4798.00    1.16909   1.21460   -1.000
 4799.00    1.17188   1.21089   -1.000
 4800.00    1.17397   1.21020   -1.000
 4801.00    1.18086   1.21187   -1.000
 4802.00    1.18213   1.21341   -1.000
 4803.00    1.18353   1.21310   -1.000
 4804.00    1.17850   1.21054   -1.000
 4805.00    1.16960   1.20743   -1.000
 4806.00    1.17032   1.20551   -1.000
 4807.00    1.17376   1.20552   -1.000
 4808.00    1.17626   1.20711   -1.000
 4809.00    1.18235   1.20922   -1.000
 4810.00    1.18023   1.21107   -1.000
 4811.00    1.17816   1.21272   -1.000
 4812.00    1.18155   1.21498   -1.000
 4813.00    1.18844   1.21833   -1.000
 4814.00    1.19151   1.22278   -1.000
 4815.00    1.19615   1.22748   -1.000
 4816.00    1.19591   1.23144   -1.000
 4817.00    1.19370   1.23400   -1.000
 4818.00    1.19651   1.23476   -1.000
 4819.00    1.19451   1.23342   -1.000
 4820.00    1.19307   1.22902   -1.000
 4821.00    1.18891   1.22089   -1.000
 4822.00    1.17626   1.21006   -1.000
 4823.00    1.16847   1.19950   -1.000
 4824.00    1.16534   1.19336   -1.000
 4825.00    1.16932   1.19325   -1.000
 4826.00    1.18053   1.19731  144.247
 4827.00    1.18344   1.20216  145.962
 4828.00    1.18106   1.20453   -1.000
 4829.00    1.17786   1.20406   -1.000
 4830.00    1.17384   1.20122   -1.000
 4831.00    1.17321   1.19756   -1.000
 4832.00    1.17542   1.19461  145.645
 4833.00    1.18357   1.19322  143.834
 4834.00    1.18627   1.19346  143.429
 4835.00    1.17846   1.19435  143.737
 4836.00    1.17859   1.19439  144.539
 4837.00    1.18008   1.19254  146.635
 4838.00    1.17351   1.18835  149.121
 4839.00    1.16677   1.18279  149.042
 4840.00    1.16145   1.17729  148.677
 4841.00    1.16126   1.17343  147.880
 4842.00    1.16203   1.17165  146.729
 4843.00    1.16677   1.17152  145.181
 4844.00    1.17275   1.17201  142.963
 4845.00    1.17044   1.17175  142.569
 4846.00    1.16389   1.16913  145.610
 4847.00    1.15657   1.16383  147.579
 4848.00    1.14525   1.15735  147.300
 4849.00    1.14300   1.15116  145.253
 4850.00    1.14370   1.14562  145.091
 4851.00    1.14566   1.13839  146.008
 4852.00    1.13903   1.12654  147.499
 4853.00    1.12866   1.10806  152.075
 4854.00    1.10639   1.08335   -1.000
 4855.00    1.08723   1.05484   -1.000
 4856.00    1.07592   1.02300   -1.000
 4857.00    1.06110   0.98631   -1.000
 4858.00    1.02719   0.94139   -1.000
 4859.00    0.96323   0.89001   -1.000
 4860.00    0.86628   0.84242   -1.000
 4861.00    0.80477   0.81277  187.266
 4862.00    0.83342   0.81291   -1.000
 4863.00    0.92245   0.84143   -1.000
 4864.00    1.00278   0.88922   -1.000
 4865.00    1.04570   0.94233   -1.000
 4866.00    1.07157   0.99062   -1.000
 4867.00    1.08943   1.02840   -1.000
 4868.00    1.10491   1.05376   -1.000
 4869.00    1.11302   1.06760   -1.000
 4870.00    1.10355   1.07317   -1.000
 4871.00    1.08685   1.07571  158.736
 4872.00    1.08425   1.08125  154.198
 4873.00    1.10568   1.09151  151.720
 4874.00    1.12836   1.10541   -1.000
 4875.00    1.13644   1.11911  149.851
 4876.00    1.13740   1.13099  149.227
 4877.00    1.13863   1.14176  147.017
 4878.00    1.14352   1.15265  145.705
 4879.00    1.14932   1.16320  147.218
 4880.00    1.15604   1.17152  149.589
 4881.00    1.15508   1.17537   -1.000
 4882.00    1.14939   1.17514   -1.000
 4883.00    1.14447   1.17211   -1.000
 4884.00    1.14463   1.16831   -1.000
 4885.00    1.15163   1.16492  153.728
 4886.00    1.15193   1.16200  152.885
 4887.00    1.15515   1.15904  152.902
 4888.00    1.15317   1.15521  155.371
 4889.00    1.14194   1.15073  158.517
 4890.00    1.12600   1.14861   -1.000
 4891.00    1.12583   1.15276   -1.000
 4892.00    1.14227   1.16584   -1.000
 4893.00    1.17306   1.18650  139.389
 4894.00    1.19080   1.20860  136.989
 4895.00    1.20128   1.22717   -1.000
 4896.00    1.20612   1.23823   -1.000
 4897.00    1.20769   1.24185   -1.000
 4898.00    1.20097   1.23953   -1.000
 4899.00    1.18921   1.23428   -1.000
 4900.00    1.18308   1.22842   -1.000
 4901.00    1.17684   1.22379   -1.000
 4902.00    1.17806   1.22093   -1.000
 4903.00    1.17948   1.22045   -1.000
 4904.00    1.18051   1.22302   -1.000
 4905.00    1.19596   1.22762   -1.000
 4906.00    1.20428   1.23099   -1.000
 4907.00    1.20058   1.23035   -1.000
 4908.00    1.19332   1.22373   -1.000
 4909.00    1.18581   1.21366   -1.000
 4910.00    1.17707   1.20418   -1.000
 4911.00    1.17865   1.20012   -1.000
 4912.00    1.18731   1.20286  144.062
 4913.00    1.19572   1.21053  142.240
 4914.00    1.20209   1.21863  141.170
 4915.00    1.20459   1.22182  142.276
 4916.00    1.20021   1.21564  147.676
 4917.00    1.18544   1.19923  155.837
 4918.00    1.16387   1.17585  162.759
 4919.00    1.13580   1.15220  163.782
 4920.00    1.11728   1.13540  158.148
 4921.00    1.12340   1.12878  152.678
 4922.00    1.14075   1.13193  150.712
 4923.00    1.14996   1.14130  150.478
 4924.00    1.15569   1.15525  148.311
 4925.00    1.16761   1.17237  144.460
 4926.00    1.18540   1.19098  142.030
 4927.00    1.20298   1.20927  140.768
 4928.00    1.21104   1.22391  139.824
 4929.00    1.21498   1.23284  139.183
 4930.00    1.21620   1.23447  140.851
 4931.00    1.20928   1.22888   -1.000
 4932.00    1.19519   1.21788   -1.000
 4933.00    1.17227   1.20588   -1.000
 4934.00    1.15831   1.19645   -1.000
 4935.00    1.16974   1.19123   -1.000
 4936.00    1.18452   1.18800  152.054
 4937.00    1.18052   1.18486  155.741
 4938.00    1.15872   1.18338   -1.000
 4939.00    1.15386   1.18600   -1.000
 4940.00    1.17011   1.19503   -1.000
 4941.00    1.19035   1.20877  141.430
 4942.00    1.20378   1.22272  140.308
 4943.00    1.21414   1.23333  140.539
 4944.00    1.21144   1.23886   -1.000
 4945.00    1.21099   1.24090   -1.000
 4946.00    1.21075   1.24184   -1.000
 4947.00    1.21043   1.24392   -1.000
 4948.00    1.21224   1.24716   -1.000
 4949.00    1.21422   1.25026   -1.000
 4950.00    1.21570   1.25157   -1.000
 4951.00    1.21607   1.25041   -1.000
 4952.00    1.21626   1.24681   -1.000
 4953.00    1.21234   1.24024   -1.000
 4954.00    1.21235   1.22972  147.515
 4955.00    1.20053   1.21424  155.140
 4956.00    1.16673   1.19630   -1.000
 4957.00    1.13977   1.18333   -1.000
 4958.00    1.14414   1.18102   -1.000
 4959.00    1.17247   1.19133  142.907
 4960.00    1.19946   1.20848  142.089
 4961.00    1.21261   1.22507  142.854
 4962.00    1.21499   1.23570   -1.000
 4963.00    1.20825   1.23853   -1.000
 4964.00    1.20114   1.23526   -1.000
 4965.00    1.19544   1.22867   -1.000
 4966.00    1.18957   1.22178   -1.000
 4967.00    1.19464   1.21667   -1.000
 4968.00    1.20291   1.21441  148.904
 4969.00    1.20525   1.21547  147.292
 4970.00    1.20327   1.21945  145.693
 4971.00    1.20476   1.22560   -1.000
 4972.00    1.20980   1.23255   -1.000
 4973.00    1.21127   1.23901   -1.000
 4974.00    1.21936   1.24313   -1.000
 4975.00    1.22005   1.24422   -1.000
 4976.00    1.21575   1.24192   -1.000
 4977.00    1.20997   1.23631   -1.000
 4978.00    1.20428   1.22762   -1.000
 4979.00    1.19835   1.21560  153.644
 4980.00    1.18705   1.19997  158.807
 4981.00    1.16969   1.18184  163.449
 4982.00    1.15135   1.16487  162.982
 4983.00    1.14278   1.15410  159.667
 4984.00    1.15096   1.15359  155.071
 4985.00    1.16597   1.16320  150.235
 4986.00    1.17872   1.17867  146.934
 4987.00    1.19043   1.19438  147.379
 4988.00    1.19837   1.20492  149.553
 4989.00    1.19315   1.20893  150.923
 4990.00    1.18782   1.20791  150.799
 4991.00    1.17904   1.20547   -1.000
 4992.00    1.18521   1.20451  148.930
 4993.00    1.18899   1.20625  148.804
 4994.00    1.18857   1.21001   -1.000
 4995.00    1.19370   1.21386  147.451
 4996.00    1.19973   1.21567  148.509
 4997.00    1.19728   1.21366  150.641
 4998.00    1.18910   1.20701  153.606
 4999.00    1.18114   1.19715  155.308
 5000.00    1.17680   1.18680  155.196
 5001.00    1.17418   1.17893  153.724
 5002.00    1.17856   1.17450  153.060
 5003.00    1.18455   1.17169  155.536
 5004.00    1.18338   1.16853  159.243
 5005.00    1.16850   1.16474  159.521
 5006.00    1.15713   1.16336  155.370
 5007.00    1.16231   1.16668  150.928
 5008.00    1.17932   1.17373  149.785
 5009.00    1.19513   1.18063  152.122
 5010.00    1.19341   1.18192  156.905
 5011.00    1.17497   1.17608  162.611
 5012.00    1.15342   1.16479  165.841
 5013.00    1.13981   1.15328  164.591
 5014.00    1.14016   1.14516  160.882
 5015.00    1.15208   1.14127  157.813
 5016.00    1.16122   1.14024   -1.000
 5017.00    1.16409   1.14038   -1.000
 5018.00    1.16532   1.14269   -1.000
 5019.00    1.16795   1.14820   -1.000
 5020.00    1.17977   1.15629   -1.000
 5021.00    1.18786   1.16576   -1.000
 5022.00    1.19289   1.17463  154.209
 5023.00    1.19067   1.18269  152.618
 5024.00    1.19221   1.18983  151.806
 5025.00    1.19516   1.19479  152.584
 5026.00    1.19109   1.19761  153.076
 5027.00    1.18964   1.19917  151.441
 5028.00    1.19556   1.20081  148.618
 5029.00    1.19985   1.20413  146.484
 5030.00    1.20511   1.20939  144.169
 5031.00    1.21033   1.21551  142.742
 5032.00    1.21162   1.22032  143.515
 5033.00    1.21582   1.22126  148.391
 5034.00    1.20799   1.21665  153.960
 5035.00    1.19203   1.20768  156.179
 5036.00    1.18051   1.19577  156.827
 5037.00    1.18025   1.18290  159.285
 5038.00    1.17405   1.16891  165.736
 5039.00    1.15791   1.15442  171.743
 5040.00    1.14082   1.14375  170.601
 5041.00    1.12906   1.14176  161.816
 5042.00    1.14608   1.15184  152.135
 5043.00    1.17898   1.17222  146.380
 5044.00    1.20413   1.19586  143.076
 5045.00    1.22134   1.21588  138.631
 5046.00    1.20521   1.22660  110.895
 5047.00    0.95353   1.22681   -1.000
 5048.00    0.41291   1.21854   -1.000
 5049.00    0.08845   1.20666   -1.000
 5050.00    0.75791   1.19617   -1.000
 5051.00    1.21216   1.19121   -1.000
 5052.00    1.18729   1.19409  146.421
 5053.00    1.20896   1.20348  143.938
 5054.00    1.22402   1.21513  142.715
 5055.00    1.23004   1.22644  142.369
 5056.00    1.23000   1.23559  142.655
 5057.00    1.23216   1.24262  142.882
 5058.00    1.23334   1.24819  142.703
 5059.00    1.22809   1.25218   -1.000
 5060.00    1.22322   1.25380   -1.000
 5061.00    1.22265   1.25224   -1.000
 5062.00    1.22276   1.24645   -1.000
 5063.00    1.21558   1.23655   -1.000
 5064.00    1.20060   1.22534   -1.000
 5065.00    1.19223   1.21536   -1.000
 5066.00    1.19669   1.20926  150.772
 5067.00    1.20745   1.20695  150.326
 5068.00    1.20924   1.20699  149.568
 5069.00    1.21224   1.20790  148.838
 5070.00    1.21842   1.20817  150.122
 5071.00    1.21774   1.20731  150.929
 5072.00    1.21378   1.20607  149.044
 5073.00    1.21576   1.20559  148.024
 5074.00    1.21577   1.20616  147.870
 5075.00    1.20886   1.20677  147.948
 5076.00    1.21303   1.20514  149.901
 5077.00    1.20780   1.19961  155.522
 5078.00    1.18823   1.19010  162.342
 5079.00    1.16629   1.17986  163.330
 5080.00    1.16347   1.17296  159.690
 5081.00    1.16991   1.17156  156.439
 5082.00    1.18616   1.17615  154.272
 5083.00    1.19262   1.18466  151.353
 5084.00    1.20382   1.19534  148.961
 5085.00    1.21835   1.20623  148.061
 5086.00    1.22253   1.21586  147.819
 5087.00    1.22737   1.22391  147.009
 5088.00    1.22933   1.23029  145.965
 5089.00    1.23154   1.23551  145.176
 5090.00    1.23354   1.24002  144.305
 5091.00    1.23054   1.24401  142.648
 5092.00    1.23396   1.24706  141.711
 5093.00    1.23987   1.24772  143.320
 5094.00    1.24293   1.24419  146.401
 5095.00    1.23463   1.23549  149.621
 5096.00    1.22246   1.22276  153.209
 5097.00    1.21235   1.20919  156.050
 5098.00    1.20173   1.19915  155.864
 5099.00    1.20176   1.19544  151.776
 5100.00    1.21160   1.19880  147.748
 5101.00    1.22055   1.20677  146.852
 5102.00    1.22628   1.21499  147.940
 5103.00    1.22821   1.22025  149.928
 5104.00    1.22693   1.22046  151.814
 5105.00    1.22123   1.21605  153.678
 5106.00    1.20563   1.20902  155.325
 5107.00    1.18953   1.20220  154.900
 5108.00    1.18618   1.19816  153.861
 5109.00    1.18735   1.19837  152.601
 5110.00    1.18983   1.20314  150.402
 5111.00    1.20241   1.21154  148.574
 5112.00    1.22059   1.22139  146.826
 5113.00    1.23213   1.23118  145.593
 5114.00    1.23736   1.23955  144.730
 5115.00    1.23600   1.24626  143.210
 5116.00    1.23830   1.25116  142.244
 5117.00    1.24309   1.25375  142.925
 5118.00    1.24627   1.25347  144.899
 5119.00    1.24309   1.24948  147.124
 5120.00    1.23528   1.24200  149.748
 5121.00    1.22638   1.23180  153.760
 5122.00    1.21327   1.22035  157.955
 5123.00    1.19237   1.20919  158.556
 5124.00    1.18724   1.20019  157.131
 5125.00    1.19576   1.19405  156.368
 5126.00    1.19681   1.19075  155.584
 5127.00    1.19845   1.18957  155.809
 5128.00    1.19228   1.19014  155.387
 5129.00    1.19942   1.19240  153.190
 5130.00    1.20672   1.19640  150.737
 5131.00    1.21523   1.20171  149.541
 5132.00    1.22136   1.20742  148.119
 5133.00    1.21994   1.21259  146.946
 5134.00    1.22506   1.21606  147.023
 5135.00    1.23041   1.21678  149.940
 5136.00    1.22331   1.21401  153.468
 5137.00    1.20911   1.20837  155.548
 5138.00    1.19284   1.20131  155.436
 5139.00    1.18678   1.19516  154.325
 5140.00    1.19018   1.19136  155.783
 5141.00    1.19554   1.19001  157.901
 5142.00    1.19571   1.19070  156.574
 5143.00    1.19608   1.19259  154.155
 5144.00    1.20323   1.19475  153.994
 5145.00    1.21208   1.19636  155.377
 5146.00    1.21692   1.19685   -1.000
 5147.00    1.21400   1.19693  153.514
 5148.00    1.21516   1.19716   -1.000
 5149.00    1.21964   1.19677   -1.000
 5150.00    1.20730   1.19536  157.872
 5151.00    1.19280   1.19294  158.561
 5152.00    1.18836   1.19050  157.348
 5153.00    1.19407   1.19049  154.093
 5154.00    1.21005   1.19488  150.129
 5155.00    1.22404   1.20407   -1.000
 5156.00    1.24007   1.21613   -1.000
 5157.00    1.24627   1.22839  143.163
 5158.00    1.24990   1.23790  143.259
 5159.00    1.25444   1.24289  143.812
 5160.00    1.25025   1.24280  144.771
 5161.00    1.24165   1.23740  146.533
 5162.00    1.23585   1.22600  149.314
 5163.00    1.22769   1.20739   -1.000
 5164.00    1.21600   1.17965   -1.000
 5165.00    1.18248   1.14408   -1.000
 5166.00    1.13066   1.10693   -1.000
 5167.00    1.08936   1.07579   -1.000
 5168.00    1.08521   1.05821   -1.000
 5169.00    1.11529   1.05288   -1.000
 5170.00    1.13572   1.05372   -1.000
 5171.00    1.12896   1.05783   -1.000
 5172.00    1.10590   1.06541   -1.000
 5173.00    1.10866   1.08296   -1.000
 5174.00    1.15532   1.11188   -1.000
 5175.00    1.21122   1.14661   -1.000
 5176.00    1.24019   1.17996   -1.000
 5177.00    1.25012   1.20317   -1.000
 5178.00    1.25367   1.21234   -1.000
 5179.00    1.24956   1.20643   -1.000
 5180.00    1.23640   1.18582   -1.000
 5181.00    1.21099   1.15469   -1.000
 5182.00    1.16586   1.12071   -1.000
 5183.00    1.11956   1.09623   -1.000
 5184.00    1.11843   1.08999   -1.000
 5185.00    1.16348   1.10312   -1.000
 5186.00    1.20958   1.12879   -1.000
 5187.00    1.22275   1.15525   -1.000
 5188.00    1.21895   1.17552   -1.000
 5189.00    1.21823   1.18648   -1.000
 5190.00    1.20953   1.18872   -1.000
 5191.00    1.19300   1.18595  162.516
 5192.00    1.18051   1.18204  160.751
 5193.00    1.18272   1.17944  157.969
 5194.00    1.19465   1.18001  155.661
 5195.00    1.20846   1.18360   -1.000
 5196.00    1.22595   1.18989   -1.000
 5197.00    1.24022   1.19877   -1.000
 5198.00    1.24650   1.20899   -1.000
 5199.00    1.25105   1.21850   -1.000
 5200.00    1.25017   1.22442   -1.000
 5201.00    1.24228   1.22384  151.384
 5202.00    1.23143   1.21573  155.092
 5203.00    1.21657   1.20137  160.044
 5204.00    1.18963   1.18419  164.282
 5205.00    1.17481   1.16819  164.688
 5206.00    1.17507   1.15693   -1.000
 5207.00    1.18252   1.15219   -1.000
 5208.00    1.18801   1.15463   -1.000
 5209.00    1.19290   1.16424   -1.000
 5210.00    1.20543   1.17968   -1.000
 5211.00    1.22634   1.19829   -1.000
 5212.00    1.24997   1.21550   -1.000
 5213.00    1.25817   1.22720   -1.000
 5214.00    1.25434   1.23124   -1.000
 5215.00    1.23455   1.22963  149.971
 5216.00    1.22255   1.22746  148.236
 5217.00    1.23116   1.22908  145.080
 5218.00    1.24847   1.23624  143.111
 5219.00    1.25972   1.24659  142.152
 5220.00    1.26534   1.25608  141.993
 5221.00    1.26999   1.26010  144.367
 5222.00    1.26880   1.25553  149.173
 5223.00    1.25454   1.24161  155.565
 5224.00    1.22933   1.21977  162.447
 5225.00    1.19949   1.19556  165.455
 5226.00    1.17033   1.17715  160.533
 5227.00    1.17073   1.17045  151.698
 5228.00    1.19985   1.17690   -1.000
 5229.00    1.23271   1.19087   -1.000
 5230.00    1.25243   1.20467   -1.000
 5231.00    1.24817   1.21256   -1.000
 5232.00    1.23279   1.21341   -1.000
 5233.00    1.22422   1.21149  148.736
 5234.00    1.22830   1.21229  145.130
 5235.00    1.23992   1.21888   -1.000
 5236.00    1.25726   1.23043   -1.000
 5237.00    1.26984   1.24395   -1.000
 5238.00    1.27168   1.25572  141.123
 5239.00    1.27362   1.26394  140.731
 5240.00    1.27494   1.26872  140.041
 5241.00    1.27080   1.27106  140.235
 5242.00    1.27195   1.27226  139.924
 5243.00    1.26947   1.27273  140.209
 5244.00    1.27233   1.27137  143.475
 5245.00    1.26562   1.26689  147.884
 5246.00    1.25039   1.25942  150.737
 5247.00    1.23646   1.25022  150.925
 5248.00    1.23560   1.24159  151.326
 5249.00    1.23031   1.23534  152.054
 5250.00    1.22593   1.23237  150.991
 5251.00    1.23418   1.23247  148.918
 5252.00    1.24333   1.23451  147.738
 5253.00    1.24577   1.23750  147.661
 5254.00    1.24542   1.24168  146.113
 5255.00    1.25411   1.24786  142.463
 5256.00    1.26495   1.25553  139.030
 5257.00    1.28124   1.26282  138.385
 5258.00    1.28403   1.26610  140.248
 5259.00    1.27741   1.26184  144.604
 5260.00    1.26387   1.24838  151.007
 5261.00    1.24430   1.22692  157.925
 5262.00    1.21823   1.20140   -1.000
 5263.00    1.19930   1.17668   -1.000
 5264.00    1.18829   1.15722   -1.000
 5265.00    1.18542   1.14552   -1.000
 5266.00    1.19300   1.14014   -1.000
 5267.00    1.20175   1.13780   -1.000
 5268.00    1.18853   1.13645   -1.000
 5269.00    1.16375   1.13648   -1.000
 5270.00    1.16078   1.14141   -1.000
 5271.00    1.18707   1.15227   -1.000
 5272.00    1.22035   1.16665   -1.000
 5273.00    1.23554   1.18189   -1.000
 5274.00    1.23875   1.19542   -1.000
 5275.00    1.24305   1.20796   -1.000
 5276.00    1.24996   1.22123   -1.000
 5277.00    1.26579   1.23482   -1.000
 5278.00    1.28112   1.24599   -1.000
 5279.00    1.27940   1.25091   -1.000
 5280.00    1.26956   1.24871   -1.000
 5281.00    1.25643   1.24161  149.100
 5282.00    1.24506   1.23419  149.041
 5283.00    1.23584   1.23171  145.521
 5284.00    1.24550   1.23722  140.958
 5285.00    1.26098   1.24980  137.117
 5286.00    1.26812   1.26581  136.596
 5287.00    1.28841   1.28089  137.286
 5288.00    1.29241   1.29220  137.072
 5289.00    1.29404   1.29918  136.314
 5290.00    1.29802   1.30212  136.254
 5291.00    1.29459   1.30204  137.210
 5292.00    1.29031   1.29954  138.633
 5293.00    1.28383   1.29387  140.850
 5294.00    1.27787   1.28456  145.086
 5295.00    1.26864   1.27190  150.479
 5296.00    1.25510   1.25753  153.496
 5297.00    1.24521   1.24532  151.690
 5298.00    1.23982   1.23849  147.864
 5299.00    1.25171   1.23799  145.512
 5300.00    1.25828   1.24313  144.530
 5301.00    1.25955   1.25143  142.292
 5302.00    1.26225   1.26117  138.552
 5303.00    1.27196   1.27097  136.486
 5304.00    1.28541   1.27894  136.570
 5305.00    1.29164   1.28454  137.979
 5306.00    1.28745   1.28774  138.775
 5307.00    1.28389   1.28958  137.636
 5308.00    1.28573   1.29199  136.265
 5309.00    1.29540   1.29528  135.617
 5310.00    1.30014   1.29857  135.929
 5311.00    1.29795   1.30000  136.700
 5312.00    1.29907   1.29777  137.351
 5313.00    1.29888   1.29152  138.446
 5314.00    1.29217   1.28223  139.815
 5315.00    1.28060   1.27245  140.823
 5316.00    1.27266   1.26571  140.588
 5317.00    1.27122   1.26432  139.562
 5318.00    1.27607   1.26792  139.206
 5319.00    1.28499   1.27320  139.875
 5320.00    1.28611   1.27612  141.012
 5321.00    1.28133   1.27393  142.867
 5322.00    1.27558   1.26569  145.209
 5323.00    1.26349   1.25302  146.210
 5324.00    1.25408   1.23800  146.819
 5325.00    1.25346   1.22190   -1.000
 5326.00    1.24158   1.20567   -1.000
 5327.00    1.20921   1.19213   -1.000
 5328.00    1.19137   1.18632  156.279
 5329.00    1.20554   1.19072  147.587
 5330.00    1.24275   1.20464   -1.000
 5331.00    1.26856   1.22348   -1.000
 5332.00    1.27549   1.24135   -1.000
 5333.00    1.27697   1.25512   -1.000
 5334.00    1.28515   1.26320   -1.000
 5335.00    1.28843   1.26606   -1.000
 5336.00    1.28211   1.26508  141.287
 5337.00    1.27859   1.26079  143.263
 5338.00    1.27182   1.25400  146.821
 5339.00    1.26060   1.24684  148.584
 5340.00    1.24964   1.24239  146.565
 5341.00    1.25139   1.24272  142.691
 5342.00    1.27067   1.24766   -1.000
 5343.00    1.28801   1.25425   -1.000
 5344.00    1.29175   1.25919   -1.000
 5345.00    1.28137   1.26084   -1.000
 5346.00    1.27607   1.25935  143.690
 5347.00    1.27474   1.25703  144.847
 5348.00    1.27446   1.25624  144.616
 5349.00    1.27227   1.25848  141.987
 5350.00    1.27965   1.26403  138.921
 5351.00    1.29056   1.27180  137.547
 5352.00    1.29311   1.28024  137.058
 5353.00    1.29505   1.28851  135.794
 5354.00    1.30132   1.29629  134.155
 5355.00    1.30992   1.30302  133.419
 5356.00    1.31387   1.30830  133.628
 5357.00    1.31265   1.31143  133.890
 5358.00    1.31309   1.31153  134.612
 5359.00    1.30899   1.30810  136.402
 5360.00    1.30096   1.30088  138.683
 5361.00    1.29656   1.29079  140.484
 5362.00    1.28437   1.27964  141.367
 5363.00    1.27290   1.26938  142.188
 5364.00    1.27345   1.26154  142.788
 5365.00    1.27396   1.25637  142.345
 5366.00    1.27838   1.25257   -1.000
 5367.00    1.27937   1.24799   -1.000
 5368.00    1.27330   1.24116   -1.000
 5369.00    1.25761   1.23252   -1.000
 5370.00    1.23878   1.22513  151.246
 5371.00    1.23643   1.22339  145.020
 5372.00    1.25032   1.22994   -1.000
 5373.00    1.27726   1.24410   -1.000
 5374.00    1.30492   1.26165   -1.000
 5375.00    1.31346   1.27771   -1.000
 5376.00    1.31105   1.28863   -1.000
 5377.00    1.30947   1.29293  136.485
 5378.00    1.31199   1.29179  137.427
 5379.00    1.30281   1.28717  138.828
 5380.00    1.29403   1.28131  140.053
 5381.00    1.29068   1.27607  140.531
 5382.00    1.28235   1.27305  140.268
 5383.00    1.28696   1.27337  139.391
 5384.00    1.29404   1.27700  138.084
 5385.00    1.29843   1.28246  138.088
 5386.00    1.30553   1.28732  138.917
 5387.00    1.30644   1.28951  140.475
 5388.00    1.30184   1.28798  142.569
 5389.00    1.29579   1.28291  143.923
 5390.00    1.29329   1.27577  144.380
 5391.00    1.28976   1.26794   -1.000
 5392.00    1.28389   1.26046   -1.000
 5393.00    1.27688   1.25370   -1.000
 5394.00    1.27221   1.24695   -1.000
 5395.00    1.26536   1.24006   -1.000
 5396.00    1.25321   1.23445   -1.000
 5397.00    1.24912   1.23198  145.251
 5398.00    1.26246   1.23420   -1.000
 5399.00    1.28152   1.24007   -1.000
 5400.00    1.29235   1.24626   -1.000
 5401.00    1.29127   1.24934   -1.000
 5402.00    1.28411   1.24628   -1.000
 5403.00    1.27025   1.23724   -1.000
 5404.00    1.25022   1.22604   -1.000
 5405.00    1.23808   1.21711   -1.000
 5406.00    1.24241   1.21312   -1.000
 5407.00    1.26076   1.21424   -1.000
 5408.00    1.27017   1.21808   -1.000
 5409.00    1.26176   1.22299   -1.000
 5410.00    1.26283   1.22891   -1.000
 5411.00    1.27595   1.23562   -1.000
 5412.00    1.29046   1.24320   -1.000
 5413.00    1.29822   1.25086   -1.000
 5414.00    1.29367   1.25819   -1.000
 5415.00    1.28880   1.26530   -1.000
 5416.00    1.29210   1.27171  138.125
 5417.00    1.29583   1.27714  138.977
 5418.00    1.29475   1.28093  140.299
 5419.00    1.29557   1.28228  140.787
 5420.00    1.29959   1.28128  140.115
 5421.00    1.30324   1.27819   -1.000
 5422.00    1.29846   1.27394   -1.000
 5423.00    1.28604   1.27010  142.740
 5424.00    1.28108   1.26809  140.810
 5425.00    1.28707   1.26854  138.979
 5426.00    1.29432   1.26956   -1.000
 5427.00    1.29412   1.26815   -1.000
 5428.00    1.27631   1.26374  148.387
 5429.00    1.25676   1.25734  147.653
 5430.00    1.25889   1.25132  145.364
 5431.00    1.26761   1.24737   -1.000
 5432.00    1.27504   1.24512   -1.000
 5433.00    1.26671   1.24479   -1.000
 5434.00    1.25566   1.24690  148.049
 5435.00    1.26032   1.25262  144.672
 5436.00    1.27633   1.26295  140.818
 5437.00    1.29329   1.27649  138.166
 5438.00    1.31012   1.29040  136.475
 5439.00    1.31847   1.30174  135.596
 5440.00    1.31690   1.30866  135.481
 5441.00    1.31844   1.31030  135.802
 5442.00    1.31546   1.30614  137.833
 5443.00    1.30504   1.29649  142.131
 5444.00    1.28691   1.28252  147.923
 5445.00    1.26253   1.26768  151.370
 5446.00    1.24716   1.25672  148.939
 5447.00    1.24822   1.25347  144.022
 5448.00    1.26935   1.25866  140.661
 5449.00    1.29547   1.26911   -1.000
 5450.00    1.30993   1.28008   -1.000
 5451.00    1.31340   1.28670   -1.000
 5452.00    1.30902   1.28619   -1.000
 5453.00    1.29247   1.27948  149.625
 5454.00    1.27146   1.27024  151.556
 5455.00    1.25963   1.26378  148.232
 5456.00    1.25929   1.26393  143.128
 5457.00    1.28768   1.27038  140.023
 5458.00    1.31408   1.27960   -1.000
 5459.00    1.31703   1.28716   -1.000
 5460.00    1.31526   1.28951   -1.000
 5461.00    1.30794   1.28654   -1.000
 5462.00    1.29981   1.28112   -1.000
 5463.00    1.29300   1.27706  144.386
 5464.00    1.29866   1.27666   -1.000
 5465.00    1.30358   1.27989   -1.000
 5466.00    1.30800   1.28524   -1.000
 5467.00    1.31499   1.29085   -1.000
 5468.00    1.31821   1.29504   -1.000
 5469.00    1.31089   1.29669  143.415
 5470.00    1.30997   1.29570  143.894
 5471.00    1.31422   1.29209   -1.000
 5472.00    1.31106   1.28581   -1.000
 5473.00    1.30403   1.27713   -1.000
 5474.00    1.29215   1.26674   -1.000
 5475.00    1.27663   1.25650   -1.000
 5476.00    1.26420   1.24938  150.904
 5477.00    1.26741   1.24760   -1.000
 5478.00    1.28408   1.25135   -1.000
 5479.00    1.29652   1.25840   -1.000
 5480.00    1.30172   1.26601   -1.000
 5481.00    1.30000   1.27297   -1.000
 5482.00    1.29952   1.27898   -1.000
 5483.00    1.29994   1.28445  141.238
 5484.00    1.30058   1.28936  140.751
 5485.00    1.30031   1.29254  142.479
 5486.00    1.30091   1.29347  144.290
 5487.00    1.30276   1.29265  144.832
 5488.00    1.30195   1.29147  144.554
 5489.00    1.30407   1.29120  143.442
 5490.00    1.30592   1.29219  142.522
 5491.00    1.30616   1.29403  142.237
 5492.00    1.30724   1.29575  142.559
 5493.00    1.30844   1.29666  142.566
 5494.00    1.31117   1.29631  142.792
 5495.00    1.30707   1.29452  143.923
 5496.00    1.29793   1.29184  144.500
 5497.00    1.29233   1.28902  143.365
 5498.00    1.29619   1.28651  142.329
 5499.00    1.29891   1.28405  143.987
 5500.00    1.29494   1.28104  145.904
 5501.00    1.28945   1.27794  145.618
 5502.00    1.28957   1.27532  144.523
 5503.00    1.29727   1.27297   -1.000
 5504.00    1.30585   1.27076   -1.000
 5505.00    1.29357   1.26871   -1.000
 5506.00    1.28153   1.26729  145.765
 5507.00    1.28389   1.26741  143.757
 5508.00    1.29270   1.26890   -1.000
 5509.00    1.30515   1.27077   -1.000
 5510.00    1.30329   1.27169   -1.000
 5511.00    1.29788   1.27080   -1.000
 5512.00    1.28802   1.26907   -1.000
 5513.00    1.28765   1.26852   -1.000
 5514.00    1.29360   1.27082   -1.000
 5515.00    1.30684   1.27640   -1.000
 5516.00    1.31803   1.28443   -1.000
 5517.00    1.32199   1.29336   -1.000
 5518.00    1.32392   1.30137   -1.000
 5519.00    1.32496   1.30722  139.288
 5520.00    1.32424   1.31036  139.619
 5521.00    1.32379   1.31080  140.065
 5522.00    1.32176   1.30850  140.427
 5523.00    1.31786   1.30322  141.585
 5524.00    1.31506   1.29466   -1.000
 5525.00    1.30900   1.28335   -1.000
 5526.00    1.29295   1.27135   -1.000
 5527.00    1.27616   1.26193  150.163
 5528.00    1.27337   1.25830  146.414
 5529.00    1.28226   1.26148   -1.000
 5530.00    1.29781   1.26934   -1.000
 5531.00    1.30747   1.27787   -1.000
 5532.00    1.31060   1.28392   -1.000
 5533.00    1.30854   1.28633   -1.000
 5534.00    1.29994   1.28641  143.377
 5535.00    1.29937   1.28672  142.349
 5536.00    1.30378   1.28881  142.008
 5537.00    1.30976   1.29268  141.165
 5538.00    1.31860   1.29746   -1.000
 5539.00    1.32232   1.30206   -1.000
 5540.00    1.32454   1.30513  139.496
 5541.00    1.32510   1.30589  141.046
 5542.00    1.32158   1.30472  142.199
 5543.00    1.31683   1.30274  142.286
 5544.00    1.31306   1.30127  141.849
 5545.00    1.31634   1.30138  141.397
 5546.00    1.32188   1.30345  140.325
 5547.00    1.32462   1.30721  138.946
 5548.00    1.32629   1.31159  138.015
 5549.00    1.32463   1.31527  138.029
 5550.00    1.32613   1.31745  138.970
 5551.00    1.32899   1.31774  140.316
 5552.00    1.32831   1.31627  141.729
 5553.00    1.32253   1.31401  142.103
 5554.00    1.31810   1.31221  141.762
 5555.00    1.31758   1.31152  141.350
 5556.00    1.32229   1.31189  141.145
 5557.00    1.32519   1.31286  140.977
 5558.00    1.32534   1.31361  140.942
 5559.00    1.32498   1.31326  141.392
 5560.00    1.32616   1.31132  142.334
 5561.00    1.32408   1.30795  143.736
 5562.00    1.31507   1.30383  144.544
 5563.00    1.31296   1.29974  144.877
 5564.00    1.31323   1.29623  145.131
 5565.00    1.31546   1.29351   -1.000
 5566.00    1.31184   1.29139   -1.000
 5567.00    1.30891   1.28944   -1.000
 5568.00    1.30796   1.28743   -1.000
 5569.00    1.30241   1.28535  144.914
 5570.00    1.30151   1.28332  145.051
 5571.00    1.30813   1.28166   -1.000
 5572.00    1.32183   1.28106   -1.000
 5573.00    1.38273   1.28207   -1.000
 5574.00    1.55930   1.28449   -1.000
 5575.00    1.84653   1.28788   -1.000
 5576.00    2.01095   1.29206   -1.000
 5577.00    1.90384   1.29648   -1.000
 5578.00    1.62731   1.30037   -1.000
 5579.00    1.39645   1.30324   -1.000
 5580.00    1.33655   1.30482   -1.000
 5581.00    1.32618   1.30492   -1.000
 5582.00    1.31915   1.30320  142.993
 5583.00    1.31770   1.29905  144.518
 5584.00    1.31213   1.29140   -1.000
 5585.00    1.30144   1.27984   -1.000
 5586.00    1.28348   1.26620   -1.000
 5587.00    1.26909   1.25372  154.723
 5588.00    1.26538   1.24565   -1.000
 5589.00    1.27058   1.24385   -1.000
 5590.00    1.28302   1.24789   -1.000
 5591.00    1.29514   1.25504   -1.000
 5592.00    1.30270   1.26254   -1.000
 5593.00    1.29946   1.26891   -1.000
 5594.00    1.29637   1.27388   -1.000
 5595.00    1.30258   1.27740   -1.000
 5596.00    1.30892   1.27902   -1.000
 5597.00    1.30588   1.27844   -1.000
 5598.00    1.29921   1.27613   -1.000
 5599.00    1.29746   1.27261   -1.000
 5600.00    1.29816   1.26882   -1.000
 5601.00    1.29282   1.26714   -1.000
 5602.00    1.28851   1.26980   -1.000
 5603.00    1.29657   1.27754   -1.000
 5604.00    1.31525   1.28953   -1.000
 5605.00    1.32990   1.30349   -1.000
 5606.00    1.33620   1.31664   -1.000
 5607.00    1.33759   1.32689  139.741
 5608.00    1.33461   1.33338  139.918
 5609.00    1.33497   1.33630  139.658
 5610.00    1.33593   1.33601  139.488
 5611.00    1.33704   1.33199  140.843
 5612.00    1.33419   1.32355  144.489
 5613.00    1.31961   1.31124  149.273
 5614.00    1.30015   1.29760  151.304
 5615.00    1.28800   1.28700  149.007
 5616.00    1.29234   1.28258  145.657
 5617.00    1.30563   1.28469   -1.000
 5618.00    1.31895   1.29136   -1.000
 5619.00    1.32609   1.29961   -1.000
 5620.00    1.32846   1.30619   -1.000
 5621.00    1.33110   1.30920   -1.000
 5622.00    1.32757   1.30836   -1.000
 5623.00    1.31864   1.30519  149.021
 5624.00    1.30997   1.30214  147.560
 5625.00    1.30854   1.30139  145.016
 5626.00    1.31644   1.30405  143.081
 5627.00    1.32631   1.30969  141.619
 5628.00    1.33472   1.31675  140.801
 5629.00    1.33954   1.32326  140.413
 5630.00    1.34157   1.32747  140.018
 5631.00    1.33652   1.32855  140.494
 5632.00    1.33581   1.32689  141.660
 5633.00    1.33669   1.32335  142.626
 5634.00    1.33254   1.31891  143.556
 5635.00    1.32860   1.31444  144.609
 5636.00    1.32575   1.31056  145.316
 5637.00    1.32385   1.30760  145.193
 5638.00    1.32544   1.30549   -1.000
 5639.00    1.32237   1.30401   -1.000
 5640.00    1.32114   1.30326  145.503
 5641.00    1.32127   1.30352  144.834
 5642.00    1.32302   1.30472  144.281
 5643.00    1.32906   1.30667   -1.000
 5644.00    1.33400   1.30917   -1.000
 5645.00    1.33544   1.31175   -1.000
 5646.00    1.33297   1.31378   -1.000
 5647.00    1.33337   1.31498  142.258
 5648.00    1.33567   1.31532   -1.000
 5649.00    1.33659   1.31514   -1.000
 5650.00    1.33775   1.31466   -1.000
 5651.00    1.33652   1.31374   -1.000
 5652.00    1.33215   1.31187   -1.000
 5653.00    1.32988   1.30831   -1.000
 5654.00    1.33054   1.30244   -1.000
 5655.00    1.32689   1.29409   -1.000
 5656.00    1.31768   1.28414   -1.000
 5657.00    1.30176   1.27497   -1.000
 5658.00    1.28807   1.26917   -1.000
 5659.00    1.29161   1.26774   -1.000
 5660.00    1.30537   1.27024   -1.000
 5661.00    1.31681   1.27541   -1.000
 5662.00    1.31796   1.28196   -1.000
 5663.00    1.32384   1.28883   -1.000
 5664.00    1.33282   1.29493   -1.000
 5665.00    1.33202   1.29941   -1.000
 5666.00    1.33065   1.30218   -1.000
 5667.00    1.32797   1.30372   -1.000
 5668.00    1.32544   1.30497   -1.000
 5669.00    1.32634   1.30692   -1.000
 5670.00    1.32721   1.31013  142.391
 5671.00    1.33432   1.31425   -1.000
 5672.00    1.34311   1.31846   -1.000
 5673.00    1.34809   1.32184   -1.000
 5674.00    1.34748   1.32403   -1.000
 5675.00    1.34285   1.32509  140.064
 5676.00    1.34388   1.32518  140.143
 5677.00    1.34323   1.32420   -1.000
 5678.00    1.33786   1.32187  141.533
 5679.00    1.33974   1.31779   -1.000
 5680.00    1.33990   1.31195   -1.000
 5681.00    1.33461   1.30506   -1.000
 5682.00    1.32834   1.29846   -1.000
 5683.00    1.32525   1.29357   -1.000
 5684.00    1.32506   1.29092   -1.000
 5685.00    1.32856   1.28996   -1.000
 5686.00    1.32975   1.29000   -1.000
 5687.00    1.32798   1.29081   -1.000
 5688.00    1.32874   1.29277   -1.000
 5689.00    1.33424   1.29631   -1.000
 5690.00    1.33950   1.30134   -1.000
 5691.00    1.34579   1.30727   -1.000
 5692.00    1.34779   1.31307   -1.000
 5693.00    1.35026   1.31787   -1.000
 5694.00    1.34829   1.32095   -1.000
 5695.00    1.34525   1.32214   -1.000
 5696.00    1.34233   1.32137   -1.000
 5697.00    1.33685   1.31871  144.593
 5698.00    1.33211   1.31459  145.907
 5699.00    1.32717   1.30970  147.250
 5700.00    1.32040   1.30514  147.301
 5701.00    1.31925   1.30172  145.903
 5702.00    1.31463   1.29972  144.693
 5703.00    1.31613   1.29839  144.853
 5704.00    1.32310   1.29643   -1.000
 5705.00    1.32322   1.29285   -1.000
 5706.00    1.31610   1.28719   -1.000
 5707.00    1.30649   1.27993   -1.000
 5708.00    1.29831   1.27278   -1.000
 5709.00    1.29025   1.26798   -1.000
 5710.00    1.29045   1.26726   -1.000
 5711.00    1.30002   1.27145   -1.000
 5712.00    1.31583   1.27981   -1.000
 5713.00    1.33097   1.29042   -1.000
 5714.00    1.33709   1.30089   -1.000
 5715.00    1.33969   1.30985   -1.000
 5716.00    1.34129   1.31679   -1.000
 5717.00    1.34070   1.32205  140.347
 5718.00    1.34018   1.32642  139.493
 5719.00    1.34386   1.33041  138.967
 5720.00    1.34892   1.33410  138.698
 5721.00    1.35050   1.33718  138.507
 5722.00    1.35124   1.33922  138.494
 5723.00    1.35018   1.33990  139.130
 5724.00    1.34924   1.33894  140.480
 5725.00    1.34691   1.33659  141.881
 5726.00    1.34261   1.33366  142.393
 5727.00    1.34046   1.33101  141.408
 5728.00    1.34220   1.32932  140.947
 5729.00    1.34104   1.32851  141.564
 5730.00    1.34042   1.32847  141.926
 5731.00    1.34261   1.32917  140.997
 5732.00    1.34260   1.33063  139.694
 5733.00    1.34556   1.33285  139.177
 5734.00    1.34713   1.33536  139.412
 5735.00    1.34779   1.33775  139.647
 5736.00    1.35070   1.33952  140.003
 5737.00    1.34862   1.34044  140.130
 5738.00    1.34449   1.34059  140.434
 5739.00    1.34244   1.34019  140.662
 5740.00    1.34204   1.33944  140.795
 5741.00    1.34164   1.33869  140.451
 5742.00    1.34501   1.33823  140.069
 5743.00    1.34454   1.33819  139.020
 5744.00    1.34489   1.33821  138.777
 5745.00    1.34705   1.33795  139.883
 5746.00    1.34541   1.33736  141.065
 5747.00    1.34072   1.33658  141.079
 5748.00    1.34028   1.33570  140.241
 5749.00    1.34512   1.33410  140.342
 5750.00    1.34608   1.33123  141.791
 5751.00    1.34184   1.32719  143.474
 5752.00    1.33267   1.32293  144.418
 5753.00    1.32785   1.32031  143.673
 5754.00    1.32713   1.32058  141.406
 5755.00    1.33288   1.32400  139.010
 5756.00    1.34572   1.32925  138.113
 5757.00    1.35105   1.33422  139.086
 5758.00    1.35079   1.33705  140.827
 5759.00    1.34872   1.33687  142.718
 5760.00    1.34397   1.33412  144.294
 5761.00    1.33554   1.33073  144.168
 5762.00    1.33270   1.32886  142.076
 5763.00    1.33655   1.32990  139.709
 5764.00    1.33999   1.33373  138.490
 5765.00    1.34720   1.33890  138.265
 5766.00    1.35321   1.34387  138.108
 5767.00    1.35628   1.34727  138.023
 5768.00    1.35355   1.34857  138.416
 5769.00    1.34910   1.34785  138.985
 5770.00    1.34714   1.34562  139.820
 5771.00    1.34375   1.34253  140.531
 5772.00    1.34396   1.33928  140.772
 5773.00    1.34249   1.33642  140.787
 5774.00    1.34235   1.33433  140.315
 5775.00    1.33967   1.33297  139.753
 5776.00    1.33611   1.33141  139.864
 5777.00    1.32563   1.32843  140.853
 5778.00    1.30748   1.32350  143.425
 5779.00    1.29683   1.31703  146.347
 5780.00    1.30234   1.31048  147.415
 5781.00    1.31533   1.30532  146.862
 5782.00    1.32357   1.30266   -1.000
 5783.00    1.32899   1.30270   -1.000
 5784.00    1.33245   1.30494   -1.000
 5785.00    1.33459   1.30902   -1.000
 5786.00    1.33949   1.31405   -1.000
 5787.00    1.33968   1.31890   -1.000
 5788.00    1.34537   1.32272   -1.000
 5789.00    1.35013   1.32513   -1.000
 5790.00    1.34668   1.32673   -1.000
 5791.00    1.34176   1.32825  139.822
 5792.00    1.34144   1.33033  138.931
 5793.00    1.34652   1.33313  138.333
 5794.00    1.34283   1.33610  138.601
 5795.00    1.33891   1.33840  139.532
 5796.00    1.34031   1.33964  139.926
 5797.00    1.34538   1.34041  138.752
 5798.00    1.34964   1.34133  136.848
 5799.00    1.35508   1.34270  135.460
 5800.00    1.35942   1.34441  135.752
 5801.00    1.36153   1.34578  136.988
 5802.00    1.36412   1.34618  138.049
 5803.00    1.35774   1.34535  139.025
 5804.00    1.35286   1.34394  139.293
 5805.00    1.35193   1.34276  138.826
 5806.00    1.35375   1.34241  138.328
 5807.00    1.35728   1.34304  138.057
 5808.00    1.35692   1.34450  138.046
 5809.00    1.35901   1.34637  137.771
 5810.00    1.36425   1.34797  137.252
 5811.00    1.36759   1.34878  137.082
 5812.00    1.36889   1.34864   -1.000
 5813.00    1.36950   1.34758   -1.000
 5814.00    1.36573   1.34608   -1.000
 5815.00    1.36162   1.34501  137.993
 5816.00    1.36218   1.34526  137.097
 5817.00    1.36646   1.34697   -1.000
 5818.00    1.37087   1.34970   -1.000
 5819.00    1.37372   1.35270   -1.000
 5820.00    1.37247   1.35537  135.942
 5821.00    1.37025   1.35739  136.207
 5822.00    1.37176   1.35871  135.905
 5823.00    1.37104   1.35949  135.702
 5824.00    1.37244   1.36001  135.480
 5825.00    1.37706   1.36046  135.419
 5826.00    1.37722   1.36093  135.547
 5827.00    1.37549   1.36133  135.665
 5828.00    1.37388   1.36157  135.439
 5829.00    1.37494   1.36163  135.440
 5830.00    1.37948   1.36141  135.374
 5831.00    1.37938   1.36082  135.905
 5832.00    1.37679   1.35990  136.649
 5833.00    1.37438   1.35891  136.573
 5834.00    1.37209   1.35825  136.126
 5835.00    1.37637   1.35825  136.117
 5836.00    1.37779   1.35881  136.580
 5837.00    1.37514   1.35972  136.624
 5838.00    1.37796   1.36070  135.929
 5839.00    1.38283   1.36154   -1.000
 5840.00    1.38189   1.36196   -1.000
 5841.00    1.37560   1.36176  134.782
 5842.00    1.37288   1.36090  135.289
 5843.00    1.37424   1.35932  135.944
 5844.00    1.37516   1.35703  136.817
 5845.00    1.37733   1.35442   -1.000
 5846.00    1.36893   1.35200  137.877
 5847.00    1.36728   1.35007  137.765
 5848.00    1.36824   1.34833   -1.000
 5849.00    1.37126   1.34619   -1.000
 5850.00    1.37118   1.34296   -1.000
 5851.00    1.36489   1.33845   -1.000
 5852.00    1.35406   1.33294   -1.000
 5853.00    1.34607   1.32694   -1.000
 5854.00    1.34679   1.32079   -1.000
 5855.00    1.34720   1.31447   -1.000
 5856.00    1.34736   1.30899   -1.000
 5857.00    1.34815   1.30580   -1.000
 5858.00    1.34912   1.30571   -1.000
 5859.00    1.35417   1.30887   -1.000
 5860.00    1.36273   1.31434   -1.000
 5861.00    1.36426   1.32082   -1.000
 5862.00    1.36668   1.32699   -1.000
 5863.00    1.37382   1.33144   -1.000
 5864.00    1.37491   1.33381   -1.000
 5865.00    1.37144   1.33459   -1.000
 5866.00    1.37167   1.33479   -1.000
 5867.00    1.37390   1.33566   -1.000
 5868.00    1.37478   1.33769   -1.000
 5869.00    1.37960   1.34057   -1.000
 5870.00    1.38331   1.34336   -1.000
 5871.00    1.38083   1.34496   -1.000
 5872.00    1.37872   1.34482   -1.000
 5873.00    1.38064   1.34303   -1.000
 5874.00    1.38286   1.34029   -1.000
 5875.00    1.38065   1.33749   -1.000
 5876.00    1.37492   1.33510   -1.000
 5877.00    1.37154   1.33313   -1.000
 5878.00    1.37190   1.33126   -1.000
 5879.00    1.37032   1.32910   -1.000
 5880.00    1.36672   1.32625   -1.000
 5881.00    1.36541   1.32239   -1.000
 5882.00    1.36468   1.31736   -1.000
 5883.00    1.36041   1.31090   -1.000
 5884.00    1.35509   1.30199   -1.000
 5885.00    1.33744   1.28816   -1.000
 5886.00    1.29684   1.26692   -1.000
 5887.00    1.24244   1.23834  163.139
 5888.00    1.20530   1.20693  170.930
 5889.00    1.20660   1.18090   -1.000
 5890.00    1.23305   1.16541   -1.000
 5891.00    1.25534   1.16104   -1.000
 5892.00    1.25537   1.16346   -1.000
 5893.00    1.22567   1.16702   -1.000
 5894.00    1.19763   1.16938   -1.000
 5895.00    1.19838   1.17214   -1.000
 5896.00    1.23662   1.17958   -1.000
 5897.00    1.28948   1.19383   -1.000
 5898.00    1.32689   1.21434   -1.000
 5899.00    1.34848   1.23828   -1.000
 5900.00    1.35592   1.26170   -1.000
 5901.00    1.35942   1.28150   -1.000
 5902.00    1.36455   1.29636   -1.000
 5903.00    1.36601   1.30662   -1.000
 5904.00    1.36987   1.31347   -1.000
 5905.00    1.37103   1.31800   -1.000
 5906.00    1.37084   1.32116   -1.000
 5907.00    1.37016   1.32352   -1.000
 5908.00    1.36827   1.32528   -1.000
 5909.00    1.36774   1.32621   -1.000
 5910.00    1.36408   1.32587   -1.000
 5911.00    1.36670   1.32379   -1.000
 5912.00    1.36824   1.32023   -1.000
 5913.00    1.36779   1.31614   -1.000
 5914.00    1.36169   1.31267   -1.000
 5915.00    1.35710   1.31091   -1.000
 5916.00    1.35438   1.31136   -1.000
 5917.00    1.35508   1.31382   -1.000
 5918.00    1.35483   1.31733   -1.000
 5919.00    1.35875   1.32088   -1.000
 5920.00    1.36602   1.32373   -1.000
 5921.00    1.36470   1.32575   -1.000
 5922.00    1.36152   1.32723   -1.000
 5923.00    1.36636   1.32852   -1.000
 5924.00    1.37227   1.32971   -1.000
 5925.00    1.37527   1.33036   -1.000
 5926.00    1.37553   1.32983   -1.000
 5927.00    1.37424   1.32794   -1.000
 5928.00    1.36888   1.32528   -1.000
 5929.00    1.36353   1.32296   -1.000
 5930.00    1.36463   1.32192   -1.000
 5931.00    1.36899   1.32220   -1.000
 5932.00    1.37218   1.32340   -1.000
 5933.00    1.37201   1.32511   -1.000
 5934.00    1.36877   1.32704   -1.000
 5935.00    1.36660   1.32906   -1.000
 5936.00    1.36579   1.33090   -1.000
 5937.00    1.36397   1.33208   -1.000
 5938.00    1.36295   1.33220   -1.000
 5939.00    1.36227   1.33115   -1.000
 5940.00    1.35953   1.32947   -1.000
 5941.00    1.35916   1.32787   -1.000
 5942.00    1.36256   1.32696   -1.000
 5943.00    1.36259   1.32679   -1.000
 5944.00    1.36375   1.32691   -1.000
 5945.00    1.36683   1.32669   -1.000
 5946.00    1.36249   1.32580   -1.000
 5947.00    1.35790   1.32455   -1.000
 5948.00    1.35469   1.32347   -1.000
 5949.00    1.35579   1.32293   -1.000
 5950.00    1.36312   1.32278   -1.000
 5951.00    1.36839   1.32281   -1.000
 5952.00    1.36771   1.32292   -1.000
 5953.00    1.36467   1.32278   -1.000
 5954.00    1.36237   1.32235   -1.000
 5955.00    1.35700   1.32196   -1.000
 5956.00    1.35057   1.32214   -1.000
 5957.00    1.34968   1.32348   -1.000
 5958.00    1.35513   1.32607   -1.000
 5959.00    1.36361   1.32951   -1.000
 5960.00    1.36993   1.33315   -1.000
 5961.00    1.37220   1.33612   -1.000
 5962.00    1.37503   1.33778   -1.000
 5963.00    1.37231   1.33800   -1.000
 5964.00    1.36596   1.33716   -1.000
 5965.00    1.36210   1.33601   -1.000
 5966.00    1.36196   1.33527   -1.000
 5967.00    1.36289   1.33540   -1.000
 5968.00    1.36677   1.33653   -1.000
 5969.00    1.36863   1.33832   -1.000
 5970.00    1.36751   1.34006   -1.000
 5971.00    1.36760   1.34097   -1.000
 5972.00    1.36646   1.34038   -1.000
 5973.00    1.36446   1.33809   -1.000
 5974.00    1.36216   1.33453   -1.000
 5975.00    1.35700   1.33068   -1.000
 5976.00    1.35609   1.32777   -1.000
 5977.00    1.36094   1.32659   -1.000
 5978.00    1.35967   1.32720   -1.000
 5979.00    1.35714   1.32869   -1.000
 5980.00    1.35989   1.32971   -1.000
 5981.00    1.35997   1.32919   -1.000
 5982.00    1.35866   1.32708   -1.000
 5983.00    1.35272   1.32429   -1.000
 5984.00    1.34851   1.32214   -1.000
 5985.00    1.35080   1.32159   -1.000
 5986.00    1.35392   1.32281   -1.000
 5987.00    1.35562   1.32525   -1.000
 5988.00    1.35771   1.32796   -1.000
 5989.00    1.35700   1.33033   -1.000
 5990.00    1.35508   1.33233   -1.000
 5991.00    1.35564   1.33427   -1.000
 5992.00    1.35767   1.33622   -1.000
 5993.00    1.35860   1.33781   -1.000
 5994.00    1.35878   1.33860   -1.000
 5995.00    1.36036   1.33833   -1.000
 5996.00    1.35889   1.33724   -1.000
 5997.00    1.35568   1.33580   -1.000
 5998.00    1.35530   1.33447   -1.000
 5999.00    1.35702   1.33338   -1.000
 6000.00    1.35763   1.33237   -1.000
 6001.00    1.35507   1.33126   -1.000
 6002.00    1.35306   1.33000   -1.000
 6003.00    1.35285   1.32854   -1.000
 6004.00    1.35080   1.32662   -1.000
 6005.00    1.34577   1.32417   -1.000
 6006.00    1.34479   1.32159   -1.000
 6007.00    1.34180   1.31971   -1.000
 6008.00    1.33782   1.31936   -1.000
 6009.00    1.33982   1.32056   -1.000
 6010.00    1.34442   1.32261   -1.000
 6011.00    1.34889   1.32463   -1.000
 6012.00    1.34846   1.32587   -1.000
 6013.00    1.34721   1.32619   -1.000
 6014.00    1.35098   1.32580   -1.000
 6015.00    1.34960   1.32504   -1.000
 6016.00    1.34666   1.32404   -1.000
 6017.00    1.34669   1.32268   -1.000
 6018.00    1.34923   1.32082   -1.000
 6019.00    1.34661   1.31875   -1.000
 6020.00    1.34317   1.31704   -1.000
 6021.00    1.34339   1.31619   -1.000
 6022.00    1.34115   1.31666   -1.000
 6023.00    1.34281   1.31872   -1.000
 6024.00    1.34004   1.32213   -1.000
 6025.00    1.34070   1.32643  142.807
 6026.00    1.34798   1.33115  141.948
 6027.00    1.35146   1.33582  141.535
 6028.00    1.35518   1.34006  141.466
 6029.00    1.35740   1.34366  141.637
 6030.00    1.35761   1.34657  141.769
 6031.00    1.35715   1.34884  141.297
 6032.00    1.35762   1.35062  140.744
 6033.00    1.36066   1.35196  140.536
 6034.00    1.35958   1.35280  140.420
 6035.00    1.35369   1.35307  140.293
 6036.00    1.35428   1.35262  140.750
 6037.00    1.35247   1.35136  141.415
 6038.00    1.35018   1.34941  141.699
 6039.00    1.35214   1.34710  141.885
 6040.00    1.35280   1.34498  141.539
 6041.00    1.35174   1.34363  141.165
 6042.00    1.35248   1.34346  140.218
 6043.00    1.35211   1.34447  139.536
 6044.00    1.35478   1.34642  139.729
 6045.00    1.35538   1.34892  139.632
 6046.00    1.35323   1.35144  139.523
 6047.00    1.35203   1.35355  139.842
 6048.00    1.34904   1.35498  140.294
 6049.00    1.35022   1.35562  140.511
 6050.00    1.35572   1.35533  140.678
 6051.00    1.35452   1.35402  141.086
 6052.00    1.35271   1.35173  141.637
 6053.00    1.35135   1.34877  142.189
 6054.00    1.35267   1.34582  142.882
 6055.00    1.35223   1.34370  143.003
 6056.00    1.34678   1.34293  142.495
 6057.00    1.34916   1.34350  141.704
 6058.00    1.35386   1.34487  141.339
 6059.00    1.35451   1.34604  141.656
 6060.00    1.35247   1.34599  142.648
 6061.00    1.34508   1.34402  145.173
 6062.00    1.32177   1.34016  144.982
 6063.00    1.31385   1.33547   -1.000
 6064.00    1.30148   1.33167   93.238
 6065.00    1.03806   1.33020   -1.000
 6066.00    0.69473   1.33174   -1.000
 6067.00    0.96554   1.33589   -1.000
 6068.00    1.34864   1.34141  140.313
 6069.00    1.33192   1.34696  136.970
 6070.00    1.32525   1.35159   -1.000
 6071.00    1.30396   1.35492   -1.000
 6072.00    1.31641   1.35691   -1.000
 6073.00    1.35845   1.35761  140.462
 6074.00    1.35069   1.35701  141.077
 6075.00    1.35058   1.35505  141.860
 6076.00    1.34698   1.35197  142.793
 6077.00    1.34467   1.34839  143.840
 6078.00    1.34453   1.34487  144.374
 6079.00    1.34261   1.34179  144.402
 6080.00    1.34182   1.33926  144.663
 6081.00    1.34117   1.33718  144.936
 6082.00    1.33972   1.33551  144.842
 6083.00    1.33605   1.33447  144.715
 6084.00    1.33513   1.33439  144.451
 6085.00    1.33778   1.33526  143.940
 6086.00    1.34090   1.33675  143.689
 6087.00    1.34210   1.33829  144.292
 6088.00    1.33797   1.33935  145.109
 6089.00    1.33719   1.33981  145.418
 6090.00    1.33827   1.33996  144.940
 6091.00    1.33769   1.34032  144.020
 6092.00    1.34002   1.34128  143.293
 6093.00    1.34277   1.34295  142.542
 6094.00    1.34384   1.34514  142.211
 6095.00    1.34455   1.34731  142.444
 6096.00    1.34562   1.34873  142.715
 6097.00    1.34119   1.34838  142.746
 6098.00    1.33752   1.34527  143.426
 6099.00    1.33539   1.33896  146.022
 6100.00    1.33191   1.33029  149.277
 6101.00    1.31841   1.32164  150.143
 6102.00    1.30804   1.31565  148.044
 6103.00    1.31243   1.31417  145.335
 6104.00    1.32231   1.31744  143.889
 6105.00    1.33016   1.32409  143.951
 6106.00    1.33482   1.33205  144.498
 6107.00    1.33367   1.33944  144.659
 6108.00    1.33014   1.34522  144.463
 6109.00    1.33214   1.34914  144.001
 6110.00    1.33521   1.35150  143.582
 6111.00    1.34074   1.35284  143.316
 6112.00    1.34099   1.35356  142.644
 6113.00    1.33881   1.35391  142.709
 6114.00    1.33794   1.35392  143.496
 6115.00    1.33289   1.35341  144.172
 6116.00    1.33053   1.35182  144.501
 6117.00    1.33004   1.34843  145.819
 6118.00    1.33106   1.34255  147.972
 6119.00    1.32159   1.33423  149.651
 6120.00    1.31414   1.32477  150.511
 6121.00    1.30800   1.31627  149.477
 6122.00    1.30173   1.31102  147.046
 6123.00    1.30700   1.31014  145.971
 6124.00    1.31576   1.31330  146.441
 6125.00    1.32193   1.31871  146.935
 6126.00    1.32568   1.32458  146.592
 6127.00    1.32507   1.33003  145.917
 6128.00    1.32207   1.33488  144.568
 6129.00    1.32358   1.33941  143.628
 6130.00    1.32850   1.34355  143.658
 6131.00    1.33174   1.34616  144.411
 6132.00    1.32815   1.34542  146.642
 6133.00    1.32194   1.33990  150.550
 6134.00    1.30813   1.32976  154.825
 6135.00    1.28746   1.31723   -1.000
 6136.00    1.27239   1.30535   -1.000
 6137.00    1.26927   1.29661   -1.000
 6138.00    1.28176   1.29260  147.939
 6139.00    1.29755   1.29340  147.297
 6140.00    1.29842   1.29818  147.684
 6141.00    1.29703   1.30571  147.192
 6142.00    1.30063   1.31452  145.439
 6143.00    1.31028   1.32300  144.313
 6144.00    1.32339   1.32958  144.592
 6145.00    1.32591   1.33335  145.424
 6146.00    1.32081   1.33427  146.418
 6147.00    1.31723   1.33320  147.405
 6148.00    1.31758   1.33146  147.896
 6149.00    1.31986   1.33022  147.606
 6150.00    1.31930   1.32999  146.821
 6151.00    1.31640   1.33042  146.104
 6152.00    1.31656   1.33077  146.591
 6153.00    1.31893   1.33038  147.754
 6154.00    1.31921   1.32890  148.181
 6155.00    1.31987   1.32624  148.448
 6156.00    1.31942   1.32223  149.518
 6157.00    1.31622   1.31617  151.710
 6158.00    1.31234   1.30725  155.417
 6159.00    1.30343   1.29541  160.211
 6160.00    1.28714   1.28218  163.542
 6161.00    1.27244   1.27031  163.171
 6162.00    1.26499   1.26260  159.559
 6163.00    1.26833   1.26066  155.827
 6164.00    1.28158   1.26375   -1.000
 6165.00    1.29234   1.26933   -1.000
 6166.00    1.29595   1.27452   -1.000
 6167.00    1.29390   1.27800   -1.000
 6168.00    1.28836   1.28010  157.761
 6169.00    1.28366   1.28230  155.557
 6170.00    1.28739   1.28612  152.757
 6171.00    1.29526   1.29206  151.673
 6172.00    1.30021   1.29938  152.000
 6173.00    1.30173   1.30681  151.879
 6174.00    1.30339   1.31331  151.501
 6175.00    1.30923   1.31841  151.175
 6176.00    1.31115   1.32217  150.607
 6177.00    1.30732   1.32504  149.916
 6178.00    1.30454   1.32750  149.425
 6179.00    1.30683   1.32989  148.856
 6180.00    1.31163   1.33227  148.275
 6181.00    1.31250   1.33439  148.218
 6182.00    1.31392   1.33583  148.670
 6183.00    1.31628   1.33610  149.488
 6184.00    1.31451   1.33488  150.935
 6185.00    1.31102   1.33209  152.585
 6186.00    1.30738   1.32783  154.095
 6187.00    1.30177   1.32222  155.401
 6188.00    1.30051   1.31570  156.882
 6189.00    1.29593   1.30947  158.593
 6190.00    1.28309   1.30497  158.293
 6191.00    1.27658   1.30344   -1.000
 6192.00    1.28371   1.30547  151.888
 6193.00    1.29589   1.31048  150.222
 6194.00    1.30445   1.31693  149.715
 6195.00    1.30740   1.32299  150.054
 6196.00    1.30988   1.32730  151.474
 6197.00    1.30724   1.32943  153.072
 6198.00    1.29863   1.32990   -1.000
 6199.00    1.29555   1.32980   -1.000
 6200.00    1.29494   1.33027   -1.000
 6201.00    1.29307   1.33202   -1.000
 6202.00    1.29959   1.33507   -1.000
 6203.00    1.30596   1.33884   -1.000
 6204.00    1.31158   1.34260   -1.000
 6205.00    1.31455   1.34567   -1.000
 6206.00    1.31348   1.34759   -1.000
 6207.00    1.31396   1.34805   -1.000
 6208.00    1.31650   1.34676   -1.000
 6209.00    1.31279   1.34348   -1.000
 6210.00    1.30611   1.33825   -1.000
 6211.00    1.30238   1.33159   -1.000
 6212.00    1.29645   1.32449   -1.000
 6213.00    1.29003   1.31806   -1.000
 6214.00    1.29009   1.31310  158.127
 6215.00    1.29478   1.30981  156.403
 6216.00    1.29735   1.30790  156.660
 6217.00    1.29497   1.30699  157.240
 6218.00    1.28977   1.30697  156.203
 6219.00    1.29081   1.30793  155.948
 6220.00    1.29784   1.30989  161.615
 6221.00    1.30437   1.31265  167.039
 6222.00    1.30647   1.31562  158.750
 6223.00    1.30503   1.31801  154.460
 6224.00    1.30775   1.31908  154.916
 6225.00    1.30725   1.31816  155.291
 6226.00    1.30550   1.31483  156.798
 6227.00    1.29918   1.30918  159.251
 6228.00    1.28972   1.30212  161.662
 6229.00    1.27956   1.29529  162.459
 6230.00    1.27429   1.29058  160.799
 6231.00    1.27787   1.28934  158.049
 6232.00    1.28922   1.29161  155.192
 6233.00    1.30493   1.29613  153.505
 6234.00    1.31397   1.30088  153.711
 6235.00    1.31786   1.30414  155.110
 6236.00    1.31659   1.30510  156.713
 6237.00    1.31146   1.30406  158.336
 6238.00    1.30697   1.30183  159.585
 6239.00    1.30083   1.29917  159.833
 6240.00    1.29476   1.29626  160.264
 6241.00    1.29189   1.29293  161.511
 6242.00    1.28611   1.28895  162.032
 6243.00    1.28214   1.28471  161.419
 6244.00    1.28248   1.28124  160.069
 6245.00    1.27893   1.27985  158.240
 6246.00    1.27741   1.28132  156.350
 6247.00    1.28260   1.28525  155.402
 6248.00    1.28783   1.29003  156.068
 6249.00    1.28920   1.29357  158.274
 6250.00    1.28710   1.29433  160.896
 6251.00    1.27934   1.29208  162.386
 6252.00    1.26821   1.28785  163.147
 6253.00    1.26288   1.28326  163.324
 6254.00    1.26512   1.27969  163.899
 6255.00    1.27241   1.27784  165.523
 6256.00    1.27644   1.27787  166.014
 6257.00    1.27661   1.27970  164.327
 6258.00    1.27755   1.28320  161.729
 6259.00    1.27802   1.28818  159.424
 6260.00    1.28324   1.29417  157.139
 6261.00    1.28998   1.30041  155.400
 6262.00    1.28940   1.30613  155.650
 6263.00    1.28753   1.31081  156.950
 6264.00    1.28735   1.31431   -1.000
 6265.00    1.28419   1.31670   -1.000
 6266.00    1.28369   1.31805   -1.000
 6267.00    1.28705   1.31843   -1.000
 6268.00    1.28731   1.31792   -1.000
 6269.00    1.28512   1.31671   -1.000
 6270.00    1.28521   1.31494   -1.000
 6271.00    1.28855   1.31245   -1.000
 6272.00    1.28631   1.30877  156.753
 6273.00    1.27720   1.30338   -1.000
 6274.00    1.26324   1.29615   -1.000
 6275.00    1.24509   1.28770   -1.000
 6276.00    1.22854   1.27926   -1.000
 6277.00    1.21748   1.27237   -1.000
 6278.00    1.21426   1.26832   -1.000
 6279.00    1.21406   1.26786   -1.000
 6280.00    1.21233   1.27102   -1.000
 6281.00    1.21412   1.27713   -1.000
 6282.00    1.22438   1.28503   -1.000
 6283.00    1.24049   1.29339   -1.000
 6284.00    1.25755   1.30105   -1.000
 6285.00    1.27398   1.30714   -1.000
 6286.00    1.28332   1.31119   -1.000
 6287.00    1.28553   1.31312   -1.000
 6288.00    1.28596   1.31321   -1.000
 6289.00    1.28439   1.31202   -1.000
 6290.00    1.28160   1.31026   -1.000
 6291.00    1.28007   1.30848   -1.000
 6292.00    1.28227   1.30681   -1.000
 6293.00    1.28929   1.30504  159.203
 6294.00    1.30091   1.30277  160.433
 6295.00    1.32552   1.29980   -1.000
 6296.00    1.37106   1.29623   -1.000
 6297.00    1.43991   1.29241   -1.000
 6298.00    1.52187   1.28893   -1.000
 6299.00    1.55724   1.28647   -1.000
 6300.00    1.50066   1.28571   -1.000
 6301.00    1.39288   1.28721   -1.000
 6302.00    1.31662   1.29115   -1.000
 6303.00    1.29237   1.29705  157.768
 6304.00    1.29339   1.30384  156.146
 6305.00    1.30013   1.31022  154.810
 6306.00    1.30377   1.31520  153.904
 6307.00    1.30094   1.31834  154.157
 6308.00    1.29480   1.31974   -1.000
 6309.00    1.29224   1.31969   -1.000
 6310.00    1.29085   1.31846   -1.000
 6311.00    1.29176   1.31622   -1.000
 6312.00    1.28799   1.31305   -1.000
 6313.00    1.28245   1.30916   -1.000
 6314.00    1.27840   1.30498   -1.000
 6315.00    1.27167   1.30123   -1.000
 6316.00    1.27207   1.29877   -1.000
 6317.00    1.27418   1.29830   -1.000
 6318.00    1.27475   1.30010   -1.000
 6319.00    1.28146   1.30401  155.645
 6320.00    1.28967   1.30942  154.574
 6321.00    1.29242   1.31544  154.077
 6322.00    1.29417   1.32133   -1.000
 6323.00    1.29868   1.32650   -1.000
 6324.00    1.30806   1.33059  152.442
 6325.00    1.31418   1.33339  152.077
 6326.00    1.31545   1.33494  151.666
 6327.00    1.31849   1.33552  151.867
 6328.00    1.31893   1.33548  151.962
 6329.00    1.31792   1.33495  151.772
 6330.00    1.31738   1.33379  151.306
 6331.00    1.31302   1.33157  151.381
 6332.00    1.31017   1.32801  151.823
 6333.00    1.30429   1.32329  153.607
 6334.00    1.29007   1.31827   -1.000
 6335.00    1.27956   1.31423   -1.000
 6336.00    1.28491   1.31243   -1.000
 6337.00    1.29457   1.31339  152.181
 6338.00    1.30158   1.31664  150.916
 6339.00    1.30975   1.32097  150.244
 6340.00    1.31473   1.32495  149.881
 6341.00    1.31236   1.32745  150.617
 6342.00    1.31253   1.32804  151.550
 6343.00    1.31338   1.32709  151.390
 6344.00    1.31513   1.32565  150.756
 6345.00    1.31920   1.32496  149.804
 6346.00    1.32426   1.32596  148.955
 6347.00    1.32532   1.32889  148.694
 6348.00    1.32534   1.33317  148.601
 6349.00    1.32479   1.33757  148.455
 6350.00    1.32445   1.34083  148.855
 6351.00    1.32679   1.34217  149.548
 6352.00    1.32702   1.34150  150.701
 6353.00    1.32241   1.33926  152.320
 6354.00    1.31931   1.33616  153.035
 6355.00    1.31832   1.33282  153.194
 6356.00    1.31375   1.32963  154.263
 6357.00    1.31527   1.32672  155.619
 6358.00    1.31914   1.32411  155.615
 6359.00    1.33348   1.32183  154.970
 6360.00    1.35630   1.31997   -1.000
 6361.00    1.38160   1.31870   -1.000
 6362.00    1.40211   1.31822   -1.000
 6363.00    1.39983   1.31871   -1.000
 6364.00    1.37335   1.32008   -1.000
 6365.00    1.34561   1.32197   -1.000
 6366.00    1.33295   1.32381  149.771
 6367.00    1.32688   1.32515  149.047
 6368.00    1.32265   1.32592  148.925
 6369.00    1.31959   1.32649  148.783
 6370.00    1.32177   1.32746  148.197
 6371.00    1.32559   1.32921  148.052
 6372.00    1.32771   1.33161  148.383
 6373.00    1.32535   1.33401  148.567
 6374.00    1.32297   1.33564  149.009
 6375.00    1.32086   1.33600  149.670
 6376.00    1.31839   1.33510  150.563
 6377.00    1.31696   1.33334  151.403
 6378.00    1.31438   1.33128  151.733
 6379.00    1.31074   1.32936  151.895
 6380.00    1.30882   1.32792  152.053
 6381.00    1.30809   1.32717  151.822
 6382.00    1.30621   1.32723  151.900
 6383.00    1.30496   1.32812  152.519
 6384.00    1.30484   1.32970   -1.000
 6385.00    1.30288   1.33161   -1.000
 6386.00    1.30050   1.33333   -1.000
 6387.00    1.29348   1.33424   -1.000
 6388.00    1.28764   1.33382   -1.000
 6389.00    1.28239   1.33183   -1.000
 6390.00    1.27315   1.32850   -1.000
 6391.00    1.26440   1.32459   -1.000
 6392.00    1.25285   1.32123   -1.000
 6393.00    1.24560   1.31936   -1.000
 6394.00    1.24693   1.31914   -1.000
 6395.00    1.25040   1.31982   -1.000
 6396.00    1.24872   1.32020   -1.000
 6397.00    1.24072   1.31951   -1.000
 6398.00    1.22770   1.31804   -1.000
 6399.00    1.21496   1.31696   -1.000
 6400.00    1.20951   1.31748   -1.000
 6401.00    1.21342   1.32000   -1.000
 6402.00    1.21936   1.32375   -1.000
 6403.00    1.22225   1.32725   -1.000
 6404.00    1.22090   1.32920   -1.000
 6405.00    1.21028   1.32911   -1.000
 6406.00    1.19795   1.32740   -1.000
 6407.00    1.19029   1.32505   -1.000
 6408.00    1.18478   1.32299   -1.000
 6409.00    1.17654   1.32174   -1.000
 6410.00    1.16660   1.32142   -1.000
 6411.00    1.15989   1.32190   -1.000
 6412.00    1.15614   1.32293   -1.000
 6413.00    1.15415   1.32420   -1.000
 6414.00    1.15139   1.32531   -1.000
 6415.00    1.14360   1.32588   -1.000
 6416.00    1.13385   1.32560   -1.000
 6417.00    1.12694   1.32445   -1.000
 6418.00    1.11562   1.32282   -1.000
 6419.00    1.10271   1.32159   -1.000
 6420.00    1.09093   1.32182   -1.000
 6421.00    1.08026   1.32425   -1.000
 6422.00    1.07504   1.32880   -1.000
 6423.00    1.07344   1.33456   -1.000
 6424.00    1.07125   1.34007   -1.000
 6425.00    1.06533   1.34389   -1.000
 6426.00    1.05400   1.34499   -1.000
 6427.00    1.04294   1.34310   -1.000
 6428.00    1.03093   1.33881   -1.000
