###################################################################
## OUTPUT of StarlightChains_v04.for    [Cid@UFSC - 01/Apr/2007] ##
###################################################################

## Some input info
NGC5927_a_1.cxt                          [arq_obs]
Base.BC03.N                              [arq_base]
NGC5927_a_1.msk                          [arq_masks]
StCv04.C99.config                        [arq_config]
   45                                    [N_base]
    0                                    [N_YAV_components = # of components with extra extinction!]
    0                                    [i_FitPowerLaw (1/0 = Yes/No)]
-9.99                                    [alpha_PowerLaw]
CCM                                      [red_law_option]
 1.458241                                [q_norm = A(l_norm)/A(V)]

## (Re)Sampling Parameters
 3359.00                                 [l_ini (A)]
 6428.00                                 [l_fin (A)]
    1.00                                 [dl    (A)]     (OBS: dl_cushion =    50.00 A)

## Normalization info
 4020.00                                 [l_norm (A) - for base]
 4010.00                                 [llow_norm (A) - window for f_obs]
 4060.00                                 [lupp_norm (A) - window for f_obs]
6.245917E-15                             [fobs_norm (in input units)]

## S/N
 4730.00                                 [llow_SN (A) - window for S/N]
 4780.00                                 [lupp_SN (A) - window for S/N]
  32.311                                 [S/N in S/N window]
  18.790                                 [S/N in norm. window]
  40.662                                 [S/N_err in S/N window]
  23.646                                 [S/N_err in norm. window]
  1.0000                                 [fscale_chi2]

## etc...
  2147483633                             [idum_orig]
  3068                                   [NOl_eff]
  1615                                   [Nl_eff]
  1453    NSIGMA                         [Ntot_cliped & clip_method]
  1727320                                [Nglobal_steps]
   7                                     [N_chains]
  11                                     [NEX0s_base = N_base in EX0s-fits]
 0   0   1      209   2.0   5.155E+02    [Clip-Bug, RC-Crash & Burn-In warning-flags, n_censored_weights, wei_nsig_threshold & wei_limit]
    23     22.940     22.928      0.012  [idt_all, wdt_TotTime, wdt_UsrTime & wdt_SysTime (sec)]

## Synthesis Results - Best model ##

 1.74570E+00                             [chi2/Nl_eff]
     1.84363                             [adev (%)]

   101.71034                             [sum-of-x (%)]
 3.37116E-14                             [Flux_tot (units of input spectrum!)]
 1.91346E-09                             [Mini_tot (???)]
 9.78638E-10                             [Mcor_tot (???)]

  14.13                                  [v0_min  (km/s)]
  58.49                                  [vd_min  (km/s)]
 1.2426                                  [AV_min  (mag)]
 0.0000                                  [YAV_min (mag)]

# j     x_j(%)      Mini_j(%)     Mcor_j(%)     age_j(yr)     Z_j      (L/M)_j    YAV?  Mstars   component_j        a/Fe...       SSP_chi2r SSP_adev(%)   SSP_AV   SSP_x(%)
  1      3.8537     5.9922E-03    1.1716E-02    1.000000E+06  0.00400  1.114E-02    0   1.0000   age020_m42            0.0000     1.2312E+03    35.6163   4.0000    85.9128
  2     14.0562     5.9779E-03    1.1687E-02    3.160000E+06  0.00400  4.073E-02    0   0.9999   age045_m42            0.0000     3.6005E+02    13.5499   4.0000    95.8226
  3      0.5947     4.0655E-04    7.5420E-04    5.010000E+06  0.00400  2.534E-02    0   0.9488   age055_m42            0.0000     6.2943E+02    23.0944   4.0000    92.2114
  4      6.0473     8.2416E-03    1.4280E-02    1.000000E+07  0.00400  1.271E-02    0   0.8862   age070_m42            0.0000     2.9904E+02     9.3677   4.0000    91.3415
  5      0.0000     0.0000E+00    0.0000E+00    2.512000E+07  0.00400  5.070E-03    0   0.8174   age090_m42            0.0000     2.7143E+02     9.3262   3.9845    91.8336
  6      0.0000     0.0000E+00    0.0000E+00    4.000000E+07  0.00400  3.505E-03    0   0.7851   age104_m42            0.0000     2.4676E+02     7.7370   3.6387    94.4568
  7      0.0000     0.0000E+00    0.0000E+00    1.015200E+08  0.00400  2.268E-03    0   0.7207   age116_m42            0.0000     5.8454E+02     8.9387   3.5263   101.1387
  8      0.0000     0.0000E+00    0.0000E+00    2.861200E+08  0.00400  1.079E-03    0   0.6613   age125_m42            0.0000     5.9927E+02     9.8652   2.9978   103.0294
  9      0.0000     0.0000E+00    0.0000E+00    6.405400E+08  0.00400  5.077E-04    0   0.6197   age132_m42            0.0000     6.0660E+02    10.1649   2.6415   106.7752
 10      0.0000     0.0000E+00    0.0000E+00    9.047900E+08  0.00400  3.535E-04    0   0.6024   age135_m42            0.0000     4.5034E+02     8.9576   2.4058   106.5971
 11      0.0000     0.0000E+00    0.0000E+00    1.434000E+09  0.00400  1.910E-04    0   0.5716   age139_m42            0.0000     2.5192E+02     7.2068   1.8626   106.3243
 12      0.0000     0.0000E+00    0.0000E+00    2.500000E+09  0.00400  9.818E-05    0   0.5463   age150_m42            0.0000     9.7296E+01     4.7757   1.6015   102.8299
 13      0.0000     0.0000E+00    0.0000E+00    5.000000E+09  0.00400  4.718E-05    0   0.5228   age161_m42            0.0000     4.2528E+01     3.4374   1.4471   100.1929
 14      0.4909     3.8567E-01    3.7553E-01    1.100000E+10  0.00400  2.205E-05    0   0.4980   age185_m42            0.0000     2.8399E+01     3.6393   1.1625    98.6250
 15      4.1673     3.8335E+00    3.6930E+00    1.300000E+10  0.00400  1.883E-05    0   0.4927   age193_m42            0.0000     2.8391E+01     3.6720   1.1447    98.5249
 16      0.0000     0.0000E+00    0.0000E+00    1.000000E+06  0.02000  1.989E-02    0   1.0000   age020_m62            0.0000     1.1842E+03    34.7875   4.0000    86.5919
 17      0.0000     0.0000E+00    0.0000E+00    3.160000E+06  0.02000  3.772E-02    0   0.9858   age045_m62            0.0000     1.0339E+03    31.9216   4.0000    88.5978
 18      0.0000     0.0000E+00    0.0000E+00    5.010000E+06  0.02000  3.227E-02    0   0.9342   age055_m62            0.0000     5.2685E+02    19.6344   4.0000    94.2431
 19      0.0000     0.0000E+00    0.0000E+00    1.000000E+07  0.02000  1.011E-02    0   0.8751   age070_m62            0.0000     3.8297E+02    12.2782   4.0000    89.1205
 20      0.0000     0.0000E+00    0.0000E+00    2.512000E+07  0.02000  4.206E-03    0   0.8099   age090_m62            0.0000     3.2286E+02    10.6026   4.0000    89.1209
 21      0.0000     0.0000E+00    0.0000E+00    4.000000E+07  0.02000  3.373E-03    0   0.7799   age104_m62            0.0000     3.1213E+02     7.9061   3.8351    95.2486
 22      0.0000     0.0000E+00    0.0000E+00    1.015200E+08  0.02000  1.878E-03    0   0.7221   age116_m62            0.0000     5.5949E+02     8.5503   3.5661   101.5319
 23      0.0000     0.0000E+00    0.0000E+00    2.861200E+08  0.02000  8.869E-04    0   0.6700   age125_m62            0.0000     8.3958E+02    11.7117   2.9919   107.0967
 24      0.0000     0.0000E+00    0.0000E+00    6.405400E+08  0.02000  3.657E-04    0   0.6322   age132_m62            0.0000     5.9592E+02    11.2339   2.2706   110.9075
 25      0.0000     0.0000E+00    0.0000E+00    9.047900E+08  0.02000  2.312E-04    0   0.6152   age135_m62            0.0000     3.7147E+02     9.5492   1.8965   110.9208
 26      0.0000     0.0000E+00    0.0000E+00    1.434000E+09  0.02000  1.168E-04    0   0.5865   age139_m62            0.0000     1.3240E+02     6.2020   1.5004   106.7336
 27      0.0000     0.0000E+00    0.0000E+00    2.500000E+09  0.02000  5.505E-05    0   0.5610   age150_m62            0.0000     5.0832E+01     5.1432   1.1241   104.8559
 28     20.7723     1.3860E+01    1.4507E+01    5.000000E+09  0.02000  2.596E-05    0   0.5353   age161_m62            0.0000     5.3322E+01     6.3584   0.7489   105.5515
 29     33.9479     5.0303E+01    5.0190E+01    1.100000E+10  0.02000  1.169E-05    0   0.5103   age185_m62            0.0000     9.9884E+01     8.4340   0.3212   107.7098
 30     17.5054     3.1289E+01    3.0877E+01    1.300000E+10  0.02000  9.691E-06    0   0.5047   age193_m62            0.0000     1.1165E+02     8.8096   0.2643   108.0443
 31      0.0000     0.0000E+00    0.0000E+00    1.000000E+06  0.05000  2.651E-02    0   0.9998   age020_m72            0.0000     1.1625E+03    34.5157   4.0000    87.5049
 32      0.0000     0.0000E+00    0.0000E+00    3.160000E+06  0.05000  4.817E-02    0   0.9577   age045_m72            0.0000     8.5530E+02    28.0685   4.0000    91.7810
 33      0.0000     0.0000E+00    0.0000E+00    5.010000E+06  0.05000  3.101E-02    0   0.9147   age055_m72            0.0000     5.8767E+02    20.2123   4.0000    93.2401
 34      0.0000     0.0000E+00    0.0000E+00    1.000000E+07  0.05000  8.954E-03    0   0.8524   age070_m72            0.0000     7.2035E+02    25.1284   4.0000    92.7193
 35      0.0000     0.0000E+00    0.0000E+00    2.512000E+07  0.05000  4.207E-03    0   0.7902   age090_m72            0.0000     4.0352E+02    15.0213   4.0000    95.7675
 36      0.0000     0.0000E+00    0.0000E+00    4.000000E+07  0.05000  3.198E-03    0   0.7618   age104_m72            0.0000     4.4144E+02     7.2577   3.9569    98.2174
 37      0.0000     0.0000E+00    0.0000E+00    1.015200E+08  0.05000  1.716E-03    0   0.7092   age116_m72            0.0000     6.2541E+02     9.1286   3.6437   101.4800
 38      0.0000     0.0000E+00    0.0000E+00    2.861200E+08  0.05000  7.047E-04    0   0.6618   age125_m72            0.0000     7.9723E+02    11.6142   2.7649   107.9354
 39      0.0000     0.0000E+00    0.0000E+00    6.405400E+08  0.05000  2.633E-04    0   0.6253   age132_m72            0.0000     4.5040E+02    10.6129   1.8668   111.1906
 40      0.0000     0.0000E+00    0.0000E+00    9.047900E+08  0.05000  1.484E-04    0   0.6088   age135_m72            0.0000     1.8570E+02     8.0046   1.3867   107.4688
 41      0.0000     0.0000E+00    0.0000E+00    1.434000E+09  0.05000  7.827E-05    0   0.5847   age139_m72            0.0000     7.9303E+01     6.5573   0.9951   105.2983
 42      0.0000     0.0000E+00    0.0000E+00    2.500000E+09  0.05000  3.759E-05    0   0.5583   age150_m72            0.0000     6.6329E+01     6.8704   0.6654   105.1613
 43      0.2744     3.0708E-01    3.1942E-01    5.000000E+09  0.05000  1.548E-05    0   0.5320   age161_m72            0.0000     1.0416E+02     8.6300   0.2062   105.2519
 44      0.0002     5.2857E-04    5.2397E-04    1.100000E+10  0.05000  6.532E-06    0   0.5070   age185_m72            0.0000     1.8272E+02    12.0101  -0.3033   106.3476
 45      0.0000     0.0000E+00    0.0000E+00    1.300000E+10  0.05000  5.316E-06    0   0.5018   age193_m72            0.0000     2.2243E+02    13.3834  -0.4812   107.0154


## Synthesis Results - Average & Chains ##

# j      x_j: min, <> & last-chain-values for 1 ...  7 chains
  1      3.8537      3.4636      3.4232      4.1120      3.4400      3.4639      3.5999      3.5279      3.3454
  2     14.0562     12.5217     12.8224     12.6254     12.7811     12.7350     12.9638     12.8399     12.7573
  3      0.5947      0.7181      0.8654      0.8135      0.7674      0.7453      0.7109      0.4765      0.9145
  4      6.0473      6.3112      6.0329      6.3561      6.2371      6.1681      6.3217      6.5164      6.3364
  5      0.0000      0.0720      0.0000      0.0000      0.2671      0.0911      0.0000      0.0000      0.0000
  6      0.0000      0.0284      0.0000      0.0000      0.0000      0.0000      0.0000      0.0000      0.0000
  7      0.0000      0.0164      0.0000      0.0000      0.0493      0.0000      0.0000      0.0000      0.0000
  8      0.0000      0.0157      0.0000      0.0000      0.0000      0.0000      0.0000      0.0000      0.0000
  9      0.0000      0.0950      0.0000      0.1019      0.1448      0.0000      0.1517      0.1788      0.0000
 10      0.0000      0.1351      0.3377      0.2062      0.1271      0.0205      0.0886      0.0000      0.3521
 11      0.0000      0.1094      0.3279      0.0000      0.0000      0.1680      0.0000      0.0039      0.0361
 12      0.0000      0.1561      0.2324      0.1948      0.0000      0.2029      0.0000      0.0000      0.0000
 13      0.0000      0.5011      0.2724      0.9539      0.2090      0.7702      0.0000      0.6429      0.2637
 14      0.4909      0.6460      0.7453      0.8003      1.0221      0.3737      1.1036      1.3338      0.3518
 15      4.1673      0.7222      0.6764      0.9054      1.4058      1.5606      1.6277      1.3121      1.9161
 16      0.0000      0.1926      0.3001      0.0000      0.1845      0.0000      0.1591      0.2150      0.0609
 17      0.0000      0.0421      0.0000      0.0024      0.0381      0.0614      0.0000      0.0000      0.0000
 18      0.0000      0.2597      0.1486      0.1620      0.3297      0.3513      0.0213      0.0765      0.5346
 19      0.0000      0.1525      0.0000      0.0000      0.0000      0.0969      0.1693      0.0154      0.2133
 20      0.0000      0.0156      0.0000      0.0000      0.0000      0.0000      0.0000      0.0000      0.0000
 21      0.0000      0.0229      0.0000      0.0134      0.0000      0.0000      0.0000      0.0000      0.0000
 22      0.0000      0.0110      0.0000      0.0000      0.0000      0.0000      0.0000      0.0008      0.0000
 23      0.0000      0.0219      0.0268      0.0000      0.0000      0.0000      0.0000      0.0000      0.0000
 24      0.0000      0.0162      0.0000      0.0000      0.0000      0.0000      0.0000      0.0000      0.0000
 25      0.0000      0.0275      0.0000      0.0162      0.0000      0.0000      0.0000      0.0000      0.0000
 26      0.0000      0.0330      0.0300      0.0000      0.0000      0.0173      0.0000      0.0000      0.0000
 27      0.0000      0.1041      0.0000      0.0000      0.1032      0.0000      0.3735      0.1160      0.0000
 28     20.7723     20.9522     21.1835     21.1139     20.5464     20.7271     21.0063     20.9174     20.7412
 29     33.9479     32.2070     31.8141     32.7297     32.6144     33.5899     33.1386     32.8916     33.6134
 30     17.5054     17.4499     18.4524     17.4750     18.0986     17.3254     17.2978     17.4872     17.3959
 31      0.0000      0.0675      0.0022      0.0000      0.0000      0.1253      0.0000      0.0000      0.0860
 32      0.0000      0.3349      0.2923      0.0000      0.2971      0.3560      0.3392      0.3130      0.3435
 33      0.0000      0.2840      0.6247      0.2146      0.2468      0.3222      0.1913      0.4313      0.1054
 34      0.0000      0.0240      0.0187      0.0000      0.0000      0.0000      0.0000      0.0000      0.0000
 35      0.0000      0.0401      0.0000      0.0000      0.0000      0.0000      0.0000      0.0000      0.0000
 36      0.0000      0.0173      0.0408      0.0000      0.0000      0.0000      0.0000      0.0000      0.0000
 37      0.0000      0.0147      0.0000      0.0000      0.0000      0.0000      0.0747      0.0000      0.0000
 38      0.0000      0.0127      0.0000      0.0000      0.0000      0.0000      0.0000      0.0082      0.0642
 39      0.0000      0.0160      0.0000      0.0000      0.0000      0.0000      0.0000      0.0000      0.0000
 40      0.0000      0.0254      0.0000      0.0000      0.1260      0.0000      0.0000      0.0000      0.0000
 41      0.0000      0.0462      0.0000      0.0000      0.0000      0.0000      0.0000      0.0209      0.0000
 42      0.0000      0.1371      0.0000      0.1418      0.1759      0.4117      0.0000      0.0000      0.0000
 43      0.2744      1.5494      1.5668      1.6982      1.5330      1.2798      1.4117      1.5189      1.3707
 44      0.0002      1.0263      0.9941      0.8218      0.0141      0.0000      0.9205      0.3435      0.1492
 45      0.0000      1.2350      0.6386      0.3358      1.0826      0.8662      0.1513      0.6297      0.8815

# j      m_j: min, <> & last-chain-values for 1 ...  7 chains
  1  1.1716E-02  1.0221E-02  1.0177E-02  1.2365E-02  1.0246E-02  1.0404E-02  1.0816E-02  1.0590E-02  9.9909E-03
  2  1.1687E-02  1.0106E-02  1.0425E-02  1.0383E-02  1.0411E-02  1.0461E-02  1.0652E-02  1.0541E-02  1.0419E-02
  3  7.5420E-04  8.8394E-04  1.0731E-03  1.0203E-03  9.5340E-04  9.3371E-04  8.9089E-04  5.9665E-04  1.1392E-03
  4  1.4280E-02  1.4466E-02  1.3931E-02  1.4846E-02  1.4429E-02  1.4391E-02  1.4753E-02  1.5194E-02  1.4698E-02
  5  0.0000E+00  3.8141E-04  0.0000E+00  0.0000E+00  1.4287E-03  4.9147E-04  0.0000E+00  0.0000E+00  0.0000E+00
  6  0.0000E+00  2.0949E-04  0.0000E+00  0.0000E+00  0.0000E+00  0.0000E+00  0.0000E+00  0.0000E+00  0.0000E+00
  7  0.0000E+00  1.7090E-04  0.0000E+00  0.0000E+00  5.2011E-04  0.0000E+00  0.0000E+00  0.0000E+00  0.0000E+00
  8  0.0000E+00  3.1629E-04  0.0000E+00  0.0000E+00  0.0000E+00  0.0000E+00  0.0000E+00  0.0000E+00  0.0000E+00
  9  0.0000E+00  3.8132E-03  0.0000E+00  4.1648E-03  5.8649E-03  0.0000E+00  6.1980E-03  7.2965E-03  0.0000E+00
 10  0.0000E+00  7.5711E-03  1.9059E-02  1.1773E-02  7.1851E-03  1.1700E-03  5.0551E-03  0.0000E+00  1.9962E-02
 11  0.0000E+00  1.0764E-02  3.2503E-02  0.0000E+00  0.0000E+00  1.6819E-02  0.0000E+00  3.9416E-04  3.5905E-03
 12  0.0000E+00  2.8549E-02  4.2820E-02  3.6306E-02  0.0000E+00  3.7769E-02  0.0000E+00  0.0000E+00  0.0000E+00
 13  0.0000E+00  1.8255E-01  9.9965E-02  3.5408E-01  7.6834E-02  2.8558E-01  0.0000E+00  2.3822E-01  9.7225E-02
 14  3.7553E-01  4.7966E-01  5.5742E-01  6.0544E-01  7.6597E-01  2.8239E-01  8.3428E-01  1.0073E+00  2.6433E-01
 15  3.6930E+00  6.2121E-01  5.8612E-01  7.9356E-01  1.2205E+00  1.3664E+00  1.4256E+00  1.1481E+00  1.6679E+00
 16  0.0000E+00  3.1827E-04  4.9976E-04  0.0000E+00  3.0774E-04  0.0000E+00  2.6775E-04  3.6147E-04  1.0193E-04
 17  0.0000E+00  3.6141E-05  0.0000E+00  2.0755E-06  3.3016E-05  5.3662E-05  0.0000E+00  0.0000E+00  0.0000E+00
 18  0.0000E+00  2.4718E-04  1.4248E-04  1.5706E-04  3.1670E-04  3.4026E-04  2.0634E-05  7.4105E-05  5.1491E-04
 19  0.0000E+00  4.3402E-04  0.0000E+00  0.0000E+00  0.0000E+00  2.8071E-04  4.9035E-04  4.4450E-05  6.1424E-04
 20  0.0000E+00  9.8908E-05  0.0000E+00  0.0000E+00  0.0000E+00  0.0000E+00  0.0000E+00  0.0000E+00  0.0000E+00
 21  0.0000E+00  1.7398E-04  0.0000E+00  1.0406E-04  0.0000E+00  0.0000E+00  0.0000E+00  0.0000E+00  0.0000E+00
 22  0.0000E+00  1.3947E-04  0.0000E+00  0.0000E+00  0.0000E+00  0.0000E+00  0.0000E+00  1.0215E-05  0.0000E+00
 23  0.0000E+00  5.4333E-04  6.7051E-04  0.0000E+00  0.0000E+00  0.0000E+00  0.0000E+00  0.0000E+00  0.0000E+00
 24  0.0000E+00  9.2244E-04  0.0000E+00  0.0000E+00  0.0000E+00  0.0000E+00  0.0000E+00  0.0000E+00  0.0000E+00
 25  0.0000E+00  2.4046E-03  0.0000E+00  1.4413E-03  0.0000E+00  0.0000E+00  0.0000E+00  0.0000E+00  0.0000E+00
 26  0.0000E+00  5.4529E-03  4.9935E-03  0.0000E+00  0.0000E+00  2.9081E-03  0.0000E+00  0.0000E+00  0.0000E+00
 27  0.0000E+00  3.4883E-02  0.0000E+00  0.0000E+00  3.4895E-02  0.0000E+00  1.2739E-01  3.9541E-02  0.0000E+00
 28  1.4507E+01  1.4203E+01  1.4466E+01  1.4584E+01  1.4057E+01  1.4301E+01  1.4498E+01  1.4423E+01  1.4229E+01
 29  5.0190E+01  4.6219E+01  4.5993E+01  4.7860E+01  4.7239E+01  4.9064E+01  4.8418E+01  4.8013E+01  4.8816E+01
 30  3.0877E+01  2.9875E+01  3.1825E+01  3.0486E+01  3.1274E+01  3.0192E+01  3.0152E+01  3.0454E+01  3.0141E+01
 31  0.0000E+00  8.3710E-05  2.7773E-06  0.0000E+00  0.0000E+00  1.5817E-04  0.0000E+00  0.0000E+00  1.0792E-04
 32  0.0000E+00  2.1891E-04  1.9245E-04  0.0000E+00  1.9599E-04  2.3682E-04  2.2571E-04  2.0811E-04  2.2719E-04
 33  0.0000E+00  2.7538E-04  6.1028E-04  2.1209E-04  2.4158E-04  3.1801E-04  1.8882E-04  4.2545E-04  1.0342E-04
 34  0.0000E+00  7.5037E-05  5.8897E-05  0.0000E+00  0.0000E+00  0.0000E+00  0.0000E+00  0.0000E+00  0.0000E+00
 35  0.0000E+00  2.4760E-04  0.0000E+00  0.0000E+00  0.0000E+00  0.0000E+00  0.0000E+00  0.0000E+00  0.0000E+00
 36  0.0000E+00  1.3564E-04  3.2153E-04  0.0000E+00  0.0000E+00  0.0000E+00  0.0000E+00  0.0000E+00  0.0000E+00
 37  0.0000E+00  2.0015E-04  0.0000E+00  0.0000E+00  0.0000E+00  0.0000E+00  1.0339E-03  0.0000E+00  0.0000E+00
 38  0.0000E+00  3.9094E-04  0.0000E+00  0.0000E+00  0.0000E+00  0.0000E+00  0.0000E+00  2.5635E-04  2.0071E-03
 39  0.0000E+00  1.2461E-03  0.0000E+00  0.0000E+00  0.0000E+00  0.0000E+00  0.0000E+00  0.0000E+00  0.0000E+00
 40  0.0000E+00  3.4315E-03  0.0000E+00  0.0000E+00  1.7145E-02  0.0000E+00  0.0000E+00  0.0000E+00  0.0000E+00
 41  0.0000E+00  1.1346E-02  0.0000E+00  0.0000E+00  0.0000E+00  0.0000E+00  0.0000E+00  5.2166E-03  0.0000E+00
 42  0.0000E+00  6.6950E-02  0.0000E+00  7.0544E-02  8.6684E-02  2.0459E-01  0.0000E+00  0.0000E+00  0.0000E+00
 43  3.1942E-01  1.7505E+00  1.7833E+00  1.9550E+00  1.7481E+00  1.4717E+00  1.6239E+00  1.7455E+00  1.5673E+00
 44  5.2397E-04  2.6188E+00  2.5554E+00  2.1366E+00  3.6439E-02  0.0000E+00  2.3914E+00  8.9150E-01  3.8536E-01
 45  0.0000E+00  3.8325E+00  1.9962E+00  1.0619E+00  3.3906E+00  2.7361E+00  4.7810E-01  1.9875E+00  2.7683E+00

# AV, chi2 & Mass for <> & i_chain = 1 ...  7 solutions
AV       1.2426      1.2138      1.2216      1.2234      1.2224      1.2255      1.2249      1.2233      1.2269
chi2 1.7457E+00  1.7865E+00  1.7736E+00  1.7663E+00  1.7692E+00  1.7662E+00  1.7641E+00  1.7651E+00  1.7643E+00
Mass 9.7864E-10  9.7000E-10  9.7295E-10  9.6425E-10  9.7213E-10  9.6806E-10  9.6701E-10  9.6580E-10  9.7539E-10
  14.47                                  [v0_min (km/s) before EX0s...]
  59.21                                  [vd_min (km/s) before EX0s...]


## Synthetic spectrum (Best Model) ##l_obs f_obs f_syn wei
 3070    [Nl_obs]
 3359.00    0.00000   0.44544   -2.000
 3360.00    0.00000   0.41859   -2.000
 3361.00    0.18410   0.41795   -1.000
 3362.00    0.27073   0.44275   -1.000
 3363.00    0.28523   0.47823   -1.000
 3364.00    0.28842   0.50440   -1.000
 3365.00    0.28762   0.50777   -1.000
 3366.00    0.29495   0.48900   -1.000
 3367.00    0.29689   0.46390   -1.000
 3368.00    0.27013   0.44253   -1.000
 3369.00    0.25323   0.42969   -1.000
 3370.00    0.26700   0.42458   -1.000
 3371.00    0.28538   0.42359   -1.000
 3372.00    0.28347   0.42895   -1.000
 3373.00    0.28018   0.44574   -1.000
 3374.00    0.28734   0.47254   -1.000
 3375.00    0.29574   0.50173   -1.000
 3376.00    0.30478   0.52111   -1.000
 3377.00    0.33955   0.51941   -1.000
 3378.00    0.32869   0.49804   -1.000
 3379.00    0.30448   0.47353   -1.000
 3380.00    0.28783   0.46133   -1.000
 3381.00    0.28244   0.46779   -1.000
 3382.00    0.30577   0.48406   -1.000
 3383.00    0.30980   0.50041   -1.000
 3384.00    0.31264   0.51289   -1.000
 3385.00    0.34818   0.52328   -1.000
 3386.00    0.34196   0.52972   -1.000
 3387.00    0.31924   0.53036   -1.000
 3388.00    0.32895   0.52772   -1.000
 3389.00    0.34421   0.52416   -1.000
 3390.00    0.33805   0.51693   -1.000
 3391.00    0.37549   0.50263   -1.000
 3392.00    0.35196   0.48780   -1.000
 3393.00    0.34907   0.48388   -1.000
 3394.00    0.38688   0.49479   -1.000
 3395.00    0.41273   0.51586   -1.000
 3396.00    0.41921   0.53563   -1.000
 3397.00    0.40297   0.55125   -1.000
 3398.00    0.42168   0.56317   -1.000
 3399.00    0.44697   0.56823   -1.000
 3400.00    0.45441   0.56575   -1.000
 3401.00    0.43776   0.55691   -1.000
 3402.00    0.42656   0.54281   -1.000
 3403.00    0.43347   0.52899   -1.000
 3404.00    0.42914   0.51923   -1.000
 3405.00    0.40752   0.51195   -1.000
 3406.00    0.41974   0.50457   -1.000
 3407.00    0.43450   0.49816   -1.000
 3408.00    0.44046   0.49742   -1.000
 3409.00    0.43935   0.50304   -1.000
 3410.00    0.43991   0.51104   -1.000
 3411.00    0.41222   0.51100   -1.000
 3412.00    0.41649   0.49830   -1.000
 3413.00    0.42871   0.48087   -1.000
 3414.00    0.43580   0.46947   73.922
 3415.00    0.42222   0.47344   -1.000
 3416.00    0.41125   0.49079   -1.000
 3417.00    0.43367   0.51539   -1.000
 3418.00    0.45827   0.53880   -1.000
 3419.00    0.47336   0.55666   -1.000
 3420.00    0.48331   0.56329   -1.000
 3421.00    0.50782   0.55556   -1.000
 3422.00    0.49971   0.53763   63.699
 3423.00    0.47824   0.52389   63.821
 3424.00    0.48895   0.51993   65.218
 3425.00    0.49422   0.52195   66.849
 3426.00    0.47816   0.52687   -1.000
 3427.00    0.49768   0.53590   64.205
 3428.00    0.51683   0.55215   63.427
 3429.00    0.52104   0.57058   -1.000
 3430.00    0.51643   0.57436   -1.000
 3431.00    0.51056   0.55981   -1.000
 3432.00    0.49098   0.53757   -1.000
 3433.00    0.48725   0.52455   -1.000
 3434.00    0.51445   0.52798   91.374
 3435.00    0.51778   0.53602   63.291
 3436.00    0.49379   0.53639   -1.000
 3437.00    0.48331   0.52402   -1.000
 3438.00    0.48399   0.49966   90.871
 3439.00    0.44568   0.46642   65.069
 3440.00    0.42671   0.43432   68.703
 3441.00    0.40903   0.41193   73.722
 3442.00    0.38903   0.40723   77.695
 3443.00    0.39968   0.41845   78.813
 3444.00    0.42660   0.43616   78.621
 3445.00    0.44624   0.45324   76.402
 3446.00    0.45478   0.47061   72.576
 3447.00    0.46993   0.48988   68.568
 3448.00    0.49526   0.51274   65.722
 3449.00    0.51293   0.53339  156.772
 3450.00    0.49975   0.53927   -1.000
 3451.00    0.49714   0.52811   -1.000
 3452.00    0.49046   0.51392   -1.000
 3453.00    0.50000   0.50930   -1.000
 3454.00    0.53807   0.51696   -1.000
 3455.00    0.53268   0.52523   -1.000
 3456.00    0.51914   0.52175  515.512
 3457.00    0.52554   0.50619   -1.000
 3458.00    0.51908   0.48410   -1.000
 3459.00    0.49958   0.46650   -1.000
 3460.00    0.48959   0.45765   -1.000
 3461.00    0.48756   0.46035   63.876
 3462.00    0.50979   0.47661   63.892
 3463.00    0.52598   0.49936   -1.000
 3464.00    0.52348   0.51012   -1.000
 3465.00    0.52939   0.50850   -1.000
 3466.00    0.53219   0.50673   -1.000
 3467.00    0.53049   0.51227   -1.000
 3468.00    0.51908   0.52574  515.512
 3469.00    0.53550   0.53901  515.512
 3470.00    0.55555   0.54449   -1.000
 3471.00    0.55858   0.53694   -1.000
 3472.00    0.53022   0.51760   -1.000
 3473.00    0.51048   0.49078   -1.000
 3474.00    0.49109   0.46451   -1.000
 3475.00    0.46120   0.44668   -1.000
 3476.00    0.45066   0.44665   93.554
 3477.00    0.46741   0.46316   65.385
 3478.00    0.50051   0.48605   65.295
 3479.00    0.52620   0.50447   -1.000
 3480.00    0.52863   0.51333   -1.000
 3481.00    0.54118   0.51197   -1.000
 3482.00    0.54102   0.50238   -1.000
 3483.00    0.52224   0.49200   -1.000
 3484.00    0.51528   0.49156   -1.000
 3485.00    0.50458   0.50615  515.512
 3486.00    0.52749   0.52500  515.512
 3487.00    0.53904   0.53361   -1.000
 3488.00    0.54259   0.52271   -1.000
 3489.00    0.52596   0.49769   -1.000
 3490.00    0.50639   0.47429   -1.000
 3491.00    0.48649   0.46594   -1.000
 3492.00    0.47906   0.47376   -1.000
 3493.00    0.49193   0.48685   -1.000
 3494.00    0.51054   0.49460   -1.000
 3495.00    0.52034   0.49117   -1.000
 3496.00    0.51204   0.48365   -1.000
 3497.00    0.50029   0.48695   -1.000
 3498.00    0.48849   0.50816   -1.000
 3499.00    0.50648   0.53658   -1.000
 3500.00    0.55692   0.55397  515.512
 3501.00    0.58070   0.56157   -1.000
 3502.00    0.58749   0.56889   -1.000
 3503.00    0.59254   0.57347   -1.000
 3504.00    0.58309   0.56887   -1.000
 3505.00    0.58008   0.55707   -1.000
 3506.00    0.56431   0.54689   -1.000
 3507.00    0.56356   0.54312   -1.000
 3508.00    0.55897   0.54004   -1.000
 3509.00    0.55769   0.53051   -1.000
 3510.00    0.55731   0.51749   -1.000
 3511.00    0.54734   0.50400   -1.000
 3512.00    0.51952   0.49049   -1.000
 3513.00    0.49154   0.47938   -1.000
 3514.00    0.49313   0.47776   -1.000
 3515.00    0.50083   0.49410   -1.000
 3516.00    0.52149   0.52558  515.512
 3517.00    0.54588   0.55510   -1.000
 3518.00    0.56677   0.56825  515.512
 3519.00    0.54625   0.55979   -1.000
 3520.00    0.53695   0.53682  510.701
 3521.00    0.53843   0.50882   -1.000
 3522.00    0.51628   0.48482   -1.000
 3523.00    0.50297   0.46464   -1.000
 3524.00    0.47262   0.44772   -1.000
 3525.00    0.43755   0.44167   95.250
 3526.00    0.43648   0.45411   64.707
 3527.00    0.46984   0.48225   65.299
 3528.00    0.51036   0.51601  147.292
 3529.00    0.54735   0.54059   -1.000
 3530.00    0.55716   0.54826   -1.000
 3531.00    0.53535   0.54323   -1.000
 3532.00    0.53548   0.53952  515.512
 3533.00    0.55365   0.54478   -1.000
 3534.00    0.55077   0.55585  515.512
 3535.00    0.55589   0.56548   -1.000
 3536.00    0.56027   0.56924   -1.000
 3537.00    0.55468   0.57244   -1.000
 3538.00    0.58035   0.57969  508.021
 3539.00    0.59035   0.58447  505.646
 3540.00    0.58730   0.58103   -1.000
 3541.00    0.57595   0.57222  499.780
 3542.00    0.55929   0.56876   -1.000
 3543.00    0.54966   0.57597   -1.000
 3544.00    0.55873   0.58579   -1.000
 3545.00    0.58305   0.58932   -1.000
 3546.00    0.56290   0.58458   -1.000
 3547.00    0.54572   0.57848   -1.000
 3548.00    0.54122   0.57728   -1.000
 3549.00    0.55057   0.57907   -1.000
 3550.00    0.56481   0.57780   -1.000
 3551.00    0.54419   0.56891   -1.000
 3552.00    0.51544   0.55422   -1.000
 3553.00    0.49814   0.54049   -1.000
 3554.00    0.50855   0.53558   -1.000
 3555.00    0.52437   0.53980   -1.000
 3556.00    0.52165   0.54470   -1.000
 3557.00    0.50552   0.54493   -1.000
 3558.00    0.50046   0.54094   -1.000
 3559.00    0.51237   0.53959   -1.000
 3560.00    0.49812   0.54691   -1.000
 3561.00    0.49316   0.55923   -1.000
 3562.00    0.52128   0.56587   -1.000
 3563.00    0.51712   0.55261   -1.000
 3564.00    0.49704   0.51878   -1.000
 3565.00    0.47967   0.48090  515.512
 3566.00    0.45715   0.46147   98.004
 3567.00    0.45477   0.46038   65.514
 3568.00    0.46055   0.45919   66.074
 3569.00    0.44164   0.45013   65.540
 3570.00    0.41906   0.44060   66.764
 3571.00    0.44040   0.44215   68.418
 3572.00    0.45598   0.45752   67.552
 3573.00    0.48509   0.47521   64.851
 3574.00    0.50047   0.48844  139.613
 3575.00    0.49987   0.49635  515.512
 3576.00    0.49284   0.49650  515.512
 3577.00    0.47825   0.48600   -1.000
 3578.00    0.48316   0.46494   -1.000
 3579.00    0.46088   0.43574   -1.000
 3580.00    0.41349   0.40946  102.260
 3581.00    0.38857   0.39634   69.184
 3582.00    0.38844   0.39785   73.683
 3583.00    0.38899   0.40381   75.545
 3584.00    0.39155   0.40390   75.909
 3585.00    0.40043   0.39838   77.194
 3586.00    0.39077   0.39609   79.518
 3587.00    0.37765   0.40455   81.237
 3588.00    0.40874   0.42345   79.111
 3589.00    0.44179   0.45184   74.951
 3590.00    0.45844   0.48321   71.186
 3591.00    0.49597   0.50809   65.897
 3592.00    0.51877   0.51926  136.511
 3593.00    0.51228   0.52252   -1.000
 3594.00    0.51820   0.53002   -1.000
 3595.00    0.53212   0.54625   -1.000
 3596.00    0.54852   0.56649   -1.000
 3597.00    0.58394   0.58221  515.512
 3598.00    0.61027   0.59390   -1.000
 3599.00    0.60905   0.60331  487.646
 3600.00    0.61781   0.60268   -1.000
 3601.00    0.59958   0.58502   -1.000
 3602.00    0.58218   0.55617   -1.000
 3603.00    0.55402   0.52718   -1.000
 3604.00    0.52328   0.50809   -1.000
 3605.00    0.52441   0.50051   -1.000
 3606.00    0.52239   0.49628   -1.000
 3607.00    0.50947   0.48658   -1.000
 3608.00    0.48450   0.47230   -1.000
 3609.00    0.47291   0.46556   -1.000
 3610.00    0.47885   0.47502   -1.000
 3611.00    0.50525   0.49668   -1.000
 3612.00    0.53198   0.51627   -1.000
 3613.00    0.53422   0.53072  515.512
 3614.00    0.53332   0.54479   -1.000
 3615.00    0.53001   0.55443   -1.000
 3616.00    0.52895   0.54665   -1.000
 3617.00    0.52030   0.51617  515.512
 3618.00    0.48630   0.47725   -1.000
 3619.00    0.46158   0.46160  515.512
 3620.00    0.47944   0.47869   99.831
 3621.00    0.51592   0.51532  132.781
 3622.00    0.56090   0.55136   -1.000
 3623.00    0.58509   0.57702   -1.000
 3624.00    0.59106   0.59853   -1.000
 3625.00    0.60249   0.62542   -1.000
 3626.00    0.61781   0.65406   -1.000
 3627.00    0.63172   0.66946   -1.000
 3628.00    0.62069   0.65764   -1.000
 3629.00    0.59058   0.61621   -1.000
 3630.00    0.54803   0.55763   -1.000
 3631.00    0.51951   0.51210   -1.000
 3632.00    0.49530   0.49620  515.512
 3633.00    0.49061   0.50754   -1.000
 3634.00    0.51025   0.53053   -1.000
 3635.00    0.52457   0.55153   -1.000
 3636.00    0.53362   0.56704   -1.000
 3637.00    0.56049   0.58470   -1.000
 3638.00    0.59504   0.60846   -1.000
 3639.00    0.61190   0.62985   -1.000
 3640.00    0.62525   0.63956   -1.000
 3641.00    0.61878   0.63249   -1.000
 3642.00    0.58893   0.61205   -1.000
 3643.00    0.58017   0.58806   -1.000
 3644.00    0.55682   0.56604   -1.000
 3645.00    0.53187   0.54670   -1.000
 3646.00    0.53896   0.52901   -1.000
 3647.00    0.52565   0.51346   -1.000
 3648.00    0.51139   0.50863  515.512
 3649.00    0.52714   0.52051   -1.000
 3650.00    0.55607   0.54854   -1.000
 3651.00    0.57617   0.58403   -1.000
 3652.00    0.59127   0.61783   -1.000
 3653.00    0.61406   0.63932   -1.000
 3654.00    0.63930   0.64983   -1.000
 3655.00    0.64179   0.65817   -1.000
 3656.00    0.64848   0.67021   -1.000
 3657.00    0.66058   0.68627   -1.000
 3658.00    0.66915   0.69896   -1.000
 3659.00    0.67506   0.70431   -1.000
 3660.00    0.66789   0.70152   -1.000
 3661.00    0.67024   0.69028   -1.000
 3662.00    0.67114   0.67335   -1.000
 3663.00    0.64847   0.65956   -1.000
 3664.00    0.63153   0.65350   -1.000
 3665.00    0.64687   0.65364   -1.000
 3666.00    0.65377   0.65329  451.876
 3667.00    0.64136   0.64532   -1.000
 3668.00    0.62933   0.63126  455.349
 3669.00    0.61936   0.62127  462.396
 3670.00    0.60749   0.62694   -1.000
 3671.00    0.62316   0.64589   -1.000
 3672.00    0.65427   0.66421   -1.000
 3673.00    0.66513   0.67309   -1.000
 3674.00    0.67087   0.67173  444.957
 3675.00    0.66870   0.66124  444.302
 3676.00    0.63724   0.64173   -1.000
 3677.00    0.61745   0.61526  453.227
 3678.00    0.60769   0.58811   -1.000
 3679.00    0.57196   0.56981  481.814
 3680.00    0.55969   0.56897   -1.000
 3681.00    0.57562   0.58476   -1.000
 3682.00    0.60047   0.60432  491.264
 3683.00    0.61290   0.61499  477.492
 3684.00    0.60885   0.60859  469.087
 3685.00    0.58735   0.58521  473.833
 3686.00    0.56722   0.55584   -1.000
 3687.00    0.54485   0.54222  510.335
 3688.00    0.54726   0.55579   -1.000
 3689.00    0.57983   0.59231   -1.000
 3690.00    0.62562   0.63495   -1.000
 3691.00    0.66814   0.66470  460.423
 3692.00    0.66826   0.66995  439.517
 3693.00    0.64330   0.65726   -1.000
 3694.00    0.63742   0.64342   -1.000
 3695.00    0.63724   0.63678  453.227
 3696.00    0.65084   0.63999   -1.000
 3697.00    0.65520   0.65471  451.415
 3698.00    0.65809   0.67920   -1.000
 3699.00    0.68076   0.70195   -1.000
 3700.00    0.68937   0.71099   -1.000
 3701.00    0.67754   0.69856   -1.000
 3702.00    0.65982   0.66223  417.491
 3703.00    0.62667   0.60679   -1.000
 3704.00    0.57199   0.55173   -1.000
 3705.00    0.52971   0.51348   -1.000
 3706.00    0.52412   0.50102   -1.000
 3707.00    0.52628   0.50740   -1.000
 3708.00    0.52554   0.52106   -1.000
 3709.00    0.54330   0.54038  515.512
 3710.00    0.57510   0.56907   -1.000
 3711.00    0.61142   0.60463  501.093
 3712.00    0.64848   0.64293  478.331
 3713.00    0.67605   0.67664  453.389
 3714.00    0.69887   0.69499  429.880
 3715.00    0.70484   0.69386   -1.000
 3716.00    0.68018   0.67441  409.888
 3717.00    0.64352   0.63554  415.460
 3718.00    0.59767   0.57882   -1.000
 3719.00    0.53565   0.51427   -1.000
 3720.00    0.48399   0.45928   -1.000
 3721.00    0.47129   0.43767   -1.000
 3722.00    0.49695   0.45598   -1.000
 3723.00    0.53783   0.50248   -1.000
 3724.00    0.57483   0.55733   -1.000
 3725.00    0.60925   0.59622   -1.000
 3726.00    0.62316   0.60501   -1.000
 3727.00    0.61511   0.59702   -1.000
 3728.00    0.60500   0.59496   -1.000
 3729.00    0.61255   0.59859   -1.000
 3730.00    0.61704   0.59154   -1.000
 3731.00    0.58476   0.56057   -1.000
 3732.00    0.52944   0.50573   -1.000
 3733.00    0.47607   0.44714   -1.000
 3734.00    0.44497   0.40209   -1.000
 3735.00    0.43014   0.38342   -1.000
 3736.00    0.41951   0.39687   72.138
 3737.00    0.42198   0.43819   71.272
 3738.00    0.46248   0.49514   65.872
 3739.00    0.52853   0.55501  121.390
 3740.00    0.58090   0.59714   -1.000
 3741.00    0.60363   0.60766  484.848
 3742.00    0.59419   0.58824   -1.000
 3743.00    0.55460   0.55351  479.928
 3744.00    0.50671   0.51692   -1.000
 3745.00    0.48375   0.48847  515.512
 3746.00    0.47575   0.46501   -1.000
 3747.00    0.45006   0.43913   -1.000
 3748.00    0.42595   0.41561  108.965
 3749.00    0.41997   0.40875   66.151
 3750.00    0.45059   0.43246   68.520
 3751.00    0.52002   0.48433   -1.000
 3752.00    0.57942   0.54475   -1.000
 3753.00    0.62025   0.59975   -1.000
 3754.00    0.65595   0.64230   -1.000
 3755.00    0.66110   0.65568  438.528
 3756.00    0.62858   0.63062  423.492
 3757.00    0.57725   0.58067  432.546
 3758.00    0.52439   0.53613   -1.000
 3759.00    0.51880   0.52188  515.512
 3760.00    0.54915   0.53358   -1.000
 3761.00    0.57211   0.55136   -1.000
 3762.00    0.57835   0.56085   -1.000
 3763.00    0.56777   0.56202   -1.000
 3764.00    0.57394   0.56011   -1.000
 3765.00    0.58947   0.55491   -1.000
 3766.00    0.56917   0.54640   -1.000
 3767.00    0.55819   0.54057   -1.000
 3768.00    0.58118   0.54088   -1.000
 3769.00    0.59483   0.54483   -1.000
 3770.00    0.59542   0.55381   -1.000
 3771.00    0.61224   0.57304   -1.000
 3772.00    0.63821   0.60005   -1.000
 3773.00    0.66715   0.62571   -1.000
 3774.00    0.67753   0.64112   -1.000
 3775.00    0.66772   0.64854   -1.000
 3776.00    0.67214   0.65567   -1.000
 3777.00    0.66941   0.66607  436.290
 3778.00    0.67009   0.68077   -1.000
 3779.00    0.69405   0.69723  431.260
 3780.00    0.70731   0.71220  420.514
 3781.00    0.71315   0.72308   -1.000
 3782.00    0.72693   0.72858  402.799
 3783.00    0.73753   0.72679   -1.000
 3784.00    0.73012   0.71163   -1.000
 3785.00    0.68827   0.67952   -1.000
 3786.00    0.63893   0.63865  420.263
 3787.00    0.59975   0.60183  447.734
 3788.00    0.57789   0.57861  475.709
 3789.00    0.57477   0.57402  491.409
 3790.00    0.58216   0.58300  495.297
 3791.00    0.59667   0.59243   -1.000
 3792.00    0.59155   0.59071  483.398
 3793.00    0.58140   0.57338   -1.000
 3794.00    0.57107   0.54821   -1.000
 3795.00    0.54119   0.52227   -1.000
 3796.00    0.52004   0.49604   -1.000
 3797.00    0.51172   0.47059   -1.000
 3798.00    0.50206   0.45746   -1.000
 3799.00    0.52076   0.47265   -1.000
 3800.00    0.56232   0.51716   -1.000
 3801.00    0.58913   0.57130   -1.000
 3802.00    0.60267   0.61920   -1.000
 3803.00    0.61737   0.65105   -1.000
 3804.00    0.64036   0.66247   -1.000
 3805.00    0.64725   0.65476  445.310
 3806.00    0.61805   0.63867   -1.000
 3807.00    0.58983   0.63082   -1.000
 3808.00    0.58530   0.64071   -1.000
 3809.00    0.59864   0.66088   -1.000
 3810.00    0.61978   0.67403   -1.000
 3811.00    0.61384   0.66602   -1.000
 3812.00    0.59603   0.63410   -1.000
 3813.00    0.57954   0.59141   -1.000
 3814.00    0.53799   0.55308   -1.000
 3815.00    0.50407   0.53244   -1.000
 3816.00    0.50135   0.53222   -1.000
 3817.00    0.50845   0.53898   -1.000
 3818.00    0.51339   0.53345   -1.000
 3819.00    0.49685   0.51183   -1.000
 3820.00    0.46279   0.49243   -1.000
 3821.00    0.45890   0.49155   -1.000
 3822.00    0.47428   0.50380   -1.000
 3823.00    0.46975   0.50551   -1.000
 3824.00    0.44356   0.48568   -1.000
 3825.00    0.41659   0.46056   -1.000
 3826.00    0.40251   0.44661   -1.000
 3827.00    0.40260   0.44703   66.842
 3828.00    0.41134   0.45557   67.219
 3829.00    0.41098   0.46342   -1.000
 3830.00    0.41302   0.46200   65.262
 3831.00    0.40777   0.44742   65.162
 3832.00    0.40088   0.42332   67.103
 3833.00    0.38670   0.39976   71.374
 3834.00    0.38371   0.38679   75.340
 3835.00    0.41100   0.38648   75.619
 3836.00    0.42019   0.39398   73.250
 3837.00    0.40838   0.40201   70.974
 3838.00    0.39555   0.40869   71.008
 3839.00    0.39955   0.41989   72.673
 3840.00    0.40962   0.44313   72.848
 3841.00    0.43924   0.48128   69.988
 3842.00    0.49242   0.52491   -1.000
 3843.00    0.52576   0.56273   -1.000
 3844.00    0.53604   0.58692   -1.000
 3845.00    0.55163   0.59881   -1.000
 3846.00    0.56191   0.60475   -1.000
 3847.00    0.55470   0.60518   -1.000
 3848.00    0.54172   0.59657   -1.000
 3849.00    0.51770   0.58334   -1.000
 3850.00    0.50810   0.57744   -1.000
 3851.00    0.52677   0.58474   -1.000
 3852.00    0.53337   0.59494   -1.000
 3853.00    0.52870   0.59515   -1.000
 3854.00    0.52930   0.58314   -1.000
 3855.00    0.51747   0.56570   -1.000
 3856.00    0.50159   0.54826   -1.000
 3857.00    0.48126   0.53012   -1.000
 3858.00    0.45768   0.51065   -1.000
 3859.00    0.43610   0.50036   -1.000
 3860.00    0.43678   0.51115   -1.000
 3861.00    0.47791   0.54286   -1.000
 3862.00    0.52334   0.57792   -1.000
 3863.00    0.54788   0.59816   -1.000
 3864.00    0.56214   0.59959   -1.000
 3865.00    0.56655   0.59184   -1.000
 3866.00    0.55428   0.58610   -1.000
 3867.00    0.53227   0.58418   -1.000
 3868.00    0.52454   0.57976   -1.000
 3869.00    0.52115   0.56698   -1.000
 3870.00    0.49874   0.54588   -1.000
 3871.00    0.47422   0.52861   -1.000
 3872.00    0.46841   0.52910   -1.000
 3873.00    0.50135   0.55203   -1.000
 3874.00    0.55568   0.58545   -1.000
 3875.00    0.58324   0.60817   -1.000
 3876.00    0.56944   0.60330   -1.000
 3877.00    0.54044   0.57759   -1.000
 3878.00    0.52033   0.55516   -1.000
 3879.00    0.51316   0.54833   -1.000
 3880.00    0.50962   0.55119   -1.000
 3881.00    0.50077   0.55399   -1.000
 3882.00    0.50578   0.55736   -1.000
 3883.00    0.54245   0.56465   -1.000
 3884.00    0.57055   0.56433   -1.000
 3885.00    0.55820   0.54260   -1.000
 3886.00    0.53274   0.50691   -1.000
 3887.00    0.53336   0.47660   -1.000
 3888.00    0.55084   0.46913   -1.000
 3889.00    0.56843   0.49185   -1.000
 3890.00    0.60071   0.53898   -1.000
 3891.00    0.65662   0.59359   -1.000
 3892.00    0.69518   0.63732   -1.000
 3893.00    0.69842   0.65755   -1.000
 3894.00    0.69413   0.65929   -1.000
 3895.00    0.68599   0.65828   -1.000
 3896.00    0.69410   0.66258   -1.000
 3897.00    0.71694   0.66865   -1.000
 3898.00    0.71143   0.66879   -1.000
 3899.00    0.68861   0.66506   -1.000
 3900.00    0.68837   0.66627   -1.000
 3901.00    0.69521   0.67081   -1.000
 3902.00    0.69379   0.66927   -1.000
 3903.00    0.68953   0.65816   -1.000
 3904.00    0.67033   0.64238   -1.000
 3905.00    0.64143   0.63389   -1.000
 3906.00    0.63431   0.64241   -1.000
 3907.00    0.67553   0.66984   -1.000
 3908.00    0.72726   0.70585   -1.000
 3909.00    0.74869   0.73628   -1.000
 3910.00    0.75298   0.75400  395.854
 3911.00    0.76573   0.76219  389.544
 3912.00    0.76793   0.76369  386.007
 3913.00    0.75218   0.75885   -1.000
 3914.00    0.74758   0.74964  384.054
 3915.00    0.74704   0.73888  390.376
 3916.00    0.74304   0.72717   -1.000
 3917.00    0.73834   0.71298   -1.000
 3918.00    0.72770   0.69241   -1.000
 3919.00    0.69842   0.66466   -1.000
 3920.00    0.66835   0.63822   -1.000
 3921.00    0.63554   0.62208   -1.000
 3922.00    0.61410   0.62036  471.870
 3923.00    0.62578   0.62686  474.587
 3924.00    0.63770   0.62915   -1.000
 3925.00    0.61724   0.61738  465.109
 3926.00    0.58823   0.58766  478.236
 3927.00    0.54928   0.54695   -1.000
 3928.00    0.48437   0.50274   -1.000
 3929.00    0.42452   0.46106   -1.000
 3930.00    0.36868   0.42341   -1.000
 3931.00    0.32484   0.38635   -1.000
 3932.00    0.28659   0.35119   -1.000
 3933.00    0.25394   0.32605   -1.000
 3934.00    0.24472   0.32527   -1.000
 3935.00    0.26596   0.35265   -1.000
 3936.00    0.31170   0.39694   -1.000
 3937.00    0.37982   0.44571   -1.000
 3938.00    0.44943   0.49483   -1.000
 3939.00    0.49308   0.53790   -1.000
 3940.00    0.52500   0.56963   -1.000
 3941.00    0.54296   0.58635   -1.000
 3942.00    0.55566   0.58930   -1.000
 3943.00    0.57324   0.58914   -1.000
 3944.00    0.57527   0.60017   -1.000
 3945.00    0.59853   0.62562   -1.000
 3946.00    0.64364   0.65418   -1.000
 3947.00    0.67937   0.67563  449.384
 3948.00    0.69551   0.69142  433.534
 3949.00    0.72570   0.70823   -1.000
 3950.00    0.75934   0.72451   -1.000
 3951.00    0.75779   0.73121   -1.000
 3952.00    0.75123   0.73223   -1.000
 3953.00    0.74721   0.73758   -1.000
 3954.00    0.76026   0.74455   -1.000
 3955.00    0.76235   0.74379   -1.000
 3956.00    0.74901   0.73382   -1.000
 3957.00    0.74213   0.72398   -1.000
 3958.00    0.73557   0.71776   -1.000
 3959.00    0.72216   0.69975   -1.000
 3960.00    0.67162   0.65664   -1.000
 3961.00    0.59226   0.60156   -1.000
 3962.00    0.53204   0.55293   -1.000
 3963.00    0.49994   0.51982   -1.000
 3964.00    0.47981   0.49233   -1.000
 3965.00    0.44283   0.45360  128.317
 3966.00    0.39056   0.40190   70.636
 3967.00    0.33652   0.34665   84.692
 3968.00    0.28774   0.30712  104.202
 3969.00    0.28316   0.29898  122.077
 3970.00    0.33261   0.32392  124.459
 3971.00    0.38579   0.37231  108.840
 3972.00    0.43240   0.43327   89.488
 3973.00    0.50143   0.49572   74.192
 3974.00    0.57098   0.55627  112.287
 3975.00    0.63427   0.61284   -1.000
 3976.00    0.69433   0.66360   -1.000
 3977.00    0.73615   0.71071   -1.000
 3978.00    0.79102   0.75347   -1.000
 3979.00    0.83082   0.78975   -1.000
 3980.00    0.83896   0.81082   -1.000
 3981.00    0.84734   0.81370   -1.000
 3982.00    0.84505   0.80675   -1.000
 3983.00    0.82681   0.80344   -1.000
 3984.00    0.82698   0.81100   -1.000
 3985.00    0.84510   0.82621   -1.000
 3986.00    0.86284   0.84467   -1.000
 3987.00    0.87783   0.86302   -1.000
 3988.00    0.89144   0.87599   -1.000
 3989.00    0.90683   0.88090   -1.000
 3990.00    0.91628   0.88333   -1.000
 3991.00    0.92340   0.89072   -1.000
 3992.00    0.93676   0.90254   -1.000
 3993.00    0.94948   0.90978   -1.000
 3994.00    0.95390   0.90484   -1.000
 3995.00    0.93270   0.88943   -1.000
 3996.00    0.89356   0.87235   -1.000
 3997.00    0.87787   0.86715  339.663
 3998.00    0.89605   0.88145   -1.000
 3999.00    0.93873   0.90983   -1.000
 4000.00    0.98854   0.93799   -1.000
 4001.00    1.00448   0.95666   -1.000
 4002.00    1.00351   0.95928   -1.000
 4003.00    0.99837   0.93878   -1.000
 4004.00    0.95042   0.89799   -1.000
 4005.00    0.89248   0.86062   -1.000
 4006.00    0.88848   0.85321   -1.000
 4007.00    0.92871   0.87940   -1.000
 4008.00    0.96167   0.91907   -1.000
 4009.00    0.98065   0.94872   -1.000
 4010.00    0.99317   0.96323   -1.000
 4011.00    0.99527   0.96947   -1.000
 4012.00    0.99110   0.97354   -1.000
 4013.00    0.97680   0.97932  303.504
 4014.00    0.99830   0.98689  305.513
 4015.00    1.05449   0.99133   -1.000
 4016.00    1.04370   0.99018   -1.000
 4017.00    1.00178   0.98956  300.828
 4018.00    0.98889   0.99595   -1.000
 4019.00    1.00567   1.00608  305.522
 4020.00    1.03141   1.01154   -1.000
 4021.00    1.03460   1.00735   -1.000
 4022.00    1.00699   0.99629  302.590
 4023.00    0.99782   0.98317  305.933
 4024.00    1.00000   0.97352   -1.000
 4025.00    1.00274   0.97548   -1.000
 4026.00    1.03243   0.99303   -1.000
 4027.00    1.06674   1.01458   -1.000
 4028.00    1.06769   1.01658   -1.000
 4029.00    1.02801   0.98428   -1.000
 4030.00    0.97320   0.92693   -1.000
 4031.00    0.92505   0.87369   -1.000
 4032.00    0.89415   0.84351   -1.000
 4033.00    0.88093   0.84061   -1.000
 4034.00    0.89142   0.86530   -1.000
 4035.00    0.94881   0.91471   -1.000
 4036.00    1.01971   0.97467   -1.000
 4037.00    1.07502   1.02648   -1.000
 4038.00    1.09384   1.05122   -1.000
 4039.00    1.07232   1.04662   -1.000
 4040.00    1.05118   1.03048   -1.000
 4041.00    1.03744   1.01686   -1.000
 4042.00    1.02518   0.99425   -1.000
 4043.00    0.99044   0.94309   -1.000
 4044.00    0.90598   0.86760   -1.000
 4045.00    0.81713   0.80524  326.953
 4046.00    0.80552   0.80202  356.658
 4047.00    0.89222   0.86083   -1.000
 4048.00    0.99354   0.93805   -1.000
 4049.00    1.04964   0.99780   -1.000
 4050.00    1.07365   1.02736   -1.000
 4051.00    1.07713   1.03009   -1.000
 4052.00    1.05791   1.01486   -1.000
 4053.00    1.01768   0.99162   -1.000
 4054.00    0.98363   0.96919   -1.000
 4055.00    0.97397   0.95063   -1.000
 4056.00    0.97618   0.93419   -1.000
 4057.00    0.94763   0.92326   -1.000
 4058.00    0.93614   0.92858  318.777
 4059.00    0.98204   0.94927   -1.000
 4060.00    1.03445   0.96211   -1.000
 4061.00    1.03053   0.94199   -1.000
 4062.00    0.96469   0.89207   -1.000
 4063.00    0.89534   0.84696   -1.000
 4064.00    0.87631   0.83267   -1.000
 4065.00    0.90192   0.84870   -1.000
 4066.00    0.94097   0.88164   -1.000
 4067.00    0.97664   0.91696   -1.000
 4068.00    1.01686   0.94390   -1.000
 4069.00    1.03729   0.95052   -1.000
 4070.00    1.00409   0.92922   -1.000
 4071.00    0.95109   0.89811   -1.000
 4072.00    0.93737   0.88988   -1.000
 4073.00    0.97665   0.90894   -1.000
 4074.00    1.01869   0.92624   -1.000
 4075.00    1.00159   0.91168   -1.000
 4076.00    0.93254   0.87210   -1.000
 4077.00    0.87267   0.84586   -1.000
 4078.00    0.88701   0.86081   -1.000
 4079.00    0.94935   0.91443   -1.000
 4080.00    1.01748   0.97601   -1.000
 4081.00    1.06149   1.01538   -1.000
 4082.00    1.06390   1.01949   -1.000
 4083.00    1.03364   0.99963   -1.000
 4084.00    1.00951   0.98141   -1.000
 4085.00    1.01814   0.98475   -1.000
 4086.00    1.06041   1.01225   -1.000
 4087.00    1.09209   1.04904   -1.000
 4088.00    1.13070   1.07801   -1.000
 4089.00    1.15846   1.08593   -1.000
 4090.00    1.14972   1.07269   -1.000
 4091.00    1.11395   1.05183   -1.000
 4092.00    1.09336   1.03651   -1.000
 4093.00    1.08456   1.02308   -1.000
 4094.00    1.07240   1.00051   -1.000
 4095.00    1.03710   0.96616   -1.000
 4096.00    0.98634   0.92930   -1.000
 4097.00    0.96131   0.90006   -1.000
 4098.00    0.95136   0.87233   -1.000
 4099.00    0.92024   0.83300   -1.000
 4100.00    0.85511   0.78294   -1.000
 4101.00    0.81456   0.74451   -1.000
 4102.00    0.82623   0.74449   -1.000
 4103.00    0.87579   0.78904   -1.000
 4104.00    0.93991   0.85574   -1.000
 4105.00    1.00230   0.91897   -1.000
 4106.00    1.03560   0.96288   -1.000
 4107.00    1.04878   0.98403   -1.000
 4108.00    1.04516   0.98690   -1.000
 4109.00    1.01913   0.97847   -1.000
 4110.00    0.98199   0.96903  312.974
 4111.00    0.98332   0.96892   -1.000
 4112.00    1.01111   0.98137   -1.000
 4113.00    1.03497   1.00299   -1.000
 4114.00    1.05493   1.02632   -1.000
 4115.00    1.06383   1.04215   -1.000
 4116.00    1.06356   1.04174   -1.000
 4117.00    1.06352   1.02399   -1.000
 4118.00    1.03149   0.99957   -1.000
 4119.00    0.99887   0.98369   -1.000
 4120.00    1.00358   0.98264   -1.000
 4121.00    1.01714   0.98931   -1.000
 4122.00    1.01665   0.99569   -1.000
 4123.00    1.01096   1.00242  311.825
 4124.00    1.02962   1.01228   -1.000
 4125.00    1.04565   1.01984   -1.000
 4126.00    1.04967   1.01642   -1.000
 4127.00    1.03525   1.00233   -1.000
 4128.00    1.00969   0.98629   -1.000
 4129.00    0.99637   0.97142   -1.000
 4130.00    0.97766   0.95176   -1.000
 4131.00    0.95068   0.92565   -1.000
 4132.00    0.93809   0.90296   -1.000
 4133.00    0.92334   0.90256   -1.000
 4134.00    0.94583   0.93175   -1.000
 4135.00    0.99034   0.97635   -1.000
 4136.00    1.03509   1.01768   -1.000
 4137.00    1.06661   1.04638   -1.000
 4138.00    1.07704   1.06183   -1.000
 4139.00    1.07161   1.06529  297.448
 4140.00    1.06222   1.04925   -1.000
 4141.00    1.02104   1.00439   -1.000
 4142.00    0.94494   0.94137  305.927
 4143.00    0.87770   0.89480   -1.000
 4144.00    0.88404   0.89132  350.089
 4145.00    0.93793   0.92666   -1.000
 4146.00    0.99022   0.97159   -1.000
 4147.00    1.02513   0.99679   -1.000
 4148.00    1.01949   0.99686   -1.000
 4149.00    0.99404   0.98512  313.174
 4150.00    0.96732   0.97560  320.482
 4151.00    0.96091   0.97111  327.603
 4152.00    0.96706   0.96682  328.992
 4153.00    0.96105   0.95959  326.643
 4154.00    0.94552   0.95125  326.719
 4155.00    0.95665   0.94835   -1.000
 4156.00    0.97508   0.95716   -1.000
 4157.00    0.98358   0.97768  324.396
 4158.00    1.12179   1.00592   -1.000
 4159.00    1.34715   1.03418   -1.000
 4160.00    1.09780   1.05461   -1.000
 4161.00    0.72107   1.06869   -1.000
 4162.00    0.96043   1.07877   -1.000
 4163.00    1.13029   1.08201   -1.000
 4164.00    1.07274   1.07411  301.492
 4165.00    1.03506   1.05458   -1.000
 4166.00    1.00467   1.03054   -1.000
 4167.00    0.98021   1.01613   -1.000
 4168.00    0.97583   1.01628   -1.000
 4169.00    0.99706   1.01995   -1.000
 4170.00    1.00645   1.00781  319.536
 4171.00    0.97263   0.97296  317.319
 4172.00    0.92030   0.93435   -1.000
 4173.00    0.90125   0.91534   -1.000
 4174.00    0.90538   0.92296   -1.000
 4175.00    0.92535   0.94391   -1.000
 4176.00    0.94745   0.96001   -1.000
 4177.00    0.95444   0.96812   -1.000
 4178.00    0.95571   0.97659   -1.000
 4179.00    0.96956   0.98652   -1.000
 4180.00    0.97784   0.99124   -1.000
 4181.00    0.98871   0.98918  328.496
 4182.00    0.98836   0.99177  326.702
 4183.00    1.00499   1.00908  325.590
 4184.00    1.03057   1.02943  320.795
 4185.00    1.02770   1.03322  314.556
 4186.00    1.01121   1.01599  311.313
 4187.00    0.98280   0.99544   -1.000
 4188.00    0.97042   0.99263   -1.000
 4189.00    0.99039   1.00757   -1.000
 4190.00    1.00988   1.02632   -1.000
 4191.00    1.02734   1.04118   -1.000
 4192.00    1.04593   1.05364  317.567
 4193.00    1.06366   1.05931  312.229
 4194.00    1.05352   1.04507  306.378
 4195.00    1.01312   1.00742  307.254
 4196.00    0.96979   0.96347  319.321
 4197.00    0.93371   0.93022  334.096
 4198.00    0.92202   0.91400   -1.000
 4199.00    0.93101   0.91220   -1.000
 4200.00    0.94054   0.91870   -1.000
 4201.00    0.95248   0.92819   -1.000
 4202.00    0.96925   0.94267   -1.000
 4203.00    0.99231   0.96741   -1.000
 4204.00    1.00928   1.00157  332.710
 4205.00    1.02907   1.03763  328.453
 4206.00    1.06278   1.06751  324.638
 4207.00    1.09835   1.08720   -1.000
 4208.00    1.09586   1.09344  310.158
 4209.00    1.09204   1.08949  305.866
 4210.00    1.07860   1.08579  305.526
 4211.00    1.07859   1.08759   -1.000
 4212.00    1.08291   1.08565  304.881
 4213.00    1.04955   1.06434   -1.000
 4214.00    1.00772   1.02588   -1.000
 4215.00    0.97841   0.99807   -1.000
 4216.00    0.99547   1.00956   -1.000
 4217.00    1.05839   1.06048  334.986
 4218.00    1.12417   1.11908  319.153
 4219.00    1.17859   1.15956   -1.000
 4220.00    1.19420   1.17131   -1.000
 4221.00    1.18469   1.15238   -1.000
 4222.00    1.14322   1.10388   -1.000
 4223.00    1.07771   1.02650   -1.000
 4224.00    0.98437   0.92558   -1.000
 4225.00    0.86659   0.82944   -1.000
 4226.00    0.77336   0.77621  365.654
 4227.00    0.78208   0.79465   -1.000
 4228.00    0.88743   0.88106   -1.000
 4229.00    1.01789   0.99321   -1.000
 4230.00    1.10156   1.07405   -1.000
 4231.00    1.13459   1.10297   -1.000
 4232.00    1.12507   1.09199   -1.000
 4233.00    1.09413   1.06246   -1.000
 4234.00    1.05780   1.03403   -1.000
 4235.00    1.03961   1.01819   -1.000
 4236.00    1.03813   1.01530   -1.000
 4237.00    1.04213   1.02359   -1.000
 4238.00    1.05279   1.04264  322.970
 4239.00    1.06976   1.06820  318.386
 4240.00    1.09636   1.09519  311.840
 4241.00    1.12206   1.12182  306.924
 4242.00    1.14179   1.14732   -1.000
 4243.00    1.16543   1.17383   -1.000
 4244.00    1.18227   1.19604   -1.000
 4245.00    1.18231   1.19696   -1.000
 4246.00    1.15120   1.16768   -1.000
 4247.00    1.10880   1.11843   -1.000
 4248.00    1.06883   1.06690  307.591
 4249.00    1.03158   1.03133  317.848
 4250.00    1.02698   1.02061  323.957
 4251.00    1.04552   1.03114   -1.000
 4252.00    1.07017   1.04462   -1.000
 4253.00    1.07517   1.04391   -1.000
 4254.00    1.05821   1.03642   -1.000
 4255.00    1.05622   1.04632  311.700
 4256.00    1.09554   1.07648   -1.000
 4257.00    1.12795   1.09413   -1.000
 4258.00    1.10576   1.07233   -1.000
 4259.00    1.04304   1.02648   -1.000
 4260.00    0.99671   0.99859  316.139
 4261.00    1.00455   1.01992   -1.000
 4262.00    1.06684   1.08529   -1.000
 4263.00    1.15705   1.16162  315.164
 4264.00    1.20664   1.21278   -1.000
 4265.00    1.21556   1.22858   -1.000
 4266.00    1.20978   1.21640   -1.000
 4267.00    1.18176   1.18090  282.609
 4268.00    1.13410   1.12453  289.101
 4269.00    1.07881   1.05373   -1.000
 4270.00    1.00972   0.97771   -1.000
 4271.00    0.92723   0.91796  323.413
 4272.00    0.89082   0.89203  344.709
 4273.00    0.91529   0.90116   -1.000
 4274.00    0.95282   0.93712   -1.000
 4275.00    0.99257   0.99354  349.958
 4276.00    1.05843   1.06159  338.637
 4277.00    1.13662   1.12321   -1.000
 4278.00    1.17050   1.15343   -1.000
 4279.00    1.14218   1.14620  292.731
 4280.00    1.09195   1.12203   -1.000
 4281.00    1.08034   1.10717   -1.000
 4282.00    1.09434   1.10770   -1.000
 4283.00    1.09837   1.11042   -1.000
 4284.00    1.07647   1.10416   -1.000
 4285.00    1.05070   1.08933   -1.000
 4286.00    1.05130   1.07122   -1.000
 4287.00    1.04108   1.04633  326.929
 4288.00    0.99714   1.00865   -1.000
 4289.00    0.94731   0.96667   -1.000
 4290.00    0.93112   0.94670   -1.000
 4291.00    0.95830   0.96725   -1.000
 4292.00    1.01653   1.01199  361.505
 4293.00    1.05986   1.04442   -1.000
 4294.00    1.06311   1.04950   -1.000
 4295.00    1.05601   1.03553   -1.000
 4296.00    1.02965   1.00881   -1.000
 4297.00    0.97756   0.96505   -1.000
 4298.00    0.91366   0.90665  342.794
 4299.00    0.85010   0.85043  364.647
 4300.00    0.81097   0.81936  395.495
 4301.00    0.81887   0.81959  416.541
 4302.00    0.84064   0.83650  414.745
 4303.00    0.85446   0.85305  403.861
 4304.00    0.87179   0.86143   -1.000
 4305.00    0.86359   0.85444   -1.000
 4306.00    0.83587   0.82647   -1.000
 4307.00    0.79097   0.78965  395.656
 4308.00    0.76067   0.76976  412.439
 4309.00    0.77611   0.78444  431.127
 4310.00    0.83237   0.83080  434.795
 4311.00    0.89377   0.89374  420.252
 4312.00    0.93428   0.95832   -1.000
 4313.00    0.99153   1.02509   -1.000
 4314.00    1.07231   1.10424   -1.000
 4315.00    1.15724   1.19460   -1.000
 4316.00    1.25904   1.28342   -1.000
 4317.00    1.33526   1.34325   -1.000
 4318.00    1.34162   1.35787   -1.000
 4319.00    1.31842   1.33824   -1.000
 4320.00    1.29328   1.30200   -1.000
 4321.00    1.24742   1.25183  271.083
 4322.00    1.18747   1.18151  278.320
 4323.00    1.10567   1.08854   -1.000
 4324.00    1.00970   0.99708  306.072
 4325.00    0.94220   0.95464   -1.000
 4326.00    0.96512   0.99117   -1.000
 4327.00    1.07673   1.09061   -1.000
 4328.00    1.20667   1.20231  326.676
 4329.00    1.27171   1.27439  295.355
 4330.00    1.28325   1.29816   -1.000
 4331.00    1.27029   1.30133   -1.000
 4332.00    1.27359   1.30944   -1.000
 4333.00    1.30398   1.32453   -1.000
 4334.00    1.30879   1.32962   -1.000
 4335.00    1.29757   1.30328  268.598
 4336.00    1.25998   1.23240   -1.000
 4337.00    1.17073   1.12466   -1.000
 4338.00    1.06521   1.01019   -1.000
 4339.00    0.97613   0.93349   -1.000
 4340.00    0.94420   0.91909   -1.000
 4341.00    0.98395   0.96363   -1.000
 4342.00    1.08051   1.04456   -1.000
 4343.00    1.17034   1.12886   -1.000
 4344.00    1.20743   1.19209   -1.000
 4345.00    1.23192   1.23685  299.071
 4346.00    1.26235   1.27385   -1.000
 4347.00    1.28361   1.30680   -1.000
 4348.00    1.29812   1.32909   -1.000
 4349.00    1.31196   1.31987   -1.000
 4350.00    1.26513   1.26678  273.121
 4351.00    1.17877   1.19531   -1.000
 4352.00    1.12017   1.15201   -1.000
 4353.00    1.13927   1.16171   -1.000
 4354.00    1.20166   1.20859  311.229
 4355.00    1.25483   1.26077  297.337
 4356.00    1.29048   1.29470  285.214
 4357.00    1.30544   1.30394  277.544
 4358.00    1.28943   1.29635   -1.000
 4359.00    1.26837   1.29062   -1.000
 4360.00    1.27091   1.30360   -1.000
 4361.00    1.31042   1.33333   -1.000
 4362.00    1.34768   1.36543   -1.000
 4363.00    1.36504   1.38976   -1.000
 4364.00    1.38608   1.40478   -1.000
 4365.00    1.39191   1.40375   -1.000
 4366.00    1.35806   1.37655   -1.000
 4367.00    1.30717   1.33208   -1.000
 4368.00    1.28017   1.29633   -1.000
 4369.00    1.27827   1.28212  281.837
 4370.00    1.28385   1.28052  282.738
 4371.00    1.28906   1.27323   -1.000
 4372.00    1.27210   1.24764   -1.000
 4373.00    1.23112   1.20596   -1.000
 4374.00    1.17900   1.16579  285.203
 4375.00    1.15545   1.15445  297.250
 4376.00    1.19601   1.18567  305.408
 4377.00    1.25322   1.24014   -1.000
 4378.00    1.29549   1.27894   -1.000
 4379.00    1.29902   1.27878   -1.000
 4380.00    1.28420   1.23416   -1.000
 4381.00    1.22528   1.14532   -1.000
 4382.00    1.10288   1.03071   -1.000
 4383.00    0.96336   0.93682   -1.000
 4384.00    0.91999   0.91057   -1.000
 4385.00    1.00360   0.96355   -1.000
 4386.00    1.11954   1.05721   -1.000
 4387.00    1.18533   1.13300   -1.000
 4388.00    1.19861   1.16462   -1.000
 4389.00    1.20446   1.16764   -1.000
 4390.00    1.20208   1.16865   -1.000
 4391.00    1.20172   1.18042   -1.000
 4392.00    1.23399   1.19791   -1.000
 4393.00    1.25668   1.20943   -1.000
 4394.00    1.24434   1.21639   -1.000
 4395.00    1.24782   1.23567   -1.000
 4396.00    1.29271   1.27470   -1.000
 4397.00    1.32379   1.31094   -1.000
 4398.00    1.32582   1.31442  273.824
 4399.00    1.30314   1.28566   -1.000
 4400.00    1.26765   1.25322   -1.000
 4401.00    1.24166   1.23261  285.873
 4402.00    1.24943   1.20985   -1.000
 4403.00    1.21620   1.16365   -1.000
 4404.00    1.14247   1.10520   -1.000
 4405.00    1.09816   1.07443   -1.000
 4406.00    1.12714   1.08938   -1.000
 4407.00    1.16512   1.13165   -1.000
 4408.00    1.19198   1.18294   -1.000
 4409.00    1.23955   1.24133  296.502
 4410.00    1.30746   1.30762  291.232
 4411.00    1.37520   1.36202   -1.000
 4412.00    1.39733   1.37161   -1.000
 4413.00    1.36111   1.32950   -1.000
 4414.00    1.28379   1.26367   -1.000
 4415.00    1.21317   1.21424  270.892
 4416.00    1.19779   1.21301   -1.000
 4417.00    1.25071   1.26205   -1.000
 4418.00    1.32392   1.33162  286.857
 4419.00    1.36899   1.38180   -1.000
 4420.00    1.38928   1.39059  265.400
 4421.00    1.35635   1.36300  260.756
 4422.00    1.29307   1.32515   -1.000
 4423.00    1.26858   1.30415   -1.000
 4424.00    1.29273   1.30715   -1.000
 4425.00    1.30643   1.32052   -1.000
 4426.00    1.28941   1.33125   -1.000
 4427.00    1.29531   1.33909   -1.000
 4428.00    1.30266   1.34324   -1.000
 4429.00    1.29581   1.33902   -1.000
 4430.00    1.28325   1.32871   -1.000
 4431.00    1.28140   1.32052   -1.000
 4432.00    1.30192   1.31348  273.219
 4433.00    1.28761   1.29256  270.099
 4434.00    1.22971   1.25853   -1.000
 4435.00    1.20124   1.24300   -1.000
 4436.00    1.23262   1.27391   -1.000
 4437.00    1.30160   1.34401   -1.000
 4438.00    1.38209   1.41041   -1.000
 4439.00    1.42794   1.43387  261.269
 4440.00    1.38877   1.40571   -1.000
 4441.00    1.31730   1.34896   -1.000
 4442.00    1.27114   1.30265   -1.000
 4443.00    1.27131   1.29913   -1.000
 4444.00    1.30757   1.34308   -1.000
 4445.00    1.38444   1.40451   -1.000
 4446.00    1.43163   1.44928   -1.000
 4447.00    1.43221   1.46650   -1.000
 4448.00    1.44120   1.46620   -1.000
 4449.00    1.43013   1.46030   -1.000
 4450.00    1.39936   1.45084   -1.000
 4451.00    1.40085   1.43475   -1.000
 4452.00    1.40408   1.40624  264.927
 4453.00    1.36115   1.35983  263.746
 4454.00    1.30111   1.30251  267.958
 4455.00    1.23549   1.26008   -1.000
 4456.00    1.22365   1.24807   -1.000
 4457.00    1.25678   1.25501  292.590
 4458.00    1.26724   1.26006  287.024
 4459.00    1.26511   1.25428   -1.000
 4460.00    1.25310   1.24627   -1.000
 4461.00    1.24773   1.25112  286.172
 4462.00    1.26378   1.27838  289.138
 4463.00    1.31768   1.32241  289.341
 4464.00    1.37729   1.36370   -1.000
 4465.00    1.38818   1.38585  271.436
 4466.00    1.38009   1.38733  266.941
 4467.00    1.37945   1.37692  267.010
 4468.00    1.37529   1.36445   -1.000
 4469.00    1.34932   1.35930  271.803
 4470.00    1.35415   1.37261   -1.000
 4471.00    1.38981   1.40851   -1.000
 4472.00    1.43001   1.45426   -1.000
 4473.00    1.46932   1.49442   -1.000
 4474.00    1.49728   1.52199   -1.000
 4475.00    1.51724   1.54115   -1.000
 4476.00    1.54896   1.55938   -1.000
 4477.00    1.57727   1.56789  246.293
 4478.00    1.56075   1.54603   -1.000
 4479.00    1.49230   1.48817  243.784
 4480.00    1.41382   1.41826  247.995
 4481.00    1.35279   1.37713   -1.000
 4482.00    1.35194   1.39042   -1.000
 4483.00    1.42062   1.45007   -1.000
 4484.00    1.49602   1.52170   -1.000
 4485.00    1.55568   1.57252   -1.000
 4486.00    1.56843   1.58289   -1.000
 4487.00    1.54914   1.54966  243.930
 4488.00    1.48178   1.49122  245.955
 4489.00    1.42361   1.44464   -1.000
 4490.00    1.42434   1.43587  261.803
 4491.00    1.46298   1.45708  265.225
 4492.00    1.49597   1.47654   -1.000
 4493.00    1.47675   1.46782  254.302
 4494.00    1.42536   1.43819  252.475
 4495.00    1.39500   1.41757   -1.000
 4496.00    1.39877   1.42909   -1.000
 4497.00    1.42691   1.46899   -1.000
 4498.00    1.48150   1.51187   -1.000
 4499.00    1.52310   1.53616   -1.000
 4500.00    1.52666   1.53992   -1.000
 4501.00    1.49930   1.54093   -1.000
 4502.00    1.51046   1.55832   -1.000
 4503.00    1.57827   1.59396   -1.000
 4504.00    1.62443   1.63439  242.312
 4505.00    1.62428   1.65908   -1.000
 4506.00    1.61313   1.65675   -1.000
 4507.00    1.60412   1.63820   -1.000
 4508.00    1.60614   1.62323   -1.000
 4509.00    1.62284   1.62104  241.180
 4510.00    1.62019   1.62520  240.733
 4511.00    1.60234   1.62139   -1.000
 4512.00    1.57785   1.60153   -1.000
 4513.00    1.54740   1.57161   -1.000
 4514.00    1.52949   1.54488   -1.000
 4515.00    1.52641   1.53072  249.474
 4516.00    1.53167   1.52892  250.159
 4517.00    1.52345   1.53235  249.049
 4518.00    1.51099   1.53820   -1.000
 4519.00    1.53615   1.55137   -1.000
 4520.00    1.57742   1.57133  252.474
 4521.00    1.59168   1.58580  247.707
 4522.00    1.56650   1.58138   -1.000
 4523.00    1.53649   1.55678   -1.000
 4524.00    1.49868   1.52128   -1.000
 4525.00    1.47260   1.48010  256.751
 4526.00    1.42263   1.43118  259.320
 4527.00    1.36592   1.37878  264.696
 4528.00    1.33614   1.33757  272.864
 4529.00    1.33186   1.32170   -1.000
 4530.00    1.36359   1.33470   -1.000
 4531.00    1.39885   1.36441   -1.000
 4532.00    1.41072   1.38980   -1.000
 4533.00    1.38869   1.39716  268.980
 4534.00    1.34772   1.39234   -1.000
 4535.00    1.34250   1.39797   -1.000
 4536.00    1.39641   1.43313   -1.000
 4537.00    1.49577   1.49201  277.124
 4538.00    1.57647   1.54480   -1.000
 4539.00    1.58073   1.56439   -1.000
 4540.00    1.54975   1.55099  243.245
 4541.00    1.52632   1.52914  246.901
 4542.00    1.53210   1.52120   -1.000
 4543.00    1.53929   1.52638   -1.000
 4544.00    1.52836   1.53004  248.877
 4545.00    1.49976   1.52421   -1.000
 4546.00    1.49825   1.51339  241.610
 4547.00    1.16691   1.50298   -1.000
 4548.00    0.18656   1.49082   -1.000
 4549.00    0.00275   1.47804   -1.000
 4550.00    0.35319   1.47466   -1.000
 4551.00    1.09430   1.48485   -1.000
 4552.00    0.58462   1.49533   -1.000
 4553.00    1.23137   1.49156   -1.000
 4554.00    1.52588   1.47932   -1.000
 4555.00    1.46768   1.47962  265.137
 4556.00    1.50572   1.50728  265.948
 4557.00    1.56474   1.55674   84.664
 4558.00    1.61687   1.60658   25.022
 4559.00    1.63109   1.63901   24.145
 4560.00    1.63028   1.65227   23.880
 4561.00    1.62599   1.65067   24.004
 4562.00    1.59624   1.63368   23.987
 4563.00    1.56170   1.60019   24.125
 4564.00    1.51652   1.56144   24.725
 4565.00    1.51129   1.53926   25.299
 4566.00    1.53701   1.54894   25.555
 4567.00    1.58715   1.58509   25.152
 4568.00    1.63727   1.62347   24.490
 4569.00    1.63717   1.63864   23.935
 4570.00    1.59613   1.62506   23.830
 4571.00    1.55539   1.59861   24.195
 4572.00    1.54435   1.58373   24.833
 4573.00    1.57984   1.59501   25.295
 4574.00    1.63067   1.62198   24.933
 4575.00    1.63945   1.64173   24.245
 4576.00    1.61457   1.64341   24.001
 4577.00    1.60730   1.62960   24.053
 4578.00    1.59677   1.60198   24.175
 4579.00    1.54553   1.56242   24.379
 4580.00    1.49761   1.52311   24.881
 4581.00    1.49207   1.50154   25.593
 4582.00    1.51677   1.50234   25.973
 4583.00    1.53680   1.51353   25.805
 4584.00    1.54064   1.52126   25.466
 4585.00    1.53022   1.52348   25.346
 4586.00    1.52764   1.53153   25.454
 4587.00    1.55886   1.55597   25.501
 4588.00    1.60977   1.59115   25.052
 4589.00    1.63679   1.61932   24.407
 4590.00    1.62827   1.62579   24.003
 4591.00    1.58365   1.60913   24.075
 4592.00    1.53554   1.58121   24.468
 4593.00    1.51732   1.55695   24.923
 4594.00    1.53127   1.54281   25.268
 4595.00    1.53732   1.53710   25.219
 4596.00    1.54417   1.53738   24.997
 4597.00    1.54246   1.54362   24.830
 4598.00    1.56867   1.55408   24.773
 4599.00    1.57707   1.56310   24.721
 4600.00    1.56777   1.56669   24.724
 4601.00    1.55534   1.56679   24.957
 4602.00    1.56011   1.56754   25.148
 4603.00    1.57965   1.56922   25.137
 4604.00    1.59051   1.56988   24.850
 4605.00    1.59407   1.57347   24.640
 4606.00    1.59963   1.59040   24.679
 4607.00    1.62962   1.62629   24.583
 4608.00    1.69190   1.67313   24.257
 4609.00    1.72728   1.71148   23.758
 4610.00    1.73151   1.72339   23.297
 4611.00    1.69740   1.70916   23.114
 4612.00    1.64947   1.68551   23.281
 4613.00    1.64533   1.66998   23.599
 4614.00    1.66877   1.66966   23.835
 4615.00    1.69562   1.68030   23.926
 4616.00    1.69360   1.69298   23.774
 4617.00    1.67990   1.70100   23.583
 4618.00    1.66103   1.70287   23.547
 4619.00    1.65885   1.70147   23.721
 4620.00    1.65639   1.70216   23.856
 4621.00    1.68839   1.70809   23.780
 4622.00    1.71339   1.71537   23.511
 4623.00    1.69538   1.71703   23.206
 4624.00    1.70589   1.71164   23.231
 4625.00    1.69906   1.70370   23.290
 4626.00    1.68420   1.69679   23.370
 4627.00    1.68390   1.69189   23.561
 4628.00    1.68366   1.68964   23.596
 4629.00    1.68646   1.69123   23.614
 4630.00    1.69230   1.69761   23.755
 4631.00    1.70889   1.70546   23.765
 4632.00    1.70518   1.70550   23.605
 4633.00    1.66868   1.69125   23.401
 4634.00    1.64905   1.66885   23.574
 4635.00    1.64536   1.64994   23.914
 4636.00    1.63162   1.63597   24.115
 4637.00    1.61441   1.62029   24.123
 4638.00    1.58929   1.60220   24.356
 4639.00    1.58535   1.58962   24.641
 4640.00    1.60457   1.59055   24.702
 4641.00    1.65193   1.60535   24.582
 4642.00    1.70063   1.62369   24.107
 4643.00    1.70329   1.62900   23.560
 4644.00    1.67618   1.61058   23.334
 4645.00    1.61740   1.57232   23.517
 4646.00    1.55704   1.52860   24.018
 4647.00    1.52823   1.49796   24.707
 4648.00    1.55440   1.49685   25.275
 4649.00    1.59775   1.52760   25.241
 4650.00    1.62351   1.57563   24.738
 4651.00    1.65284   1.62105   24.200
 4652.00    1.66223   1.64956   23.937
 4653.00    1.64839   1.65468   23.908
 4654.00    1.63458   1.63896   23.923
 4655.00    1.60141   1.61749   24.279
 4656.00    1.59809   1.61219   24.803
 4657.00    1.64318   1.63657   24.974
 4658.00    1.70894   1.68628   24.619
 4659.00    1.75751   1.73979   23.773
 4660.00    1.78055   1.77034   22.928
 4661.00    1.76790   1.76438   22.528
 4662.00    1.73042   1.72870   22.588
 4663.00    1.68355   1.68058   22.936
 4664.00    1.65476   1.63237   23.495
 4665.00    1.61943   1.58302   23.873
 4666.00    1.54348   1.52829   23.971
 4667.00    1.46489   1.47915   24.504
 4668.00    1.45439   1.45928   25.590
 4669.00    1.51549   1.48293   26.455
 4670.00    1.59127   1.53870   26.264
 4671.00    1.65897   1.59754   25.359
 4672.00    1.66198   1.63603   24.355
 4673.00    1.65735   1.65107   23.813
 4674.00    1.66884   1.65681   23.727
 4675.00    1.68385   1.66656   23.745
 4676.00    1.71620   1.67849   23.663
 4677.00    1.72137   1.67938   23.331
 4678.00    1.69852   1.66035   23.064
 4679.00    1.64843   1.62807   23.276
 4680.00    1.60551   1.59764   23.796
 4681.00    1.59186   1.58126   24.249
 4682.00    1.59991   1.58410   24.615
 4683.00    1.65690   1.60287   24.743
 4684.00    1.68941   1.62609   24.346
 4685.00    1.69821   1.64130   23.770
 4686.00    1.69848   1.64426   23.546
 4687.00    1.68175   1.63889   23.634
 4688.00    1.67995   1.63182   23.661
 4689.00    1.68006   1.62738   23.779
 4690.00    1.67487   1.62565   23.773
 4691.00    1.66303   1.62524   23.807
 4692.00    1.67396   1.62760   23.966
 4693.00    1.68957   1.63695   23.947
 4694.00    1.72366   1.65413   23.632
 4695.00    1.76676   1.67282   23.244
 4696.00    1.75720   1.68130   22.757
 4697.00    1.71756   1.66920   22.550
 4698.00    1.67748   1.63754   22.778
 4699.00    1.64593   1.60070   23.472
 4700.00    1.63702   1.57317   24.106
 4701.00    1.62486   1.55743   24.278
 4702.00    1.60810   1.55058   24.125
 4703.00    1.59884   1.55411   24.370
 4704.00    1.62536   1.56961   24.763
 4705.00    1.66350   1.58883   24.767
 4706.00    1.67435   1.59681   24.284
 4707.00    1.64221   1.58860   24.053
 4708.00    1.60335   1.57620   24.452
 4709.00    1.60044   1.57648   24.908
 4710.00    1.63681   1.59462   25.069
 4711.00    1.69127   1.62010   24.810
 4712.00    1.70924   1.63682   24.056
 4713.00    1.70719   1.63710   23.473
 4714.00    1.67735   1.62940   23.341
 4715.00    1.67003   1.63252   23.626
 4716.00    1.70040   1.65766   24.010
 4717.00    1.74819   1.69798   23.902
 4718.00    1.78019   1.73789   23.406
 4719.00    1.79169   1.76704   23.009
 4720.00    1.78374   1.78280   22.894
 4721.00    1.77653   1.78550   22.816
 4722.00    1.75909   1.77961   22.783
 4723.00    1.74266   1.77527   22.988
 4724.00    1.77791   1.77673   23.098
 4725.00    1.80365   1.77198   22.927
 4726.00    1.75654   1.74384   22.720
 4727.00    1.67750   1.68976   22.856
 4728.00    1.60342   1.62819   23.492
 4729.00    1.57898   1.58584   24.346
 4730.00    1.60851   1.57658   24.765
 4731.00    1.63082   1.59578   24.613
 4732.00    1.66178   1.62870   24.363
 4733.00    1.68697   1.66069   24.158
 4734.00    1.70495   1.68203   23.874
 4735.00    1.72146   1.68978   23.683
 4736.00    1.71854   1.69038   23.553
 4737.00    1.70926   1.69402   23.484
 4738.00    1.72893   1.70571   23.722
 4739.00    1.74052   1.72108   23.684
 4740.00    1.74306   1.73097   23.410
 4741.00    1.72930   1.73312   23.459
 4742.00    1.71751   1.73446   23.585
 4743.00    1.74235   1.73969   23.574
 4744.00    1.75916   1.74729   23.362
 4745.00    1.75431   1.75691   23.151
 4746.00    1.76574   1.77011   23.211
 4747.00    1.78053   1.78574   23.198
 4748.00    1.77767   1.80015   23.004
 4749.00    1.77882   1.81044   22.797
 4750.00    1.77984   1.81481   22.772
 4751.00    1.76080   1.81002   22.808
 4752.00    1.74780   1.79367   22.846
 4753.00    1.74482   1.76925   23.035
 4754.00    1.72302   1.74550   23.292
 4755.00    1.70415   1.73067   23.478
 4756.00    1.71478   1.72785   23.605
 4757.00    1.72615   1.73524   23.573
 4758.00    1.72066   1.74988   23.686
 4759.00    1.72422   1.76642   23.844
 4760.00    1.73049   1.77453   23.827
 4761.00    1.70678   1.76355   23.640
 4762.00    1.65223   1.73204   23.668
 4763.00    1.61627   1.69142   24.095
 4764.00    1.60298   1.65669   24.668
 4765.00    1.59484   1.63405   24.927
 4766.00    1.59479   1.62390   24.936
 4767.00    1.62878   1.63300   24.861
 4768.00    1.70559   1.66863   24.654
 4769.00    1.73259   1.71974   24.270
 4770.00    1.72441   1.76007   23.739
 4771.00    1.71796   1.77375   23.476
 4772.00    1.71766   1.77084   23.558
 4773.00    1.74704   1.77509   23.768
 4774.00    1.75173   1.79746   23.906
 4775.00    1.78110   1.82867   23.568
 4776.00    1.79436   1.85372   23.102
 4777.00    1.78879   1.86629   22.988
 4778.00    1.78142   1.86851   23.023
 4779.00    1.77085   1.86135   23.105
 4780.00    1.75285   1.84562   23.276
 4781.00    1.73520   1.82531   23.527
 4782.00    1.72972   1.80246   23.647
 4783.00    1.70112   1.77787   23.710
 4784.00    1.70703   1.75805   23.840
 4785.00    1.70463   1.74821   24.008
 4786.00    1.69936   1.74417   24.000
 4787.00    1.68492   1.74110   24.109
 4788.00    1.69245   1.73957   24.344
 4789.00    1.69726   1.74088   24.455
 4790.00    1.69801   1.74623   24.409
 4791.00    1.71665   1.76094   24.279
 4792.00    1.74479   1.79185   24.113
 4793.00    1.79959   1.83803   23.836
 4794.00    1.83263   1.88802   23.417
 4795.00    1.86822   1.92533   22.904
 4796.00    1.85309   1.93530   22.560
 4797.00    1.80354   1.91372   22.536
 4798.00    1.75583   1.87214   22.810
 4799.00    1.71440   1.83195   23.280
 4800.00    1.72199   1.81231   23.692
 4801.00    1.76094   1.82212   23.898
 4802.00    1.81533   1.85407   23.625
 4803.00    1.83630   1.88457   23.152
 4804.00    1.80550   1.89036   22.876
 4805.00    1.77327   1.86882   22.966
 4806.00    1.75794   1.83662   23.286
 4807.00    1.73466   1.81125   23.572
 4808.00    1.72899   1.80102   23.752
 4809.00    1.74855   1.80670   23.727
 4810.00    1.76671   1.82394   23.659
 4811.00    1.78835   1.84347   23.536
 4812.00    1.80100   1.85634   23.322
 4813.00    1.81243   1.86179   23.164
 4814.00    1.80050   1.86678   23.060
 4815.00    1.81411   1.87706   23.038
 4816.00    1.82884   1.89334   22.977
 4817.00    1.82540   1.91350   22.884
 4818.00    1.83808   1.93393   22.737
 4819.00    1.85601   1.94980   22.603
 4820.00    1.84720   1.95421   22.524
 4821.00    1.83043   1.93965   22.521
 4822.00    1.79324   1.90405   22.548
 4823.00    1.76492   1.85688   22.806
 4824.00    1.75353   1.81916   23.412
 4825.00    1.77248   1.81117   23.787
 4826.00    1.80898   1.83161   23.669
 4827.00    1.81337   1.85526   23.238
 4828.00    1.79860   1.86157   22.938
 4829.00    1.80268   1.85328   23.079
 4830.00    1.77909   1.84065   23.345
 4831.00    1.75105   1.82607   23.465
 4832.00    1.73009   1.81170   23.478
 4833.00    1.76335   1.80805   23.687
 4834.00    1.79994   1.82259   23.665
 4835.00    1.82960   1.84796   23.273
 4836.00    1.82768   1.86835   22.995
 4837.00    1.81466   1.87297   22.936
 4838.00    1.78882   1.86072   22.988
 4839.00    1.76387   1.83653   23.126
 4840.00    1.74698   1.81136   23.465
 4841.00    1.74402   1.79648   23.843
 4842.00    1.74588   1.79379   23.828
 4843.00    1.76525   1.79915   23.767
 4844.00    1.77989   1.81300   23.637
 4845.00    1.81926   1.83725   23.451
 4846.00    1.84149   1.86267   23.198
 4847.00    1.82219   1.87151   22.855
 4848.00    1.80473   1.85788   22.815
 4849.00    1.78226   1.83817   23.295
 4850.00    1.79207   1.83291   23.596
 4851.00    1.80676   1.84264   23.539
 4852.00    1.82452   1.84963   23.224
 4853.00    1.80447   1.83533   23.204
 4854.00    1.74371   1.79416   23.353
 4855.00    1.70526   1.74004   23.611
 4856.00    1.68863   1.69790   24.340
 4857.00    1.67914   1.67854   24.945
 4858.00    1.66687   1.66027   24.831
 4859.00    1.59814   1.60565   24.671
 4860.00    1.46377   1.50469   25.544
 4861.00    1.36453   1.40066   27.909
 4862.00    1.38204   1.35793   31.052
 4863.00    1.49730   1.40002   -1.000
 4864.00    1.59179   1.49482   -1.000
 4865.00    1.65550   1.59348   27.261
 4866.00    1.69863   1.67061   25.759
 4867.00    1.73397   1.72218   24.913
 4868.00    1.73482   1.74890   24.433
 4869.00    1.72978   1.74724   24.236
 4870.00    1.69428   1.71425   24.170
 4871.00    1.61450   1.66103   24.443
 4872.00    1.58978   1.61969   25.148
 4873.00    1.63444   1.62305   25.673
 4874.00    1.70661   1.67020   25.362
 4875.00    1.71508   1.72713   24.645
 4876.00    1.72570   1.76922   24.255
 4877.00    1.73752   1.79904   24.082
 4878.00    1.76407   1.82791   23.958
 4879.00    1.79986   1.85706   23.853
 4880.00    1.77941   1.87553   23.502
 4881.00    1.76389   1.87284   23.302
 4882.00    1.75256   1.85266   23.547
 4883.00    1.75618   1.82993   23.921
 4884.00    1.74767   1.80946   24.030
 4885.00    1.71949   1.78299   23.960
 4886.00    1.67747   1.75202   24.122
 4887.00    1.68017   1.73115   24.483
 4888.00    1.69915   1.72325   24.578
 4889.00    1.68126   1.71174   24.445
 4890.00    1.66036   1.68490   24.454
 4891.00    1.64602   1.66017   24.851
 4892.00    1.66581   1.67408   25.343
 4893.00    1.76839   1.74591   25.061
 4894.00    1.88056   1.85458   24.006
 4895.00    1.93767   1.95438   22.920
 4896.00    1.94858   2.01178   22.283
 4897.00    1.95232   2.02709   21.903
 4898.00    1.93810   2.01490   21.823
 4899.00    1.89432   1.98778   21.915
 4900.00    1.85534   1.95700   22.414
 4901.00    1.83494   1.93195   22.922
 4902.00    1.83870   1.91436   23.130
 4903.00    1.83704   1.90210   23.016
 4904.00    1.83583   1.90079   23.078
 4905.00    1.86248   1.92010   23.325
 4906.00    1.90068   1.95290   23.027
 4907.00    1.91061   1.96963   22.551
 4908.00    1.87088   1.94674   22.422
 4909.00    1.81687   1.89209   22.674
 4910.00    1.77419   1.83531   23.246
 4911.00    1.77951   1.80614   23.893
 4912.00    1.80422   1.81724   24.127
 4913.00    1.82795   1.85878   23.776
 4914.00    1.87678   1.90918   23.349
 4915.00    1.91650   1.94826   23.035
 4916.00    1.91717   1.95805   22.743
 4917.00    1.85336   1.91818   22.572
 4918.00    1.74518   1.82253   22.747
 4919.00    1.63891   1.69969   23.609
 4920.00    1.58499   1.60407   24.914
 4921.00    1.60983   1.57732   26.023
 4922.00    1.70577   1.61948   26.192
 4923.00    1.77481   1.69072   25.293
 4924.00    1.79826   1.75074   24.414
 4925.00    1.78348   1.79286   24.098
 4926.00    1.81980   1.83656   24.063
 4927.00    1.88743   1.89122   23.719
 4928.00    1.92965   1.94745   23.102
 4929.00    1.94127   1.99400   22.712
 4930.00    1.95597   2.02228   22.509
 4931.00    1.95344   2.02294   22.358
 4932.00    1.91923   1.99171   22.252
 4933.00    1.84401   1.94020   22.514
 4934.00    1.80587   1.89414   23.160
 4935.00    1.82999   1.87213   23.953
 4936.00    1.83480   1.86332   23.947
 4937.00    1.80550   1.83896   23.531
 4938.00    1.73920   1.79250   23.583
 4939.00    1.71616   1.75675   24.303
 4940.00    1.77939   1.77074   24.906
 4941.00    1.85765   1.83608   24.611
 4942.00    1.91163   1.91744   23.753
 4943.00    1.93423   1.97898   23.016
 4944.00    1.93981   2.00741   22.617
 4945.00    1.93245   2.01007   22.434
 4946.00    1.91923   2.00256   22.468
 4947.00    1.93342   2.00125   22.626
 4948.00    1.96873   2.01363   22.652
 4949.00    1.98115   2.03346   22.435
 4950.00    1.99249   2.04949   22.180
 4951.00    1.99408   2.05578   22.118
 4952.00    1.97672   2.05119   22.038
 4953.00    1.95760   2.03570   22.163
 4954.00    1.92473   2.00704   22.324
 4955.00    1.88682   1.95491   22.589
 4956.00    1.80144   1.86917   22.893
 4957.00    1.69230   1.76802   23.556
 4958.00    1.67672   1.70815   24.781
 4959.00    1.77592   1.73543   25.669
 4960.00    1.89499   1.82907   25.036
 4961.00    1.94510   1.92534   23.609
 4962.00    1.92876   1.97925   22.854
 4963.00    1.92313   1.98626   22.716
 4964.00    1.89336   1.96179   22.836
 4965.00    1.83769   1.91907   23.027
 4966.00    1.81574   1.87435   23.317
 4967.00    1.78471   1.84548   23.809
 4968.00    1.79931   1.83914   24.092
 4969.00    1.83760   1.85048   24.084
 4970.00    1.85376   1.87322   24.004
 4971.00    1.86222   1.90417   23.818
 4972.00    1.89736   1.94013   23.560
 4973.00    1.91040   1.97345   23.305
 4974.00    1.93279   1.99452   23.029
 4975.00    1.93365   1.99881   22.821
 4976.00    1.92073   1.98636   22.748
 4977.00    1.89370   1.95917   22.919
 4978.00    1.85989   1.92286   23.168
 4979.00    1.81651   1.88547   23.489
 4980.00    1.78740   1.84816   23.870
 4981.00    1.75972   1.80161   24.164
 4982.00    1.69050   1.74060   24.534
 4983.00    1.64288   1.68241   25.359
 4984.00    1.64889   1.65765   26.136
 4985.00    1.70745   1.68270   26.082
 4986.00    1.78287   1.74697   25.562
 4987.00    1.85044   1.82344   24.831
 4988.00    1.87390   1.88256   24.049
 4989.00    1.86927   1.90718   23.492
 4990.00    1.85070   1.90177   23.549
 4991.00    1.83260   1.88858   23.901
 4992.00    1.85166   1.88507   24.131
 4993.00    1.85616   1.89200   24.122
 4994.00    1.85784   1.90164   23.906
 4995.00    1.87266   1.91115   23.813
 4996.00    1.86952   1.92194   23.799
 4997.00    1.86833   1.92648   23.673
 4998.00    1.85630   1.91023   23.569
 4999.00    1.81528   1.86979   23.729
 5000.00    1.77301   1.81954   24.061
 5001.00    1.75721   1.78026   24.545
 5002.00    1.78041   1.76348   24.832
 5003.00    1.79041   1.76050   24.828
 5004.00    1.76745   1.75069   24.588
 5005.00    1.73921   1.72299   24.453
 5006.00    1.72238   1.69231   24.834
 5007.00    1.73421   1.69014   25.455
 5008.00    1.78368   1.73095   25.544
 5009.00    1.83629   1.79128   24.888
 5010.00    1.83044   1.82939   24.147
 5011.00    1.81399   1.82162   23.930
 5012.00    1.73925   1.77294   24.280
 5013.00    1.67337   1.71004   25.033
 5014.00    1.65462   1.66614   25.965
 5015.00    1.67270   1.65959   26.526
 5016.00    1.73089   1.68010   26.355
 5017.00    1.76777   1.70289   25.758
 5018.00    1.76246   1.71647   25.239
 5019.00    1.76200   1.72794   25.150
 5020.00    1.79636   1.74412   25.146
 5021.00    1.79741   1.75801   24.854
 5022.00    1.77371   1.76457   24.667
 5023.00    1.77113   1.77454   24.784
 5024.00    1.81201   1.79892   24.829
 5025.00    1.84505   1.83006   24.675
 5026.00    1.83704   1.84691   24.414
 5027.00    1.79953   1.84107   24.264
 5028.00    1.80505   1.83009   24.389
 5029.00    1.83893   1.83814   24.493
 5030.00    1.87875   1.87156   24.248
 5031.00    1.90883   1.91959   23.787
 5032.00    1.92217   1.96696   23.450
 5033.00    1.95351   1.99768   23.071
 5034.00    1.92536   1.99475   22.820
 5035.00    1.86002   1.95415   22.893
 5036.00    1.79768   1.89633   23.659
 5037.00    1.76561   1.84787   24.589
 5038.00    1.77520   1.81101   24.966
 5039.00    1.72835   1.76434   25.052
 5040.00    1.63764   1.69879   25.393
 5041.00    1.59248   1.64351   26.419
 5042.00    1.64145   1.64523   27.463
 5043.00    1.76287   1.72137   27.391
 5044.00    1.87448   1.84150   26.009
 5045.00    1.95099   1.95285   24.406
 5046.00    1.97247   2.01475   23.444
 5047.00    1.93486   2.01587   22.952
 5048.00    1.95268   1.96770   22.107
 5049.00    1.23037   1.89812   -1.000
 5050.00    0.17426   1.84021   -1.000
 5051.00    0.05366   1.81429   -1.000
 5052.00    0.56092   1.82105   -1.000
 5053.00    1.91473   1.85458   24.626
 5054.00    1.93166   1.90517   24.054
 5055.00    1.97257   1.95462   23.448
 5056.00    1.98277   1.98859   23.033
 5057.00    1.99864   2.00797   22.825
 5058.00    2.01203   2.02211   22.760
 5059.00    1.97792   2.03946   22.806
 5060.00    1.99912   2.06193   22.847
 5061.00    2.02431   2.08173   22.832
 5062.00    2.01154   2.08286   22.675
 5063.00    1.95599   2.04966   22.702
 5064.00    1.86490   1.98466   23.029
 5065.00    1.80391   1.91499   23.720
 5066.00    1.81899   1.87063   24.559
 5067.00    1.86548   1.85971   24.805
 5068.00    1.86105   1.87018   24.481
 5069.00    1.87525   1.88919   24.114
 5070.00    1.90214   1.90826   24.047
 5071.00    1.89778   1.91823   23.930
 5072.00    1.86155   1.91381   23.778
 5073.00    1.86839   1.90419   23.985
 5074.00    1.90517   1.90383   24.164
 5075.00    1.91865   1.91444   23.849
 5076.00    1.91134   1.92456   23.671
 5077.00    1.89827   1.92016   23.645
 5078.00    1.87532   1.88844   23.632
 5079.00    1.79156   1.82808   23.884
 5080.00    1.71137   1.76399   24.751
 5081.00    1.71049   1.73241   25.931
 5082.00    1.75047   1.74484   26.176
 5083.00    1.80457   1.78242   25.591
 5084.00    1.84088   1.82536   25.048
 5085.00    1.87558   1.86646   24.717
 5086.00    1.92007   1.90378   24.245
 5087.00    1.93745   1.93347   23.835
 5088.00    1.93174   1.95369   23.677
 5089.00    1.93534   1.96757   23.648
 5090.00    1.95402   1.98054   23.524
 5091.00    1.96241   1.99754   23.353
 5092.00    1.99417   2.02137   23.226
 5093.00    2.03018   2.04638   23.103
 5094.00    2.01042   2.05651   22.831
 5095.00    1.97403   2.03671   22.634
 5096.00    1.93515   1.98671   22.862
 5097.00    1.89585   1.92008   23.353
 5098.00    1.82606   1.85594   23.860
 5099.00    1.81325   1.81772   24.441
 5100.00    1.83669   1.82389   24.945
 5101.00    1.88930   1.87034   24.997
 5102.00    1.94644   1.92641   24.351
 5103.00    1.93799   1.95952   23.645
 5104.00    1.90498   1.95961   23.463
 5105.00    1.91582   1.93937   23.618
 5106.00    1.86892   1.91228   23.937
 5107.00    1.84799   1.88403   24.240
 5108.00    1.83551   1.85828   24.536
 5109.00    1.82366   1.84193   24.842
 5110.00    1.85018   1.84361   24.787
 5111.00    1.88554   1.86728   24.623
 5112.00    1.91982   1.90622   24.444
 5113.00    1.95154   1.94632   24.084
 5114.00    1.96276   1.97805   23.792
 5115.00    1.98327   2.00412   23.502
 5116.00    1.99973   2.03018   23.294
 5117.00    2.03359   2.05472   23.173
 5118.00    2.03327   2.06944   22.922
 5119.00    2.02453   2.06586   22.734
 5120.00    1.99592   2.04139   22.814
 5121.00    1.94772   1.99907   23.125
 5122.00    1.88660   1.94426   23.475
 5123.00    1.84400   1.88519   23.866
 5124.00    1.81945   1.83586   24.492
 5125.00    1.80389   1.81038   25.237
 5126.00    1.81854   1.81039   25.384
 5127.00    1.82658   1.82203   25.139
 5128.00    1.83407   1.83171   25.022
 5129.00    1.83612   1.83999   24.871
 5130.00    1.84473   1.85588   24.916
 5131.00    1.88266   1.88265   24.891
 5132.00    1.92111   1.91341   24.551
 5133.00    1.94275   1.94016   24.127
 5134.00    1.95938   1.96158   23.942
 5135.00    1.97347   1.97698   23.711
 5136.00    1.96636   1.97674   23.503
 5137.00    1.94566   1.94960   23.450
 5138.00    1.87656   1.90346   23.896
 5139.00    1.84423   1.86589   24.487
 5140.00    1.86410   1.85385   24.867
 5141.00    1.86464   1.85739   24.885
 5142.00    1.84722   1.85984   24.650
 5143.00    1.85302   1.85987   24.852
 5144.00    1.87242   1.86573   25.269
 5145.00    1.87099   1.87252   25.096
 5146.00    1.85611   1.86627   24.660
 5147.00    1.84627   1.85015   24.590
 5148.00    1.84586   1.84295   24.835
 5149.00    1.88332   1.85142   24.888
 5150.00    1.88137   1.86261   24.566
 5151.00    1.85405   1.86184   24.435
 5152.00    1.82637   1.84970   24.758
 5153.00    1.83012   1.83891   25.218
 5154.00    1.83663   1.84250   25.371
 5155.00    1.88342   1.86851   25.230
 5156.00    1.94470   1.91516   24.732
 5157.00    1.99423   1.96870   24.097
 5158.00    2.03525   2.01174   23.484
 5159.00    2.03011   2.03526   23.051
 5160.00    2.02998   2.03928   22.892
 5161.00    2.01956   2.02552   22.895
 5162.00    1.99333   1.99306   22.975
 5163.00    1.95200   1.94069   23.109
 5164.00    1.89448   1.86851   23.376
 5165.00    1.77803   1.77075   23.743
 5166.00    1.59219   1.64058   24.674
 5167.00    1.44422   1.50466   26.763
 5168.00    1.40852   1.42379   29.595
 5169.00    1.50284   1.42893   -1.000
 5170.00    1.58447   1.47379   -1.000
 5171.00    1.51951   1.48117   28.986
 5172.00    1.38918   1.43408   28.647
 5173.00    1.36532   1.39984   30.587
 5174.00    1.51551   1.45248   32.685
 5175.00    1.71305   1.58937   -1.000
 5176.00    1.83108   1.74031   -1.000
 5177.00    1.89425   1.84193   25.486
 5178.00    1.91908   1.88706   24.569
 5179.00    1.90615   1.89173   24.310
 5180.00    1.85411   1.85707   24.269
 5181.00    1.74921   1.76735   24.520
 5182.00    1.56530   1.62269   25.402
 5183.00    1.37537   1.47120   27.281
 5184.00    1.35680   1.39666   30.512
 5185.00    1.52027   1.44953   -1.000
 5186.00    1.75610   1.59911   -1.000
 5187.00    1.89823   1.76030   -1.000
 5188.00    1.93864   1.87178   25.280
 5189.00    1.94863   1.92272   24.529
 5190.00    1.95503   1.92474   24.332
 5191.00    1.90404   1.88637   24.234
 5192.00    1.81305   1.82684   24.508
 5193.00    1.78804   1.78445   25.308
 5194.00    1.84355   1.78296   26.005
 5195.00    1.88433   1.81016   25.777
 5196.00    1.90934   1.84591   25.324
 5197.00    1.98585   1.88669   -1.000
 5198.00    2.02131   1.93276   24.588
 5199.00    2.04961   1.97687   24.088
 5200.00    2.09070   2.00702   23.682
 5201.00    2.08518   2.01385   23.494
 5202.00    2.05040   1.99421   23.477
 5203.00    1.98260   1.94675   23.673
 5204.00    1.90640   1.87367   24.111
 5205.00    1.82888   1.78916   24.667
 5206.00    1.77096   1.71844   25.453
 5207.00    1.76641   1.67872   26.236
 5208.00    1.75561   1.67130   26.309
 5209.00    1.74931   1.69270   26.452
 5210.00    1.81824   1.74594   26.613
 5211.00    1.91919   1.82906   -1.000
 5212.00    2.01699   1.92180   -1.000
 5213.00    2.08385   1.99141   -1.000
 5214.00    2.07209   2.01396   23.361
 5215.00    2.02709   1.99166   22.890
 5216.00    1.98659   1.95582   23.165
 5217.00    1.98319   1.94442   23.723
 5218.00    2.02561   1.97341   24.005
 5219.00    2.07303   2.02712   23.792
 5220.00    2.11151   2.07748   23.268
 5221.00    2.11953   2.10424   22.919
 5222.00    2.12005   2.09743   22.748
 5223.00    2.06412   2.05305   22.659
 5224.00    1.97069   1.97311   22.963
 5225.00    1.86908   1.87058   23.677
 5226.00    1.80973   1.77613   24.664
 5227.00    1.82007   1.73294   25.825
 5228.00    1.88915   1.76806   -1.000
 5229.00    1.99399   1.86439   -1.000
 5230.00    2.07962   1.96584   -1.000
 5231.00    2.09995   2.01807   23.473
 5232.00    2.05908   2.00789   23.069
 5233.00    2.00561   1.96753   23.042
 5234.00    2.00236   1.94314   23.523
 5235.00    2.01504   1.96173   23.941
 5236.00    2.10268   2.01690   23.877
 5237.00    2.14570   2.08117   23.317
 5238.00    2.16854   2.12880   22.759
 5239.00    2.16368   2.14970   22.510
 5240.00    2.15059   2.15038   22.495
 5241.00    2.17262   2.14306   22.569
 5242.00    2.16107   2.13809   22.526
 5243.00    2.15528   2.14165   22.390
 5244.00    2.17290   2.14941   22.429
 5245.00    2.15583   2.14380   22.381
 5246.00    2.10161   2.10936   22.345
 5247.00    2.00820   2.05370   22.805
 5248.00    1.98879   2.00247   23.529
 5249.00    2.00795   1.97292   24.073
 5250.00    2.01481   1.96395   24.124
 5251.00    1.99859   1.97080   24.168
 5252.00    2.01472   1.98972   24.326
 5253.00    2.04582   2.00988   24.205
 5254.00    2.04381   2.02041   23.864
 5255.00    2.04836   2.02926   23.630
 5256.00    2.08066   2.05941   23.638
 5257.00    2.16377   2.11769   23.465
 5258.00    2.23818   2.17842   22.909
 5259.00    2.22644   2.20537   22.287
 5260.00    2.16403   2.18073   22.098
 5261.00    2.07203   2.10707   22.312
 5262.00    1.97128   2.00120   22.933
 5263.00    1.88805   1.88654   23.913
 5264.00    1.80884   1.78726   25.056
 5265.00    1.77636   1.72215   25.919
 5266.00    1.80383   1.69990   -1.000
 5267.00    1.83362   1.70614   -1.000
 5268.00    1.84054   1.70491   -1.000
 5269.00    1.77710   1.67599   -1.000
 5270.00    1.72394   1.64915   26.150
 5271.00    1.81851   1.67915   -1.000
 5272.00    1.97207   1.77570   -1.000
 5273.00    2.05606   1.88239   -1.000
 5274.00    2.06352   1.94375   -1.000
 5275.00    2.04734   1.96881   23.818
 5276.00    2.08870   2.00273   23.834
 5277.00    2.15860   2.06546   -1.000
 5278.00    2.21587   2.13506   23.315
 5279.00    2.23478   2.17267   22.512
 5280.00    2.19276   2.16013   22.097
 5281.00    2.12131   2.10973   22.237
 5282.00    2.06831   2.04827   22.779
 5283.00    2.04413   2.00625   23.373
 5284.00    2.07211   2.01048   23.799
 5285.00    2.15948   2.07031   -1.000
 5286.00    2.24874   2.16070   23.424
 5287.00    2.27311   2.23706   22.704
 5288.00    2.23289   2.27463   21.988
 5289.00    2.26011   2.28548   21.826
 5290.00    2.30348   2.29158   21.945
 5291.00    2.30121   2.29839   21.941
 5292.00    2.28345   2.29692   21.811
 5293.00    2.26725   2.28153   21.765
 5294.00    2.26073   2.25395   21.895
 5295.00    2.21790   2.20848   22.103
 5296.00    2.12156   2.13658   22.397
 5297.00    2.02556   2.05055   23.008
 5298.00    1.98638   1.98851   23.897
 5299.00    2.02285   1.98080   24.538
 5300.00    2.09090   2.01941   24.381
 5301.00    2.12770   2.07115   23.758
 5302.00    2.17091   2.11873   23.316
 5303.00    2.23610   2.16994   23.169
 5304.00    2.29072   2.23040   22.883
 5305.00    2.32746   2.28353   22.264
 5306.00    2.31480   2.30788   21.855
 5307.00    2.29228   2.30514   21.799
 5308.00    2.29373   2.29875   22.014
 5309.00    2.31476   2.30666   22.205
 5310.00    2.33868   2.32463   22.060
 5311.00    2.34798   2.33511   21.827
 5312.00    2.31595   2.32835   21.688
 5313.00    2.29443   2.30863   21.710
 5314.00    2.30030   2.28343   21.832
 5315.00    2.29185   2.25686   21.927
 5316.00    2.25622   2.23224   22.086
 5317.00    2.24909   2.21652   22.305
 5318.00    2.27390   2.21540   22.504
 5319.00    2.26792   2.22468   22.511
 5320.00    2.28491   2.23279   22.344
 5321.00    2.25140   2.23011   22.248
 5322.00    2.22924   2.20950   22.330
 5323.00    2.17827   2.16897   22.487
 5324.00    2.14219   2.11702   22.752
 5325.00    2.13014   2.06280   23.152
 5326.00    2.10917   1.99781   -1.000
 5327.00    1.99150   1.91176   23.358
 5328.00    1.86891   1.82852   23.998
 5329.00    1.88746   1.80659   25.549
 5330.00    2.02025   1.87639   -1.000
 5331.00    2.15930   1.99856   -1.000
 5332.00    2.20126   2.10489   -1.000
 5333.00    2.23892   2.16881   23.070
 5334.00    2.26149   2.20835   22.825
 5335.00    2.29873   2.24295   22.607
 5336.00    2.30968   2.26828   22.344
 5337.00    2.28266   2.26896   22.247
 5338.00    2.24733   2.23755   22.389
 5339.00    2.20025   2.17868   22.534
 5340.00    2.14430   2.11245   22.780
 5341.00    2.12310   2.07495   23.356
 5342.00    2.17124   2.08925   23.768
 5343.00    2.22793   2.13861   -1.000
 5344.00    2.25893   2.18266   22.941
 5345.00    2.26802   2.19784   22.527
 5346.00    2.23064   2.18803   22.522
 5347.00    2.22411   2.16776   22.669
 5348.00    2.22254   2.14737   22.815
 5349.00    2.19102   2.13723   22.927
 5350.00    2.21454   2.15077   23.134
 5351.00    2.27360   2.19195   23.191
 5352.00    2.31807   2.24689   22.836
 5353.00    2.33366   2.29701   22.306
 5354.00    2.34490   2.33643   22.025
 5355.00    2.39153   2.36965   21.953
 5356.00    2.42099   2.39684   21.781
 5357.00    2.42168   2.41180   21.503
 5358.00    2.41605   2.41282   21.340
 5359.00    2.38789   2.40260   21.357
 5360.00    2.38425   2.38120   21.390
 5361.00    2.33739   2.34908   21.468
 5362.00    2.30551   2.31213   21.718
 5363.00    2.28316   2.27738   22.082
 5364.00    2.26183   2.24769   22.407
 5365.00    2.24815   2.22304   22.567
 5366.00    2.23019   2.20509   22.698
 5367.00    2.23992   2.19316   22.834
 5368.00    2.23588   2.17371   22.767
 5369.00    2.16974   2.12823   22.765
 5370.00    2.08734   2.06027   22.993
 5371.00    2.05340   2.00647   23.563
 5372.00    2.11705   2.01024   -1.000
 5373.00    2.23751   2.08140   -1.000
 5374.00    2.33577   2.18442   -1.000
 5375.00    2.36201   2.26876   -1.000
 5376.00    2.36582   2.30925   21.847
 5377.00    2.35200   2.31599   21.680
 5378.00    2.35426   2.31329   21.741
 5379.00    2.36509   2.31257   21.751
 5380.00    2.34882   2.30788   21.794
 5381.00    2.32445   2.29172   21.919
 5382.00    2.30364   2.26856   22.135
 5383.00    2.29506   2.25230   22.353
 5384.00    2.30811   2.25317   22.465
 5385.00    2.34175   2.26988   22.452
 5386.00    2.35492   2.28993   22.347
 5387.00    2.34200   2.29634   22.108
 5388.00    2.33164   2.27909   22.061
 5389.00    2.29465   2.24169   22.159
 5390.00    2.24059   2.19808   22.372
 5391.00    2.21757   2.16296   22.713
 5392.00    2.22338   2.14430   22.970
 5393.00    2.23308   2.13954   -1.000
 5394.00    2.22162   2.13707   23.088
 5395.00    2.18578   2.12231   23.158
 5396.00    2.13934   2.09054   23.328
 5397.00    2.12343   2.05883   23.634
 5398.00    2.14299   2.05584   -1.000
 5399.00    2.22072   2.09228   -1.000
 5400.00    2.27100   2.14759   -1.000
 5401.00    2.29615   2.19018   -1.000
 5402.00    2.29899   2.19910   -1.000
 5403.00    2.23942   2.16616   22.650
 5404.00    2.14940   2.09432   22.828
 5405.00    2.05737   2.01125   23.512
 5406.00    2.03641   1.96421   24.281
 5407.00    2.11064   1.97612   -1.000
 5408.00    2.15322   2.02012   -1.000
 5409.00    2.15026   2.05455   -1.000
 5410.00    2.15876   2.07252   -1.000
 5411.00    2.18945   2.10059   -1.000
 5412.00    2.27099   2.15352   -1.000
 5413.00    2.33253   2.21120   -1.000
 5414.00    2.32693   2.24974   22.608
 5415.00    2.31388   2.27186   22.365
 5416.00    2.33739   2.29447   22.374
 5417.00    2.36751   2.32065   22.385
 5418.00    2.36007   2.33510   22.221
 5419.00    2.34576   2.32692   22.079
 5420.00    2.32102   2.30491   22.164
 5421.00    2.31022   2.28511   22.382
 5422.00    2.30925   2.27217   22.519
 5423.00    2.29626   2.25933   22.433
 5424.00    2.27791   2.24839   22.343
 5425.00    2.29091   2.25588   22.646
 5426.00    2.34298   2.28733   22.858
 5427.00    2.36725   2.31481   22.626
 5428.00    2.31212   2.29801   22.244
 5429.00    2.22536   2.23395   22.302
 5430.00    2.18519   2.16762   22.906
 5431.00    2.21331   2.14148   23.642
 5432.00    2.25420   2.14882   -1.000
 5433.00    2.23096   2.15152   23.290
 5434.00    2.20111   2.13240   23.266
 5435.00    2.18690   2.11416   23.591
 5436.00    2.19491   2.12920   23.867
 5437.00    2.26427   2.18565   23.790
 5438.00    2.34350   2.26610   23.326
 5439.00    2.40803   2.34363   22.685
 5440.00    2.46188   2.39846   22.206
 5441.00    2.46652   2.42641   21.891
 5442.00    2.45414   2.43330   21.706
 5443.00    2.44033   2.41984   21.665
 5444.00    2.37576   2.37659   21.663
 5445.00    2.26852   2.29762   21.885
 5446.00    2.16873   2.20314   22.460
 5447.00    2.14510   2.13788   23.381
 5448.00    2.20862   2.13787   24.162
 5449.00    2.29277   2.19651   -1.000
 5450.00    2.32471   2.26872   23.259
 5451.00    2.35521   2.31063   22.603
 5452.00    2.33660   2.30926   22.374
 5453.00    2.27825   2.27169   22.371
 5454.00    2.22914   2.20860   22.557
 5455.00    2.17154   2.14393   23.073
 5456.00    2.17739   2.11635   23.736
 5457.00    2.24758   2.15206   -1.000
 5458.00    2.32516   2.23205   -1.000
 5459.00    2.36401   2.30272   23.120
 5460.00    2.35044   2.32356   22.481
 5461.00    2.32234   2.29560   22.337
 5462.00    2.27672   2.24706   22.587
 5463.00    2.25892   2.21036   23.010
 5464.00    2.28881   2.20497   23.327
 5465.00    2.32280   2.22795   -1.000
 5466.00    2.33252   2.26114   23.184
 5467.00    2.34705   2.28817   22.911
 5468.00    2.36624   2.30230   22.797
 5469.00    2.35348   2.30244   22.549
 5470.00    2.32027   2.29054   22.448
 5471.00    2.29782   2.27206   22.648
 5472.00    2.31202   2.25325   22.886
 5473.00    2.29628   2.23430   22.974
 5474.00    2.25766   2.20679   23.089
 5475.00    2.22258   2.16403   23.321
 5476.00    2.17486   2.11567   23.650
 5477.00    2.15557   2.09088   24.151
 5478.00    2.20382   2.11155   -1.000
 5479.00    2.28206   2.16032   -1.000
 5480.00    2.27882   2.19394   -1.000
 5481.00    2.24819   2.19245   23.146
 5482.00    2.23940   2.18104   23.297
 5483.00    2.27827   2.19772   -1.000
 5484.00    2.32601   2.24753   -1.000
 5485.00    2.36271   2.29793   23.158
 5486.00    2.37147   2.31518   22.684
 5487.00    2.31533   2.29546   22.474
 5488.00    2.27023   2.26342   22.675
 5489.00    2.27088   2.24815   23.000
 5490.00    2.30188   2.25842   23.144
 5491.00    2.31811   2.27996   23.153
 5492.00    2.33993   2.29422   22.996
 5493.00    2.34837   2.29611   22.828
 5494.00    2.34417   2.29274   22.740
 5495.00    2.34030   2.29018   22.784
 5496.00    2.33729   2.28673   22.796
 5497.00    2.34163   2.28228   22.793
 5498.00    2.35346   2.28510   22.952
 5499.00    2.37170   2.29740   23.115
 5500.00    2.37236   2.30444   23.004
 5501.00    2.34777   2.29035   22.747
 5502.00    2.32263   2.26050   22.907
 5503.00    2.32578   2.23671   -1.000
 5504.00    2.34081   2.22815   -1.000
 5505.00    2.32127   2.22269   -1.000
 5506.00    2.28855   2.21226   23.089
 5507.00    2.28421   2.20868   23.386
 5508.00    2.31142   2.22588   -1.000
 5509.00    2.34233   2.25498   -1.000
 5510.00    2.33596   2.26791   23.058
 5511.00    2.29331   2.24783   22.943
 5512.00    2.24372   2.20661   23.084
 5513.00    2.21694   2.17149   23.524
 5514.00    2.22572   2.16157   23.919
 5515.00    2.26571   2.17813   -1.000
 5516.00    2.31508   2.21216   -1.000
 5517.00    2.37312   2.25588   -1.000
 5518.00    2.42153   2.30409   -1.000
 5519.00    2.45535   2.34805   -1.000
 5520.00    2.46804   2.37570   -1.000
 5521.00    2.44735   2.38312   22.224
 5522.00    2.43781   2.37945   22.255
 5523.00    2.42952   2.37471   22.300
 5524.00    2.41214   2.36728   22.376
 5525.00    2.38434   2.34555   22.416
 5526.00    2.34262   2.30087   22.545
 5527.00    2.27986   2.23983   22.843
 5528.00    2.23398   2.18926   23.360
 5529.00    2.26420   2.18039   -1.000
 5530.00    2.33954   2.21930   -1.000
 5531.00    2.38687   2.27746   -1.000
 5532.00    2.39773   2.31836   -1.000
 5533.00    2.38364   2.32801   22.699
 5534.00    2.36900   2.31737   22.726
 5535.00    2.34878   2.30357   22.933
 5536.00    2.36277   2.29710   23.053
 5537.00    2.38227   2.30186   22.985
 5538.00    2.38866   2.31722   22.801
 5539.00    2.42173   2.34020   22.736
 5540.00    2.45250   2.36591   -1.000
 5541.00    2.46452   2.38514   22.427
 5542.00    2.45912   2.38782   22.245
 5543.00    2.42115   2.37397   22.243
 5544.00    2.40017   2.35563   22.461
 5545.00    2.39122   2.34529   22.691
 5546.00    2.40033   2.34748   22.761
 5547.00    2.42776   2.36251   22.704
 5548.00    2.45262   2.38883   22.651
 5549.00    2.49619   2.41893   22.514
 5550.00    2.50758   2.44066   22.295
 5551.00    2.49235   2.44554   22.105
 5552.00    2.47686   2.43244   22.045
 5553.00    2.44378   2.40714   22.153
 5554.00    2.43129   2.38139   22.343
 5555.00    2.43819   2.36663   22.597
 5556.00    2.44160   2.36512   22.717
 5557.00    2.44734   2.36945   22.692
 5558.00    2.45282   2.37240   22.621
 5559.00    2.44459   2.37331   22.580
 5560.00    2.44661   2.37205   22.551
 5561.00    2.44281   2.36388   22.527
 5562.00    2.40478   2.34719   22.570
 5563.00    2.37725   2.32914   22.682
 5564.00    2.36978   2.31716   22.907
 5565.00    2.37971   2.31020   23.073
 5566.00    2.38232   2.30279   23.145
 5567.00    2.38161   2.29419   -1.000
 5568.00    2.39550   2.28913   -1.000
 5569.00    2.39396   2.29116   -1.000
 5570.00    2.39946   2.29839   -1.000
 5571.00    2.40520   2.30463   -1.000
 5572.00    2.38864   2.30473   -1.000
 5573.00    2.38638   2.30114   -1.000
 5574.00    2.39192   2.30547   -1.000
 5575.00    2.40148   2.32487   23.152
 5576.00    2.27498   2.34900   22.913
 5577.00    1.84300   2.36421   -1.000
 5578.00    0.94252   2.37222   -1.000
 5579.00    0.19459   2.38060   -1.000
 5580.00    0.21085   2.38798   -1.000
 5581.00    1.20723   2.38826   -1.000
 5582.00    2.17717   2.38002   -1.000
 5583.00    2.47034   2.36638   -1.000
 5584.00    2.44447   2.34483   -1.000
 5585.00    2.39546   2.30451   -1.000
 5586.00    2.32355   2.24083   -1.000
 5587.00    2.26365   2.16950   -1.000
 5588.00    2.22583   2.11979   -1.000
 5589.00    2.22458   2.11130   -1.000
 5590.00    2.27379   2.13947   -1.000
 5591.00    2.31827   2.18238   -1.000
 5592.00    2.33250   2.21854   -1.000
 5593.00    2.33172   2.24166   -1.000
 5594.00    2.33493   2.26206   23.659
 5595.00    2.37143   2.29179   -1.000
 5596.00    2.42617   2.32536   -1.000
 5597.00    2.42583   2.34129   -1.000
 5598.00    2.37295   2.32495   23.087
 5599.00    2.33949   2.28429   23.273
 5600.00    2.31512   2.24028   23.671
 5601.00    2.28993   2.20825   -1.000
 5602.00    2.27964   2.19631   -1.000
 5603.00    2.30647   2.21490   -1.000
 5604.00    2.37764   2.26956   -1.000
 5605.00    2.45093   2.34521   -1.000
 5606.00    2.50058   2.41352   -1.000
 5607.00    2.52189   2.45530   22.650
 5608.00    2.52624   2.47026   22.360
 5609.00    2.54568   2.47066   22.296
 5610.00    2.54139   2.47071   22.325
 5611.00    2.52515   2.47578   22.371
 5612.00    2.51760   2.47454   22.354
 5613.00    2.47402   2.44370   22.287
 5614.00    2.39243   2.37100   22.377
 5615.00    2.31203   2.27928   22.811
 5616.00    2.29057   2.21652   23.584
 5617.00    2.34136   2.21383   -1.000
 5618.00    2.40131   2.25622   -1.000
 5619.00    2.43355   2.30320   -1.000
 5620.00    2.43486   2.33428   -1.000
 5621.00    2.45093   2.35421   -1.000
 5622.00    2.45535   2.36077   -1.000
 5623.00    2.41935   2.34052   -1.000
 5624.00    2.35917   2.29627   22.917
 5625.00    2.33739   2.25697   -1.000
 5626.00    2.36590   2.25328   -1.000
 5627.00    2.42982   2.28805   -1.000
 5628.00    2.47135   2.33996   -1.000
 5629.00    2.48689   2.38880   -1.000
 5630.00    2.50668   2.42489   -1.000
 5631.00    2.53169   2.44327   -1.000
 5632.00    2.53037   2.44275   -1.000
 5633.00    2.52313   2.42732   -1.000
 5634.00    2.49990   2.40294   -1.000
 5635.00    2.47205   2.37453   -1.000
 5636.00    2.44076   2.34722   -1.000
 5637.00    2.41650   2.32754   -1.000
 5638.00    2.41533   2.31996   -1.000
 5639.00    2.42133   2.32147   -1.000
 5640.00    2.41420   2.32243   -1.000
 5641.00    2.40718   2.31642   -1.000
 5642.00    2.40611   2.30938   -1.000
 5643.00    2.40630   2.31246   -1.000
 5644.00    2.43352   2.32709   -1.000
 5645.00    2.45363   2.34548   -1.000
 5646.00    2.45388   2.36133   -1.000
 5647.00    2.47122   2.37144   -1.000
 5648.00    2.48592   2.37362   -1.000
 5649.00    2.48036   2.37009   -1.000
 5650.00    2.47328   2.36919   -1.000
 5651.00    2.49641   2.37824   -1.000
 5652.00    2.51343   2.39226   -1.000
 5653.00    2.50604   2.39606   -1.000
 5654.00    2.48654   2.38273   -1.000
 5655.00    2.45247   2.35957   -1.000
 5656.00    2.42879   2.33171   -1.000
 5657.00    2.36772   2.29453   23.016
 5658.00    2.30411   2.24959   23.437
 5659.00    2.30399   2.21809   -1.000
 5660.00    2.34970   2.22139   -1.000
 5661.00    2.39643   2.24977   -1.000
 5662.00    2.39881   2.27670   -1.000
 5663.00    2.40417   2.29765   -1.000
 5664.00    2.43310   2.32420   -1.000
 5665.00    2.45428   2.35339   -1.000
 5666.00    2.45637   2.36912   -1.000
 5667.00    2.43423   2.36496   22.977
 5668.00    2.43434   2.35242   -1.000
 5669.00    2.42984   2.34763   -1.000
 5670.00    2.43148   2.35694   -1.000
 5671.00    2.45947   2.37909   -1.000
 5672.00    2.48909   2.41094   -1.000
 5673.00    2.53007   2.44417   -1.000
 5674.00    2.56217   2.46709   -1.000
 5675.00    2.55801   2.47528   -1.000
 5676.00    2.54352   2.47484   22.405
 5677.00    2.55755   2.47316   -1.000
 5678.00    2.56062   2.46935   -1.000
 5679.00    2.53842   2.45757   -1.000
 5680.00    2.52607   2.43627   -1.000
 5681.00    2.50817   2.40774   -1.000
 5682.00    2.46516   2.37614   -1.000
 5683.00    2.44495   2.35227   -1.000
 5684.00    2.44483   2.34712   -1.000
 5685.00    2.46204   2.35492   -1.000
 5686.00    2.46738   2.35803   -1.000
 5687.00    2.42981   2.35024   -1.000
 5688.00    2.42802   2.34370   -1.000
 5689.00    2.46576   2.35359   -1.000
 5690.00    2.51226   2.38274   -1.000
 5691.00    2.54265   2.42075   -1.000
 5692.00    2.56209   2.45376   -1.000
 5693.00    2.56755   2.47297   -1.000
 5694.00    2.55683   2.47743   -1.000
 5695.00    2.55892   2.47211   -1.000
 5696.00    2.56206   2.46148   -1.000
 5697.00    2.52886   2.44497   -1.000
 5698.00    2.48113   2.42086   22.540
 5699.00    2.45831   2.39174   22.747
 5700.00    2.43401   2.36258   23.010
 5701.00    2.42505   2.33902   -1.000
 5702.00    2.42800   2.32966   -1.000
 5703.00    2.43604   2.33902   -1.000
 5704.00    2.45791   2.35595   -1.000
 5705.00    2.45052   2.35967   -1.000
 5706.00    2.40880   2.33822   23.121
 5707.00    2.35076   2.29831   23.256
 5708.00    2.30883   2.25745   23.570
 5709.00    2.29611   2.22887   24.002
 5710.00    2.31178   2.21842   -1.000
 5711.00    2.34048   2.22947   -1.000
 5712.00    2.38583   2.26319   -1.000
 5713.00    2.43914   2.31507   -1.000
 5714.00    2.49395   2.37177   -1.000
 5715.00    2.51447   2.41761   -1.000
 5716.00    2.53342   2.44707   -1.000
 5717.00    2.55188   2.46495   -1.000
 5718.00    2.56312   2.47829   -1.000
 5719.00    2.58234   2.49284   -1.000
 5720.00    2.58695   2.51129   -1.000
 5721.00    2.61028   2.53181   -1.000
 5722.00    2.63208   2.55031   -1.000
 5723.00    2.62744   2.56253   22.196
 5724.00    2.61670   2.56311   22.161
 5725.00    2.58784   2.54757   22.133
 5726.00    2.56276   2.51927   22.177
 5727.00    2.55872   2.49282   22.350
 5728.00    2.55758   2.48396   22.584
 5729.00    2.56719   2.49146   -1.000
 5730.00    2.56716   2.49756   22.684
 5731.00    2.56289   2.49193   22.544
 5732.00    2.55767   2.48547   22.582
 5733.00    2.57314   2.49488   -1.000
 5734.00    2.60136   2.51916   -1.000
 5735.00    2.61677   2.53977   -1.000
 5736.00    2.60096   2.54334   22.272
 5737.00    2.58059   2.53382   22.275
 5738.00    2.59246   2.52376   22.303
 5739.00    2.60416   2.52047   -1.000
 5740.00    2.59626   2.52120   -1.000
 5741.00    2.58501   2.51997   22.433
 5742.00    2.58242   2.51653   22.469
 5743.00    2.58608   2.51790   22.518
 5744.00    2.60720   2.52973   -1.000
 5745.00    2.63425   2.54572   -1.000
 5746.00    2.63214   2.55007   -1.000
 5747.00    2.60012   2.53495   22.174
 5748.00    2.56307   2.51375   22.266
 5749.00    2.54551   2.50712   22.481
 5750.00    2.56556   2.51551   22.586
 5751.00    2.58735   2.51634   -1.000
 5752.00    2.56097   2.49046   22.397
 5753.00    2.50643   2.44788   22.543
 5754.00    2.50227   2.42156   -1.000
 5755.00    2.56156   2.43593   -1.000
 5756.00    2.60375   2.48460   -1.000
 5757.00    2.62589   2.53656   -1.000
 5758.00    2.65945   2.56252   -1.000
 5759.00    2.63947   2.55212   -1.000
 5760.00    2.58059   2.51238   22.138
 5761.00    2.54305   2.46199   -1.000
 5762.00    2.51397   2.42612   -1.000
 5763.00    2.52985   2.42624   -1.000
 5764.00    2.58225   2.46606   -1.000
 5765.00    2.64488   2.52500   -1.000
 5766.00    2.65516   2.57385   -1.000
 5767.00    2.65824   2.59894   22.217
 5768.00    2.65938   2.60421   22.123
 5769.00    2.66125   2.59787   22.098
 5770.00    2.65343   2.58577   22.063
 5771.00    2.63220   2.57130   22.097
 5772.00    2.60318   2.55582   22.168
 5773.00    2.59479   2.54120   22.285
 5774.00    2.57440   2.53155   22.423
 5775.00    2.57736   2.53115   22.491
 5776.00    2.59312   2.53996   22.520
 5777.00    2.58323   2.54877   22.483
 5778.00    2.56991   2.54121   22.378
 5779.00    2.53793   2.50529   22.342
 5780.00    2.44405   2.44443   22.402
 5781.00    2.34886   2.37855   22.693
 5782.00    2.30832   2.33203   23.187
 5783.00    2.31477   2.31455   23.526
 5784.00    2.34741   2.31570   23.530
 5785.00    2.40745   2.32561   -1.000
 5786.00    2.47375   2.34991   -1.000
 5787.00    2.53175   2.39309   -1.000
 5788.00    2.56462   2.44221   -1.000
 5789.00    2.58077   2.47709   -1.000
 5790.00    2.57574   2.48934   -1.000
 5791.00    2.56294   2.48908   -1.000
 5792.00    2.58415   2.49549   -1.000
 5793.00    2.60803   2.51964   -1.000
 5794.00    2.63574   2.55384   -1.000
 5795.00    2.65208   2.57815   -1.000
 5796.00    2.63017   2.57822   22.153
 5797.00    2.59048   2.55923   22.119
 5798.00    2.57431   2.54452   22.231
 5799.00    2.61333   2.55612   22.376
 5800.00    2.65942   2.59354   22.308
 5801.00    2.69320   2.63297   22.046
 5802.00    2.70441   2.64914   21.742
 5803.00    2.67416   2.63508   21.652
 5804.00    2.65058   2.60238   21.802
 5805.00    2.64683   2.57084   -1.000
 5806.00    2.65157   2.55542   -1.000
 5807.00    2.66009   2.55780   -1.000
 5808.00    2.65999   2.57022   -1.000
 5809.00    2.66676   2.58542   -1.000
 5810.00    2.67799   2.60014   -1.000
 5811.00    2.68689   2.61126   -1.000
 5812.00    2.67835   2.61384   22.061
 5813.00    2.67749   2.60377   -1.000
 5814.00    2.68642   2.58089   -1.000
 5815.00    2.64180   2.55239   -1.000
 5816.00    2.62341   2.53405   -1.000
 5817.00    2.64462   2.54136   -1.000
 5818.00    2.68900   2.57447   -1.000
 5819.00    2.72146   2.61563   -1.000
 5820.00    2.74994   2.64347   -1.000
 5821.00    2.73349   2.64954   -1.000
 5822.00    2.73454   2.64100   -1.000
 5823.00    2.71717   2.63083   -1.000
 5824.00    2.71956   2.62756   -1.000
 5825.00    2.72661   2.63112   -1.000
 5826.00    2.73126   2.63693   -1.000
 5827.00    2.73694   2.64208   -1.000
 5828.00    2.74770   2.64703   -1.000
 5829.00    2.74399   2.65273   -1.000
 5830.00    2.73286   2.65708   -1.000
 5831.00    2.74422   2.65669   -1.000
 5832.00    2.74681   2.65025   -1.000
 5833.00    2.73647   2.63865   -1.000
 5834.00    2.72440   2.62498   -1.000
 5835.00    2.71113   2.61461   -1.000
 5836.00    2.70981   2.61113   -1.000
 5837.00    2.70120   2.61221   -1.000
 5838.00    2.70429   2.61489   -1.000
 5839.00    2.72481   2.62234   -1.000
 5840.00    2.72367   2.63857   -1.000
 5841.00    2.73755   2.65979   -1.000
 5842.00    2.75767   2.67560   -1.000
 5843.00    2.75394   2.67743   -1.000
 5844.00    2.72883   2.66407   21.522
 5845.00    2.70669   2.63993   21.585
 5846.00    2.68587   2.61188   21.668
 5847.00    2.67859   2.58808   -1.000
 5848.00    2.67725   2.57519   -1.000
 5849.00    2.67120   2.57304   -1.000
 5850.00    2.66703   2.57221   -1.000
 5851.00    2.64690   2.56134   -1.000
 5852.00    2.61596   2.53901   -1.000
 5853.00    2.59748   2.51553   -1.000
 5854.00    2.59956   2.50065   -1.000
 5855.00    2.60699   2.49011   -1.000
 5856.00    2.58591   2.47008   -1.000
 5857.00    2.53848   2.43898   -1.000
 5858.00    2.53047   2.41635   -1.000
 5859.00    2.57371   2.42339   -1.000
 5860.00    2.61615   2.45828   -1.000
 5861.00    2.63003   2.49774   -1.000
 5862.00    2.63760   2.52280   -1.000
 5863.00    2.64370   2.53269   -1.000
 5864.00    2.64997   2.53503   -1.000
 5865.00    2.65927   2.53260   -1.000
 5866.00    2.64981   2.52492   -1.000
 5867.00    2.63766   2.51993   -1.000
 5868.00    2.66588   2.53039   -1.000
 5869.00    2.69132   2.55612   -1.000
 5870.00    2.70234   2.58238   -1.000
 5871.00    2.68711   2.59563   -1.000
 5872.00    2.68092   2.59412   -1.000
 5873.00    2.67333   2.58600   -1.000
 5874.00    2.69167   2.58034   -1.000
 5875.00    2.70039   2.57838   -1.000
 5876.00    2.69067   2.57320   -1.000
 5877.00    2.66596   2.55824   -1.000
 5878.00    2.65108   2.53430   -1.000
 5879.00    2.62740   2.50853   -1.000
 5880.00    2.60920   2.48993   -1.000
 5881.00    2.61090   2.48418   -1.000
 5882.00    2.62316   2.48801   -1.000
 5883.00    2.60822   2.49099   -1.000
 5884.00    2.60241   2.48712   -1.000
 5885.00    2.60887   2.47540   -1.000
 5886.00    2.56269   2.44233   -1.000
 5887.00    2.43263   2.35761   -1.000
 5888.00    2.17274   2.20210   22.951
 5889.00    1.80626   2.00463   -1.000
 5890.00    1.43776   1.84528   -1.000
 5891.00    1.26860   1.80070   -1.000
 5892.00    1.45164   1.87268   -1.000
 5893.00    1.80530   1.97826   -1.000
 5894.00    1.99092   2.02737   25.884
 5895.00    1.90005   2.00307   25.272
 5896.00    1.67360   1.96822   -1.000
 5897.00    1.58524   1.99869   -1.000
 5898.00    1.73374   2.10464   -1.000
 5899.00    2.05943   2.23567   25.529
 5900.00    2.36966   2.34519   24.626
 5901.00    2.52459   2.41969   -1.000
 5902.00    2.57111   2.46441   -1.000
 5903.00    2.58937   2.48743   -1.000
 5904.00    2.58932   2.49599   -1.000
 5905.00    2.59685   2.49667   -1.000
 5906.00    2.62532   2.49683   -1.000
 5907.00    2.64230   2.50293   -1.000
 5908.00    2.64689   2.51547   -1.000
 5909.00    2.64806   2.53000   -1.000
 5910.00    2.64619   2.54228   -1.000
 5911.00    2.64175   2.54742   -1.000
 5912.00    2.62416   2.53809   -1.000
 5913.00    2.59335   2.51037   -1.000
 5914.00    2.56079   2.47277   -1.000
 5915.00    2.54414   2.44493   -1.000
 5916.00    2.55270   2.44165   -1.000
 5917.00    2.57893   2.46131   -1.000
 5918.00    2.62134   2.49195   -1.000
 5919.00    2.63508   2.52067   -1.000
 5920.00    2.62793   2.53839   -1.000
 5921.00    2.60585   2.54266   22.931
 5922.00    2.59320   2.53841   22.852
 5923.00    2.61007   2.53566   -1.000
 5924.00    2.63115   2.54247   -1.000
 5925.00    2.63978   2.55711   -1.000
 5926.00    2.63676   2.56861   -1.000
 5927.00    2.62967   2.56554   22.668
 5928.00    2.62991   2.54558   -1.000
 5929.00    2.62358   2.51976   -1.000
 5930.00    2.61361   2.50549   -1.000
 5931.00    2.62796   2.51159   -1.000
 5932.00    2.64883   2.52830   -1.000
 5933.00    2.64952   2.53722   -1.000
 5934.00    2.63363   2.53253   -1.000
 5935.00    2.61888   2.52732   -1.000
 5936.00    2.63146   2.53691   -1.000
 5937.00    2.65092   2.55874   -1.000
 5938.00    2.67750   2.57631   -1.000
 5939.00    2.68895   2.57798   -1.000
 5940.00    2.66960   2.56326   -1.000
 5941.00    2.63355   2.54054   -1.000
 5942.00    2.61613   2.52431   -1.000
 5943.00    2.61732   2.52612   -1.000
 5944.00    2.63250   2.54422   -1.000
 5945.00    2.63786   2.56524   -1.000
 5946.00    2.64975   2.57445   -1.000
 5947.00    2.64657   2.56511   -1.000
 5948.00    2.60995   2.54391   -1.000
 5949.00    2.57228   2.52746   22.915
 5950.00    2.57973   2.52594   23.156
 5951.00    2.59610   2.53177   -1.000
 5952.00    2.60028   2.53234   -1.000
 5953.00    2.60770   2.52725   -1.000
 5954.00    2.61687   2.52549   -1.000
 5955.00    2.62471   2.52872   -1.000
 5956.00    2.62829   2.52801   -1.000
 5957.00    2.63175   2.52158   -1.000
 5958.00    2.64450   2.52182   -1.000
 5959.00    2.65294   2.53868   -1.000
 5960.00    2.65591   2.56772   -1.000
 5961.00    2.67033   2.59589   -1.000
 5962.00    2.69372   2.61227   -1.000
 5963.00    2.69185   2.61372   -1.000
 5964.00    2.68513   2.60359   -1.000
 5965.00    2.68366   2.58935   -1.000
 5966.00    2.67970   2.58105   -1.000
 5967.00    2.68423   2.58553   -1.000
 5968.00    2.70255   2.60036   -1.000
 5969.00    2.71259   2.61789   -1.000
 5970.00    2.71322   2.63308   -1.000
 5971.00    2.72046   2.64361   -1.000
 5972.00    2.72007   2.64694   -1.000
 5973.00    2.70226   2.64024   22.495
 5974.00    2.67995   2.62120   22.463
 5975.00    2.66084   2.59082   -1.000
 5976.00    2.64070   2.55739   -1.000
 5977.00    2.63046   2.53405   -1.000
 5978.00    2.62650   2.53006   -1.000
 5979.00    2.63433   2.54510   -1.000
 5980.00    2.66124   2.56835   -1.000
 5981.00    2.68129   2.58175   -1.000
 5982.00    2.67140   2.57079   -1.000
 5983.00    2.63118   2.53777   -1.000
 5984.00    2.60567   2.50373   -1.000
 5985.00    2.60953   2.49256   -1.000
 5986.00    2.63345   2.50959   -1.000
 5987.00    2.65833   2.53949   -1.000
 5988.00    2.68621   2.56621   -1.000
 5989.00    2.69491   2.58433   -1.000
 5990.00    2.68405   2.59393   -1.000
 5991.00    2.67578   2.59869   -1.000
 5992.00    2.67563   2.60667   -1.000
 5993.00    2.68832   2.62274   -1.000
 5994.00    2.71638   2.63956   -1.000
 5995.00    2.72251   2.64179   -1.000
 5996.00    2.71430   2.62228   -1.000
 5997.00    2.68758   2.59146   -1.000
 5998.00    2.66690   2.56863   -1.000
 5999.00    2.67275   2.56531   -1.000
 6000.00    2.68371   2.57585   -1.000
 6001.00    2.68906   2.58541   -1.000
 6002.00    2.67851   2.58561   -1.000
 6003.00    2.65855   2.58080   -1.000
 6004.00    2.65622   2.57851   -1.000
 6005.00    2.66560   2.57468   -1.000
 6006.00    2.63682   2.55815   -1.000
 6007.00    2.60664   2.53092   -1.000
 6008.00    2.60275   2.51307   -1.000
 6009.00    2.61857   2.52297   -1.000
 6010.00    2.64812   2.55359   -1.000
 6011.00    2.65547   2.57703   -1.000
 6012.00    2.63629   2.57584   -1.000
 6013.00    2.62835   2.55883   -1.000
 6014.00    2.62911   2.54557   -1.000
 6015.00    2.64254   2.54328   -1.000
 6016.00    2.64940   2.54480   -1.000
 6017.00    2.64733   2.54460   -1.000
 6018.00    2.64972   2.54262   -1.000
 6019.00    2.63693   2.53644   -1.000
 6020.00    2.63473   2.52601   -1.000
 6021.00    2.64272   2.51986   -1.000
 6022.00    2.63972   2.52585   -1.000
 6023.00    2.65271   2.54329   -1.000
 6024.00    2.67496   2.56659   -1.000
 6025.00    2.69530   2.59029   -1.000
 6026.00    2.71143   2.61106   -1.000
 6027.00    2.72445   2.62871   -1.000
 6028.00    2.73394   2.64547   -1.000
 6029.00    2.73858   2.66175   -1.000
 6030.00    2.75405   2.67511   -1.000
 6031.00    2.76405   2.68521   -1.000
 6032.00    2.76852   2.69587   -1.000
 6033.00    2.77555   2.71153   -1.000
 6034.00    2.77981   2.73210   22.649
 6035.00    2.78439   2.74961   22.558
 6036.00    2.78198   2.75430   22.489
 6037.00    2.77155   2.74443   22.470
 6038.00    2.75903   2.72590   22.437
 6039.00    2.73703   2.70633   22.444
 6040.00    2.71349   2.69267   22.550
 6041.00    2.72343   2.69028   22.620
 6042.00    2.74033   2.70007   22.682
 6043.00    2.74932   2.71683   22.664
 6044.00    2.77974   2.73210   22.624
 6045.00    2.80251   2.74090   -1.000
 6046.00    2.80489   2.74500   22.362
 6047.00    2.78623   2.74768   22.326
 6048.00    2.77515   2.74978   22.341
 6049.00    2.78941   2.75103   22.313
 6050.00    2.80840   2.75019   22.319
 6051.00    2.80180   2.74385   22.386
 6052.00    2.79009   2.72887   -1.000
 6053.00    2.77742   2.70657   -1.000
 6054.00    2.75723   2.68218   -1.000
 6055.00    2.75412   2.66111   -1.000
 6056.00    2.74035   2.64882   -1.000
 6057.00    2.72616   2.65022   -1.000
 6058.00    2.73241   2.66462   -1.000
 6059.00    2.75054   2.68376   -1.000
 6060.00    2.77037   2.69644   -1.000
 6061.00    2.77293   2.69467   -1.000
 6062.00    2.74778   2.67682   -1.000
 6063.00    2.71158   2.64777   -1.000
 6064.00    2.68822   2.61876   -1.000
 6065.00    2.65233   2.60593   23.351
 6066.00    2.61186   2.62164   22.890
 6067.00    2.63904   2.66217   31.025
 6068.00    2.65652   2.70797    9.632
 6069.00    2.75880   2.74120   12.739
 6070.00    2.79366   2.75926   23.912
 6071.00    2.78964   2.76882   22.661
 6072.00    2.83328   2.77380   -1.000
 6073.00    2.57825   2.77361   21.832
 6074.00    1.24583   2.76701   -1.000
 6075.00    1.84162   2.75304   -1.000
 6076.00    2.75615   2.73121   22.425
 6077.00    2.78881   2.70383   -1.000
 6078.00    2.72711   2.67684   22.593
 6079.00    2.72204   2.65616   -1.000
 6080.00    2.71728   2.64261   -1.000
 6081.00    2.70490   2.63282   -1.000
 6082.00    2.68882   2.62576   -1.000
 6083.00    2.69355   2.62404   -1.000
 6084.00    2.70499   2.62840   -1.000
 6085.00    2.71460   2.63670   -1.000
 6086.00    2.71535   2.64707   -1.000
 6087.00    2.71783   2.65627   -1.000
 6088.00    2.72492   2.65808   -1.000
 6089.00    2.70900   2.64840   -1.000
 6090.00    2.67808   2.63166   22.994
 6091.00    2.68432   2.61932   -1.000
 6092.00    2.69517   2.62052   -1.000
 6093.00    2.69986   2.63612   -1.000
 6094.00    2.73093   2.65967   -1.000
 6095.00    2.76663   2.68125   -1.000
 6096.00    2.78651   2.69401   -1.000
 6097.00    2.78301   2.69998   -1.000
 6098.00    2.77065   2.70420   -1.000
 6099.00    2.75444   2.70150   22.793
 6100.00    2.73213   2.67744   -1.000
 6101.00    2.69291   2.62695   -1.000
 6102.00    2.63664   2.56967   -1.000
 6103.00    2.61173   2.54064   -1.000
 6104.00    2.65825   2.55792   -1.000
 6105.00    2.71252   2.60523   -1.000
 6106.00    2.73817   2.65158   -1.000
 6107.00    2.73051   2.68099   23.147
 6108.00    2.72571   2.69747   22.995
 6109.00    2.73983   2.70778   23.046
 6110.00    2.74589   2.71242   23.118
 6111.00    2.74063   2.71305   23.125
 6112.00    2.74227   2.71654   23.084
 6113.00    2.76177   2.72610   22.995
 6114.00    2.76869   2.73523   22.961
 6115.00    2.76032   2.73520   22.877
 6116.00    2.75251   2.72566   22.797
 6117.00    2.74797   2.71190   22.847
 6118.00    2.74004   2.69351   22.986
 6119.00    2.70829   2.66326   23.056
 6120.00    2.65990   2.61897   23.138
 6121.00    2.61713   2.57359   23.413
 6122.00    2.59964   2.55045   23.738
 6123.00    2.63290   2.56401   -1.000
 6124.00    2.69529   2.60351   -1.000
 6125.00    2.71392   2.64088   -1.000
 6126.00    2.69726   2.65729   23.438
 6127.00    2.68383   2.65631   23.349
 6128.00    2.67846   2.65419   23.455
 6129.00    2.70142   2.66522   23.479
 6130.00    2.74513   2.69124   -1.000
 6131.00    2.76615   2.72008   23.276
 6132.00    2.75955   2.73352   23.059
 6133.00    2.73761   2.71559   22.959
 6134.00    2.69906   2.65840   22.984
 6135.00    2.61804   2.57121   23.153
 6136.00    2.54158   2.48681   23.592
 6137.00    2.51255   2.44777   -1.000
 6138.00    2.54279   2.47364   -1.000
 6139.00    2.61368   2.54147   -1.000
 6140.00    2.68183   2.60604   -1.000
 6141.00    2.69607   2.64248   -1.000
 6142.00    2.67596   2.66212   23.604
 6143.00    2.67845   2.68491   23.571
 6144.00    2.71184   2.71214   23.622
 6145.00    2.73003   2.73032   23.465
 6146.00    2.73175   2.72947   23.185
 6147.00    2.72945   2.71101   23.075
 6148.00    2.70929   2.68414   23.150
 6149.00    2.67868   2.66019   23.290
 6150.00    2.67412   2.64842   23.454
 6151.00    2.69072   2.65130   23.601
 6152.00    2.69903   2.66098   23.643
 6153.00    2.69670   2.66447   23.577
 6154.00    2.67884   2.65532   23.433
 6155.00    2.66949   2.63922   23.359
 6156.00    2.66432   2.62539   23.495
 6157.00    2.64549   2.61328   23.650
 6158.00    2.62955   2.59022   23.694
 6159.00    2.57757   2.54103   23.763
 6160.00    2.49436   2.46242   23.973
 6161.00    2.41795   2.37440   24.374
 6162.00    2.36950   2.31450   -1.000
 6163.00    2.37985   2.31048   -1.000
 6164.00    2.43961   2.35759   -1.000
 6165.00    2.49586   2.42478   -1.000
 6166.00    2.53408   2.47789   -1.000
 6167.00    2.53982   2.49647   24.838
 6168.00    2.50904   2.48117   24.662
 6169.00    2.46416   2.45437   24.684
 6170.00    2.46240   2.44684   24.932
 6171.00    2.50406   2.47237   25.220
 6172.00    2.55487   2.51644   25.166
 6173.00    2.57926   2.55428   24.750
 6174.00    2.57158   2.57461   24.352
 6175.00    2.56321   2.58157   24.269
 6176.00    2.57603   2.58425   24.306
 6177.00    2.60484   2.59021   24.268
 6178.00    2.60462   2.60190   24.214
 6179.00    2.60159   2.61625   24.156
 6180.00    2.61813   2.63027   24.052
 6181.00    2.62756   2.64383   23.952
 6182.00    2.63331   2.65471   23.875
 6183.00    2.63539   2.65687   23.775
 6184.00    2.63308   2.64590   23.697
 6185.00    2.60809   2.62272   23.713
 6186.00    2.58353   2.59276   23.791
 6187.00    2.56018   2.56269   23.949
 6188.00    2.52910   2.53530   24.195
 6189.00    2.50750   2.50742   24.452
 6190.00    2.47960   2.47830   24.690
 6191.00    2.45112   2.45990   24.885
 6192.00    2.47234   2.46935   25.163
 6193.00    2.53163   2.50899   25.386
 6194.00    2.58983   2.56149   25.233
 6195.00    2.61900   2.60499   24.692
 6196.00    2.61899   2.62744   24.208
 6197.00    2.60879   2.62690   23.994
 6198.00    2.58532   2.60878   23.934
 6199.00    2.56031   2.58757   24.033
 6200.00    2.55236   2.58189   24.284
 6201.00    2.56638   2.59914   24.514
 6202.00    2.58660   2.62926   24.557
 6203.00    2.60480   2.65664   24.368
 6204.00    2.61575   2.67367   24.070
 6205.00    2.60899   2.68243   23.926
 6206.00    2.62162   2.68741   23.919
 6207.00    2.63649   2.68981   23.894
 6208.00    2.63051   2.68741   23.877
 6209.00    2.62347   2.67712   23.943
 6210.00    2.61400   2.65676   23.976
 6211.00    2.59777   2.62420   24.041
 6212.00    2.56218   2.57887   24.232
 6213.00    2.51108   2.52713   24.438
 6214.00    2.47565   2.48378   24.658
 6215.00    2.46262   2.46335   24.995
 6216.00    2.48005   2.46783   25.296
 6217.00    2.51639   2.48391   25.416
 6218.00    2.52211   2.49392   25.202
 6219.00    2.50704   2.49184   24.993
 6220.00    2.50556   2.48765   25.097
 6221.00    2.52383   2.49338   25.111
 6222.00    2.54279   2.50922   24.937
 6223.00    2.55438   2.52642   24.978
 6224.00    2.56931   2.53889   26.277
 6225.00    2.55126   2.54703   26.424
 6226.00    2.51304   2.55052   25.147
 6227.00    2.52648   2.54274   24.720
 6228.00    2.53077   2.51553   24.770
 6229.00    2.48769   2.47003   24.863
 6230.00    2.44260   2.42313   25.144
 6231.00    2.42872   2.39977   25.548
 6232.00    2.45677   2.41515   -1.000
 6233.00    2.51784   2.46435   -1.000
 6234.00    2.56785   2.52596   -1.000
 6235.00    2.60034   2.57375   25.174
 6236.00    2.59474   2.59026   24.738
 6237.00    2.56945   2.57516   24.531
 6238.00    2.54475   2.54188   24.616
 6239.00    2.49980   2.50699   24.851
 6240.00    2.46818   2.48089   25.106
 6241.00    2.46741   2.46373   25.369
 6242.00    2.47069   2.44982   25.531
 6243.00    2.45821   2.43691   25.552
 6244.00    2.45145   2.42994   25.667
 6245.00    2.46769   2.43592   25.855
 6246.00    2.49288   2.45813   25.899
 6247.00    2.52469   2.49360   25.775
 6248.00    2.55564   2.53132   25.544
 6249.00    2.56896   2.55506   25.239
 6250.00    2.56422   2.55279   24.953
 6251.00    2.52347   2.52477   24.850
 6252.00    2.48435   2.48429   25.003
 6253.00    2.46624   2.44880   25.398
 6254.00    2.45240   2.42658   25.778
 6255.00    2.43255   2.41234   25.994
 6256.00    2.41536   2.39725   26.097
 6257.00    2.40609   2.38310   26.111
 6258.00    2.40473   2.38296   26.257
 6259.00    2.42941   2.40755   26.507
 6260.00    2.48146   2.45436   26.515
 6261.00    2.53053   2.50935   26.197
 6262.00    2.56719   2.55612   25.791
 6263.00    2.60232   2.58328   25.430
 6264.00    2.60197   2.58913   25.055
 6265.00    2.58446   2.58318   24.833
 6266.00    2.57938   2.57888   24.929
 6267.00    2.58334   2.58096   25.122
 6268.00    2.58467   2.58379   25.106
 6269.00    2.56825   2.58348   24.934
 6270.00    2.57009   2.58428   24.923
 6271.00    2.57740   2.59118   25.050
 6272.00    2.58702   2.60171   25.075
 6273.00    2.60831   2.60737   25.000
 6274.00    2.61275   2.60108   24.929
 6275.00    2.59823   2.58247   24.951
 6276.00    2.58802   2.55680   25.097
 6277.00    2.56074   2.52974   25.298
 6278.00    2.50766   2.50472   25.630
 6279.00    2.44649   2.48473   26.204
 6280.00    2.39550   2.47515   26.761
 6281.00    2.36675   2.48270   27.033
 6282.00    2.36495   2.50911   27.015
 6283.00    2.36839   2.54674   26.695
 6284.00    2.37327   2.58387   -1.000
 6285.00    2.37745   2.61381   -1.000
 6286.00    2.40307   2.63758   -1.000
 6287.00    2.45965   2.65740   25.230
 6288.00    2.52041   2.66969   25.012
 6289.00    2.54922   2.66752   24.816
 6290.00    2.55900   2.64970   24.723
 6291.00    2.55904   2.62489   24.794
 6292.00    2.55540   2.60505   24.984
 6293.00    2.55738   2.59493   25.183
 6294.00    2.55850   2.58876   25.283
 6295.00    2.55895   2.57676   25.311
 6296.00    2.54992   2.55645   25.349
 6297.00    2.57414   2.53679   25.490
 6298.00    2.65645   2.52767   -1.000
 6299.00    2.78235   2.52730   -1.000
 6300.00    2.97108   2.52564   -1.000
 6301.00    3.27327   2.51987   -1.000
 6302.00    3.64728   2.51887   -1.000
 6303.00    3.82904   2.53104   -1.000
 6304.00    3.63106   2.55531   -1.000
 6305.00    3.23515   2.58539   -1.000
 6306.00    2.89383   2.61665   -1.000
 6307.00    2.71858   2.64541   -1.000
 6308.00    2.67756   2.66485   24.936
 6309.00    2.65020   2.66802   24.719
 6310.00    2.61635   2.65580   24.606
 6311.00    2.59324   2.63671   24.667
 6312.00    2.58128   2.61820   24.819
 6313.00    2.58484   2.60070   24.945
 6314.00    2.57395   2.58092   25.041
 6315.00    2.55022   2.55878   25.096
 6316.00    2.52050   2.53773   25.243
 6317.00    2.50944   2.52173   25.401
 6318.00    2.51617   2.51726   25.417
 6319.00    2.53537   2.53149   25.391
 6320.00    2.56626   2.56219   25.403
 6321.00    2.59093   2.59725   25.364
 6322.00    2.61700   2.62741   25.133
 6323.00    2.63325   2.65229   24.854
 6324.00    2.64818   2.67381   24.705
 6325.00    2.66971   2.69015   24.624
 6326.00    2.67144   2.69909   24.510
 6327.00    2.66594   2.70256   24.409
 6328.00    2.67426   2.70408   24.374
 6329.00    2.68002   2.70511   24.297
 6330.00    2.67948   2.70697   24.256
 6331.00    2.67984   2.71122   24.284
 6332.00    2.67597   2.71351   24.300
 6333.00    2.66264   2.70259   24.254
 6334.00    2.64263   2.67182   24.189
 6335.00    2.62362   2.63061   24.215
 6336.00    2.61091   2.60020   24.283
 6337.00    2.59933   2.59564   24.645
 6338.00    2.61760   2.61498   24.940
 6339.00    2.66327   2.64502   24.806
 6340.00    2.68770   2.67070   24.561
 6341.00    2.68627   2.68009   24.297
 6342.00    2.67840   2.66971   24.118
 6343.00    2.67028   2.64882   24.007
 6344.00    2.64809   2.63476   23.970
 6345.00    2.63482   2.63967   24.113
 6346.00    2.66564   2.66192   24.233
 6347.00    2.69193   2.69143   24.197
 6348.00    2.70302   2.71931   24.088
 6349.00    2.72245   2.74075   23.931
 6350.00    2.72439   2.75348   23.807
 6351.00    2.70353   2.75569   23.777
 6352.00    2.68336   2.74532   23.753
 6353.00    2.66480   2.72281   23.741
 6354.00    2.64162   2.69448   23.814
 6355.00    2.62220   2.66910   23.925
 6356.00    2.61086   2.64867   24.132
 6357.00    2.60795   2.62699   24.379
 6358.00    2.58983   2.59934   24.468
 6359.00    2.56004   2.56919   24.504
 6360.00    2.56491   2.54355   24.702
 6361.00    2.59227   2.52703   -1.000
 6362.00    2.62721   2.52316   -1.000
 6363.00    2.70012   2.53562   -1.000
 6364.00    2.80677   2.56444   -1.000
 6365.00    2.92657   2.60375   -1.000
 6366.00    3.02321   2.64571   -1.000
 6367.00    3.03579   2.68375   -1.000
 6368.00    2.95281   2.71240   -1.000
 6369.00    2.83806   2.72919   -1.000
 6370.00    2.74556   2.73847   23.929
 6371.00    2.70164   2.74862   23.826
 6372.00    2.70908   2.76344   23.815
 6373.00    2.72038   2.77832   23.779
 6374.00    2.72263   2.78680   23.685
 6375.00    2.72396   2.78734   23.681
 6376.00    2.70959   2.78109   23.727
 6377.00    2.69356   2.76852   23.761
 6378.00    2.67336   2.75199   23.836
 6379.00    2.65378   2.73737   23.945
 6380.00    2.64699   2.73013   24.092
 6381.00    2.63575   2.73160   24.217
 6382.00    2.65010   2.73846   24.262
 6383.00    2.67310   2.74581   24.292
 6384.00    2.66810   2.75191   24.311
 6385.00    2.66155   2.75907   24.268
 6386.00    2.65353   2.76892   24.301
 6387.00    2.64402   2.77894   24.391
 6388.00    2.63806   2.78513   24.400
 6389.00    2.62775   2.78408   24.430
 6390.00    2.60956   2.77118   24.512
 6391.00    2.58806   2.74256   24.661
 6392.00    2.55347   2.70366   24.865
 6393.00    2.51219   2.67285   25.110
 6394.00    2.50407   2.66946   25.456
 6395.00    2.52556   2.69491   25.753
 6396.00    2.54631   2.72832   25.796
 6397.00    2.54608   2.74200   25.529
 6398.00    2.51722   2.72300   25.323
 6399.00    2.47368   2.68524   -1.000
 6400.00    2.44015   2.66120   -1.000
 6401.00    2.44304   2.67463   -1.000
 6402.00    2.48261   2.71899   -1.000
 6403.00    2.51622   2.76661   -1.000
 6404.00    2.52930   2.79335   -1.000
 6405.00    2.51875   2.79128   -1.000
 6406.00    2.47732   2.76803   -1.000
 6407.00    2.44675   2.74072   -1.000
 6408.00    2.42263   2.72441   -1.000
 6409.00    2.39839   2.72115   -1.000
 6410.00    2.38106   2.72169   -1.000
 6411.00    2.36809   2.71862   -1.000
 6412.00    2.35431   2.71494   -1.000
 6413.00    2.33361   2.71778   -1.000
 6414.00    2.33603   2.72859   -1.000
 6415.00    2.33615   2.74270   -1.000
 6416.00    2.31678   2.75299   -1.000
 6417.00    2.30298   2.75151   -1.000
 6418.00    2.28249   2.73372   -1.000
 6419.00    2.23975   2.70485   -1.000
 6420.00    2.20055   2.68088   -1.000
 6421.00    2.18896   2.67940   -1.000
 6422.00    2.19831   2.70492   -1.000
 6423.00    2.21430   2.74426   -1.000
 6424.00    2.21861   2.77991   -1.000
 6425.00    2.21340   2.80412   -1.000
 6426.00    2.20221   2.81728   -1.000
 6427.00    2.18153   2.81739   -1.000
 6428.00    2.15051   2.79833   -1.000
