###################################################################
## OUTPUT of StarlightChains_v04.for    [Cid@UFSC - 01/Apr/2007] ##
###################################################################

## Some input info
NGC5286_a_1.cxt                          [arq_obs]
Base.BC03.N                              [arq_base]
NGC5286_a_1.msk                          [arq_masks]
StCv04.C99.config                        [arq_config]
   45                                    [N_base]
    0                                    [N_YAV_components = # of components with extra extinction!]
    0                                    [i_FitPowerLaw (1/0 = Yes/No)]
-9.99                                    [alpha_PowerLaw]
CCM                                      [red_law_option]
 1.458241                                [q_norm = A(l_norm)/A(V)]

## (Re)Sampling Parameters
 3359.00                                 [l_ini (A)]
 6428.00                                 [l_fin (A)]
    1.00                                 [dl    (A)]     (OBS: dl_cushion =    50.00 A)

## Normalization info
 4020.00                                 [l_norm (A) - for base]
 4010.00                                 [llow_norm (A) - window for f_obs]
 4060.00                                 [lupp_norm (A) - window for f_obs]
3.810619E-14                             [fobs_norm (in input units)]

## S/N
 4730.00                                 [llow_SN (A) - window for S/N]
 4780.00                                 [lupp_SN (A) - window for S/N]
 122.361                                 [S/N in S/N window]
 104.972                                 [S/N in norm. window]
 167.801                                 [S/N_err in S/N window]
 143.955                                 [S/N_err in norm. window]
  1.0000                                 [fscale_chi2]

## etc...
  2147483638                             [idum_orig]
  3069                                   [NOl_eff]
  1417                                   [Nl_eff]
  1652    NSIGMA                         [Ntot_cliped & clip_method]
  1557360                                [Nglobal_steps]
   7                                     [N_chains]
   8                                     [NEX0s_base = N_base in EX0s-fits]
 0   0   1      194   2.0   3.182E+02    [Clip-Bug, RC-Crash & Burn-In warning-flags, n_censored_weights, wei_nsig_threshold & wei_limit]
    24     23.241     23.237      0.004  [idt_all, wdt_TotTime, wdt_UsrTime & wdt_SysTime (sec)]

## Synthesis Results - Best model ##

 2.84197E+00                             [chi2/Nl_eff]
     1.04608                             [adev (%)]

   101.42218                             [sum-of-x (%)]
 1.99395E-13                             [Flux_tot (units of input spectrum!)]
 1.08938E-09                             [Mini_tot (???)]
 5.96187E-10                             [Mcor_tot (???)]

 -18.74                                  [v0_min  (km/s)]
 102.05                                  [vd_min  (km/s)]
 1.2217                                  [AV_min  (mag)]
 0.0000                                  [YAV_min (mag)]

# j     x_j(%)      Mini_j(%)     Mcor_j(%)     age_j(yr)     Z_j      (L/M)_j    YAV?  Mstars   component_j        a/Fe...       SSP_chi2r SSP_adev(%)   SSP_AV   SSP_x(%)
  1      0.0000     0.0000E+00    0.0000E+00    1.000000E+06  0.00400  1.114E-02    0   1.0000   age020_m42            0.0000     4.5545E+02    10.3627   4.0000    77.6444
  2     15.5019     6.8687E-02    1.2549E-01    3.160000E+06  0.00400  4.073E-02    0   0.9999   age045_m42            0.0000     7.0145E+01     4.3017   3.0451    91.9770
  3      0.0000     0.0000E+00    0.0000E+00    5.010000E+06  0.00400  2.534E-02    0   0.9488   age055_m42            0.0000     2.1082E+02     7.2702   3.4487    85.4288
  4      9.6047     1.3638E-01    2.2084E-01    1.000000E+07  0.00400  1.271E-02    0   0.8862   age070_m42            0.0000     1.7771E+02     7.3123   2.6584    89.2951
  5      0.0000     0.0000E+00    0.0000E+00    2.512000E+07  0.00400  5.070E-03    0   0.8174   age090_m42            0.0000     1.5106E+02     6.7365   2.5314    90.7869
  6      0.0000     0.0000E+00    0.0000E+00    4.000000E+07  0.00400  3.505E-03    0   0.7851   age104_m42            0.0000     7.9181E+01     4.8206   2.2203    93.7253
  7     12.6528     1.0068E+00    1.3259E+00    1.015200E+08  0.00400  2.268E-03    0   0.7207   age116_m42            0.0000     1.6416E+02     5.2163   2.2217   103.7080
  8      0.0000     0.0000E+00    0.0000E+00    2.861200E+08  0.00400  1.079E-03    0   0.6613   age125_m42            0.0000     1.9401E+02     6.0443   1.7367   105.4987
  9      0.2093     7.4381E-02    8.4225E-02    6.405400E+08  0.00400  5.077E-04    0   0.6197   age132_m42            0.0000     2.2535E+02     6.4953   1.3762   109.4528
 10     27.0722     1.3821E+01    1.5213E+01    9.047900E+08  0.00400  3.535E-04    0   0.6024   age135_m42            0.0000     1.2975E+02     5.2624   1.1382   108.5433
 11      7.3660     6.9598E+00    7.2692E+00    1.434000E+09  0.00400  1.910E-04    0   0.5716   age139_m42            0.0000     7.1733E+01     4.6060   0.6131   107.1268
 12     16.6352     3.0578E+01    3.0524E+01    2.500000E+09  0.00400  9.818E-05    0   0.5463   age150_m42            0.0000     7.2485E+01     4.0637   0.3382   102.3004
 13     12.3801     4.7355E+01    4.5238E+01    5.000000E+09  0.00400  4.718E-05    0   0.5228   age161_m42            0.0000     1.1358E+02     4.5167   0.1732    98.7814
 14      0.0000     0.0000E+00    0.0000E+00    1.100000E+10  0.00400  2.205E-05    0   0.4980   age185_m42            0.0000     2.1767E+02     6.0998  -0.0839    96.4746
 15      0.0000     0.0000E+00    0.0000E+00    1.300000E+10  0.00400  1.883E-05    0   0.4927   age193_m42            0.0000     2.3381E+02     6.3034  -0.1001    96.2716
 16      0.0000     0.0000E+00    0.0000E+00    1.000000E+06  0.02000  1.989E-02    0   1.0000   age020_m62            0.0000     4.5870E+02    10.3850   3.9712    78.1272
 17      0.0000     0.0000E+00    0.0000E+00    3.160000E+06  0.02000  3.772E-02    0   0.9858   age045_m62            0.0000     4.0319E+02     9.8392   3.8301    80.3753
 18      0.0000     0.0000E+00    0.0000E+00    5.010000E+06  0.02000  3.227E-02    0   0.9342   age055_m62            0.0000     1.2635E+02     5.7396   3.3052    88.4932
 19      0.0000     0.0000E+00    0.0000E+00    1.000000E+07  0.02000  1.011E-02    0   0.8751   age070_m62            0.0000     4.8027E+02    11.9181   2.6867    85.0066
 20      0.0000     0.0000E+00    0.0000E+00    2.512000E+07  0.02000  4.206E-03    0   0.8099   age090_m62            0.0000     3.3782E+02     9.7471   2.6237    85.9690
 21      0.0000     0.0000E+00    0.0000E+00    4.000000E+07  0.02000  3.373E-03    0   0.7799   age104_m62            0.0000     5.7935E+01     4.2003   2.4355    95.2033
 22      0.0000     0.0000E+00    0.0000E+00    1.015200E+08  0.02000  1.878E-03    0   0.7221   age116_m62            0.0000     1.1585E+02     4.1052   2.2505   103.8462
 23      0.0000     0.0000E+00    0.0000E+00    2.861200E+08  0.02000  8.869E-04    0   0.6700   age125_m62            0.0000     3.7792E+02     8.1725   1.7463   110.6557
 24      0.0000     0.0000E+00    0.0000E+00    6.405400E+08  0.02000  3.657E-04    0   0.6322   age132_m62            0.0000     2.6948E+02     7.8947   1.0696   113.8428
 25      0.0000     0.0000E+00    0.0000E+00    9.047900E+08  0.02000  2.312E-04    0   0.6152   age135_m62            0.0000     1.6106E+02     6.6232   0.6936   112.8343
 26      0.0000     0.0000E+00    0.0000E+00    1.434000E+09  0.02000  1.168E-04    0   0.5865   age139_m62            0.0000     1.0181E+02     5.0865   0.2789   106.6722
 27      0.0000     0.0000E+00    0.0000E+00    2.500000E+09  0.02000  5.505E-05    0   0.5610   age150_m62            0.0000     1.8817E+02     6.2225  -0.0902   103.5495
 28      0.0000     0.0000E+00    0.0000E+00    5.000000E+09  0.02000  2.596E-05    0   0.5353   age161_m62            0.0000     3.6015E+02     8.3183  -0.4185   103.4256
 29      0.0000     0.0000E+00    0.0000E+00    1.100000E+10  0.02000  1.169E-05    0   0.5103   age185_m62            0.0000     5.6032E+02    10.3177  -0.7802   104.7729
 30      0.0000     0.0000E+00    0.0000E+00    1.300000E+10  0.02000  9.691E-06    0   0.5047   age193_m62            0.0000     5.9943E+02    10.6446  -0.8259   104.9766
 31      0.0000     0.0000E+00    0.0000E+00    1.000000E+06  0.05000  2.651E-02    0   0.9998   age020_m72            0.0000     4.2566E+02     9.8415   3.9749    78.9804
 32      0.0000     0.0000E+00    0.0000E+00    3.160000E+06  0.05000  4.817E-02    0   0.9577   age045_m72            0.0000     2.7246E+02     8.0179   3.6872    83.7505
 33      0.0000     0.0000E+00    0.0000E+00    5.010000E+06  0.05000  3.101E-02    0   0.9147   age055_m72            0.0000     2.4252E+02     7.7595   3.3267    86.3445
 34      0.0000     0.0000E+00    0.0000E+00    1.000000E+07  0.05000  8.954E-03    0   0.8524   age070_m72            0.0000     2.6725E+02     7.8814   3.5683    84.8184
 35      0.0000     0.0000E+00    0.0000E+00    2.512000E+07  0.05000  4.207E-03    0   0.7902   age090_m72            0.0000     1.0467E+02     5.0968   3.1350    90.6227
 36      0.0000     0.0000E+00    0.0000E+00    4.000000E+07  0.05000  3.198E-03    0   0.7618   age104_m72            0.0000     4.8989E+01     2.9885   2.6260    99.2825
 37      0.0000     0.0000E+00    0.0000E+00    1.015200E+08  0.05000  1.716E-03    0   0.7092   age116_m72            0.0000     1.5900E+02     4.9538   2.3392   104.0567
 38      0.0000     0.0000E+00    0.0000E+00    2.861200E+08  0.05000  7.047E-04    0   0.6618   age125_m72            0.0000     3.7950E+02     8.5603   1.5402   111.1969
 39      0.0000     0.0000E+00    0.0000E+00    6.405400E+08  0.05000  2.633E-04    0   0.6253   age132_m72            0.0000     2.2599E+02     7.6000   0.6896   113.3719
 40      0.0000     0.0000E+00    0.0000E+00    9.047900E+08  0.05000  1.484E-04    0   0.6088   age135_m72            0.0000     1.5781E+02     6.5047   0.2088   107.9708
 41      0.0000     0.0000E+00    0.0000E+00    1.434000E+09  0.05000  7.827E-05    0   0.5847   age139_m72            0.0000     2.5358E+02     7.4819  -0.1785   104.2156
 42      0.0000     0.0000E+00    0.0000E+00    2.500000E+09  0.05000  3.759E-05    0   0.5583   age150_m72            0.0000     3.9101E+02     8.7798  -0.4975   103.1802
 43      0.0000     0.0000E+00    0.0000E+00    5.000000E+09  0.05000  1.548E-05    0   0.5320   age161_m72            0.0000     5.7650E+02    10.3997  -0.9117   102.8587
 44      0.0000     0.0000E+00    0.0000E+00    1.100000E+10  0.05000  6.532E-06    0   0.5070   age185_m72            0.0000     8.9999E+02    13.1740  -1.0000    94.6703
 45      0.0000     0.0000E+00    0.0000E+00    1.300000E+10  0.05000  5.316E-06    0   0.5018   age193_m72            0.0000     1.0827E+03    14.5747  -1.0000    91.4186


## Synthesis Results - Average & Chains ##

# j      x_j: min, <> & last-chain-values for 1 ...  7 chains
  1      0.0000      0.0077      0.0000      0.0000      0.0000      0.0000      0.0000      0.0000      0.0443
  2     15.5019     13.3303     13.6072     13.4414     13.7027     13.5528     13.7129     13.5210     13.6194
  3      0.0000      0.0268      0.0000      0.0000      0.0000      0.0103      0.0277      0.0000      0.0000
  4      9.6047     10.6982     10.8133     10.7811     10.6785     10.7166     10.6426     10.8229     10.6946
  5      0.0000      0.0531      0.0000      0.1791      0.0000      0.0000      0.0000      0.0110      0.0000
  6      0.0000      0.0248      0.0000      0.0000      0.0000      0.0000      0.0044      0.0000      0.0000
  7     12.6528     12.9788     13.0638     13.1016     13.0483     13.4001     13.0074     13.0665     13.1534
  8      0.0000      0.0901      0.1998      0.0000      0.0000      0.0665      0.0009      0.0347      0.0000
  9      0.2093      0.5246      0.5948      0.5021      0.8881      0.5356      0.9945      1.0827      0.0714
 10     27.0722     25.0545     25.1665     25.3007     25.0285     25.4898     25.1091     25.0089     26.1521
 11      7.3660      9.6879      9.5018      9.7815      9.5300      9.1859      9.1119      9.3034      9.2317
 12     16.6352     15.4356     15.4746     15.5456     15.4832     15.5123     15.3799     15.2755     15.4086
 13     12.3801     12.0704     11.8866     11.5213     11.9608     12.0936     11.9365     12.1890     12.0849
 14      0.0000      0.0145      0.0000      0.0000      0.0000      0.0000      0.0000      0.0000      0.0000
 15      0.0000      0.0084      0.0000      0.0000      0.0000      0.0000      0.0000      0.0000      0.0000
 16      0.0000      0.0058      0.0000      0.0000      0.0000      0.0000      0.0000      0.0000      0.0000
 17      0.0000      0.0063      0.0053      0.0000      0.0000      0.0000      0.0000      0.0459      0.0000
 18      0.0000      0.0948      0.0937      0.2278      0.0000      0.0175      0.1395      0.1385      0.0000
 19      0.0000      0.0154      0.0000      0.0000      0.0712      0.0000      0.0000      0.0000      0.0000
 20      0.0000      0.0073      0.0000      0.0000      0.0000      0.0000      0.0000      0.0000      0.0000
 21      0.0000      0.0233      0.0000      0.0000      0.0213      0.0000      0.0013      0.0000      0.0266
 22      0.0000      0.0455      0.0000      0.0000      0.0234      0.0000      0.0567      0.0000      0.0000
 23      0.0000      0.0353      0.0000      0.0000      0.0000      0.0168      0.0203      0.0000      0.0000
 24      0.0000      0.0237      0.0021      0.0000      0.0000      0.0000      0.0000      0.0000      0.0000
 25      0.0000      0.0379      0.0000      0.0000      0.0008      0.0303      0.0000      0.0000      0.0000
 26      0.0000      0.0856      0.0000      0.0692      0.0000      0.0816      0.1648      0.1549      0.1021
 27      0.0000      0.0610      0.1809      0.1184      0.0000      0.0145      0.2800      0.0043      0.0319
 28      0.0000      0.0247      0.0000      0.0000      0.1430      0.0179      0.0000      0.0000      0.0387
 29      0.0000      0.0095      0.0000      0.0302      0.0000      0.0000      0.0000      0.0000      0.0000
 30      0.0000      0.0480      0.0000      0.0000      0.0000      0.1043      0.0000      0.0000      0.0416
 31      0.0000      0.0052      0.0000      0.0000      0.0000      0.0000      0.0000      0.0000      0.0000
 32      0.0000      0.0159      0.0000      0.0000      0.0159      0.0000      0.0132      0.0000      0.0003
 33      0.0000      0.0225      0.0000      0.0000      0.0000      0.0000      0.0000      0.0018      0.0000
 34      0.0000      0.0059      0.0000      0.0000      0.0000      0.0000      0.0000      0.0000      0.0000
 35      0.0000      0.0089      0.0000      0.0000      0.0000      0.0012      0.0000      0.0000      0.0000
 36      0.0000      0.0270      0.0000      0.0000      0.0092      0.0000      0.0000      0.0000      0.0000
 37      0.0000      0.0667      0.0517      0.0099      0.0719      0.0000      0.0000      0.0106      0.0000
 38      0.0000      0.0359      0.0000      0.0000      0.0000      0.0092      0.0000      0.0037      0.0004
 39      0.0000      0.0516      0.0000      0.0419      0.0000      0.0000      0.1178      0.0684      0.0000
 40      0.0000      0.0789      0.1275      0.1806      0.1494      0.0000      0.1157      0.0000      0.1328
 41      0.0000      0.2027      0.2924      0.2096      0.1743      0.0685      0.2086      0.2070      0.3188
 42      0.0000      0.1088      0.1102      0.1118      0.1843      0.1543      0.1509      0.1271      0.0000
 43      0.0000      0.0699      0.0470      0.0207      0.0617      0.1066      0.0719      0.1248      0.0297
 44      0.0000      0.2220      0.2152      0.2984      0.2150      0.2201      0.1942      0.2094      0.2292
 45      0.0000      0.1034      0.1136      0.0939      0.0976      0.1461      0.0912      0.1221      0.1455

# j      m_j: min, <> & last-chain-values for 1 ...  7 chains
  1  0.0000E+00  2.0616E-04  0.0000E+00  0.0000E+00  0.0000E+00  0.0000E+00  0.0000E+00  0.0000E+00  1.1828E-03
  2  1.2549E-01  9.7541E-02  1.0108E-01  9.9352E-02  1.0137E-01  9.7545E-02  1.0240E-01  9.9501E-02  9.9368E-02
  3  0.0000E+00  2.9960E-04  0.0000E+00  0.0000E+00  0.0000E+00  1.1263E-04  3.1501E-04  0.0000E+00  0.0000E+00
  4  2.2084E-01  2.2233E-01  2.2813E-01  2.2633E-01  2.2436E-01  2.1907E-01  2.2571E-01  2.2621E-01  2.2161E-01
  5  0.0000E+00  2.5511E-03  0.0000E+00  8.6927E-03  0.0000E+00  0.0000E+00  0.0000E+00  5.3228E-04  0.0000E+00
  6  0.0000E+00  1.6584E-03  0.0000E+00  0.0000E+00  0.0000E+00  0.0000E+00  3.0237E-04  0.0000E+00  0.0000E+00
  7  1.3259E+00  1.2293E+00  1.2561E+00  1.2535E+00  1.2494E+00  1.2484E+00  1.2572E+00  1.2446E+00  1.2422E+00
  8  0.0000E+00  1.6452E-02  3.7051E-02  0.0000E+00  0.0000E+00  1.1950E-02  1.6339E-04  6.3803E-03  0.0000E+00
  9  8.4225E-02  1.9084E-01  2.1966E-01  1.8453E-01  3.2666E-01  1.9168E-01  3.6921E-01  3.9616E-01  2.5915E-02
 10  1.5213E+01  1.2726E+01  1.2977E+01  1.2981E+01  1.2852E+01  1.2735E+01  1.3015E+01  1.2775E+01  1.3245E+01
 11  7.2692E+00  8.6415E+00  8.6041E+00  8.8136E+00  8.5942E+00  8.0596E+00  8.2943E+00  8.3459E+00  8.2108E+00
 12  3.0524E+01  2.5600E+01  2.6054E+01  2.6044E+01  2.5961E+01  2.5306E+01  2.6030E+01  2.5479E+01  2.5481E+01
 13  4.5238E+01  3.9866E+01  3.9855E+01  3.8439E+01  3.9938E+01  3.9289E+01  4.0232E+01  4.0488E+01  3.9798E+01
 14  0.0000E+00  9.7631E-02  0.0000E+00  0.0000E+00  0.0000E+00  0.0000E+00  0.0000E+00  0.0000E+00  0.0000E+00
 15  0.0000E+00  6.5581E-02  0.0000E+00  0.0000E+00  0.0000E+00  0.0000E+00  0.0000E+00  0.0000E+00  0.0000E+00
 16  0.0000E+00  8.7616E-05  0.0000E+00  0.0000E+00  0.0000E+00  0.0000E+00  0.0000E+00  0.0000E+00  0.0000E+00
 17  0.0000E+00  4.9304E-05  4.1763E-05  0.0000E+00  0.0000E+00  0.0000E+00  0.0000E+00  3.5952E-04  0.0000E+00
 18  0.0000E+00  8.1780E-04  8.2092E-04  1.9858E-03  0.0000E+00  1.4860E-04  1.2282E-03  1.2015E-03  0.0000E+00
 19  0.0000E+00  3.9703E-04  0.0000E+00  0.0000E+00  1.8563E-03  0.0000E+00  0.0000E+00  0.0000E+00  0.0000E+00
 20  0.0000E+00  4.1655E-04  0.0000E+00  0.0000E+00  0.0000E+00  0.0000E+00  0.0000E+00  0.0000E+00  0.0000E+00
 21  0.0000E+00  1.6029E-03  0.0000E+00  0.0000E+00  1.4817E-03  0.0000E+00  9.2130E-05  0.0000E+00  1.8264E-03
 22  0.0000E+00  5.2192E-03  0.0000E+00  0.0000E+00  2.7164E-03  0.0000E+00  6.6265E-03  0.0000E+00  0.0000E+00
 23  0.0000E+00  7.9543E-03  0.0000E+00  0.0000E+00  0.0000E+00  3.7156E-03  4.6725E-03  0.0000E+00  0.0000E+00
 24  0.0000E+00  1.2216E-02  1.1032E-03  0.0000E+00  0.0000E+00  0.0000E+00  0.0000E+00  0.0000E+00  0.0000E+00
 25  0.0000E+00  3.0060E-02  0.0000E+00  0.0000E+00  6.1007E-04  2.3634E-02  0.0000E+00  0.0000E+00  0.0000E+00
 26  0.0000E+00  1.2817E-01  0.0000E+00  1.0465E-01  0.0000E+00  1.2011E-01  2.5172E-01  2.3311E-01  1.5231E-01
 27  0.0000E+00  1.8526E-01  5.5767E-01  3.6342E-01  0.0000E+00  4.3208E-02  8.6785E-01  1.3233E-02  9.6599E-02
 28  0.0000E+00  1.5166E-01  0.0000E+00  0.0000E+00  8.8884E-01  1.0815E-01  0.0000E+00  0.0000E+00  2.3735E-01
 29  0.0000E+00  1.2408E-01  0.0000E+00  3.9702E-01  0.0000E+00  0.0000E+00  0.0000E+00  0.0000E+00  0.0000E+00
 30  0.0000E+00  7.4466E-01  0.0000E+00  0.0000E+00  0.0000E+00  1.5927E+00  0.0000E+00  0.0000E+00  6.4419E-01
 31  0.0000E+00  5.8641E-05  0.0000E+00  0.0000E+00  0.0000E+00  0.0000E+00  0.0000E+00  0.0000E+00  0.0000E+00
 32  0.0000E+00  9.4219E-05  0.0000E+00  0.0000E+00  9.5111E-05  0.0000E+00  7.9661E-05  0.0000E+00  1.9596E-06
 33  0.0000E+00  1.9741E-04  0.0000E+00  0.0000E+00  0.0000E+00  0.0000E+00  0.0000E+00  1.5997E-05  0.0000E+00
 34  0.0000E+00  1.6650E-04  0.0000E+00  0.0000E+00  0.0000E+00  0.0000E+00  0.0000E+00  0.0000E+00  0.0000E+00
 35  0.0000E+00  4.9925E-04  0.0000E+00  0.0000E+00  0.0000E+00  6.4709E-05  0.0000E+00  0.0000E+00  0.0000E+00
 36  0.0000E+00  1.9150E-03  0.0000E+00  0.0000E+00  6.6027E-04  0.0000E+00  0.0000E+00  0.0000E+00  0.0000E+00
 37  0.0000E+00  8.2212E-03  6.4629E-03  1.2324E-03  8.9495E-03  0.0000E+00  0.0000E+00  1.3082E-03  0.0000E+00
 38  0.0000E+00  1.0061E-02  0.0000E+00  0.0000E+00  0.0000E+00  2.5239E-03  0.0000E+00  1.0360E-03  1.1816E-04
 39  0.0000E+00  3.6548E-02  0.0000E+00  2.9949E-02  0.0000E+00  0.0000E+00  8.5082E-02  4.8671E-02  0.0000E+00
 40  0.0000E+00  9.6508E-02  1.5831E-01  2.2305E-01  1.8471E-01  0.0000E+00  1.4432E-01  0.0000E+00  1.6188E-01
 41  0.0000E+00  4.5143E-01  6.6096E-01  4.7154E-01  3.9245E-01  1.5010E-01  4.7398E-01  4.6357E-01  7.0788E-01
 42  0.0000E+00  4.8146E-01  4.9542E-01  4.9996E-01  8.2487E-01  6.7203E-01  6.8191E-01  5.6567E-01  0.0000E+00
 43  0.0000E+00  7.1650E-01  4.8848E-01  2.1428E-01  6.3940E-01  1.0743E+00  7.5186E-01  1.2858E+00  3.0321E-01
 44  0.0000E+00  5.1366E+00  5.0553E+00  6.9728E+00  5.0288E+00  5.0093E+00  4.5845E+00  4.8710E+00  5.2864E+00
 45  0.0000E+00  2.9100E+00  3.2445E+00  2.6700E+00  2.7772E+00  4.0423E+00  2.6195E+00  3.4541E+00  4.0829E+00

# AV, chi2 & Mass for <> & i_chain = 1 ...  7 solutions
AV       1.2217      1.1876      1.1931      1.1941      1.1919      1.1897      1.1945      1.1941      1.1896
chi2 2.8420E+00  2.8909E+00  2.8701E+00  2.8722E+00  2.8742E+00  2.8781E+00  2.8670E+00  2.8717E+00  2.8753E+00
Mass 5.9619E-10  6.3010E-10  6.2534E-10  6.2920E-10  6.2687E-10  6.4243E-10  6.2321E-10  6.3205E-10  6.3368E-10
 -17.86                                  [v0_min (km/s) before EX0s...]
 103.13                                  [vd_min (km/s) before EX0s...]


## Synthetic spectrum (Best Model) ##l_obs f_obs f_syn wei
 3070    [Nl_obs]
 3359.00    0.14978   0.49134   -1.000
 3360.00    0.24543   0.47914   -1.000
 3361.00    0.24451   0.47845   -1.000
 3362.00    0.25410   0.48933   -1.000
 3363.00    0.26910   0.50486   -1.000
 3364.00    0.28112   0.51593   -1.000
 3365.00    0.29092   0.51671   -1.000
 3366.00    0.29331   0.50764   -1.000
 3367.00    0.28996   0.49454   -1.000
 3368.00    0.29114   0.48402   -1.000
 3369.00    0.29045   0.47881   -1.000
 3370.00    0.28063   0.47690   -1.000
 3371.00    0.27046   0.47566   -1.000
 3372.00    0.27204   0.47666   -1.000
 3373.00    0.28746   0.48441   -1.000
 3374.00    0.30033   0.49991   -1.000
 3375.00    0.31032   0.51657   -1.000
 3376.00    0.32121   0.52445   -1.000
 3377.00    0.32815   0.51959   -1.000
 3378.00    0.32877   0.50734   -1.000
 3379.00    0.32735   0.49729   -1.000
 3380.00    0.32621   0.49598   -1.000
 3381.00    0.32601   0.50334   -1.000
 3382.00    0.32577   0.51436   -1.000
 3383.00    0.32878   0.52409   -1.000
 3384.00    0.33506   0.53115   -1.000
 3385.00    0.34943   0.53609   -1.000
 3386.00    0.35984   0.53870   -1.000
 3387.00    0.36073   0.53886   -1.000
 3388.00    0.36153   0.53777   -1.000
 3389.00    0.36574   0.53644   -1.000
 3390.00    0.36916   0.53417   -1.000
 3391.00    0.37911   0.52989   -1.000
 3392.00    0.38329   0.52520   -1.000
 3393.00    0.38167   0.52418   -1.000
 3394.00    0.38157   0.52938   -1.000
 3395.00    0.39528   0.53928   -1.000
 3396.00    0.40339   0.54966   -1.000
 3397.00    0.40785   0.55656   -1.000
 3398.00    0.41655   0.55778   -1.000
 3399.00    0.42517   0.55360   -1.000
 3400.00    0.42926   0.54620   -1.000
 3401.00    0.42971   0.53788   -1.000
 3402.00    0.42352   0.53041   -1.000
 3403.00    0.41758   0.52521   -1.000
 3404.00    0.41589   0.52205   -1.000
 3405.00    0.41193   0.51900   -1.000
 3406.00    0.41027   0.51512   -1.000
 3407.00    0.41660   0.51209   -1.000
 3408.00    0.41381   0.51244   -1.000
 3409.00    0.41274   0.51647   -1.000
 3410.00    0.41947   0.52146   -1.000
 3411.00    0.41973   0.52431   -1.000
 3412.00    0.41937   0.52427   -1.000
 3413.00    0.42060   0.52299   -1.000
 3414.00    0.41826   0.52278   -1.000
 3415.00    0.42401   0.52533   -1.000
 3416.00    0.43056   0.53136   -1.000
 3417.00    0.43153   0.54034   -1.000
 3418.00    0.44043   0.55028   -1.000
 3419.00    0.44744   0.55799   -1.000
 3420.00    0.45809   0.56073   -1.000
 3421.00    0.45944   0.55843   -1.000
 3422.00    0.45153   0.55361   -1.000
 3423.00    0.45491   0.54915   -1.000
 3424.00    0.45693   0.54671   -1.000
 3425.00    0.46078   0.54692   -1.000
 3426.00    0.46365   0.55055   -1.000
 3427.00    0.46441   0.55788   -1.000
 3428.00    0.46970   0.56641   -1.000
 3429.00    0.47988   0.57134   -1.000
 3430.00    0.48799   0.56975   -1.000
 3431.00    0.48903   0.56312   -1.000
 3432.00    0.48121   0.55591   -1.000
 3433.00    0.47437   0.55208   38.625
 3434.00    0.47672   0.55252   -1.000
 3435.00    0.48152   0.55469   -1.000
 3436.00    0.48300   0.55452   -1.000
 3437.00    0.48356   0.54891   39.629
 3438.00    0.47856   0.53696   41.823
 3439.00    0.46879   0.52019   44.849
 3440.00    0.45835   0.50307   47.334
 3441.00    0.45230   0.49169   48.082
 3442.00    0.44867   0.48948   47.974
 3443.00    0.44908   0.49450   46.678
 3444.00    0.45519   0.50258   44.363
 3445.00    0.46446   0.51220   41.912
 3446.00    0.47601   0.52442   40.143
 3447.00    0.48897   0.53888   -1.000
 3448.00    0.49501   0.55134   -1.000
 3449.00    0.49685   0.55604   -1.000
 3450.00    0.50140   0.55094   -1.000
 3451.00    0.50410   0.53962   -1.000
 3452.00    0.50112   0.52867   -1.000
 3453.00    0.49546   0.52352   -1.000
 3454.00    0.49474   0.52491   -1.000
 3455.00    0.49632   0.52876   -1.000
 3456.00    0.50533   0.52983   -1.000
 3457.00    0.51057   0.52610   -1.000
 3458.00    0.50858   0.51939   58.144
 3459.00    0.50097   0.51268   38.957
 3460.00    0.49956   0.50889   38.987
 3461.00    0.50046   0.51066   88.602
 3462.00    0.50162   0.51801   -1.000
 3463.00    0.50428   0.52694   -1.000
 3464.00    0.50553   0.53321   -1.000
 3465.00    0.51036   0.53639   -1.000
 3466.00    0.51139   0.53863   -1.000
 3467.00    0.51410   0.54162   -1.000
 3468.00    0.52123   0.54529   -1.000
 3469.00    0.53129   0.54841   -1.000
 3470.00    0.54334   0.54925  318.238
 3471.00    0.54129   0.54629  318.238
 3472.00    0.53194   0.53887  318.238
 3473.00    0.51432   0.52767   -1.000
 3474.00    0.49739   0.51566   58.385
 3475.00    0.49167   0.50765   39.867
 3476.00    0.48952   0.50702   39.850
 3477.00    0.49361   0.51295   89.977
 3478.00    0.50649   0.52166   -1.000
 3479.00    0.51978   0.52939   -1.000
 3480.00    0.52724   0.53379  318.238
 3481.00    0.52877   0.53399  318.238
 3482.00    0.53257   0.53113  318.238
 3483.00    0.53523   0.52875  318.238
 3484.00    0.52910   0.53106  318.238
 3485.00    0.52746   0.53893   -1.000
 3486.00    0.53207   0.54787   -1.000
 3487.00    0.53794   0.55128   -1.000
 3488.00    0.53354   0.54628   -1.000
 3489.00    0.51871   0.53626   -1.000
 3490.00    0.50625   0.52791   -1.000
 3491.00    0.50223   0.52502   -1.000
 3492.00    0.51301   0.52554   -1.000
 3493.00    0.51686   0.52495  318.238
 3494.00    0.51194   0.52139  318.238
 3495.00    0.50790   0.51752  318.238
 3496.00    0.51126   0.51815  318.238
 3497.00    0.51175   0.52534   -1.000
 3498.00    0.51663   0.53528   -1.000
 3499.00    0.53280   0.54213  314.281
 3500.00    0.54041   0.54452  306.340
 3501.00    0.54347   0.54546  302.667
 3502.00    0.54439   0.54693  299.960
 3503.00    0.54207   0.54726  304.642
 3504.00    0.54271   0.54416  310.298
 3505.00    0.53621   0.53875  315.736
 3506.00    0.53206   0.53450  315.386
 3507.00    0.54069   0.53312  311.606
 3508.00    0.54267   0.53318   -1.000
 3509.00    0.52956   0.53206  318.238
 3510.00    0.52025   0.52854  318.238
 3511.00    0.51683   0.52322  318.238
 3512.00    0.52044   0.51784  318.238
 3513.00    0.52161   0.51542  318.238
 3514.00    0.52102   0.51912  318.238
 3515.00    0.53152   0.52902  318.238
 3516.00    0.54402   0.54138  317.130
 3517.00    0.54743   0.55090  307.211
 3518.00    0.54482   0.55355  311.661
 3519.00    0.54371   0.54882  318.238
 3520.00    0.53299   0.53957  318.238
 3521.00    0.52191   0.52955  318.238
 3522.00    0.52225   0.52053  318.238
 3523.00    0.51714   0.51269   57.226
 3524.00    0.50447   0.50699   39.494
 3525.00    0.49739   0.50587   39.835
 3526.00    0.49613   0.51145   92.321
 3527.00    0.50306   0.52285   -1.000
 3528.00    0.51659   0.53558   -1.000
 3529.00    0.53163   0.54460   -1.000
 3530.00    0.54211   0.54808  318.238
 3531.00    0.54411   0.54824  318.238
 3532.00    0.54108   0.54870  318.238
 3533.00    0.53820   0.55124   -1.000
 3534.00    0.54381   0.55496   -1.000
 3535.00    0.54831   0.55819   -1.000
 3536.00    0.54577   0.56063   -1.000
 3537.00    0.55002   0.56344   -1.000
 3538.00    0.55808   0.56712  304.638
 3539.00    0.55969   0.57022   -1.000
 3540.00    0.56389   0.57144  309.711
 3541.00    0.56373   0.57184  313.539
 3542.00    0.55836   0.57331   -1.000
 3543.00    0.56212   0.57597   -1.000
 3544.00    0.56013   0.57819   -1.000
 3545.00    0.55727   0.57856   -1.000
 3546.00    0.56209   0.57739   -1.000
 3547.00    0.56252   0.57617   -1.000
 3548.00    0.56165   0.57596   -1.000
 3549.00    0.55822   0.57663   -1.000
 3550.00    0.55747   0.57700   -1.000
 3551.00    0.55171   0.57561   -1.000
 3552.00    0.53646   0.57198   -1.000
 3553.00    0.53291   0.56742   -1.000
 3554.00    0.53478   0.56406   -1.000
 3555.00    0.53840   0.56287   -1.000
 3556.00    0.53875   0.56273   -1.000
 3557.00    0.54234   0.56208   -1.000
 3558.00    0.54649   0.56102   -1.000
 3559.00    0.54700   0.56164   -1.000
 3560.00    0.54701   0.56570   -1.000
 3561.00    0.54865   0.57149   -1.000
 3562.00    0.54946   0.57321   -1.000
 3563.00    0.55122   0.56550   -1.000
 3564.00    0.53938   0.54965   57.089
 3565.00    0.52163   0.53361   40.027
 3566.00    0.51408   0.52405   40.294
 3567.00    0.50920   0.52027   39.978
 3568.00    0.50743   0.51667   40.784
 3569.00    0.50339   0.51020   41.770
 3570.00    0.49581   0.50378   41.162
 3571.00    0.49646   0.50200   39.496
 3572.00    0.50816   0.50532   92.304
 3573.00    0.51735   0.51021  318.238
 3574.00    0.51790   0.51367  318.238
 3575.00    0.51424   0.51551  318.238
 3576.00    0.51756   0.51632  318.238
 3577.00    0.52345   0.51509  318.238
 3578.00    0.52118   0.50986   58.907
 3579.00    0.51622   0.50061   42.350
 3580.00    0.50692   0.49055   45.060
 3581.00    0.49580   0.48387   46.102
 3582.00    0.49047   0.48192   46.321
 3583.00    0.49163   0.48188   47.151
 3584.00    0.49138   0.48003   48.587
 3585.00    0.47595   0.47635   49.595
 3586.00    0.47013   0.47441   48.146
 3587.00    0.47320   0.47756   45.609
 3588.00    0.48079   0.48651   43.327
 3589.00    0.49604   0.49937   40.021
 3590.00    0.51024   0.51270   91.977
 3591.00    0.52603   0.52312  318.238
 3592.00    0.53850   0.52948  318.238
 3593.00    0.54494   0.53375   -1.000
 3594.00    0.53966   0.53909  318.238
 3595.00    0.53992   0.54686  316.728
 3596.00    0.55427   0.55578  305.378
 3597.00    0.56106   0.56361  297.091
 3598.00    0.56000   0.56851  291.241
 3599.00    0.56594   0.56904  291.930
 3600.00    0.56956   0.56434  302.383
 3601.00    0.56330   0.55503  318.238
 3602.00    0.54829   0.54377  318.238
 3603.00    0.53804   0.53439  318.238
 3604.00    0.54023   0.52952   -1.000
 3605.00    0.54186   0.52859   -1.000
 3606.00    0.54059   0.52842   -1.000
 3607.00    0.53605   0.52654   -1.000
 3608.00    0.52824   0.52366  318.238
 3609.00    0.52373   0.52276  318.238
 3610.00    0.52655   0.52530  318.238
 3611.00    0.52879   0.52977  318.238
 3612.00    0.53551   0.53429  318.238
 3613.00    0.53743   0.53880  318.238
 3614.00    0.54347   0.54343  318.238
 3615.00    0.55235   0.54564  315.109
 3616.00    0.55138   0.54159   -1.000
 3617.00    0.54191   0.53191   -1.000
 3618.00    0.52689   0.52344   55.716
 3619.00    0.52305   0.52296   92.497
 3620.00    0.53026   0.53131  318.238
 3621.00    0.54800   0.54393  316.431
 3622.00    0.55869   0.55562  305.440
 3623.00    0.56095   0.56479  300.544
 3624.00    0.56456   0.57370  291.826
 3625.00    0.57081   0.58434   -1.000
 3626.00    0.58132   0.59462   -1.000
 3627.00    0.58860   0.59878   -1.000
 3628.00    0.58590   0.59174  288.258
 3629.00    0.57444   0.57428  316.922
 3630.00    0.55047   0.55399  318.238
 3631.00    0.53036   0.54019  318.238
 3632.00    0.52604   0.53729   -1.000
 3633.00    0.53697   0.54245  318.238
 3634.00    0.55008   0.54919  318.238
 3635.00    0.55365   0.55368  318.238
 3636.00    0.55787   0.55745  307.280
 3637.00    0.56430   0.56371  293.192
 3638.00    0.57461   0.57225  282.266
 3639.00    0.58524   0.57904  278.928
 3640.00    0.58313   0.57987  283.554
 3641.00    0.57454   0.57392  292.380
 3642.00    0.56112   0.56395  306.293
 3643.00    0.55194   0.55406  317.904
 3644.00    0.54958   0.54698  318.238
 3645.00    0.54997   0.54270  318.238
 3646.00    0.54722   0.53988  318.238
 3647.00    0.54309   0.53836  318.238
 3648.00    0.54493   0.53942  318.238
 3649.00    0.54485   0.54426  318.238
 3650.00    0.55110   0.55271  304.690
 3651.00    0.56181   0.56303  291.241
 3652.00    0.56646   0.57292  282.455
 3653.00    0.58351   0.58078  277.572
 3654.00    0.59416   0.58651  275.702
 3655.00    0.59295   0.59134  273.254
 3656.00    0.59402   0.59631  270.302
 3657.00    0.59860   0.60088  266.260
 3658.00    0.59954   0.60347  264.959
 3659.00    0.59633   0.60295  265.068
 3660.00    0.59783   0.59936  267.044
 3661.00    0.58998   0.59375  269.967
 3662.00    0.58678   0.58786  274.042
 3663.00    0.59253   0.58354  277.003
 3664.00    0.59226   0.58171  275.368
 3665.00    0.58942   0.58148  274.363
 3666.00    0.59143   0.58080  278.363
 3667.00    0.59153   0.57848   -1.000
 3668.00    0.58974   0.57595   -1.000
 3669.00    0.57884   0.57617  289.189
 3670.00    0.57494   0.58032  281.059
 3671.00    0.58271   0.58640  273.776
 3672.00    0.58961   0.59099  271.384
 3673.00    0.59034   0.59180  271.063
 3674.00    0.59060   0.58846  271.472
 3675.00    0.59398   0.58175  277.366
 3676.00    0.58998   0.57319   -1.000
 3677.00    0.58061   0.56496   -1.000
 3678.00    0.57057   0.55922   -1.000
 3679.00    0.57023   0.55719   -1.000
 3680.00    0.57821   0.55854   -1.000
 3681.00    0.57890   0.56177   -1.000
 3682.00    0.57928   0.56465   -1.000
 3683.00    0.57913   0.56451   -1.000
 3684.00    0.57733   0.55953   -1.000
 3685.00    0.56881   0.55132   -1.000
 3686.00    0.56629   0.54538   -1.000
 3687.00    0.56853   0.54720   -1.000
 3688.00    0.57404   0.55739   -1.000
 3689.00    0.58621   0.57117   -1.000
 3690.00    0.59559   0.58261   -1.000
 3691.00    0.59682   0.58930  266.153
 3692.00    0.60035   0.59274  271.908
 3693.00    0.60321   0.59436  276.911
 3694.00    0.61347   0.59359   -1.000
 3695.00    0.61557   0.59051   -1.000
 3696.00    0.60167   0.58890   -1.000
 3697.00    0.60078   0.59418  264.817
 3698.00    0.61128   0.60740  257.436
 3699.00    0.62867   0.62173  253.036
 3700.00    0.64289   0.62628   -1.000
 3701.00    0.64119   0.61382   -1.000
 3702.00    0.61735   0.58652   -1.000
 3703.00    0.58616   0.55532   -1.000
 3704.00    0.56137   0.53326   -1.000
 3705.00    0.55442   0.52719   -1.000
 3706.00    0.56457   0.53444   -1.000
 3707.00    0.58145   0.54668   -1.000
 3708.00    0.59244   0.55573   -1.000
 3709.00    0.58966   0.55787   -1.000
 3710.00    0.58215   0.55632   -1.000
 3711.00    0.57860   0.55916   -1.000
 3712.00    0.58667   0.57263   -1.000
 3713.00    0.61070   0.59588   -1.000
 3714.00    0.64512   0.62168   -1.000
 3715.00    0.67085   0.64111   -1.000
 3716.00    0.67140   0.64740   -1.000
 3717.00    0.66195   0.63626   -1.000
 3718.00    0.64095   0.60675   -1.000
 3719.00    0.59673   0.56520   -1.000
 3720.00    0.54612   0.52613   55.488
 3721.00    0.51541   0.50539   98.162
 3722.00    0.52184   0.51131   -1.000
 3723.00    0.56121   0.54048   -1.000
 3724.00    0.60640   0.57963   -1.000
 3725.00    0.64329   0.61388   -1.000
 3726.00    0.65841   0.63632   -1.000
 3727.00    0.65634   0.64902  291.918
 3728.00    0.65449   0.65477  289.258
 3729.00    0.65934   0.65068  289.762
 3730.00    0.65395   0.63062   -1.000
 3731.00    0.63045   0.59271   -1.000
 3732.00    0.58417   0.54411   54.059
 3733.00    0.53480   0.49892   41.521
 3734.00    0.50093   0.47175   44.222
 3735.00    0.49331   0.47134   43.185
 3736.00    0.51662   0.49770   39.668
 3737.00    0.56054   0.54317   95.948
 3738.00    0.60898   0.59553   -1.000
 3739.00    0.64802   0.64182  293.476
 3740.00    0.67461   0.67248  287.090
 3741.00    0.68512   0.68411  294.386
 3742.00    0.68494   0.67881  310.951
 3743.00    0.67289   0.66150   -1.000
 3744.00    0.64918   0.63665   -1.000
 3745.00    0.62713   0.60617   -1.000
 3746.00    0.59654   0.56999   54.890
 3747.00    0.56228   0.52988   40.718
 3748.00    0.52586   0.49374   41.863
 3749.00    0.50066   0.47471  105.712
 3750.00    0.50721   0.48283   -1.000
 3751.00    0.54961   0.51761   -1.000
 3752.00    0.60417   0.56844   -1.000
 3753.00    0.65349   0.62098   -1.000
 3754.00    0.69448   0.66268   -1.000
 3755.00    0.71786   0.68559   -1.000
 3756.00    0.71605   0.68835   -1.000
 3757.00    0.70039   0.67754   -1.000
 3758.00    0.68177   0.66465   -1.000
 3759.00    0.67428   0.65887   -1.000
 3760.00    0.68435   0.66206   -1.000
 3761.00    0.70148   0.67013   -1.000
 3762.00    0.71383   0.67718   -1.000
 3763.00    0.71651   0.67823   -1.000
 3764.00    0.70839   0.67028   -1.000
 3765.00    0.69426   0.65263   -1.000
 3766.00    0.67454   0.62644   -1.000
 3767.00    0.64828   0.59411   -1.000
 3768.00    0.61816   0.55994   -1.000
 3769.00    0.59349   0.53175   -1.000
 3770.00    0.57399   0.51990   -1.000
 3771.00    0.57676   0.53093   -1.000
 3772.00    0.60621   0.56132   -1.000
 3773.00    0.65036   0.59993   -1.000
 3774.00    0.68220   0.63708   -1.000
 3775.00    0.69822   0.66986   -1.000
 3776.00    0.72192   0.69974   -1.000
 3777.00    0.74105   0.72806   -1.000
 3778.00    0.75991   0.75417  255.164
 3779.00    0.77988   0.77640  248.391
 3780.00    0.79012   0.79338  245.499
 3781.00    0.80053   0.80468  243.985
 3782.00    0.80548   0.81016  243.638
 3783.00    0.80988   0.80908  247.622
 3784.00    0.80375   0.80037  258.595
 3785.00    0.78991   0.78453  276.438
 3786.00    0.77357   0.76513  292.505
 3787.00    0.75285   0.74721  300.667
 3788.00    0.74144   0.73382  302.124
 3789.00    0.73805   0.72434   -1.000
 3790.00    0.73576   0.71506   -1.000
 3791.00    0.72755   0.70096   -1.000
 3792.00    0.70981   0.67801   -1.000
 3793.00    0.69001   0.64497   -1.000
 3794.00    0.66277   0.60370   -1.000
 3795.00    0.62972   0.55859   -1.000
 3796.00    0.58759   0.51687   -1.000
 3797.00    0.54786   0.48958   -1.000
 3798.00    0.53608   0.48810   -1.000
 3799.00    0.56036   0.51623   -1.000
 3800.00    0.60934   0.56606   -1.000
 3801.00    0.66197   0.62298   -1.000
 3802.00    0.70479   0.67388   -1.000
 3803.00    0.73431   0.71182   -1.000
 3804.00    0.75326   0.73573   -1.000
 3805.00    0.76519   0.74908   -1.000
 3806.00    0.76491   0.75870  289.754
 3807.00    0.76721   0.77142  285.956
 3808.00    0.78332   0.78957  275.744
 3809.00    0.80099   0.80926  270.387
 3810.00    0.81027   0.82247   -1.000
 3811.00    0.80773   0.82170   -1.000
 3812.00    0.79674   0.80584  302.498
 3813.00    0.78341   0.78247  318.238
 3814.00    0.77006   0.76329  318.238
 3815.00    0.76503   0.75592   -1.000
 3816.00    0.77546   0.75836   -1.000
 3817.00    0.78733   0.76143   -1.000
 3818.00    0.78410   0.75729   -1.000
 3819.00    0.76126   0.74646   -1.000
 3820.00    0.74483   0.73617   -1.000
 3821.00    0.74645   0.73121   -1.000
 3822.00    0.75464   0.72774   -1.000
 3823.00    0.75011   0.71827   -1.000
 3824.00    0.72966   0.70079   55.715
 3825.00    0.70633   0.68050   40.938
 3826.00    0.69601   0.66327   40.940
 3827.00    0.68618   0.65002   40.358
 3828.00    0.67789   0.63701   39.694
 3829.00    0.67635   0.61935   39.853
 3830.00    0.66144   0.59347   41.291
 3831.00    0.62841   0.55843   -1.000
 3832.00    0.58556   0.51710   -1.000
 3833.00    0.54187   0.47685   -1.000
 3834.00    0.51128   0.44760   44.338
 3835.00    0.50256   0.43706   43.124
 3836.00    0.51935   0.44674   -1.000
 3837.00    0.54595   0.47240   -1.000
 3838.00    0.57225   0.50822   44.283
 3839.00    0.60105   0.55025   42.214
 3840.00    0.63598   0.59601   -1.000
 3841.00    0.67746   0.64248   -1.000
 3842.00    0.71842   0.68552   -1.000
 3843.00    0.75044   0.72148   -1.000
 3844.00    0.76874   0.74932   -1.000
 3845.00    0.78167   0.77063   -1.000
 3846.00    0.78937   0.78690  313.099
 3847.00    0.79456   0.79775  318.238
 3848.00    0.79450   0.80308  318.238
 3849.00    0.78882   0.80579   -1.000
 3850.00    0.78659   0.81015   -1.000
 3851.00    0.79529   0.81743   -1.000
 3852.00    0.80766   0.82424   -1.000
 3853.00    0.81897   0.82599  318.238
 3854.00    0.82095   0.82145  318.238
 3855.00    0.81356   0.81300  318.238
 3856.00    0.80346   0.80370  318.238
 3857.00    0.79428   0.79549   52.376
 3858.00    0.78395   0.79024   39.881
 3859.00    0.76486   0.79064   39.962
 3860.00    0.76535   0.79808   -1.000
 3861.00    0.79491   0.81001   -1.000
 3862.00    0.82971   0.82104  309.016
 3863.00    0.84386   0.82724   -1.000
 3864.00    0.84068   0.82889   -1.000
 3865.00    0.84225   0.82889   -1.000
 3866.00    0.84025   0.82954   -1.000
 3867.00    0.83594   0.83032  318.238
 3868.00    0.83330   0.82797  318.238
 3869.00    0.81753   0.81917  318.238
 3870.00    0.79373   0.80406   52.989
 3871.00    0.77148   0.78790  103.896
 3872.00    0.75574   0.77848   -1.000
 3873.00    0.76328   0.77975   -1.000
 3874.00    0.78523   0.78714  300.766
 3875.00    0.79522   0.79041  304.354
 3876.00    0.78826   0.78297  318.238
 3877.00    0.76649   0.76763  318.238
 3878.00    0.74501   0.75242  318.238
 3879.00    0.73752   0.74180  318.238
 3880.00    0.73605   0.73318  318.238
 3881.00    0.71976   0.72140  318.238
 3882.00    0.71356   0.70349   -1.000
 3883.00    0.71700   0.67831   -1.000
 3884.00    0.70711   0.64429   -1.000
 3885.00    0.67941   0.60097   -1.000
 3886.00    0.63841   0.55330   -1.000
 3887.00    0.60003   0.51240   -1.000
 3888.00    0.56463   0.49108   -1.000
 3889.00    0.55750   0.49723   -1.000
 3890.00    0.59618   0.52888   -1.000
 3891.00    0.65426   0.57451   -1.000
 3892.00    0.69724   0.62010   -1.000
 3893.00    0.71780   0.65757   -1.000
 3894.00    0.72874   0.68710   -1.000
 3895.00    0.74438   0.71225   -1.000
 3896.00    0.76261   0.73438   -1.000
 3897.00    0.77819   0.75216   -1.000
 3898.00    0.78950   0.76525   -1.000
 3899.00    0.79319   0.77624   -1.000
 3900.00    0.80434   0.78772   -1.000
 3901.00    0.81799   0.79884   -1.000
 3902.00    0.82962   0.80622   -1.000
 3903.00    0.83551   0.80822   -1.000
 3904.00    0.83019   0.80767   -1.000
 3905.00    0.82097   0.81049  279.467
 3906.00    0.82357   0.82155  266.653
 3907.00    0.83898   0.84081  249.131
 3908.00    0.86308   0.86272  240.238
 3909.00    0.88364   0.88045  237.184
 3910.00    0.89075   0.89040  234.976
 3911.00    0.89528   0.89277  233.350
 3912.00    0.90211   0.88975  234.985
 3913.00    0.89237   0.88438  239.336
 3914.00    0.87830   0.87955  244.822
 3915.00    0.87132   0.87643  248.670
 3916.00    0.87017   0.87396  251.927
 3917.00    0.87317   0.87012  258.213
 3918.00    0.87095   0.86392  268.640
 3919.00    0.85886   0.85656  281.309
 3920.00    0.84535   0.85085  289.233
 3921.00    0.84380   0.84882  288.863
 3922.00    0.84588   0.84972  284.172
 3923.00    0.85302   0.84998  284.351
 3924.00    0.85299   0.84501  295.326
 3925.00    0.84037   0.83146   -1.000
 3926.00    0.81560   0.80852  318.238
 3927.00    0.77483   0.77754   57.456
 3928.00    0.72852   0.74022   47.708
 3929.00    0.67637   0.69673   55.856
 3930.00    0.60308   0.64659   65.872
 3931.00    0.51106   0.59301   -1.000
 3932.00    0.41507   0.54681   -1.000
 3933.00    0.36381   0.52354   -1.000
 3934.00    0.38864   0.53337   -1.000
 3935.00    0.46507   0.57309   -1.000
 3936.00    0.55794   0.62893   -1.000
 3937.00    0.63955   0.68614   43.852
 3938.00    0.70593   0.73565   -1.000
 3939.00    0.76160   0.77407   -1.000
 3940.00    0.79317   0.80050  318.238
 3941.00    0.80422   0.81533   -1.000
 3942.00    0.81061   0.82121   -1.000
 3943.00    0.81537   0.82320  315.308
 3944.00    0.82130   0.82647  289.547
 3945.00    0.84028   0.83294  270.143
 3946.00    0.86331   0.84062   -1.000
 3947.00    0.87138   0.84671   -1.000
 3948.00    0.86668   0.85027   -1.000
 3949.00    0.86796   0.85167   -1.000
 3950.00    0.87784   0.85141   -1.000
 3951.00    0.87665   0.85051   -1.000
 3952.00    0.86887   0.85028   -1.000
 3953.00    0.86651   0.85020   -1.000
 3954.00    0.87464   0.84741   -1.000
 3955.00    0.87151   0.84009   -1.000
 3956.00    0.84814   0.83013   -1.000
 3957.00    0.83825   0.82006   -1.000
 3958.00    0.84153   0.80831   -1.000
 3959.00    0.83295   0.78985   -1.000
 3960.00    0.80251   0.76187   -1.000
 3961.00    0.76839   0.72694   -1.000
 3962.00    0.72749   0.68934   -1.000
 3963.00    0.69325   0.64918   53.776
 3964.00    0.64709   0.60182   44.983
 3965.00    0.57468   0.54328   54.673
 3966.00    0.47651   0.47668   67.100
 3967.00    0.37456   0.41408   76.449
 3968.00    0.31300   0.37153   -1.000
 3969.00    0.31236   0.36082   63.108
 3970.00    0.37073   0.38391   51.862
 3971.00    0.45289   0.43310   43.197
 3972.00    0.53645   0.49611   -1.000
 3973.00    0.61947   0.56171   -1.000
 3974.00    0.68608   0.62276   -1.000
 3975.00    0.73341   0.67630   -1.000
 3976.00    0.77447   0.72229   -1.000
 3977.00    0.80640   0.76177   -1.000
 3978.00    0.84230   0.79488   -1.000
 3979.00    0.86575   0.82015   -1.000
 3980.00    0.87400   0.83650   -1.000
 3981.00    0.87447   0.84600   -1.000
 3982.00    0.87175   0.85343   -1.000
 3983.00    0.88170   0.86260   -1.000
 3984.00    0.90189   0.87376   -1.000
 3985.00    0.91190   0.88506   -1.000
 3986.00    0.91868   0.89557   -1.000
 3987.00    0.92998   0.90581   -1.000
 3988.00    0.93715   0.91617   -1.000
 3989.00    0.94233   0.92632  203.551
 3990.00    0.94775   0.93598  199.665
 3991.00    0.95388   0.94469  194.828
 3992.00    0.96343   0.95091  195.340
 3993.00    0.96692   0.95246  199.524
 3994.00    0.95442   0.94859  204.208
 3995.00    0.94498   0.94142  208.331
 3996.00    0.94260   0.93532  210.657
 3997.00    0.93547   0.93433  207.523
 3998.00    0.93153   0.93963  199.094
 3999.00    0.94701   0.94890  191.696
 4000.00    0.97172   0.95785  187.786
 4001.00    0.98217   0.96221  185.046
 4002.00    0.98833   0.95935   -1.000
 4003.00    0.98518   0.94976   -1.000
 4004.00    0.96112   0.93807   -1.000
 4005.00    0.94201   0.93167  210.245
 4006.00    0.94162   0.93571  200.487
 4007.00    0.96009   0.94874  191.551
 4008.00    0.97903   0.96424  187.789
 4009.00    0.98774   0.97609  185.686
 4010.00    0.98945   0.98231  184.719
 4011.00    0.98563   0.98449  185.572
 4012.00    0.98268   0.98543  186.684
 4013.00    0.98743   0.98702  185.886
 4014.00    0.99025   0.98956  183.522
 4015.00    0.99956   0.99257  184.039
 4016.00    1.00233   0.99592  186.192
 4017.00    0.99899   0.99991  186.105
 4018.00    1.00077   1.00435  183.670
 4019.00    1.00278   1.00796  183.266
 4020.00    1.00405   1.00889  185.434
 4021.00    0.99481   1.00592  186.956
 4022.00    0.99186   0.99940  188.135
 4023.00    0.99330   0.99184  189.554
 4024.00    0.98838   0.98738  186.358
 4025.00    0.99402   0.98893  180.124
 4026.00    1.00347   0.99486  175.768
 4027.00    1.01289   0.99915  176.094
 4028.00    1.02076   0.99634   -1.000
 4029.00    1.00024   0.98630  193.306
 4030.00    0.97187   0.97398  202.844
 4031.00    0.95622   0.96550  206.773
 4032.00    0.95490   0.96441  205.348
 4033.00    0.96219   0.97089  199.567
 4034.00    0.97429   0.98326  190.424
 4035.00    0.98957   0.99931  180.982
 4036.00    1.00728   1.01598  173.990
 4037.00    1.02524   1.02892  172.002
 4038.00    1.03130   1.03465  174.643
 4039.00    1.02624   1.03327  178.761
 4040.00    1.01968   1.02760  181.294
 4041.00    1.01532   1.01888  182.419
 4042.00    1.01211   1.00513  189.237
 4043.00    0.99760   0.98543  205.475
 4044.00    0.96684   0.96532  222.663
 4045.00    0.94339   0.95507  219.786
 4046.00    0.94461   0.96109   -1.000
 4047.00    0.97119   0.98009  186.917
 4048.00    1.00115   1.00192  180.179
 4049.00    1.01816   1.01733  177.395
 4050.00    1.01653   1.02267  177.841
 4051.00    1.01853   1.01939  181.873
 4052.00    1.01552   1.01144  186.707
 4053.00    1.00434   1.00317  190.088
 4054.00    1.00432   0.99738  191.938
 4055.00    1.00176   0.99451  193.281
 4056.00    0.99818   0.99402  195.138
 4057.00    0.99938   0.99606  193.886
 4058.00    1.00000   1.00021  187.898
 4059.00    1.00584   1.00314  183.384
 4060.00    1.01508   0.99962  184.904
 4061.00    1.01030   0.98724   -1.000
 4062.00    0.98677   0.96947   -1.000
 4063.00    0.95976   0.95354  210.933
 4064.00    0.96138   0.94531  201.993
 4065.00    0.97953   0.94604   -1.000
 4066.00    0.98376   0.95302   -1.000
 4067.00    0.98751   0.96156   -1.000
 4068.00    1.00300   0.96666   -1.000
 4069.00    1.01054   0.96484   -1.000
 4070.00    0.99764   0.95710   -1.000
 4071.00    0.97957   0.94894   -1.000
 4072.00    0.97145   0.94520   -1.000
 4073.00    0.98285   0.94446   -1.000
 4074.00    0.98366   0.94053   -1.000
 4075.00    0.96726   0.92988   -1.000
 4076.00    0.94299   0.91662   -1.000
 4077.00    0.93111   0.90961   -1.000
 4078.00    0.93777   0.91488   -1.000
 4079.00    0.95906   0.93034   -1.000
 4080.00    0.98454   0.94719   -1.000
 4081.00    0.99577   0.95647   -1.000
 4082.00    0.99237   0.95530   -1.000
 4083.00    0.97995   0.94793   -1.000
 4084.00    0.96503   0.94170   -1.000
 4085.00    0.96516   0.94164   -1.000
 4086.00    0.97657   0.94731   -1.000
 4087.00    0.98355   0.95386   -1.000
 4088.00    0.99253   0.95581   -1.000
 4089.00    0.99526   0.95087   -1.000
 4090.00    0.98777   0.94062   -1.000
 4091.00    0.97275   0.92768   -1.000
 4092.00    0.96464   0.91267   -1.000
 4093.00    0.95470   0.89387   -1.000
 4094.00    0.93513   0.86960   -1.000
 4095.00    0.91023   0.83988   -1.000
 4096.00    0.89418   0.80531   -1.000
 4097.00    0.87573   0.76507   -1.000
 4098.00    0.84239   0.71753   -1.000
 4099.00    0.79528   0.66501   -1.000
 4100.00    0.72574   0.61787   -1.000
 4101.00    0.66627   0.59190   -1.000
 4102.00    0.66362   0.59869   -1.000
 4103.00    0.71674   0.63656   -1.000
 4104.00    0.78300   0.69131   -1.000
 4105.00    0.83858   0.74587   -1.000
 4106.00    0.87380   0.78981   -1.000
 4107.00    0.88872   0.82126   -1.000
 4108.00    0.89766   0.84355   -1.000
 4109.00    0.90778   0.86118   -1.000
 4110.00    0.91777   0.87768   -1.000
 4111.00    0.93171   0.89481   -1.000
 4112.00    0.95044   0.91279   -1.000
 4113.00    0.96244   0.93069   -1.000
 4114.00    0.97699   0.94657   -1.000
 4115.00    0.98609   0.95772   -1.000
 4116.00    0.98317   0.96228   -1.000
 4117.00    0.97867   0.96107  190.934
 4118.00    0.97365   0.95768  194.182
 4119.00    0.97052   0.95589  192.772
 4120.00    0.97192   0.95731  190.634
 4121.00    0.97382   0.96131  190.342
 4122.00    0.97876   0.96690  188.819
 4123.00    0.98546   0.97326  185.727
 4124.00    0.99193   0.97869  184.479
 4125.00    1.00043   0.98065   -1.000
 4126.00    0.99952   0.97806   -1.000
 4127.00    0.99211   0.97284   -1.000
 4128.00    0.99124   0.96794   -1.000
 4129.00    0.99516   0.96408   -1.000
 4130.00    0.98713   0.96000   -1.000
 4131.00    0.97227   0.95580  207.134
 4132.00    0.96371   0.95476  209.047
 4133.00    0.96169   0.96075  203.734
 4134.00    0.97027   0.97456  194.108
 4135.00    0.98722   0.99296  186.979
 4136.00    1.00452   1.01135  183.305
 4137.00    1.02039   1.02606  180.443
 4138.00    1.02641   1.03460  179.257
 4139.00    1.03289   1.03463  181.964
 4140.00    1.02902   1.02496  190.279
 4141.00    1.01314   1.00752  205.092
 4142.00    0.98846   0.98891  217.568
 4143.00    0.95951   0.97778   -1.000
 4144.00    0.95915   0.97899   -1.000
 4145.00    0.98575   0.98975  193.189
 4146.00    1.00596   1.00221  190.065
 4147.00    1.01067   1.01002  192.480
 4148.00    1.00410   1.01260  197.565
 4149.00    0.99724   1.01301   -1.000
 4150.00    0.99868   1.01322   -1.000
 4151.00    1.00187   1.01241  198.863
 4152.00    0.99989   1.00913  200.065
 4153.00    0.99334   1.00414  203.092
 4154.00    0.98837   1.00049  199.830
 4155.00    0.98132   1.00109   -1.000
 4156.00    1.08641   1.00669   -1.000
 4157.00    1.14733   1.01554   -1.000
 4158.00    0.98105   1.02462   -1.000
 4159.00    0.89004   1.03155   -1.000
 4160.00    0.98456   1.03593   -1.000
 4161.00    1.03871   1.03900  183.951
 4162.00    1.02941   1.04207   -1.000
 4163.00    1.02664   1.04496   -1.000
 4164.00    1.02815   1.04602   -1.000
 4165.00    1.02063   1.04382   -1.000
 4166.00    1.01343   1.03893   -1.000
 4167.00    1.01448   1.03305   -1.000
 4168.00    1.01422   1.02614  193.618
 4169.00    1.01024   1.01565  194.446
 4170.00    1.00070   0.99951  203.995
 4171.00    0.98479   0.98072  216.539
 4172.00    0.96496   0.96686  219.924
 4173.00    0.95243   0.96396  213.669
 4174.00    0.95714   0.97095   -1.000
 4175.00    0.97402   0.98101  204.110
 4176.00    0.97757   0.98837  205.097
 4177.00    0.97691   0.99281   -1.000
 4178.00    0.98503   0.99726   -1.000
 4179.00    0.99346   1.00302  199.687
 4180.00    1.00497   1.00833  199.415
 4181.00    1.00438   1.01166  197.776
 4182.00    1.00008   1.01375   -1.000
 4183.00    1.00071   1.01571   -1.000
 4184.00    1.00128   1.01677   -1.000
 4185.00    1.00046   1.01508   -1.000
 4186.00    0.98944   1.01090   -1.000
 4187.00    0.97985   1.00724   -1.000
 4188.00    0.98486   1.00695   -1.000
 4189.00    0.99400   1.01047   -1.000
 4190.00    0.99421   1.01647   -1.000
 4191.00    0.99840   1.02301   -1.000
 4192.00    1.00683   1.02774   -1.000
 4193.00    1.01636   1.02775  189.740
 4194.00    1.01267   1.02083  198.918
 4195.00    1.00277   1.00759  206.409
 4196.00    0.99573   0.99142  210.683
 4197.00    0.98241   0.97669  211.787
 4198.00    0.96721   0.96671  210.003
 4199.00    0.96663   0.96263  206.807
 4200.00    0.97309   0.96370  205.666
 4201.00    0.97871   0.96859  204.524
 4202.00    0.97942   0.97644  201.666
 4203.00    0.97593   0.98680  199.849
 4204.00    0.98040   0.99911   -1.000
 4205.00    0.98434   1.01199   -1.000
 4206.00    0.99132   1.02328   -1.000
 4207.00    1.00204   1.03104   -1.000
 4208.00    1.00832   1.03487   -1.000
 4209.00    1.00721   1.03652   -1.000
 4210.00    1.00729   1.03818   -1.000
 4211.00    1.00863   1.03968   -1.000
 4212.00    1.00833   1.03802   -1.000
 4213.00    1.00527   1.03070   -1.000
 4214.00    0.98804   1.01948   -1.000
 4215.00    0.97049   1.01047   -1.000
 4216.00    0.97210   1.00966   -1.000
 4217.00    0.98406   1.01776   -1.000
 4218.00    0.99690   1.03008   -1.000
 4219.00    1.01129   1.04002   -1.000
 4220.00    1.02281   1.04256   -1.000
 4221.00    1.02090   1.03498   -1.000
 4222.00    1.00848   1.01648  190.794
 4223.00    0.98949   0.98859  208.635
 4224.00    0.96098   0.95701  235.257
 4225.00    0.92660   0.93162  257.273
 4226.00    0.89760   0.92329   -1.000
 4227.00    0.90622   0.93643   -1.000
 4228.00    0.94806   0.96497   -1.000
 4229.00    0.98928   0.99506  181.876
 4230.00    1.01417   1.01389  178.930
 4231.00    1.01124   1.01734  181.960
 4232.00    0.99698   1.01026  186.688
 4233.00    0.98753   1.00056  189.151
 4234.00    0.98403   0.99381  193.067
 4235.00    0.98475   0.99157  196.817
 4236.00    0.97929   0.99333   -1.000
 4237.00    0.97268   0.99829   -1.000
 4238.00    0.97657   1.00569   -1.000
 4239.00    0.98543   1.01406   -1.000
 4240.00    1.00081   1.02174   -1.000
 4241.00    1.00819   1.02807   -1.000
 4242.00    1.00505   1.03298   -1.000
 4243.00    1.01002   1.03563   -1.000
 4244.00    1.01344   1.03385   -1.000
 4245.00    1.00697   1.02616   -1.000
 4246.00    0.99021   1.01442   -1.000
 4247.00    0.96731   1.00320   -1.000
 4248.00    0.95913   0.99689   -1.000
 4249.00    0.96066   0.99690   -1.000
 4250.00    0.96334   1.00157   -1.000
 4251.00    0.98232   1.00726   -1.000
 4252.00    0.99426   1.01056   -1.000
 4253.00    0.99009   1.01098   -1.000
 4254.00    0.98228   1.01074   -1.000
 4255.00    0.98491   1.01173   -1.000
 4256.00    0.99407   1.01233   -1.000
 4257.00    1.00579   1.00866  187.597
 4258.00    1.00115   1.00015  197.521
 4259.00    0.98111   0.99189  203.889
 4260.00    0.96614   0.99137   -1.000
 4261.00    0.97087   1.00181   -1.000
 4262.00    0.99412   1.01972   -1.000
 4263.00    1.01498   1.03781   -1.000
 4264.00    1.02126   1.04979   -1.000
 4265.00    1.02668   1.05323   -1.000
 4266.00    1.02139   1.04850   -1.000
 4267.00    1.00563   1.03658   -1.000
 4268.00    0.99440   1.01870   -1.000
 4269.00    0.98285   0.99684   -1.000
 4270.00    0.96327   0.97505  215.908
 4271.00    0.94384   0.95881   -1.000
 4272.00    0.93667   0.95216   -1.000
 4273.00    0.94024   0.95615   -1.000
 4274.00    0.94581   0.96936   -1.000
 4275.00    0.95940   0.98834   -1.000
 4276.00    0.98518   1.00810   -1.000
 4277.00    1.00645   1.02274   -1.000
 4278.00    1.00642   1.02849   -1.000
 4279.00    0.99476   1.02633   -1.000
 4280.00    0.98033   1.02095   -1.000
 4281.00    0.97576   1.01651   -1.000
 4282.00    0.97639   1.01361   -1.000
 4283.00    0.97922   1.01060   -1.000
 4284.00    0.97776   1.00530   -1.000
 4285.00    0.96536   0.99655   -1.000
 4286.00    0.95322   0.98400   -1.000
 4287.00    0.94876   0.96809   -1.000
 4288.00    0.93420   0.95198   -1.000
 4289.00    0.91603   0.94137   -1.000
 4290.00    0.90580   0.94057   -1.000
 4291.00    0.91836   0.94854   -1.000
 4292.00    0.94161   0.95860   -1.000
 4293.00    0.95460   0.96388  197.256
 4294.00    0.95561   0.96163  200.323
 4295.00    0.94878   0.95261  204.695
 4296.00    0.93366   0.93789  214.044
 4297.00    0.91357   0.91814  231.301
 4298.00    0.88035   0.89588   -1.000
 4299.00    0.85657   0.87599   -1.000
 4300.00    0.84623   0.86366   -1.000
 4301.00    0.84463   0.86116   -1.000
 4302.00    0.84728   0.86715   -1.000
 4303.00    0.85977   0.87719   -1.000
 4304.00    0.87848   0.88529  238.377
 4305.00    0.87939   0.88676  245.402
 4306.00    0.86536   0.88119   -1.000
 4307.00    0.84227   0.87369   -1.000
 4308.00    0.83001   0.87142   -1.000
 4309.00    0.83853   0.87762   -1.000
 4310.00    0.85128   0.88986   -1.000
 4311.00    0.86665   0.90392   -1.000
 4312.00    0.87561   0.91863   -1.000
 4313.00    0.88972   0.93729   -1.000
 4314.00    0.92209   0.96309   -1.000
 4315.00    0.96164   0.99392   -1.000
 4316.00    0.99923   1.02294   -1.000
 4317.00    1.02405   1.04219   -1.000
 4318.00    1.02530   1.04797   -1.000
 4319.00    1.01998   1.04135   -1.000
 4320.00    1.01269   1.02542  172.530
 4321.00    0.99787   1.00282  180.609
 4322.00    0.98379   0.97554  193.228
 4323.00    0.94966   0.94773  210.203
 4324.00    0.91497   0.92682  220.633
 4325.00    0.90029   0.92054   -1.000
 4326.00    0.91631   0.93050  188.892
 4327.00    0.95175   0.94950  174.190
 4328.00    0.97965   0.96674  169.359
 4329.00    0.98216   0.97494  169.508
 4330.00    0.97716   0.97439  168.888
 4331.00    0.97363   0.96859  166.227
 4332.00    0.96803   0.95898  164.303
 4333.00    0.96254   0.94309  163.740
 4334.00    0.95777   0.91609   -1.000
 4335.00    0.93466   0.87401   -1.000
 4336.00    0.89845   0.81723   -1.000
 4337.00    0.84326   0.75269   -1.000
 4338.00    0.77240   0.69323   -1.000
 4339.00    0.70583   0.65444   -1.000
 4340.00    0.67189   0.64740   -1.000
 4341.00    0.69536   0.67300   -1.000
 4342.00    0.76167   0.72117   -1.000
 4343.00    0.83271   0.77736   -1.000
 4344.00    0.87901   0.83016   -1.000
 4345.00    0.90882   0.87505   -1.000
 4346.00    0.93257   0.91138  169.659
 4347.00    0.94828   0.93808  167.029
 4348.00    0.96128   0.95267  166.958
 4349.00    0.97010   0.95447  174.803
 4350.00    0.95862   0.94829  187.547
 4351.00    0.93375   0.94348  192.128
 4352.00    0.92668   0.94831   -1.000
 4353.00    0.94880   0.96418   -1.000
 4354.00    0.97477   0.98554  171.472
 4355.00    0.99313   1.00522  167.657
 4356.00    1.00567   1.01897  167.176
 4357.00    1.00768   1.02705   -1.000
 4358.00    1.00893   1.03253   -1.000
 4359.00    1.00666   1.03895   -1.000
 4360.00    1.01154   1.04786   -1.000
 4361.00    1.02622   1.05844   -1.000
 4362.00    1.03888   1.06872   -1.000
 4363.00    1.03596   1.07638   -1.000
 4364.00    1.02930   1.07912   -1.000
 4365.00    1.03553   1.07524   -1.000
 4366.00    1.03080   1.06536   -1.000
 4367.00    1.01860   1.05281   -1.000
 4368.00    1.01017   1.04175   -1.000
 4369.00    1.01291   1.03408   -1.000
 4370.00    1.02151   1.02835  170.060
 4371.00    1.02371   1.02138  171.484
 4372.00    1.01981   1.01139  177.703
 4373.00    1.00436   1.00055  184.899
 4374.00    0.98098   0.99459  186.145
 4375.00    0.97557   0.99841   -1.000
 4376.00    0.99852   1.01148  170.638
 4377.00    1.01903   1.02770  166.749
 4378.00    1.02937   1.03869  167.195
 4379.00    1.03989   1.03791  169.930
 4380.00    1.03954   1.02229  177.218
 4381.00    1.02723   0.99376   -1.000
 4382.00    0.99754   0.96064   -1.000
 4383.00    0.95403   0.93624   -1.000
 4384.00    0.93639   0.93035  205.648
 4385.00    0.95904   0.94301  186.057
 4386.00    0.99127   0.96480   -1.000
 4387.00    1.01366   0.98470   -1.000
 4388.00    1.02248   0.99768   -1.000
 4389.00    1.01395   1.00488  180.135
 4390.00    1.00849   1.00979  177.222
 4391.00    1.02183   1.01370  173.255
 4392.00    1.03331   1.01538  173.658
 4393.00    1.02587   1.01473  177.196
 4394.00    1.01297   1.01463  177.259
 4395.00    1.00667   1.01847  170.122
 4396.00    1.01759   1.02535  164.679
 4397.00    1.03269   1.03019  165.958
 4398.00    1.03060   1.02926  171.640
 4399.00    1.01692   1.02434  176.994
 4400.00    1.00480   1.02012   -1.000
 4401.00    1.01142   1.01799  172.865
 4402.00    1.03300   1.01549  177.552
 4403.00    1.03257   1.01082   -1.000
 4404.00    1.01310   1.00594  190.504
 4405.00    1.00392   1.00462  185.108
 4406.00    1.01196   1.00842  181.818
 4407.00    1.02034   1.01639  180.093
 4408.00    1.01658   1.02767  173.935
 4409.00    1.02312   1.04140   -1.000
 4410.00    1.04693   1.05480  160.645
 4411.00    1.06028   1.06275  158.252
 4412.00    1.07053   1.06030  161.675
 4413.00    1.06335   1.04707  170.387
 4414.00    1.04007   1.02896  177.171
 4415.00    1.01728   1.01534  177.182
 4416.00    1.00809   1.01382  171.612
 4417.00    1.01477   1.02565  164.565
 4418.00    1.03083   1.04512  159.601
 4419.00    1.04664   1.06283   -1.000
 4420.00    1.05958   1.07248  163.608
 4421.00    1.05467   1.07359   -1.000
 4422.00    1.04500   1.07044   -1.000
 4423.00    1.04546   1.06748   -1.000
 4424.00    1.04418   1.06602   -1.000
 4425.00    1.04107   1.06552   -1.000
 4426.00    1.03121   1.06582   -1.000
 4427.00    1.03033   1.06711   -1.000
 4428.00    1.03854   1.06935   -1.000
 4429.00    1.04061   1.07145   -1.000
 4430.00    1.03912   1.07196   -1.000
 4431.00    1.04353   1.06962   -1.000
 4432.00    1.04899   1.06378  168.636
 4433.00    1.04116   1.05599  176.649
 4434.00    1.02674   1.05091   -1.000
 4435.00    1.01782   1.05356   -1.000
 4436.00    1.03001   1.06526   -1.000
 4437.00    1.06041   1.08108   -1.000
 4438.00    1.08139   1.09261  154.658
 4439.00    1.08229   1.09320  158.892
 4440.00    1.06964   1.08219  166.260
 4441.00    1.04672   1.06584   -1.000
 4442.00    1.02499   1.05340   -1.000
 4443.00    1.01246   1.05241   -1.000
 4444.00    1.02008   1.06315   -1.000
 4445.00    1.04371   1.07957   -1.000
 4446.00    1.05739   1.09382   -1.000
 4447.00    1.06322   1.10153   -1.000
 4448.00    1.07132   1.10302   -1.000
 4449.00    1.06862   1.10100   -1.000
 4450.00    1.06418   1.09738   -1.000
 4451.00    1.06700   1.09173   -1.000
 4452.00    1.06823   1.08224  166.934
 4453.00    1.06209   1.06920  174.526
 4454.00    1.04207   1.05601  178.785
 4455.00    1.02792   1.04785   -1.000
 4456.00    1.03577   1.04692  173.413
 4457.00    1.04941   1.05137  173.088
 4458.00    1.05743   1.05746  173.917
 4459.00    1.05541   1.06252  175.630
 4460.00    1.04808   1.06623   -1.000
 4461.00    1.04638   1.06955   -1.000
 4462.00    1.05154   1.07362   -1.000
 4463.00    1.06148   1.07820   -1.000
 4464.00    1.06625   1.08165  162.867
 4465.00    1.06476   1.08166   -1.000
 4466.00    1.06218   1.07729  164.601
 4467.00    1.05281   1.07046   -1.000
 4468.00    1.04026   1.06549   -1.000
 4469.00    1.03952   1.06645   -1.000
 4470.00    1.05446   1.07488   -1.000
 4471.00    1.07138   1.08900   -1.000
 4472.00    1.08337   1.10501   -1.000
 4473.00    1.09756   1.11908   -1.000
 4474.00    1.10642   1.12890   -1.000
 4475.00    1.10276   1.13373   -1.000
 4476.00    1.09819   1.13355   -1.000
 4477.00    1.10173   1.12741   -1.000
 4478.00    1.10694   1.11429  154.585
 4479.00    1.09917   1.09580  161.514
 4480.00    1.07999   1.07858  166.482
 4481.00    1.06479   1.07096  165.451
 4482.00    1.05968   1.07735   -1.000
 4483.00    1.07311   1.09491   -1.000
 4484.00    1.09203   1.11502   -1.000
 4485.00    1.10386   1.12891   -1.000
 4486.00    1.10944   1.13181   -1.000
 4487.00    1.10478   1.12504   -1.000
 4488.00    1.09103   1.11429   -1.000
 4489.00    1.07514   1.10652   -1.000
 4490.00    1.07279   1.10523   -1.000
 4491.00    1.08660   1.10943   -1.000
 4492.00    1.09089   1.11484   -1.000
 4493.00    1.08812   1.11799   -1.000
 4494.00    1.08131   1.11907   -1.000
 4495.00    1.07343   1.12013   -1.000
 4496.00    1.07836   1.12286   -1.000
 4497.00    1.09494   1.12618   -1.000
 4498.00    1.09785   1.12788   -1.000
 4499.00    1.09463   1.12710   -1.000
 4500.00    1.08859   1.12624   -1.000
 4501.00    1.08497   1.12926   -1.000
 4502.00    1.10341   1.13791   -1.000
 4503.00    1.11450   1.15021   -1.000
 4504.00    1.12677   1.16079   -1.000
 4505.00    1.13255   1.16585   -1.000
 4506.00    1.12523   1.16480   -1.000
 4507.00    1.11737   1.16093   -1.000
 4508.00    1.11664   1.15809   -1.000
 4509.00    1.12020   1.15779   -1.000
 4510.00    1.12513   1.15847   -1.000
 4511.00    1.12580   1.15711   -1.000
 4512.00    1.12025   1.15227   -1.000
 4513.00    1.11536   1.14479   -1.000
 4514.00    1.11073   1.13721   -1.000
 4515.00    1.10757   1.13176   -1.000
 4516.00    1.10817   1.12876   -1.000
 4517.00    1.10497   1.12726   -1.000
 4518.00    1.10143   1.12619   -1.000
 4519.00    1.09995   1.12500   -1.000
 4520.00    1.10487   1.12360   -1.000
 4521.00    1.10257   1.12130   -1.000
 4522.00    1.09415   1.11763   -1.000
 4523.00    1.09025   1.11272   -1.000
 4524.00    1.09090   1.10656   -1.000
 4525.00    1.08965   1.09874  164.461
 4526.00    1.08300   1.08896  169.188
 4527.00    1.07231   1.07849  171.563
 4528.00    1.06092   1.07056  170.699
 4529.00    1.06014   1.06731  167.876
 4530.00    1.07010   1.06811  164.802
 4531.00    1.07761   1.06898  163.718
 4532.00    1.07449   1.06715  167.656
 4533.00    1.06354   1.06414  173.306
 4534.00    1.04757   1.06529   -1.000
 4535.00    1.04971   1.07529   -1.000
 4536.00    1.06978   1.09326   -1.000
 4537.00    1.10042   1.11358  148.660
 4538.00    1.12016   1.12867  149.460
 4539.00    1.12435   1.13516  152.867
 4540.00    1.11874   1.13440   -1.000
 4541.00    1.11067   1.13097   -1.000
 4542.00    1.11187   1.12822   -1.000
 4543.00    1.10106   1.12636   -1.000
 4544.00    1.15233   1.12398   77.945
 4545.00    0.64324   1.11975   -1.000
 4546.00    0.05596   1.11283   -1.000
 4547.00   -0.05015   1.10336    0.000
 4548.00    0.47562   1.09313   -1.000
 4549.00    0.57904   1.08612   -1.000
 4550.00    0.44816   1.08533   -1.000
 4551.00    1.02205   1.08929   -1.000
 4552.00    1.09343   1.09324  160.980
 4553.00    1.07348   1.09409   -1.000
 4554.00    1.06591   1.09346   -1.000
 4555.00    1.06632   1.09621   -1.000
 4556.00    1.08581   1.10512   -1.000
 4557.00    1.10718   1.11873  145.878
 4558.00    1.11827   1.13339  146.302
 4559.00    1.12443   1.14522   -1.000
 4560.00    1.12898   1.15181   -1.000
 4561.00    1.12634   1.15182   -1.000
 4562.00    1.11122   1.14571   -1.000
 4563.00    1.09846   1.13690   -1.000
 4564.00    1.09772   1.13045   -1.000
 4565.00    1.10544   1.13001   -1.000
 4566.00    1.11681   1.13561   -1.000
 4567.00    1.12911   1.14301  145.226
 4568.00    1.13420   1.14741  146.472
 4569.00    1.12609   1.14564   -1.000
 4570.00    1.11188   1.13898   -1.000
 4571.00    1.09485   1.13206   -1.000
 4572.00    1.08878   1.13002   -1.000
 4573.00    1.10898   1.13410   -1.000
 4574.00    1.12642   1.14133  146.559
 4575.00    1.13273   1.14733  147.183
 4576.00    1.13327   1.14891  148.022
 4577.00    1.12498   1.14552   -1.000
 4578.00    1.11620   1.13733   -1.000
 4579.00    1.11449   1.12582  158.057
 4580.00    1.10428   1.11311  158.053
 4581.00    1.09842   1.10224  155.998
 4582.00    1.10395   1.09531  154.705
 4583.00    1.09381   1.09383  154.982
 4584.00    1.09786   1.09739  155.915
 4585.00    1.10326   1.10483  154.133
 4586.00    1.11571   1.11373  150.274
 4587.00    1.11928   1.12190  146.974
 4588.00    1.12210   1.12771  146.412
 4589.00    1.12224   1.13026  148.301
 4590.00    1.11509   1.12982  151.025
 4591.00    1.11540   1.12774  153.704
 4592.00    1.10772   1.12627   -1.000
 4593.00    1.10806   1.12722   -1.000
 4594.00    1.11317   1.13071   -1.000
 4595.00    1.12402   1.13572  151.265
 4596.00    1.13377   1.14043  150.943
 4597.00    1.13401   1.14358  150.606
 4598.00    1.13238   1.14423  151.738
 4599.00    1.13476   1.14256  153.117
 4600.00    1.12785   1.13936  153.658
 4601.00    1.11373   1.13645   -1.000
 4602.00    1.10860   1.13511   -1.000
 4603.00    1.11215   1.13593   -1.000
 4604.00    1.11688   1.13874   -1.000
 4605.00    1.12340   1.14326   -1.000
 4606.00    1.13477   1.14918  146.090
 4607.00    1.14199   1.15594  142.973
 4608.00    1.14352   1.16216   -1.000
 4609.00    1.14529   1.16622   -1.000
 4610.00    1.14426   1.16691   -1.000
 4611.00    1.13644   1.16498   -1.000
 4612.00    1.13328   1.16174   -1.000
 4613.00    1.13467   1.15902   -1.000
 4614.00    1.13870   1.15671   -1.000
 4615.00    1.13658   1.15412  143.540
 4616.00    1.12856   1.15058   -1.000
 4617.00    1.13384   1.14664  145.410
 4618.00    1.13641   1.14421  145.411
 4619.00    1.13429   1.14502  144.149
 4620.00    1.14093   1.14982  141.942
 4621.00    1.14534   1.15718  141.641
 4622.00    1.14902   1.16428  141.973
 4623.00    1.14876   1.16880   -1.000
 4624.00    1.14199   1.16993   -1.000
 4625.00    1.14144   1.16816   -1.000
 4626.00    1.14053   1.16478   -1.000
 4627.00    1.13535   1.16065   -1.000
 4628.00    1.13555   1.15726   -1.000
 4629.00    1.12915   1.15594   -1.000
 4630.00    1.12975   1.15717   -1.000
 4631.00    1.13524   1.15954   -1.000
 4632.00    1.14088   1.16050   -1.000
 4633.00    1.13873   1.15881   -1.000
 4634.00    1.13315   1.15544   -1.000
 4635.00    1.14009   1.15253  148.002
 4636.00    1.14138   1.15135  149.900
 4637.00    1.13538   1.15225  150.673
 4638.00    1.13726   1.15492   -1.000
 4639.00    1.14869   1.15954  148.224
 4640.00    1.15140   1.16534  144.682
 4641.00    1.15359   1.17090  142.520
 4642.00    1.15460   1.17367   -1.000
 4643.00    1.15111   1.17181   -1.000
 4644.00    1.14473   1.16492   -1.000
 4645.00    1.14131   1.15476  153.440
 4646.00    1.12822   1.14485  154.484
 4647.00    1.12477   1.13921  152.072
 4648.00    1.13267   1.13986  148.571
 4649.00    1.13686   1.14601  146.375
 4650.00    1.14428   1.15396  145.945
 4651.00    1.14053   1.15983   -1.000
 4652.00    1.13991   1.16160   -1.000
 4653.00    1.13548   1.15931   -1.000
 4654.00    1.12637   1.15537   -1.000
 4655.00    1.12273   1.15293   -1.000
 4656.00    1.12384   1.15544   -1.000
 4657.00    1.13318   1.16381   -1.000
 4658.00    1.14770   1.17602   -1.000
 4659.00    1.16300   1.18684   -1.000
 4660.00    1.16750   1.19228   -1.000
 4661.00    1.16507   1.19046   -1.000
 4662.00    1.15803   1.18307   -1.000
 4663.00    1.15455   1.17207  145.767
 4664.00    1.15302   1.15899  147.933
 4665.00    1.14225   1.14417  153.922
 4666.00    1.13588   1.12979  160.404
 4667.00    1.12210   1.11925  161.242
 4668.00    1.10945   1.11644  156.746
 4669.00    1.11804   1.12214  150.297
 4670.00    1.13110   1.13412  145.995
 4671.00    1.13746   1.14759  144.833
 4672.00    1.14705   1.15940  144.870
 4673.00    1.15445   1.16783  144.752
 4674.00    1.15705   1.17339  143.033
 4675.00    1.16133   1.17609  140.889
 4676.00    1.16115   1.17510  141.312
 4677.00    1.15784   1.16994  144.178
 4678.00    1.15406   1.16157  147.082
 4679.00    1.14883   1.15304  149.560
 4680.00    1.14406   1.14706  151.108
 4681.00    1.14199   1.14490  149.545
 4682.00    1.14384   1.14617  145.916
 4683.00    1.14400   1.14941  143.814
 4684.00    1.15339   1.15317  144.085
 4685.00    1.16249   1.15635  144.202
 4686.00    1.15836   1.15863  144.950
 4687.00    1.15871   1.16019  145.044
 4688.00    1.15918   1.16126  145.051
 4689.00    1.16550   1.16194  146.001
 4690.00    1.16343   1.16228  146.385
 4691.00    1.15700   1.16295  144.835
 4692.00    1.15914   1.16449  142.700
 4693.00    1.16552   1.16686  139.608
 4694.00    1.17214   1.16911  137.691
 4695.00    1.17489   1.16978  138.147
 4696.00    1.17707   1.16763  141.842
 4697.00    1.17146   1.16224  146.148
 4698.00    1.16127   1.15461  148.118
 4699.00    1.15671   1.14572  147.180
 4700.00    1.16019   1.13721   -1.000
 4701.00    1.16043   1.12978   -1.000
 4702.00    1.14785   1.12514   -1.000
 4703.00    1.13803   1.12443  148.972
 4704.00    1.14350   1.12721  146.687
 4705.00    1.15154   1.13069  148.340
 4706.00    1.14871   1.13217  151.277
 4707.00    1.13672   1.13139  152.897
 4708.00    1.13277   1.13110  152.295
 4709.00    1.13616   1.13380  148.118
 4710.00    1.14351   1.13962  143.999
 4711.00    1.15606   1.14645  142.342
 4712.00    1.16295   1.15135  143.466
 4713.00    1.16164   1.15378  146.089
 4714.00    1.15729   1.15509  146.361
 4715.00    1.15513   1.15775  143.692
 4716.00    1.15668   1.16301  140.898
 4717.00    1.16089   1.16953  139.860
 4718.00    1.16681   1.17550  139.343
 4719.00    1.16927   1.17917  138.866
 4720.00    1.17051   1.18099  139.902
 4721.00    1.17140   1.18179  140.929
 4722.00    1.17032   1.18251  140.266
 4723.00    1.17238   1.18311  138.789
 4724.00    1.17260   1.18242  138.843
 4725.00    1.17566   1.17888  141.948
 4726.00    1.16869   1.17156  147.214
 4727.00    1.15993   1.16170  150.746
 4728.00    1.15354   1.15184  150.527
 4729.00    1.15006   1.14486  149.045
 4730.00    1.15380   1.14190  147.835
 4731.00    1.15839   1.14302  146.106
 4732.00    1.16215   1.14666  144.790
 4733.00    1.16318   1.15096  143.933
 4734.00    1.16227   1.15393  143.132
 4735.00    1.16181   1.15492  144.467
 4736.00    1.15723   1.15475  144.792
 4737.00    1.15384   1.15521  143.080
 4738.00    1.16075   1.15722  142.960
 4739.00    1.16685   1.16053  143.742
 4740.00    1.16740   1.16418  143.994
 4741.00    1.16340   1.16763  142.948
 4742.00    1.16765   1.17086  141.410
 4743.00    1.17272   1.17409  141.534
 4744.00    1.17298   1.17721  141.687
 4745.00    1.16799   1.18012  140.726
 4746.00    1.16990   1.18312  139.321
 4747.00    1.17749   1.18663  138.929
 4748.00    1.17987   1.19024  139.107
 4749.00    1.18053   1.19358  139.213
 4750.00    1.17757   1.19525  140.148
 4751.00    1.17980   1.19444  141.702
 4752.00    1.17218   1.19080  142.933
 4753.00    1.16897   1.18521  143.928
 4754.00    1.16722   1.17998  143.778
 4755.00    1.16402   1.17715  144.262
 4756.00    1.16695   1.17780  145.299
 4757.00    1.16573   1.18099  145.540
 4758.00    1.16396   1.18473   -1.000
 4759.00    1.16843   1.18625  144.086
 4760.00    1.16739   1.18323  146.134
 4761.00    1.15713   1.17527   -1.000
 4762.00    1.14741   1.16409  151.804
 4763.00    1.14070   1.15397  152.164
 4764.00    1.14028   1.14788  151.882
 4765.00    1.14400   1.14782  150.872
 4766.00    1.15514   1.15289  148.860
 4767.00    1.15868   1.16171  145.571
 4768.00    1.16570   1.17172  143.435
 4769.00    1.17824   1.18049  143.498
 4770.00    1.17220   1.18592  144.652
 4771.00    1.17052   1.18863  145.938
 4772.00    1.16926   1.19032   -1.000
 4773.00    1.16705   1.19367   -1.000
 4774.00    1.16827   1.19859   -1.000
 4775.00    1.17367   1.20353   -1.000
 4776.00    1.17836   1.20617   -1.000
 4777.00    1.17655   1.20529   -1.000
 4778.00    1.17276   1.20198   -1.000
 4779.00    1.16591   1.19793   -1.000
 4780.00    1.16403   1.19484   -1.000
 4781.00    1.16865   1.19258   -1.000
 4782.00    1.17175   1.19037   -1.000
 4783.00    1.16931   1.18745  146.373
 4784.00    1.16671   1.18382  146.814
 4785.00    1.16552   1.18031  148.207
 4786.00    1.16355   1.17775  149.119
 4787.00    1.15856   1.17718   -1.000
 4788.00    1.15223   1.17886   -1.000
 4789.00    1.15501   1.18281   -1.000
 4790.00    1.16106   1.18868   -1.000
 4791.00    1.17016   1.19618   -1.000
 4792.00    1.17696   1.20497   -1.000
 4793.00    1.17655   1.21379   -1.000
 4794.00    1.18374   1.22098   -1.000
 4795.00    1.18913   1.22444   -1.000
 4796.00    1.18709   1.22335   -1.000
 4797.00    1.18637   1.21869   -1.000
 4798.00    1.17226   1.21297   -1.000
 4799.00    1.16529   1.20931   -1.000
 4800.00    1.16971   1.20888   -1.000
 4801.00    1.17950   1.21087   -1.000
 4802.00    1.18784   1.21249   -1.000
 4803.00    1.17879   1.21190   -1.000
 4804.00    1.16972   1.20882   -1.000
 4805.00    1.16818   1.20526   -1.000
 4806.00    1.16932   1.20304   -1.000
 4807.00    1.17596   1.20297   -1.000
 4808.00    1.17633   1.20455   -1.000
 4809.00    1.17593   1.20658   -1.000
 4810.00    1.17753   1.20828   -1.000
 4811.00    1.18040   1.20973   -1.000
 4812.00    1.18453   1.21176   -1.000
 4813.00    1.18543   1.21505   -1.000
 4814.00    1.18253   1.21964   -1.000
 4815.00    1.19367   1.22453   -1.000
 4816.00    1.19225   1.22865   -1.000
 4817.00    1.19029   1.23127   -1.000
 4818.00    1.19049   1.23209   -1.000
 4819.00    1.18813   1.23087   -1.000
 4820.00    1.19033   1.22661   -1.000
 4821.00    1.18627   1.21851   -1.000
 4822.00    1.18007   1.20741   -1.000
 4823.00    1.16932   1.19647   -1.000
 4824.00    1.16296   1.19018   -1.000
 4825.00    1.16921   1.19021   -1.000
 4826.00    1.18271   1.19469  140.507
 4827.00    1.18612   1.19975  142.110
 4828.00    1.18204   1.20199   -1.000
 4829.00    1.17619   1.20127   -1.000
 4830.00    1.17563   1.19810   -1.000
 4831.00    1.17728   1.19426  144.648
 4832.00    1.17581   1.19111  142.510
 4833.00    1.17886   1.18964  140.572
 4834.00    1.18315   1.18995  139.954
 4835.00    1.18050   1.19088  140.135
 4836.00    1.18275   1.19081  140.778
 4837.00    1.18172   1.18864  142.616
 4838.00    1.17414   1.18394  145.142
 4839.00    1.16574   1.17786  145.421
 4840.00    1.15801   1.17186  145.128
 4841.00    1.15892   1.16769  144.428
 4842.00    1.15832   1.16570  143.371
 4843.00    1.16163   1.16555  141.962
 4844.00    1.16489   1.16612  139.784
 4845.00    1.16767   1.16602  138.949
 4846.00    1.16486   1.16350  141.518
 4847.00    1.15545   1.15808  143.714
 4848.00    1.14756   1.15120  143.859
 4849.00    1.13932   1.14468  141.971
 4850.00    1.13595   1.13910  141.505
 4851.00    1.14212   1.13190  142.238
 4852.00    1.13681   1.11990  143.427
 4853.00    1.12655   1.10102   -1.000
 4854.00    1.11099   1.07598   -1.000
 4855.00    1.09327   1.04749   -1.000
 4856.00    1.07773   1.01623   -1.000
 4857.00    1.05943   0.98027   -1.000
 4858.00    1.02821   0.93523   -1.000
 4859.00    0.95392   0.88244   -1.000
 4860.00    0.85398   0.83257   -1.000
 4861.00    0.79330   0.80128  185.486
 4862.00    0.82091   0.80180  169.222
 4863.00    0.91365   0.83220   -1.000
 4864.00    0.99562   0.88258   -1.000
 4865.00    1.03906   0.93703   -1.000
 4866.00    1.07062   0.98579   -1.000
 4867.00    1.09341   1.02315   -1.000
 4868.00    1.10872   1.04789   -1.000
 4869.00    1.11162   1.06087   -1.000
 4870.00    1.10279   1.06551   -1.000
 4871.00    1.09246   1.06736   -1.000
 4872.00    1.09175   1.07285  151.147
 4873.00    1.10907   1.08378   -1.000
 4874.00    1.12808   1.09881   -1.000
 4875.00    1.14275   1.11312   -1.000
 4876.00    1.14483   1.12512  145.799
 4877.00    1.13745   1.13559  143.789
 4878.00    1.14092   1.14641  142.206
 4879.00    1.15145   1.15718  143.262
 4880.00    1.15792   1.16574  145.573
 4881.00    1.15198   1.16969  146.567
 4882.00    1.15023   1.16943   -1.000
 4883.00    1.15530   1.16633  146.849
 4884.00    1.15953   1.16260  149.024
 4885.00    1.15969   1.15923  149.946
 4886.00    1.15596   1.15632  149.256
 4887.00    1.15874   1.15329  148.999
 4888.00    1.15682   1.14923  151.028
 4889.00    1.14369   1.14440  154.325
 4890.00    1.12571   1.14185  153.649
 4891.00    1.12219   1.14594   -1.000
 4892.00    1.14036   1.15963  140.975
 4893.00    1.16882   1.18135  136.630
 4894.00    1.19214   1.20442  133.962
 4895.00    1.20098   1.22334   -1.000
 4896.00    1.20547   1.23394   -1.000
 4897.00    1.20838   1.23711   -1.000
 4898.00    1.19730   1.23437   -1.000
 4899.00    1.18750   1.22905   -1.000
 4900.00    1.17995   1.22322   -1.000
 4901.00    1.17327   1.21866   -1.000
 4902.00    1.17779   1.21571   -1.000
 4903.00    1.17608   1.21506   -1.000
 4904.00    1.17894   1.21745   -1.000
 4905.00    1.19159   1.22218   -1.000
 4906.00    1.20039   1.22595   -1.000
 4907.00    1.20482   1.22546   -1.000
 4908.00    1.19555   1.21840   -1.000
 4909.00    1.18045   1.20778   -1.000
 4910.00    1.18053   1.19776  145.518
 4911.00    1.18223   1.19373  142.913
 4912.00    1.18862   1.19687  140.902
 4913.00    1.19531   1.20541  139.060
 4914.00    1.19990   1.21426  137.785
 4915.00    1.19945   1.21791  138.298
 4916.00    1.20196   1.21162  142.832
 4917.00    1.19230   1.19452  150.500
 4918.00    1.16413   1.16998  157.804
 4919.00    1.13044   1.14548  160.073
 4920.00    1.12024   1.12863  155.364
 4921.00    1.12925   1.12285  149.724
 4922.00    1.14192   1.12732  147.255
 4923.00    1.15125   1.13772  146.969
 4924.00    1.15984   1.15201  145.233
 4925.00    1.17272   1.16889  141.555
 4926.00    1.18753   1.18740  138.929
 4927.00    1.19754   1.20562  137.538
 4928.00    1.20817   1.22012  136.572
 4929.00    1.21149   1.22886  135.739
 4930.00    1.20993   1.22998  136.916
 4931.00    1.20595   1.22381  140.488
 4932.00    1.19042   1.21213   -1.000
 4933.00    1.16944   1.19969   -1.000
 4934.00    1.15835   1.19014   -1.000
 4935.00    1.16460   1.18511  143.557
 4936.00    1.17726   1.18202  147.487
 4937.00    1.18217   1.17873  151.613
 4938.00    1.17012   1.17674  150.711
 4939.00    1.15884   1.17916  145.813
 4940.00    1.17007   1.18870  141.092
 4941.00    1.19473   1.20319  138.342
 4942.00    1.20617   1.21778  136.986
 4943.00    1.20662   1.22849   -1.000
 4944.00    1.20825   1.23366   -1.000
 4945.00    1.20632   1.23537   -1.000
 4946.00    1.20422   1.23614   -1.000
 4947.00    1.20761   1.23838   -1.000
 4948.00    1.21163   1.24184   -1.000
 4949.00    1.21090   1.24513   -1.000
 4950.00    1.21061   1.24637   -1.000
 4951.00    1.21446   1.24496   -1.000
 4952.00    1.21073   1.24119   -1.000
 4953.00    1.21675   1.23455  139.237
 4954.00    1.21183   1.22365  142.820
 4955.00    1.19512   1.20736  149.972
 4956.00    1.17014   1.18822  156.189
 4957.00    1.14422   1.17427   -1.000
 4958.00    1.14509   1.17193   -1.000
 4959.00    1.16903   1.18356  139.986
 4960.00    1.19624   1.20229  138.641
 4961.00    1.21015   1.21996  139.176
 4962.00    1.21175   1.23043  140.262
 4963.00    1.20848   1.23258   -1.000
 4964.00    1.20802   1.22860   -1.000
 4965.00    1.19992   1.22155   -1.000
 4966.00    1.19295   1.21453   -1.000
 4967.00    1.19755   1.20954  146.561
 4968.00    1.20083   1.20757  145.521
 4969.00    1.19838   1.20888  143.993
 4970.00    1.19836   1.21298  142.447
 4971.00    1.20052   1.21927  140.753
 4972.00    1.20543   1.22633  139.398
 4973.00    1.20927   1.23288   -1.000
 4974.00    1.21037   1.23704   -1.000
 4975.00    1.21357   1.23810   -1.000
 4976.00    1.21252   1.23556   -1.000
 4977.00    1.20893   1.22978   -1.000
 4978.00    1.20603   1.22091  147.123
 4979.00    1.19777   1.20871  149.187
 4980.00    1.18461   1.19279  153.919
 4981.00    1.16636   1.17419  158.946
 4982.00    1.14843   1.15671  159.319
 4983.00    1.14776   1.14569  156.511
 4984.00    1.15598   1.14556  152.196
 4985.00    1.16304   1.15616  147.389
 4986.00    1.17881   1.17279  143.659
 4987.00    1.19177   1.18924  143.528
 4988.00    1.19581   1.19978  145.524
 4989.00    1.19289   1.20336  147.078
 4990.00    1.18444   1.20156  147.242
 4991.00    1.17893   1.19865  146.013
 4992.00    1.18446   1.19761  145.345
 4993.00    1.18929   1.19964  145.243
 4994.00    1.18900   1.20371  144.539
 4995.00    1.19497   1.20774  143.814
 4996.00    1.20128   1.20950  144.581
 4997.00    1.19849   1.20729  146.455
 4998.00    1.18948   1.20030  149.360
 4999.00    1.18231   1.19008  151.319
 5000.00    1.17593   1.17951  151.545
 5001.00    1.17178   1.17181  150.202
 5002.00    1.18513   1.16792  149.175
 5003.00    1.18713   1.16557   -1.000
 5004.00    1.18135   1.16242   -1.000
 5005.00    1.16779   1.15801  155.964
 5006.00    1.16000   1.15597  152.435
 5007.00    1.16323   1.15913  147.819
 5008.00    1.18284   1.16682  146.045
 5009.00    1.19456   1.17456   -1.000
 5010.00    1.19439   1.17609  152.032
 5011.00    1.17846   1.16990  157.693
 5012.00    1.16171   1.15774  161.530
 5013.00    1.15341   1.14581  161.043
 5014.00    1.14821   1.13782  157.634
 5015.00    1.15198   1.13462  154.309
 5016.00    1.15931   1.13417   -1.000
 5017.00    1.16420   1.13445   -1.000
 5018.00    1.16050   1.13651   -1.000
 5019.00    1.16549   1.14167   -1.000
 5020.00    1.18136   1.14960   -1.000
 5021.00    1.18939   1.15893   -1.000
 5022.00    1.18778   1.16748   -1.000
 5023.00    1.18825   1.17529  149.134
 5024.00    1.19372   1.18228  148.094
 5025.00    1.19590   1.18725  148.699
 5026.00    1.19275   1.18996  149.419
 5027.00    1.18887   1.19111  148.178
 5028.00    1.19004   1.19253  145.458
 5029.00    1.19567   1.19593  143.339
 5030.00    1.20736   1.20142  141.025
 5031.00    1.21460   1.20783  139.357
 5032.00    1.21358   1.21279  139.476
 5033.00    1.20924   1.21377  143.710
 5034.00    1.20144   1.20891  149.390
 5035.00    1.18943   1.19971  152.085
 5036.00    1.18230   1.18766  152.730
 5037.00    1.18176   1.17498  154.536
 5038.00    1.17647   1.16099  160.390
 5039.00    1.16103   1.14616  166.946
 5040.00    1.13866   1.13479  167.419
 5041.00    1.13075   1.13244  159.743
 5042.00    1.14436   1.14312  149.932
 5043.00    1.17467   1.16472  143.635
 5044.00    1.19621   1.18949  140.465
 5045.00    1.22943   1.21004  135.201
 5046.00    1.17699   1.22033   -1.000
 5047.00    0.54988   1.21983   -1.000
 5048.00    0.13718   1.21062   -1.000
 5049.00    0.05428   1.19802   -1.000
 5050.00    0.89857   1.18716   -1.000
 5051.00    1.20218   1.18255   -1.000
 5052.00    1.19060   1.18596  143.451
 5053.00    1.20406   1.19600  140.781
 5054.00    1.22179   1.20806  139.378
 5055.00    1.22674   1.21941  138.886
 5056.00    1.23296   1.22811  139.107
 5057.00    1.23219   1.23489  139.368
 5058.00    1.22240   1.24023  139.328
 5059.00    1.21993   1.24413   -1.000
 5060.00    1.21749   1.24573   -1.000
 5061.00    1.22330   1.24409  140.228
 5062.00    1.22829   1.23810  144.221
 5063.00    1.21520   1.22777  149.344
 5064.00    1.20014   1.21608  151.251
 5065.00    1.19383   1.20569  149.575
 5066.00    1.19677   1.19978  147.315
 5067.00    1.20199   1.19776  146.761
 5068.00    1.20509   1.19819  146.079
 5069.00    1.20693   1.19919  145.124
 5070.00    1.21115   1.19940  146.202
 5071.00    1.21828   1.19841   -1.000
 5072.00    1.21687   1.19697   -1.000
 5073.00    1.21099   1.19638  144.508
 5074.00    1.21115   1.19712  144.274
 5075.00    1.21484   1.19820  144.158
 5076.00    1.21325   1.19690  145.497
 5077.00    1.20567   1.19135  150.426
 5078.00    1.18964   1.18139  157.549
 5079.00    1.16962   1.17057  159.638
 5080.00    1.16768   1.16330  156.476
 5081.00    1.17464   1.16200  153.118
 5082.00    1.18975   1.16708   -1.000
 5083.00    1.19034   1.17597  148.188
 5084.00    1.19995   1.18695  145.634
 5085.00    1.21235   1.19799  144.533
 5086.00    1.22140   1.20778  144.304
 5087.00    1.22265   1.21590  143.598
 5088.00    1.22304   1.22223  142.569
 5089.00    1.22601   1.22736  141.772
 5090.00    1.22579   1.23166  141.036
 5091.00    1.22677   1.23540  139.439
 5092.00    1.22992   1.23827  138.168
 5093.00    1.23723   1.23888  139.336
 5094.00    1.24846   1.23539  142.198
 5095.00    1.23421   1.22645  145.276
 5096.00    1.22554   1.21326  148.791
 5097.00    1.21206   1.19908  151.935
 5098.00    1.20323   1.18878  152.520
 5099.00    1.20622   1.18526   -1.000
 5100.00    1.21178   1.18930   -1.000
 5101.00    1.22114   1.19801   -1.000
 5102.00    1.22938   1.20678   -1.000
 5103.00    1.22873   1.21214  145.873
 5104.00    1.22851   1.21192  147.726
 5105.00    1.22242   1.20700  149.537
 5106.00    1.20609   1.19940  151.415
 5107.00    1.19101   1.19217  151.259
 5108.00    1.18467   1.18790  150.307
 5109.00    1.18513   1.18818  149.229
 5110.00    1.19258   1.19316  147.114
 5111.00    1.20321   1.20184  145.298
 5112.00    1.22056   1.21185  143.526
 5113.00    1.23074   1.22168  142.217
 5114.00    1.23476   1.22987  141.439
 5115.00    1.23789   1.23648  139.966
 5116.00    1.23438   1.24132  138.783
 5117.00    1.23982   1.24397  139.147
 5118.00    1.24158   1.24382  140.933
 5119.00    1.24376   1.23990  143.055
 5120.00    1.23825   1.23250  145.415
 5121.00    1.23038   1.22218  149.128
 5122.00    1.21815   1.21064  153.623
 5123.00    1.20115   1.19930  154.802
 5124.00    1.19436   1.19026  153.484
 5125.00    1.20339   1.18415   -1.000
 5126.00    1.20619   1.18117   -1.000
 5127.00    1.19960   1.18023   -1.000
 5128.00    1.19545   1.18097  151.869
 5129.00    1.20048   1.18322   -1.000
 5130.00    1.21148   1.18713   -1.000
 5131.00    1.21346   1.19229   -1.000
 5132.00    1.22096   1.19779   -1.000
 5133.00    1.22566   1.20272   -1.000
 5134.00    1.23045   1.20601   -1.000
 5135.00    1.22700   1.20671   -1.000
 5136.00    1.22176   1.20379   -1.000
 5137.00    1.20864   1.19795  151.557
 5138.00    1.19319   1.19050  151.816
 5139.00    1.18479   1.18415  150.480
 5140.00    1.19254   1.18026  151.541
 5141.00    1.19398   1.17903  153.997
 5142.00    1.18863   1.17992  153.179
 5143.00    1.19308   1.18206  150.620
 5144.00    1.20654   1.18452   -1.000
 5145.00    1.21779   1.18635   -1.000
 5146.00    1.21911   1.18690   -1.000
 5147.00    1.21705   1.18687   -1.000
 5148.00    1.21944   1.18703   -1.000
 5149.00    1.21400   1.18678   -1.000
 5150.00    1.20486   1.18553   -1.000
 5151.00    1.19576   1.18296  154.735
 5152.00    1.19135   1.18029  153.979
 5153.00    1.19819   1.18018   -1.000
 5154.00    1.20833   1.18448   -1.000
 5155.00    1.22059   1.19385   -1.000
 5156.00    1.23712   1.20605   -1.000
 5157.00    1.24616   1.21847   -1.000
 5158.00    1.24680   1.22783   -1.000
 5159.00    1.24761   1.23268  140.142
 5160.00    1.24543   1.23239  140.944
 5161.00    1.23874   1.22701  142.526
 5162.00    1.23795   1.21588   -1.000
 5163.00    1.23746   1.19750   -1.000
 5164.00    1.21852   1.16977   -1.000
 5165.00    1.18745   1.13333   -1.000
 5166.00    1.13819   1.09500   -1.000
 5167.00    1.09245   1.06302   -1.000
 5168.00    1.08235   1.04590   -1.000
 5169.00    1.11277   1.04156   -1.000
 5170.00    1.14051   1.04286   -1.000
 5171.00    1.12738   1.04605   -1.000
 5172.00    1.10242   1.05177   -1.000
 5173.00    1.10938   1.06891   -1.000
 5174.00    1.15546   1.09894   -1.000
 5175.00    1.21030   1.13599   -1.000
 5176.00    1.23533   1.17096   -1.000
 5177.00    1.25394   1.19433   -1.000
 5178.00    1.25324   1.20317   -1.000
 5179.00    1.24938   1.19639   -1.000
 5180.00    1.24259   1.17433   -1.000
 5181.00    1.21322   1.14120   -1.000
 5182.00    1.16992   1.10474   -1.000
 5183.00    1.12344   1.07893   -1.000
 5184.00    1.11823   1.07320   -1.000
 5185.00    1.16467   1.08892   -1.000
 5186.00    1.20825   1.11772   -1.000
 5187.00    1.22546   1.14619   -1.000
 5188.00    1.22083   1.16713   -1.000
 5189.00    1.21460   1.17745   -1.000
 5190.00    1.20760   1.17921   -1.000
 5191.00    1.19251   1.17582   -1.000
 5192.00    1.18129   1.17145  157.320
 5193.00    1.18178   1.16869  154.601
 5194.00    1.19335   1.16966   -1.000
 5195.00    1.20822   1.17361   -1.000
 5196.00    1.21937   1.18024   -1.000
 5197.00    1.22631   1.18929   -1.000
 5198.00    1.23111   1.19982   -1.000
 5199.00    1.23608   1.20971   -1.000
 5200.00    1.23616   1.21578   -1.000
 5201.00    1.23313   1.21491   -1.000
 5202.00    1.22989   1.20621   -1.000
 5203.00    1.21940   1.19101   -1.000
 5204.00    1.19576   1.17308   -1.000
 5205.00    1.17688   1.15651   -1.000
 5206.00    1.18223   1.14503   -1.000
 5207.00    1.18678   1.14024   -1.000
 5208.00    1.19049   1.14281   -1.000
 5209.00    1.19699   1.15281   -1.000
 5210.00    1.21186   1.16889   -1.000
 5211.00    1.23316   1.18850   -1.000
 5212.00    1.24736   1.20641   -1.000
 5213.00    1.25356   1.21829   -1.000
 5214.00    1.24624   1.22162   -1.000
 5215.00    1.22824   1.21902  146.415
 5216.00    1.21845   1.21604  145.185
 5217.00    1.22280   1.21746  142.027
 5218.00    1.23688   1.22516  139.875
 5219.00    1.25127   1.23608  138.807
 5220.00    1.26145   1.24607  138.252
 5221.00    1.26699   1.25025  140.059
 5222.00    1.26015   1.24585  144.368
 5223.00    1.25694   1.23171   -1.000
 5224.00    1.23576   1.20932   -1.000
 5225.00    1.20175   1.18408   -1.000
 5226.00    1.16849   1.16482  158.288
 5227.00    1.16570   1.15796  149.397
 5228.00    1.19312   1.16555   -1.000
 5229.00    1.22674   1.18076   -1.000
 5230.00    1.24409   1.19539   -1.000
 5231.00    1.24490   1.20287   -1.000
 5232.00    1.23570   1.20282   -1.000
 5233.00    1.22210   1.20013   -1.000
 5234.00    1.22207   1.20068   -1.000
 5235.00    1.23762   1.20780   -1.000
 5236.00    1.25124   1.22008   -1.000
 5237.00    1.26157   1.23409   -1.000
 5238.00    1.26492   1.24566  137.688
 5239.00    1.26560   1.25340  137.434
 5240.00    1.26883   1.25751  136.611
 5241.00    1.27057   1.25939  136.835
 5242.00    1.26886   1.26037  136.546
 5243.00    1.26394   1.26083  136.329
 5244.00    1.26766   1.25958  139.118
 5245.00    1.26502   1.25519  143.520
 5246.00    1.24952   1.24756  146.846
 5247.00    1.23827   1.23805  147.176
 5248.00    1.23163   1.22940  147.448
 5249.00    1.23149   1.22329  148.410
 5250.00    1.22293   1.22062  147.678
 5251.00    1.22886   1.22090  145.601
 5252.00    1.23890   1.22306  144.168
 5253.00    1.24217   1.22606  144.217
 5254.00    1.24007   1.23013  143.160
 5255.00    1.24349   1.23625  139.766
 5256.00    1.25716   1.24410  135.974
 5257.00    1.27156   1.25187  134.818
 5258.00    1.27720   1.25533   -1.000
 5259.00    1.26743   1.25096  139.920
 5260.00    1.25603   1.23704   -1.000
 5261.00    1.23546   1.21498   -1.000
 5262.00    1.21396   1.18891   -1.000
 5263.00    1.20055   1.16386   -1.000
 5264.00    1.18865   1.14445   -1.000
 5265.00    1.18373   1.13316   -1.000
 5266.00    1.18917   1.12837   -1.000
 5267.00    1.19826   1.12643   -1.000
 5268.00    1.19108   1.12496   -1.000
 5269.00    1.17088   1.12426   -1.000
 5270.00    1.15908   1.12901   -1.000
 5271.00    1.18665   1.14033   -1.000
 5272.00    1.21898   1.15582   -1.000
 5273.00    1.22399   1.17177   -1.000
 5274.00    1.22958   1.18496   -1.000
 5275.00    1.23530   1.19713   -1.000
 5276.00    1.24407   1.21018   -1.000
 5277.00    1.26394   1.22401   -1.000
 5278.00    1.27141   1.23550   -1.000
 5279.00    1.27320   1.24015   -1.000
 5280.00    1.26837   1.23716   -1.000
 5281.00    1.25385   1.22887   -1.000
 5282.00    1.24062   1.22075   -1.000
 5283.00    1.23256   1.21802  142.859
 5284.00    1.24113   1.22384  138.444
 5285.00    1.25501   1.23697  134.076
 5286.00    1.26775   1.25362  133.148
 5287.00    1.28412   1.26885  133.900
 5288.00    1.28531   1.27990  133.859
 5289.00    1.28538   1.28651  133.052
 5290.00    1.28567   1.28930  132.784
 5291.00    1.28062   1.28927  133.596
 5292.00    1.27801   1.28678  134.877
 5293.00    1.27482   1.28098  136.686
 5294.00    1.27483   1.27151  140.461
 5295.00    1.26864   1.25843  145.922
 5296.00    1.25476   1.24348  149.792
 5297.00    1.23986   1.23090  148.714
 5298.00    1.23647   1.22404  144.852
 5299.00    1.24305   1.22403   -1.000
 5300.00    1.25345   1.22986   -1.000
 5301.00    1.25823   1.23842   -1.000
 5302.00    1.25269   1.24833  135.729
 5303.00    1.26189   1.25821  133.272
 5304.00    1.27565   1.26636  132.993
 5305.00    1.28009   1.27204  134.345
 5306.00    1.28026   1.27486  135.508
 5307.00    1.27135   1.27628  134.556
 5308.00    1.27768   1.27849  133.123
 5309.00    1.28771   1.28183  132.293
 5310.00    1.29270   1.28546  132.456
 5311.00    1.28750   1.28706  133.224
 5312.00    1.28705   1.28483  133.793
 5313.00    1.28711   1.27840  134.781
 5314.00    1.28849   1.26886  136.131
 5315.00    1.27618   1.25885  137.335
 5316.00    1.26124   1.25203  137.337
 5317.00    1.25941   1.25077  136.280
 5318.00    1.27159   1.25489  135.717
 5319.00    1.27830   1.26067  136.255
 5320.00    1.27737   1.26370  137.232
 5321.00    1.27219   1.26106  138.875
 5322.00    1.26449   1.25227  141.345
 5323.00    1.25603   1.23941  142.611
 5324.00    1.24626   1.22424   -1.000
 5325.00    1.24834   1.20819   -1.000
 5326.00    1.23649   1.19171   -1.000
 5327.00    1.20350   1.17756   -1.000
 5328.00    1.18743   1.17126   -1.000
 5329.00    1.19830   1.17572   -1.000
 5330.00    1.23729   1.19102   -1.000
 5331.00    1.26463   1.21109   -1.000
 5332.00    1.25891   1.22957   -1.000
 5333.00    1.26239   1.24314   -1.000
 5334.00    1.27327   1.25083   -1.000
 5335.00    1.27509   1.25364   -1.000
 5336.00    1.26714   1.25252  137.520
 5337.00    1.26655   1.24785  139.056
 5338.00    1.26112   1.24056   -1.000
 5339.00    1.25008   1.23282  145.126
 5340.00    1.23748   1.22795  143.773
 5341.00    1.23995   1.22818  139.765
 5342.00    1.26312   1.23374   -1.000
 5343.00    1.27099   1.24093   -1.000
 5344.00    1.27608   1.24616   -1.000
 5345.00    1.27076   1.24739   -1.000
 5346.00    1.26621   1.24525   -1.000
 5347.00    1.26647   1.24252   -1.000
 5348.00    1.25742   1.24151  141.502
 5349.00    1.25833   1.24373  139.197
 5350.00    1.27846   1.24927   -1.000
 5351.00    1.28010   1.25714   -1.000
 5352.00    1.28135   1.26555  133.914
 5353.00    1.28177   1.27364  132.824
 5354.00    1.29002   1.28115  131.093
 5355.00    1.30102   1.28777  130.143
 5356.00    1.30331   1.29327  130.311
 5357.00    1.30245   1.29650  130.513
 5358.00    1.29800   1.29663  131.005
 5359.00    1.29961   1.29315  132.599
 5360.00    1.29852   1.28585  134.862
 5361.00    1.28248   1.27562  136.823
 5362.00    1.27344   1.26423  137.733
 5363.00    1.27476   1.25381   -1.000
 5364.00    1.27276   1.24606   -1.000
 5365.00    1.26652   1.24116   -1.000
 5366.00    1.27312   1.23771   -1.000
 5367.00    1.27529   1.23328   -1.000
 5368.00    1.26163   1.22639   -1.000
 5369.00    1.25222   1.21721   -1.000
 5370.00    1.23937   1.20922   -1.000
 5371.00    1.22870   1.20707   -1.000
 5372.00    1.23857   1.21381   -1.000
 5373.00    1.26713   1.22890   -1.000
 5374.00    1.28812   1.24728   -1.000
 5375.00    1.29141   1.26383   -1.000
 5376.00    1.30119   1.27444   -1.000
 5377.00    1.30187   1.27836   -1.000
 5378.00    1.29599   1.27686  133.784
 5379.00    1.29472   1.27199   -1.000
 5380.00    1.28697   1.26594   -1.000
 5381.00    1.27558   1.26047  137.101
 5382.00    1.27377   1.25723  136.967
 5383.00    1.26780   1.25736  136.287
 5384.00    1.27024   1.26100  134.770
 5385.00    1.28749   1.26676   -1.000
 5386.00    1.29854   1.27191   -1.000
 5387.00    1.29249   1.27427  136.595
 5388.00    1.29360   1.27257   -1.000
 5389.00    1.28686   1.26725   -1.000
 5390.00    1.28638   1.25995   -1.000
 5391.00    1.28154   1.25208   -1.000
 5392.00    1.27484   1.24465   -1.000
 5393.00    1.26958   1.23809   -1.000
 5394.00    1.26657   1.23143   -1.000
 5395.00    1.26022   1.22462   -1.000
 5396.00    1.24388   1.21888   -1.000
 5397.00    1.24014   1.21618   -1.000
 5398.00    1.25383   1.21877   -1.000
 5399.00    1.26720   1.22532   -1.000
 5400.00    1.28277   1.23234   -1.000
 5401.00    1.28924   1.23568   -1.000
 5402.00    1.28114   1.23232   -1.000
 5403.00    1.26378   1.22261   -1.000
 5404.00    1.24199   1.21076   -1.000
 5405.00    1.22809   1.20148   -1.000
 5406.00    1.23390   1.19776   -1.000
 5407.00    1.25684   1.19976   -1.000
 5408.00    1.26689   1.20414   -1.000
 5409.00    1.26133   1.20929   -1.000
 5410.00    1.25759   1.21497   -1.000
 5411.00    1.26651   1.22158   -1.000
 5412.00    1.27822   1.22942   -1.000
 5413.00    1.28608   1.23704   -1.000
 5414.00    1.28327   1.24394   -1.000
 5415.00    1.27198   1.25050   -1.000
 5416.00    1.28140   1.25657   -1.000
 5417.00    1.28502   1.26209   -1.000
 5418.00    1.28281   1.26586  136.686
 5419.00    1.28241   1.26700  137.458
 5420.00    1.28313   1.26574  136.802
 5421.00    1.28666   1.26229   -1.000
 5422.00    1.28130   1.25776   -1.000
 5423.00    1.26906   1.25380  139.567
 5424.00    1.27119   1.25168   -1.000
 5425.00    1.27676   1.25256   -1.000
 5426.00    1.28299   1.25416   -1.000
 5427.00    1.29028   1.25314   -1.000
 5428.00    1.27123   1.24865   -1.000
 5429.00    1.25272   1.24146  144.614
 5430.00    1.24591   1.23521  141.815
 5431.00    1.26040   1.23152   -1.000
 5432.00    1.26895   1.22967   -1.000
 5433.00    1.26250   1.22948   -1.000
 5434.00    1.24824   1.23116   -1.000
 5435.00    1.24584   1.23670  142.000
 5436.00    1.26438   1.24724  138.000
 5437.00    1.28227   1.26115   -1.000
 5438.00    1.29891   1.27544   -1.000
 5439.00    1.30050   1.28665  132.320
 5440.00    1.30124   1.29338  132.163
 5441.00    1.30491   1.29471  132.168
 5442.00    1.29724   1.29043  133.688
 5443.00    1.28828   1.28054  137.442
 5444.00    1.28069   1.26595  143.302
 5445.00    1.25868   1.25043  147.925
 5446.00    1.24268   1.23880  146.363
 5447.00    1.24452   1.23552  141.366
 5448.00    1.25574   1.24138  137.488
 5449.00    1.28459   1.25273   -1.000
 5450.00    1.30026   1.26448   -1.000
 5451.00    1.30046   1.27118   -1.000
 5452.00    1.30353   1.27031   -1.000
 5453.00    1.29110   1.26290   -1.000
 5454.00    1.26454   1.25286  148.353
 5455.00    1.24536   1.24576  145.754
 5456.00    1.25061   1.24605  140.465
 5457.00    1.27455   1.25318   -1.000
 5458.00    1.29194   1.26344   -1.000
 5459.00    1.29716   1.27135   -1.000
 5460.00    1.29608   1.27333   -1.000
 5461.00    1.29149   1.26958   -1.000
 5462.00    1.28464   1.26343   -1.000
 5463.00    1.28256   1.25906   -1.000
 5464.00    1.28773   1.25880   -1.000
 5465.00    1.29340   1.26254   -1.000
 5466.00    1.29299   1.26827   -1.000
 5467.00    1.29819   1.27397   -1.000
 5468.00    1.29673   1.27801   -1.000
 5469.00    1.30065   1.27948   -1.000
 5470.00    1.30215   1.27837   -1.000
 5471.00    1.29993   1.27465   -1.000
 5472.00    1.29770   1.26831   -1.000
 5473.00    1.29464   1.25966   -1.000
 5474.00    1.28570   1.24919   -1.000
 5475.00    1.27293   1.23884   -1.000
 5476.00    1.25657   1.23172   -1.000
 5477.00    1.24965   1.23008   -1.000
 5478.00    1.26853   1.23444   -1.000
 5479.00    1.28786   1.24210   -1.000
 5480.00    1.28930   1.24985   -1.000
 5481.00    1.28876   1.25654   -1.000
 5482.00    1.28299   1.26202   -1.000
 5483.00    1.28752   1.26738   -1.000
 5484.00    1.29912   1.27239   -1.000
 5485.00    1.29584   1.27562   -1.000
 5486.00    1.29134   1.27639  140.597
 5487.00    1.28586   1.27520  141.289
 5488.00    1.28544   1.27384  141.248
 5489.00    1.29103   1.27362   -1.000
 5490.00    1.28866   1.27488  139.135
 5491.00    1.29036   1.27698  138.673
 5492.00    1.29263   1.27876  139.061
 5493.00    1.29567   1.27970  139.080
 5494.00    1.29899   1.27933   -1.000
 5495.00    1.29523   1.27746   -1.000
 5496.00    1.28259   1.27468  141.158
 5497.00    1.27755   1.27164  140.217
 5498.00    1.28305   1.26899  138.553
 5499.00    1.28332   1.26666  139.953
 5500.00    1.28366   1.26375   -1.000
 5501.00    1.28003   1.26062   -1.000
 5502.00    1.27435   1.25790  141.029
 5503.00    1.28419   1.25544   -1.000
 5504.00    1.29181   1.25341   -1.000
 5505.00    1.28030   1.25135   -1.000
 5506.00    1.26787   1.24978   -1.000
 5507.00    1.26911   1.24993   -1.000
 5508.00    1.27570   1.25159   -1.000
 5509.00    1.29037   1.25381   -1.000
 5510.00    1.29990   1.25469   -1.000
 5511.00    1.29145   1.25337   -1.000
 5512.00    1.27966   1.25105   -1.000
 5513.00    1.28504   1.25002   -1.000
 5514.00    1.28327   1.25225   -1.000
 5515.00    1.29273   1.25804   -1.000
 5516.00    1.30198   1.26641   -1.000
 5517.00    1.30785   1.27552   -1.000
 5518.00    1.30649   1.28359   -1.000
 5519.00    1.31059   1.28936   -1.000
 5520.00    1.31463   1.29239   -1.000
 5521.00    1.31205   1.29264   -1.000
 5522.00    1.30589   1.29027  136.792
 5523.00    1.30558   1.28503   -1.000
 5524.00    1.29840   1.27650   -1.000
 5525.00    1.29580   1.26503   -1.000
 5526.00    1.28240   1.25252   -1.000
 5527.00    1.26261   1.24262   -1.000
 5528.00    1.25860   1.23874   -1.000
 5529.00    1.27080   1.24235   -1.000
 5530.00    1.28362   1.25104   -1.000
 5531.00    1.29312   1.26030   -1.000
 5532.00    1.29652   1.26657   -1.000
 5533.00    1.29629   1.26857   -1.000
 5534.00    1.29708   1.26809   -1.000
 5535.00    1.28909   1.26800   -1.000
 5536.00    1.29027   1.27007   -1.000
 5537.00    1.29515   1.27407   -1.000
 5538.00    1.30108   1.27896   -1.000
 5539.00    1.30559   1.28355   -1.000
 5540.00    1.30733   1.28656   -1.000
 5541.00    1.30797   1.28727   -1.000
 5542.00    1.30495   1.28602   -1.000
 5543.00    1.30057   1.28378  138.903
 5544.00    1.29889   1.28210  138.440
 5545.00    1.30316   1.28218   -1.000
 5546.00    1.30175   1.28426  137.203
 5547.00    1.30208   1.28802  135.788
 5548.00    1.30809   1.29239  134.683
 5549.00    1.31115   1.29608  134.465
 5550.00    1.31074   1.29831  135.297
 5551.00    1.30854   1.29861  136.526
 5552.00    1.31384   1.29708  138.135
 5553.00    1.30890   1.29475  138.688
 5554.00    1.30503   1.29287  138.391
 5555.00    1.30316   1.29222  137.934
 5556.00    1.31092   1.29272   -1.000
 5557.00    1.31244   1.29384   -1.000
 5558.00    1.31231   1.29469   -1.000
 5559.00    1.30909   1.29436  137.762
 5560.00    1.30949   1.29246  138.519
 5561.00    1.31029   1.28909   -1.000
 5562.00    1.30509   1.28495   -1.000
 5563.00    1.30296   1.28088   -1.000
 5564.00    1.29665   1.27744   -1.000
 5565.00    1.29604   1.27485   -1.000
 5566.00    1.30021   1.27280   -1.000
 5567.00    1.29429   1.27087   -1.000
 5568.00    1.29111   1.26881   -1.000
 5569.00    1.28737   1.26662   -1.000
 5570.00    1.28800   1.26446   -1.000
 5571.00    1.28833   1.26266   -1.000
 5572.00    1.27825   1.26188   -1.000
 5573.00    1.25785   1.26281  139.505
 5574.00    1.22672   1.26528   -1.000
 5575.00    1.16957   1.26876   -1.000
 5576.00    1.22069   1.27305   -1.000
 5577.00    1.30200   1.27748   -1.000
 5578.00    1.36824   1.28136   -1.000
 5579.00    1.35133   1.28421   -1.000
 5580.00    1.30984   1.28562   -1.000
 5581.00    1.29844   1.28549  139.438
 5582.00    1.30337   1.28367   -1.000
 5583.00    1.30432   1.27956   -1.000
 5584.00    1.29758   1.27212   -1.000
 5585.00    1.28811   1.26056   -1.000
 5586.00    1.27040   1.24663   -1.000
 5587.00    1.25623   1.23387   -1.000
 5588.00    1.25033   1.22571   -1.000
 5589.00    1.25645   1.22441   -1.000
 5590.00    1.27454   1.22917   -1.000
 5591.00    1.28548   1.23690   -1.000
 5592.00    1.28722   1.24454   -1.000
 5593.00    1.28979   1.25065   -1.000
 5594.00    1.28306   1.25516   -1.000
 5595.00    1.28769   1.25837   -1.000
 5596.00    1.29674   1.26000   -1.000
 5597.00    1.29396   1.25936   -1.000
 5598.00    1.28443   1.25682   -1.000
 5599.00    1.27818   1.25306   -1.000
 5600.00    1.28011   1.24898   -1.000
 5601.00    1.27847   1.24707   -1.000
 5602.00    1.27148   1.24957   -1.000
 5603.00    1.27450   1.25722   -1.000
 5604.00    1.29323   1.26953   -1.000
 5605.00    1.30589   1.28395   -1.000
 5606.00    1.31303   1.29729  136.000
 5607.00    1.31767   1.30746  136.255
 5608.00    1.31087   1.31365  136.533
 5609.00    1.31710   1.31636  136.341
 5610.00    1.32114   1.31610  135.898
 5611.00    1.32327   1.31224  136.713
 5612.00    1.31556   1.30387  139.835
 5613.00    1.30570   1.29137  144.928
 5614.00    1.29306   1.27722   -1.000
 5615.00    1.27108   1.26600  146.215
 5616.00    1.27263   1.26165  142.487
 5617.00    1.29555   1.26434   -1.000
 5618.00    1.30895   1.27189   -1.000
 5619.00    1.30478   1.28077   -1.000
 5620.00    1.30932   1.28734   -1.000
 5621.00    1.31233   1.29008   -1.000
 5622.00    1.30921   1.28892   -1.000
 5623.00    1.29959   1.28526  145.603
 5624.00    1.29250   1.28177  144.546
 5625.00    1.29271   1.28075  141.914
 5626.00    1.30473   1.28345   -1.000
 5627.00    1.31501   1.28945   -1.000
 5628.00    1.31536   1.29681   -1.000
 5629.00    1.31773   1.30346  137.105
 5630.00    1.31904   1.30766  136.535
 5631.00    1.32172   1.30862  136.789
 5632.00    1.32067   1.30687  137.975
 5633.00    1.31745   1.30327  138.940
 5634.00    1.31512   1.29881  139.805
 5635.00    1.31252   1.29444   -1.000
 5636.00    1.31317   1.29070   -1.000
 5637.00    1.31376   1.28782   -1.000
 5638.00    1.31288   1.28581   -1.000
 5639.00    1.30570   1.28435   -1.000
 5640.00    1.30539   1.28350   -1.000
 5641.00    1.30594   1.28362   -1.000
 5642.00    1.30783   1.28466   -1.000
 5643.00    1.31497   1.28649   -1.000
 5644.00    1.31390   1.28898   -1.000
 5645.00    1.31540   1.29155   -1.000
 5646.00    1.31850   1.29358   -1.000
 5647.00    1.31792   1.29481   -1.000
 5648.00    1.32620   1.29517   -1.000
 5649.00    1.32203   1.29491   -1.000
 5650.00    1.31672   1.29443   -1.000
 5651.00    1.31329   1.29361   -1.000
 5652.00    1.31583   1.29196   -1.000
 5653.00    1.31545   1.28867   -1.000
 5654.00    1.31488   1.28295   -1.000
 5655.00    1.31243   1.27469   -1.000
 5656.00    1.30559   1.26468   -1.000
 5657.00    1.28944   1.25529   -1.000
 5658.00    1.26703   1.24940   -1.000
 5659.00    1.27520   1.24812   -1.000
 5660.00    1.29443   1.25096   -1.000
 5661.00    1.29917   1.25653   -1.000
 5662.00    1.29988   1.26311   -1.000
 5663.00    1.30500   1.26977   -1.000
 5664.00    1.30967   1.27575   -1.000
 5665.00    1.31142   1.28014   -1.000
 5666.00    1.31295   1.28281   -1.000
 5667.00    1.30610   1.28412   -1.000
 5668.00    1.30251   1.28498   -1.000
 5669.00    1.30528   1.28674   -1.000
 5670.00    1.31326   1.28994   -1.000
 5671.00    1.31700   1.29407   -1.000
 5672.00    1.31896   1.29823   -1.000
 5673.00    1.31993   1.30149   -1.000
 5674.00    1.32828   1.30345   -1.000
 5675.00    1.32491   1.30431   -1.000
 5676.00    1.32343   1.30431   -1.000
 5677.00    1.32570   1.30334   -1.000
 5678.00    1.32204   1.30113   -1.000
 5679.00    1.31982   1.29716   -1.000
 5680.00    1.31912   1.29128   -1.000
 5681.00    1.31764   1.28427   -1.000
 5682.00    1.30580   1.27754   -1.000
 5683.00    1.29796   1.27261   -1.000
 5684.00    1.30104   1.27016   -1.000
 5685.00    1.30182   1.26950   -1.000
 5686.00    1.30289   1.26969   -1.000
 5687.00    1.30686   1.27046   -1.000
 5688.00    1.30836   1.27220   -1.000
 5689.00    1.30901   1.27559   -1.000
 5690.00    1.31366   1.28075   -1.000
 5691.00    1.31896   1.28687   -1.000
 5692.00    1.32307   1.29282   -1.000
 5693.00    1.32461   1.29758   -1.000
 5694.00    1.32319   1.30051   -1.000
 5695.00    1.32449   1.30154   -1.000
 5696.00    1.32001   1.30069   -1.000
 5697.00    1.31343   1.29799  140.785
 5698.00    1.31897   1.29378   -1.000
 5699.00    1.31019   1.28888   -1.000
 5700.00    1.31213   1.28432   -1.000
 5701.00    1.30199   1.28102   -1.000
 5702.00    1.29875   1.27929   -1.000
 5703.00    1.30580   1.27832   -1.000
 5704.00    1.30417   1.27667   -1.000
 5705.00    1.30323   1.27311   -1.000
 5706.00    1.30422   1.26728   -1.000
 5707.00    1.29753   1.25962   -1.000
 5708.00    1.28657   1.25201   -1.000
 5709.00    1.28067   1.24692   -1.000
 5710.00    1.27555   1.24614   -1.000
 5711.00    1.28250   1.25048   -1.000
 5712.00    1.29597   1.25928   -1.000
 5713.00    1.30546   1.27028   -1.000
 5714.00    1.32016   1.28092   -1.000
 5715.00    1.31988   1.28973   -1.000
 5716.00    1.31799   1.29626   -1.000
 5717.00    1.31867   1.30107   -1.000
 5718.00    1.31941   1.30506  136.213
 5719.00    1.32021   1.30893  135.628
 5720.00    1.32600   1.31254  135.346
 5721.00    1.32677   1.31558  135.150
 5722.00    1.32759   1.31762  135.012
 5723.00    1.32659   1.31828  135.437
 5724.00    1.32812   1.31730  136.705
 5725.00    1.32646   1.31492  138.169
 5726.00    1.32458   1.31191  139.138
 5727.00    1.32129   1.30922  138.130
 5728.00    1.31604   1.30747  137.369
 5729.00    1.32282   1.30674  137.929
 5730.00    1.32495   1.30674   -1.000
 5731.00    1.32231   1.30736  137.877
 5732.00    1.32414   1.30873  136.451
 5733.00    1.32308   1.31083  135.710
 5734.00    1.32552   1.31345  135.963
 5735.00    1.33112   1.31600  136.123
 5736.00    1.33298   1.31787  136.564
 5737.00    1.32666   1.31873  136.620
 5738.00    1.31987   1.31870  136.953
 5739.00    1.32657   1.31818  137.141
 5740.00    1.32992   1.31734  137.444
 5741.00    1.32230   1.31654  137.030
 5742.00    1.32129   1.31611  136.904
 5743.00    1.31880   1.31613  135.769
 5744.00    1.31655   1.31628  135.160
 5745.00    1.31893   1.31618  136.132
 5746.00    1.32320   1.31564  137.521
 5747.00    1.32069   1.31485  137.852
 5748.00    1.32036   1.31391  136.883
 5749.00    1.32157   1.31239  136.610
 5750.00    1.32723   1.30955   -1.000
 5751.00    1.31848   1.30537  139.655
 5752.00    1.31807   1.30087   -1.000
 5753.00    1.31626   1.29791   -1.000
 5754.00    1.31027   1.29816  138.563
 5755.00    1.31811   1.30191  135.941
 5756.00    1.32590   1.30758   -1.000
 5757.00    1.33235   1.31287   -1.000
 5758.00    1.33000   1.31563  136.963
 5759.00    1.32965   1.31511  138.789
 5760.00    1.33151   1.31184   -1.000
 5761.00    1.31744   1.30790  141.059
 5762.00    1.31600   1.30565  139.201
 5763.00    1.31311   1.30658  136.643
 5764.00    1.31654   1.31057  135.157
 5765.00    1.32232   1.31616  134.906
 5766.00    1.32261   1.32140  134.782
 5767.00    1.32152   1.32491  134.561
 5768.00    1.32513   1.32613  134.920
 5769.00    1.32778   1.32525  135.397
 5770.00    1.32695   1.32293  136.200
 5771.00    1.32538   1.31975  137.028
 5772.00    1.32156   1.31641  137.288
 5773.00    1.32340   1.31353  137.420
 5774.00    1.31943   1.31151  137.050
 5775.00    1.31381   1.31033  136.339
 5776.00    1.31635   1.30912  136.323
 5777.00    1.30834   1.30644  136.899
 5778.00    1.29057   1.30166  139.166
 5779.00    1.27714   1.29525  142.388
 5780.00    1.28106   1.28858  143.926
 5781.00    1.29484   1.28333  143.396
 5782.00    1.30446   1.28075   -1.000
 5783.00    1.31632   1.28090   -1.000
 5784.00    1.32144   1.28322   -1.000
 5785.00    1.31884   1.28719   -1.000
 5786.00    1.32030   1.29216   -1.000
 5787.00    1.32427   1.29697   -1.000
 5788.00    1.32875   1.30071   -1.000
 5789.00    1.32756   1.30307   -1.000
 5790.00    1.32491   1.30441   -1.000
 5791.00    1.31961   1.30562  136.603
 5792.00    1.32330   1.30760  135.716
 5793.00    1.32507   1.31045  134.943
 5794.00    1.31990   1.31363  134.994
 5795.00    1.31865   1.31603  135.916
 5796.00    1.32599   1.31720  136.698
 5797.00    1.32586   1.31777  135.787
 5798.00    1.32934   1.31856  133.927
 5799.00    1.33858   1.31988   -1.000
 5800.00    1.34101   1.32165   -1.000
 5801.00    1.34627   1.32321   -1.000
 5802.00    1.34084   1.32363   -1.000
 5803.00    1.33801   1.32268  135.497
 5804.00    1.33310   1.32107  135.980
 5805.00    1.32942   1.31973  135.548
 5806.00    1.33463   1.31932  135.029
 5807.00    1.33616   1.31999  134.665
 5808.00    1.34003   1.32154   -1.000
 5809.00    1.33920   1.32343  134.526
 5810.00    1.34589   1.32498   -1.000
 5811.00    1.34542   1.32568   -1.000
 5812.00    1.34756   1.32541   -1.000
 5813.00    1.34636   1.32421   -1.000
 5814.00    1.34719   1.32248   -1.000
 5815.00    1.34425   1.32119   -1.000
 5816.00    1.34495   1.32134   -1.000
 5817.00    1.34261   1.32309   -1.000
 5818.00    1.34708   1.32595   -1.000
 5819.00    1.34527   1.32916  132.187
 5820.00    1.34845   1.33196  132.498
 5821.00    1.35217   1.33392   -1.000
 5822.00    1.35192   1.33518  132.617
 5823.00    1.35303   1.33593   -1.000
 5824.00    1.35242   1.33643  132.186
 5825.00    1.35143   1.33686  132.089
 5826.00    1.35443   1.33729   -1.000
 5827.00    1.35292   1.33764  132.423
 5828.00    1.35090   1.33787  132.100
 5829.00    1.35170   1.33791  132.175
 5830.00    1.35141   1.33767  131.981
 5831.00    1.35447   1.33707   -1.000
 5832.00    1.35678   1.33618   -1.000
 5833.00    1.35316   1.33526   -1.000
 5834.00    1.35254   1.33464   -1.000
 5835.00    1.35582   1.33468   -1.000
 5836.00    1.35452   1.33530   -1.000
 5837.00    1.35198   1.33620  133.400
 5838.00    1.35284   1.33713  132.845
 5839.00    1.35516   1.33792   -1.000
 5840.00    1.35199   1.33825  131.225
 5841.00    1.34825   1.33798  131.368
 5842.00    1.35058   1.33707  131.855
 5843.00    1.34394   1.33541  132.396
 5844.00    1.34761   1.33299  133.322
 5845.00    1.34880   1.33021   -1.000
 5846.00    1.34517   1.32773   -1.000
 5847.00    1.35325   1.32587   -1.000
 5848.00    1.34779   1.32425   -1.000
 5849.00    1.34614   1.32228   -1.000
 5850.00    1.34774   1.31919   -1.000
 5851.00    1.34544   1.31473   -1.000
 5852.00    1.33888   1.30920   -1.000
 5853.00    1.33069   1.30326   -1.000
 5854.00    1.32753   1.29720   -1.000
 5855.00    1.33581   1.29090   -1.000
 5856.00    1.33087   1.28521   -1.000
 5857.00    1.32755   1.28182   -1.000
 5858.00    1.32769   1.28174   -1.000
 5859.00    1.33242   1.28503   -1.000
 5860.00    1.33861   1.29093   -1.000
 5861.00    1.34821   1.29780   -1.000
 5862.00    1.34468   1.30399   -1.000
 5863.00    1.34379   1.30832   -1.000
 5864.00    1.35185   1.31035   -1.000
 5865.00    1.35118   1.31076   -1.000
 5866.00    1.34621   1.31070   -1.000
 5867.00    1.34163   1.31131   -1.000
 5868.00    1.34979   1.31332   -1.000
 5869.00    1.35067   1.31649   -1.000
 5870.00    1.35024   1.31962   -1.000
 5871.00    1.35544   1.32154   -1.000
 5872.00    1.35717   1.32153   -1.000
 5873.00    1.35269   1.31971   -1.000
 5874.00    1.34753   1.31691   -1.000
 5875.00    1.34770   1.31409   -1.000
 5876.00    1.34732   1.31169   -1.000
 5877.00    1.34470   1.30969   -1.000
 5878.00    1.34536   1.30775   -1.000
 5879.00    1.33887   1.30551   -1.000
 5880.00    1.33467   1.30255   -1.000
 5881.00    1.33267   1.29862   -1.000
 5882.00    1.33087   1.29362   -1.000
 5883.00    1.32706   1.28729   -1.000
 5884.00    1.31186   1.27875   -1.000
 5885.00    1.27955   1.26549  140.918
 5886.00    1.20925   1.24463   -1.000
 5887.00    1.09644   1.21581   -1.000
 5888.00    0.99635   1.18343   -1.000
 5889.00    0.98802   1.15656   -1.000
 5890.00    1.07468   1.14133   -1.000
 5891.00    1.16784   1.13825   -1.000
 5892.00    1.18351   1.14241   -1.000
 5893.00    1.12278   1.14739  156.181
 5894.00    1.06325   1.14939   -1.000
 5895.00    1.06536   1.15074   -1.000
 5896.00    1.13867   1.15716  153.879
 5897.00    1.22962   1.17126   -1.000
 5898.00    1.27673   1.19221   -1.000
 5899.00    1.30074   1.21668   -1.000
 5900.00    1.31401   1.24040   -1.000
 5901.00    1.32239   1.25968   -1.000
 5902.00    1.33266   1.27381   -1.000
 5903.00    1.33740   1.28353   -1.000
 5904.00    1.33848   1.28989   -1.000
 5905.00    1.33664   1.29396   -1.000
 5906.00    1.33098   1.29681   -1.000
 5907.00    1.33179   1.29896   -1.000
 5908.00    1.33257   1.30064   -1.000
 5909.00    1.33037   1.30156   -1.000
 5910.00    1.33199   1.30129   -1.000
 5911.00    1.33063   1.29921   -1.000
 5912.00    1.32991   1.29554   -1.000
 5913.00    1.32143   1.29128   -1.000
 5914.00    1.32407   1.28767   -1.000
 5915.00    1.31703   1.28579   -1.000
 5916.00    1.31309   1.28627   -1.000
 5917.00    1.31493   1.28893   -1.000
 5918.00    1.31924   1.29254   -1.000
 5919.00    1.32379   1.29608   -1.000
 5920.00    1.32390   1.29880   -1.000
 5921.00    1.32081   1.30068   -1.000
 5922.00    1.32047   1.30198   -1.000
 5923.00    1.32066   1.30322   -1.000
 5924.00    1.33089   1.30443   -1.000
 5925.00    1.34227   1.30515   -1.000
 5926.00    1.34468   1.30457   -1.000
 5927.00    1.34146   1.30246   -1.000
 5928.00    1.33646   1.29948   -1.000
 5929.00    1.32784   1.29694   -1.000
 5930.00    1.32801   1.29598   -1.000
 5931.00    1.32976   1.29654   -1.000
 5932.00    1.33555   1.29801   -1.000
 5933.00    1.33579   1.29996   -1.000
 5934.00    1.33114   1.30203   -1.000
 5935.00    1.33325   1.30410   -1.000
 5936.00    1.33203   1.30607   -1.000
 5937.00    1.33828   1.30747   -1.000
 5938.00    1.33265   1.30773   -1.000
 5939.00    1.32129   1.30662  140.200
 5940.00    1.31485   1.30480  140.766
 5941.00    1.31361   1.30308  140.494
 5942.00    1.31701   1.30217  139.571
 5943.00    1.31910   1.30206   -1.000
 5944.00    1.31664   1.30235  138.369
 5945.00    1.31957   1.30223   -1.000
 5946.00    1.32474   1.30124   -1.000
 5947.00    1.31752   1.29982   -1.000
 5948.00    1.31402   1.29862   -1.000
 5949.00    1.32044   1.29813   -1.000
 5950.00    1.32525   1.29803   -1.000
 5951.00    1.33064   1.29806   -1.000
 5952.00    1.33539   1.29822   -1.000
 5953.00    1.33246   1.29814   -1.000
 5954.00    1.32735   1.29754   -1.000
 5955.00    1.32591   1.29700   -1.000
 5956.00    1.32230   1.29713   -1.000
 5957.00    1.32013   1.29843   -1.000
 5958.00    1.32430   1.30103   -1.000
 5959.00    1.33388   1.30455   -1.000
 5960.00    1.33645   1.30824   -1.000
 5961.00    1.33940   1.31118   -1.000
 5962.00    1.33926   1.31266   -1.000
 5963.00    1.33328   1.31255   -1.000
 5964.00    1.32640   1.31138  138.835
 5965.00    1.32491   1.31001  139.282
 5966.00    1.31587   1.30920  138.753
 5967.00    1.31677   1.30938  137.665
 5968.00    1.32646   1.31072   -1.000
 5969.00    1.32698   1.31278  137.452
 5970.00    1.33433   1.31473   -1.000
 5971.00    1.33396   1.31575   -1.000
 5972.00    1.33399   1.31514   -1.000
 5973.00    1.33455   1.31274   -1.000
 5974.00    1.32941   1.30900   -1.000
 5975.00    1.31873   1.30505  141.129
 5976.00    1.31861   1.30222   -1.000
 5977.00    1.32364   1.30131   -1.000
 5978.00    1.32323   1.30233   -1.000
 5979.00    1.32875   1.30423   -1.000
 5980.00    1.33957   1.30549   -1.000
 5981.00    1.33634   1.30490   -1.000
 5982.00    1.33100   1.30244   -1.000
 5983.00    1.32433   1.29925   -1.000
 5984.00    1.32054   1.29680   -1.000
 5985.00    1.31860   1.29614   -1.000
 5986.00    1.32384   1.29739   -1.000
 5987.00    1.32680   1.30000   -1.000
 5988.00    1.32791   1.30282   -1.000
 5989.00    1.33010   1.30519   -1.000
 5990.00    1.32791   1.30700   -1.000
 5991.00    1.32863   1.30882   -1.000
 5992.00    1.32657   1.31074   -1.000
 5993.00    1.33107   1.31221   -1.000
 5994.00    1.33375   1.31278   -1.000
 5995.00    1.33288   1.31225   -1.000
 5996.00    1.33218   1.31092   -1.000
 5997.00    1.33382   1.30928   -1.000
 5998.00    1.33143   1.30797   -1.000
 5999.00    1.33008   1.30705   -1.000
 6000.00    1.33384   1.30625   -1.000
 6001.00    1.33144   1.30527   -1.000
 6002.00    1.33217   1.30413   -1.000
 6003.00    1.32916   1.30291   -1.000
 6004.00    1.32171   1.30129   -1.000
 6005.00    1.32250   1.29898   -1.000
 6006.00    1.32369   1.29638   -1.000
 6007.00    1.31590   1.29437   -1.000
 6008.00    1.31089   1.29398   -1.000
 6009.00    1.31712   1.29533   -1.000
 6010.00    1.32134   1.29752   -1.000
 6011.00    1.32551   1.29966   -1.000
 6012.00    1.32961   1.30090   -1.000
 6013.00    1.32517   1.30109   -1.000
 6014.00    1.32864   1.30046   -1.000
 6015.00    1.33303   1.29956   -1.000
 6016.00    1.33271   1.29859   -1.000
 6017.00    1.33286   1.29731   -1.000
 6018.00    1.32703   1.29546   -1.000
 6019.00    1.32643   1.29326   -1.000
 6020.00    1.32137   1.29153   -1.000
 6021.00    1.31966   1.29069   -1.000
 6022.00    1.32260   1.29105   -1.000
 6023.00    1.32295   1.29304   -1.000
 6024.00    1.32259   1.29656   -1.000
 6025.00    1.32881   1.30083   -1.000
 6026.00    1.32487   1.30538   -1.000
 6027.00    1.32930   1.30995   -1.000
 6028.00    1.33931   1.31407   -1.000
 6029.00    1.33802   1.31746   -1.000
 6030.00    1.33474   1.32019  138.383
 6031.00    1.33662   1.32239  137.996
 6032.00    1.33801   1.32413  137.367
 6033.00    1.33310   1.32546  137.098
 6034.00    1.33416   1.32630  137.053
 6035.00    1.33308   1.32658  136.802
 6036.00    1.33414   1.32617  137.091
 6037.00    1.33760   1.32493  137.910
 6038.00    1.33029   1.32295  138.111
 6039.00    1.32749   1.32061  138.514
 6040.00    1.32798   1.31845  138.106
 6041.00    1.32716   1.31707  137.903
 6042.00    1.32849   1.31694  137.060
 6043.00    1.32878   1.31811  136.049
 6044.00    1.33276   1.32016  136.310
 6045.00    1.33111   1.32278  136.274
 6046.00    1.33392   1.32544  136.057
 6047.00    1.33600   1.32763  136.290
 6048.00    1.33446   1.32902  136.794
 6049.00    1.33274   1.32960  137.045
 6050.00    1.33882   1.32928  137.162
 6051.00    1.33670   1.32784  137.484
 6052.00    1.33082   1.32531  138.074
 6053.00    1.33118   1.32210  138.505
 6054.00    1.33721   1.31893   -1.000
 6055.00    1.33364   1.31661   -1.000
 6056.00    1.33146   1.31582   -1.000
 6057.00    1.33247   1.31650   -1.000
 6058.00    1.33730   1.31806   -1.000
 6059.00    1.33625   1.31948   -1.000
 6060.00    1.33615   1.31964   -1.000
 6061.00    1.32995   1.31778  140.939
 6062.00    1.29971   1.31384  142.913
 6063.00    1.29982   1.30880  143.502
 6064.00    1.29816   1.30466  163.916
 6065.00    1.06039   1.30311   -1.000
 6066.00    0.64239   1.30471   -1.000
 6067.00    1.04818   1.30910   -1.000
 6068.00    1.34828   1.31495   -1.000
 6069.00    1.32360   1.32074  133.963
 6070.00    1.33368   1.32537  133.012
 6071.00    1.31846   1.32858  136.306
 6072.00    1.32530   1.33048  136.775
 6073.00    1.33096   1.33113  136.894
 6074.00    1.32736   1.33049  137.442
 6075.00    1.32969   1.32858  138.193
 6076.00    1.32631   1.32545  139.023
 6077.00    1.32422   1.32177  140.122
 6078.00    1.33078   1.31833  140.848
 6079.00    1.32797   1.31541  140.827
 6080.00    1.31772   1.31300  141.011
 6081.00    1.32084   1.31102  141.406
 6082.00    1.32475   1.30942   -1.000
 6083.00    1.31834   1.30836  141.208
 6084.00    1.31747   1.30822  141.022
 6085.00    1.31737   1.30918  140.557
 6086.00    1.31986   1.31081  140.070
 6087.00    1.32618   1.31239  140.534
 6088.00    1.32484   1.31344  141.422
 6089.00    1.32207   1.31378  141.897
 6090.00    1.31800   1.31378  141.640
 6091.00    1.31801   1.31399  140.650
 6092.00    1.32210   1.31491  139.982
 6093.00    1.32573   1.31662  139.189
 6094.00    1.32357   1.31886  138.692
 6095.00    1.32044   1.32113  138.862
 6096.00    1.32715   1.32262  139.209
 6097.00    1.32792   1.32241  139.248
 6098.00    1.31895   1.31939  139.448
 6099.00    1.31597   1.31295  141.555
 6100.00    1.31336   1.30378  145.115
 6101.00    1.30431   1.29439  146.841
 6102.00    1.29196   1.28810  145.150
 6103.00    1.29075   1.28676  142.274
 6104.00    1.29970   1.29047  140.427
 6105.00    1.30908   1.29768  140.265
 6106.00    1.31493   1.30608  140.886
 6107.00    1.31014   1.31366  141.143
 6108.00    1.30999   1.31928  141.007
 6109.00    1.31377   1.32293  140.636
 6110.00    1.32232   1.32513  140.048
 6111.00    1.31831   1.32643  140.019
 6112.00    1.31504   1.32725  139.212
 6113.00    1.31339   1.32771  139.053
 6114.00    1.31643   1.32779  139.745
 6115.00    1.32061   1.32733  140.622
 6116.00    1.31254   1.32584  140.773
 6117.00    1.31233   1.32248  141.703
 6118.00    1.30865   1.31650  143.912
 6119.00    1.30261   1.30773  145.665
 6120.00    1.29586   1.29748  146.840
 6121.00    1.28651   1.28821  146.487
 6122.00    1.27853   1.28245  143.870
 6123.00    1.28825   1.28169  142.346
 6124.00    1.30225   1.28541   -1.000
 6125.00    1.30590   1.29178   -1.000
 6126.00    1.30649   1.29840  143.076
 6127.00    1.30178   1.30415  142.661
 6128.00    1.30583   1.30917  141.357
 6129.00    1.30766   1.31371  140.143
 6130.00    1.30871   1.31783  140.058
 6131.00    1.31413   1.32058  140.513
 6132.00    1.31375   1.32014  142.210
 6133.00    1.30681   1.31475  145.794
 6134.00    1.29083   1.30426  150.154
 6135.00    1.27827   1.29105  153.408
 6136.00    1.25632   1.27884  152.882
 6137.00    1.25413   1.27025  148.498
 6138.00    1.25684   1.26635  144.619
 6139.00    1.26880   1.26734  143.573
 6140.00    1.28292   1.27245  144.018
 6141.00    1.27688   1.28036  144.007
 6142.00    1.28009   1.28942  142.299
 6143.00    1.29159   1.29801  140.776
 6144.00    1.29809   1.30473  140.868
 6145.00    1.30416   1.30848  141.636
 6146.00    1.30392   1.30917  142.576
 6147.00    1.30209   1.30770  143.598
 6148.00    1.30103   1.30551  144.301
 6149.00    1.30407   1.30389  144.137
 6150.00    1.30463   1.30348  143.487
 6151.00    1.30212   1.30393  142.534
 6152.00    1.30296   1.30433  142.657
 6153.00    1.30420   1.30394  143.980
 6154.00    1.30465   1.30243  144.546
 6155.00    1.30320   1.29982  144.643
 6156.00    1.30101   1.29592  145.446
 6157.00    1.29785   1.29008  147.270
 6158.00    1.29197   1.28125  150.452
 6159.00    1.28542   1.26916   -1.000
 6160.00    1.27372   1.25523   -1.000
 6161.00    1.25828   1.24270   -1.000
 6162.00    1.24384   1.23479  156.793
 6163.00    1.24850   1.23304   -1.000
 6164.00    1.26487   1.23673   -1.000
 6165.00    1.27669   1.24304   -1.000
 6166.00    1.27936   1.24864   -1.000
 6167.00    1.27590   1.25180   -1.000
 6168.00    1.26982   1.25336   -1.000
 6169.00    1.26249   1.25520  152.543
 6170.00    1.26202   1.25890  149.492
 6171.00    1.27048   1.26497  147.844
 6172.00    1.28093   1.27256  148.262
 6173.00    1.28383   1.28026  148.266
 6174.00    1.28187   1.28674  147.853
 6175.00    1.28317   1.29160  147.577
 6176.00    1.28533   1.29510  147.111
 6177.00    1.28618   1.29772  146.365
 6178.00    1.28586   1.29996  145.879
 6179.00    1.28468   1.30219  145.387
 6180.00    1.28645   1.30452  144.720
 6181.00    1.28562   1.30661  144.492
 6182.00    1.28836   1.30796  144.898
 6183.00    1.29482   1.30812  145.515
 6184.00    1.29067   1.30677  146.831
 6185.00    1.28868   1.30387  148.478
 6186.00    1.28753   1.29956  149.974
 6187.00    1.28634   1.29399  151.340
 6188.00    1.28159   1.28741  152.510
 6189.00    1.26971   1.28086  154.517
 6190.00    1.26396   1.27616  154.947
 6191.00    1.25620   1.27469  152.564
 6192.00    1.25909   1.27689  148.706
 6193.00    1.27187   1.28214  146.716
 6194.00    1.28473   1.28888  146.082
 6195.00    1.28869   1.29529  146.098
 6196.00    1.28832   1.29977  147.318
 6197.00    1.28845   1.30180  149.051
 6198.00    1.28197   1.30210  149.981
 6199.00    1.27391   1.30190   -1.000
 6200.00    1.27012   1.30237   -1.000
 6201.00    1.27315   1.30420   -1.000
 6202.00    1.27637   1.30734   -1.000
 6203.00    1.28391   1.31120  145.911
 6204.00    1.28995   1.31496  145.654
 6205.00    1.29264   1.31794  145.775
 6206.00    1.29445   1.31977  146.337
 6207.00    1.29719   1.32017  146.317
 6208.00    1.29559   1.31888  147.181
 6209.00    1.29467   1.31562  148.592
 6210.00    1.28838   1.31034  149.747
 6211.00    1.28494   1.30354  151.389
 6212.00    1.28051   1.29628  153.708
 6213.00    1.27607   1.28978  154.951
 6214.00    1.27336   1.28493  154.858
 6215.00    1.27726   1.28186  152.683
 6216.00    1.27998   1.28017  152.467
 6217.00    1.28082   1.27940  153.617
 6218.00    1.27123   1.27945  152.667
 6219.00    1.26820   1.28049  151.806
 6220.00    1.27013   1.28256  154.498
 6221.00    1.28560   1.28538  165.142
 6222.00    1.23039   1.28841   -1.000
 6223.00    1.08163   1.29086   -1.000
 6224.00    1.26296   1.29199   -1.000
 6225.00    1.29491   1.29113  151.240
 6226.00    1.28641   1.28778  152.400
 6227.00    1.27998   1.28201  154.707
 6228.00    1.27810   1.27466  157.236
 6229.00    1.26913   1.26751  158.753
 6230.00    1.26260   1.26263  157.477
 6231.00    1.25487   1.26146  154.937
 6232.00    1.26243   1.26405  151.989
 6233.00    1.27240   1.26901  149.849
 6234.00    1.28150   1.27418  149.639
 6235.00    1.28785   1.27765  150.921
 6236.00    1.28723   1.27863  152.494
 6237.00    1.28099   1.27750  154.048
 6238.00    1.27835   1.27520  155.558
 6239.00    1.27941   1.27256  155.954
 6240.00    1.27468   1.26972  156.002
 6241.00    1.27283   1.26642  157.312
 6242.00    1.26976   1.26242  158.131
 6243.00    1.27000   1.25801   -1.000
 6244.00    1.25887   1.25432  156.555
 6245.00    1.25910   1.25285  154.874
 6246.00    1.26426   1.25453  152.902
 6247.00    1.26301   1.25889  151.580
 6248.00    1.27219   1.26409  151.842
 6249.00    1.27858   1.26778  153.646
 6250.00    1.27622   1.26837  156.524
 6251.00    1.26170   1.26571  158.166
 6252.00    1.25050   1.26106  159.062
 6253.00    1.24758   1.25618  159.356
 6254.00    1.24750   1.25253  159.463
 6255.00    1.24856   1.25074  161.124
 6256.00    1.25204   1.25084  162.200
 6257.00    1.25021   1.25268  160.969
 6258.00    1.25538   1.25611  158.357
 6259.00    1.26159   1.26100  156.043
 6260.00    1.26382   1.26696  153.905
 6261.00    1.26935   1.27321  151.720
 6262.00    1.27179   1.27888  151.474
 6263.00    1.27019   1.28348  152.871
 6264.00    1.26870   1.28692  153.567
 6265.00    1.26611   1.28931  152.607
 6266.00    1.26373   1.29065  151.721
 6267.00    1.26459   1.29089  152.507
 6268.00    1.27030   1.29019  153.129
 6269.00    1.27157   1.28881  152.756
 6270.00    1.27485   1.28698  152.230
 6271.00    1.27337   1.28450  152.013
 6272.00    1.27218   1.28079  152.615
 6273.00    1.26015   1.27531  153.822
 6274.00    1.24590   1.26797  155.257
 6275.00    1.22533   1.25947   -1.000
 6276.00    1.20625   1.25111   -1.000
 6277.00    1.19688   1.24440   -1.000
 6278.00    1.19222   1.24074   -1.000
 6279.00    1.19754   1.24081   -1.000
 6280.00    1.20014   1.24450   -1.000
 6281.00    1.19906   1.25104   -1.000
 6282.00    1.20392   1.25914   -1.000
 6283.00    1.21775   1.26751   -1.000
 6284.00    1.23725   1.27499   -1.000
 6285.00    1.24722   1.28079   -1.000
 6286.00    1.25124   1.28445   -1.000
 6287.00    1.25573   1.28592   -1.000
 6288.00    1.25982   1.28556  151.878
 6289.00    1.25665   1.28399   -1.000
 6290.00    1.25284   1.28196   -1.000
 6291.00    1.25495   1.28004  154.355
 6292.00    1.25764   1.27839  154.536
 6293.00    1.25890   1.27668  154.970
 6294.00    1.26228   1.27445  156.258
 6295.00    1.26900   1.27148  157.125
 6296.00    1.28139   1.26797   -1.000
 6297.00    1.29223   1.26430   -1.000
 6298.00    1.31726   1.26089   -1.000
 6299.00    1.35657   1.25834   -1.000
 6300.00    1.36337   1.25750   -1.000
 6301.00    1.33706   1.25901   -1.000
 6302.00    1.29858   1.26303   -1.000
 6303.00    1.27248   1.26904  154.360
 6304.00    1.26919   1.27595  152.634
 6305.00    1.26921   1.28241  151.371
 6306.00    1.26835   1.28739  150.155
 6307.00    1.26564   1.29043  150.189
 6308.00    1.26286   1.29168   -1.000
 6309.00    1.26614   1.29153  151.986
 6310.00    1.26602   1.29026  152.521
 6311.00    1.26357   1.28798  153.084
 6312.00    1.26292   1.28481  153.372
 6313.00    1.25912   1.28094  154.812
 6314.00    1.25298   1.27676  155.139
 6315.00    1.24726   1.27295  154.968
 6316.00    1.24810   1.27042  154.881
 6317.00    1.24680   1.27002  155.012
 6318.00    1.25123   1.27202  154.136
 6319.00    1.25334   1.27604  152.193
 6320.00    1.25560   1.28148  150.907
 6321.00    1.26254   1.28752  150.431
 6322.00    1.26362   1.29338   -1.000
 6323.00    1.26186   1.29843   -1.000
 6324.00    1.26957   1.30229   -1.000
 6325.00    1.27612   1.30483   -1.000
 6326.00    1.27643   1.30617   -1.000
 6327.00    1.27555   1.30656   -1.000
 6328.00    1.27961   1.30633  148.213
 6329.00    1.28193   1.30573  148.213
 6330.00    1.27732   1.30461  147.649
 6331.00    1.26872   1.30249   -1.000
 6332.00    1.26736   1.29887   -1.000
 6333.00    1.26416   1.29393   -1.000
 6334.00    1.27345   1.28870  152.200
 6335.00    1.27400   1.28456  151.893
 6336.00    1.24255   1.28277   -1.000
 6337.00    1.25242   1.28391   -1.000
 6338.00    1.26351   1.28746  147.371
 6339.00    1.26939   1.29210  146.750
 6340.00    1.27294   1.29630  146.154
 6341.00    1.27463   1.29887  146.557
 6342.00    1.27357   1.29941  147.825
 6343.00    1.26687   1.29833   -1.000
 6344.00    1.26748   1.29670   -1.000
 6345.00    1.26901   1.29593  146.402
 6346.00    1.26713   1.29697   -1.000
 6347.00    1.26938   1.30003   -1.000
 6348.00    1.27629   1.30442  145.055
 6349.00    1.27320   1.30889   -1.000
 6350.00    1.26889   1.31215   -1.000
 6351.00    1.26956   1.31335   -1.000
 6352.00    1.27086   1.31246   -1.000
 6353.00    1.26836   1.31003   -1.000
 6354.00    1.26408   1.30682   -1.000
 6355.00    1.26552   1.30339   -1.000
 6356.00    1.26245   1.30016   -1.000
 6357.00    1.25943   1.29729   -1.000
 6358.00    1.25813   1.29474   -1.000
 6359.00    1.26402   1.29249  151.290
 6360.00    1.26870   1.29060  150.886
 6361.00    1.28044   1.28926  150.713
 6362.00    1.28912   1.28874  150.068
 6363.00    1.29449   1.28920  149.039
 6364.00    1.28906   1.29064  148.121
 6365.00    1.28327   1.29269  147.315
 6366.00    1.27220   1.29470  146.351
 6367.00    1.26645   1.29616   -1.000
 6368.00    1.26632   1.29699   -1.000
 6369.00    1.26405   1.29760   -1.000
 6370.00    1.26053   1.29862   -1.000
 6371.00    1.25992   1.30043   -1.000
 6372.00    1.26367   1.30281   -1.000
 6373.00    1.26231   1.30510   -1.000
 6374.00    1.26014   1.30648   -1.000
 6375.00    1.25296   1.30651   -1.000
 6376.00    1.25206   1.30522   -1.000
 6377.00    1.24936   1.30311   -1.000
 6378.00    1.24671   1.30077   -1.000
 6379.00    1.24158   1.29870   -1.000
 6380.00    1.24191   1.29720   -1.000
 6381.00    1.24355   1.29646   -1.000
 6382.00    1.23605   1.29663   -1.000
 6383.00    1.24110   1.29771   -1.000
 6384.00    1.23759   1.29946   -1.000
 6385.00    1.23173   1.30149   -1.000
 6386.00    1.22650   1.30328   -1.000
 6387.00    1.22563   1.30429   -1.000
 6388.00    1.22455   1.30395   -1.000
 6389.00    1.21836   1.30193   -1.000
 6390.00    1.20712   1.29839   -1.000
 6391.00    1.19311   1.29423   -1.000
 6392.00    1.18521   1.29077   -1.000
 6393.00    1.18467   1.28906   -1.000
 6394.00    1.18400   1.28923   -1.000
 6395.00    1.17777   1.29033   -1.000
 6396.00    1.17993   1.29091   -1.000
 6397.00    1.17529   1.29018   -1.000
 6398.00    1.16433   1.28851   -1.000
 6399.00    1.14941   1.28725   -1.000
 6400.00    1.14091   1.28772   -1.000
 6401.00    1.14175   1.29038   -1.000
 6402.00    1.15283   1.29433   -1.000
 6403.00    1.15495   1.29793   -1.000
 6404.00    1.15165   1.29974   -1.000
 6405.00    1.14369   1.29935   -1.000
 6406.00    1.13405   1.29736   -1.000
 6407.00    1.12294   1.29476   -1.000
 6408.00    1.12000   1.29250   -1.000
 6409.00    1.10775   1.29121   -1.000
 6410.00    1.09540   1.29104   -1.000
 6411.00    1.09282   1.29178   -1.000
 6412.00    1.09020   1.29309   -1.000
 6413.00    1.08446   1.29470   -1.000
 6414.00    1.07625   1.29621   -1.000
 6415.00    1.07410   1.29711   -1.000
 6416.00    1.06786   1.29701   -1.000
 6417.00    1.06224   1.29575   -1.000
 6418.00    1.04829   1.29377   -1.000
 6419.00    1.03323   1.29219   -1.000
 6420.00    1.01879   1.29220   -1.000
 6421.00    1.01098   1.29448   -1.000
 6422.00    1.00607   1.29904   -1.000
 6423.00    1.00278   1.30489   -1.000
 6424.00    0.99795   1.31054   -1.000
 6425.00    0.99371   1.31446   -1.000
 6426.00    0.98827   1.31553   -1.000
 6427.00    0.97522   1.31340   -1.000
 6428.00    0.96707   1.30879   -1.000
