###################################################################
## OUTPUT of StarlightChains_v04.for    [Cid@UFSC - 01/Apr/2007] ##
###################################################################

## Some input info
NGC5286_b_1.cxt                          [arq_obs]
Base.BC03.N                              [arq_base]
NGC5286_b_1.msk                          [arq_masks]
StCv04.C99.config                        [arq_config]
   45                                    [N_base]
    0                                    [N_YAV_components = # of components with extra extinction!]
    0                                    [i_FitPowerLaw (1/0 = Yes/No)]
-9.99                                    [alpha_PowerLaw]
CCM                                      [red_law_option]
 1.458241                                [q_norm = A(l_norm)/A(V)]

## (Re)Sampling Parameters
 3359.00                                 [l_ini (A)]
 6428.00                                 [l_fin (A)]
    1.00                                 [dl    (A)]     (OBS: dl_cushion =    50.00 A)

## Normalization info
 4020.00                                 [l_norm (A) - for base]
 4010.00                                 [llow_norm (A) - window for f_obs]
 4060.00                                 [lupp_norm (A) - window for f_obs]
1.497078E-14                             [fobs_norm (in input units)]

## S/N
 4730.00                                 [llow_SN (A) - window for S/N]
 4780.00                                 [lupp_SN (A) - window for S/N]
 111.377                                 [S/N in S/N window]
  94.497                                 [S/N in norm. window]
  66.783                                 [S/N_err in S/N window]
  56.662                                 [S/N_err in norm. window]
  1.0000                                 [fscale_chi2]

## etc...
  2147483637                             [idum_orig]
  3067                                   [NOl_eff]
  2053                                   [Nl_eff]
  1014    NSIGMA                         [Ntot_cliped & clip_method]
  1370600                                [Nglobal_steps]
   7                                     [N_chains]
   8                                     [NEX0s_base = N_base in EX0s-fits]
 0   0   1      308   2.0   8.976E+02    [Clip-Bug, RC-Crash & Burn-In warning-flags, n_censored_weights, wei_nsig_threshold & wei_limit]
    21     21.643     21.643      0.000  [idt_all, wdt_TotTime, wdt_UsrTime & wdt_SysTime (sec)]

## Synthesis Results - Best model ##

 2.33930E+00                             [chi2/Nl_eff]
     1.86211                             [adev (%)]

   102.64981                             [sum-of-x (%)]
 5.91020E-14                             [Flux_tot (units of input spectrum!)]
 4.62942E-10                             [Mini_tot (???)]
 2.49071E-10                             [Mcor_tot (???)]

 -15.98                                  [v0_min  (km/s)]
 116.49                                  [vd_min  (km/s)]
 1.0029                                  [AV_min  (mag)]
 0.0000                                  [YAV_min (mag)]

# j     x_j(%)      Mini_j(%)     Mcor_j(%)     age_j(yr)     Z_j      (L/M)_j    YAV?  Mstars   component_j        a/Fe...       SSP_chi2r SSP_adev(%)   SSP_AV   SSP_x(%)
  1      0.0000     0.0000E+00    0.0000E+00    1.000000E+06  0.00400  1.114E-02    0   1.0000   age020_m42            0.0000     2.2565E+02    14.9211   4.0000    68.8921
  2      2.7386     8.3623E-03    1.5541E-02    3.160000E+06  0.00400  4.073E-02    0   0.9999   age045_m42            0.0000     2.9354E+01     4.2197   3.1467    88.8563
  3      0.0000     0.0000E+00    0.0000E+00    5.010000E+06  0.00400  2.534E-02    0   0.9488   age055_m42            0.0000     7.0434E+01     7.5778   3.6825    78.1646
  4     14.2156     1.3910E-01    2.2913E-01    1.000000E+07  0.00400  1.271E-02    0   0.8862   age070_m42            0.0000     5.6469E+01     7.6752   2.8750    82.6464
  5      0.0000     0.0000E+00    0.0000E+00    2.512000E+07  0.00400  5.070E-03    0   0.8174   age090_m42            0.0000     5.2024E+01     7.1980   2.7333    84.6604
  6      0.0000     0.0000E+00    0.0000E+00    4.000000E+07  0.00400  3.505E-03    0   0.7851   age104_m42            0.0000     3.6070E+01     5.2871   2.3592    89.8702
  7     25.2405     1.3841E+00    1.8541E+00    1.015200E+08  0.00400  2.268E-03    0   0.7207   age116_m42            0.0000     1.1478E+02     8.7062   1.8302   121.5324
  8      0.0000     0.0000E+00    0.0000E+00    2.861200E+08  0.00400  1.079E-03    0   0.6613   age125_m42            0.0000     1.1743E+02     9.6927   1.2898   126.2965
  9      0.0000     0.0000E+00    0.0000E+00    6.405400E+08  0.00400  5.077E-04    0   0.6197   age132_m42            0.0000     1.3564E+02    10.3814   0.8870   132.9949
 10      9.1556     3.2212E+00    3.6066E+00    9.047900E+08  0.00400  3.535E-04    0   0.6024   age135_m42            0.0000     7.2055E+01     7.9654   0.7783   125.8782
 11      0.0000     0.0000E+00    0.0000E+00    1.434000E+09  0.00400  1.910E-04    0   0.5716   age139_m42            0.0000     3.2245E+01     5.8689   0.3927   117.8462
 12     30.1117     3.8144E+01    3.8732E+01    2.500000E+09  0.00400  9.818E-05    0   0.5463   age150_m42            0.0000     2.2229E+01     4.0082   0.2883   105.3605
 13     20.0347     5.2813E+01    5.1319E+01    5.000000E+09  0.00400  4.718E-05    0   0.5228   age161_m42            0.0000     3.4515E+01     4.0226   0.2051    98.5124
 14      0.0000     0.0000E+00    0.0000E+00    1.100000E+10  0.00400  2.205E-05    0   0.4980   age185_m42            0.0000     6.7673E+01     5.3154  -0.0236    95.1055
 15      0.0000     0.0000E+00    0.0000E+00    1.300000E+10  0.00400  1.883E-05    0   0.4927   age193_m42            0.0000     7.4134E+01     5.4653  -0.0327    94.6490
 16      0.0000     0.0000E+00    0.0000E+00    1.000000E+06  0.02000  1.989E-02    0   1.0000   age020_m62            0.0000     2.1515E+02    14.1404   4.0000    69.3960
 17      0.0000     0.0000E+00    0.0000E+00    3.160000E+06  0.02000  3.772E-02    0   0.9858   age045_m62            0.0000     1.4469E+02    10.8955   4.0000    71.5653
 18      0.6195     2.3877E-03    4.1459E-03    5.010000E+06  0.02000  3.227E-02    0   0.9342   age055_m62            0.0000     4.2788E+01     5.7795   3.4701    83.4493
 19      0.0000     0.0000E+00    0.0000E+00    1.000000E+07  0.02000  1.011E-02    0   0.8751   age070_m62            0.0000     1.4487E+02    12.6157   3.0399    74.4375
 20      0.0000     0.0000E+00    0.0000E+00    2.512000E+07  0.02000  4.206E-03    0   0.8099   age090_m62            0.0000     1.1836E+02    10.5061   2.9284    76.9963
 21      0.0000     0.0000E+00    0.0000E+00    4.000000E+07  0.02000  3.373E-03    0   0.7799   age104_m62            0.0000     3.3180E+01     4.4275   2.5159    93.6912
 22      0.0000     0.0000E+00    0.0000E+00    1.015200E+08  0.02000  1.878E-03    0   0.7221   age116_m62            0.0000     8.1024E+01     6.8482   1.9490   118.2314
 23      0.0000     0.0000E+00    0.0000E+00    2.861200E+08  0.02000  8.869E-04    0   0.6700   age125_m62            0.0000     2.4864E+02    13.9396   1.0766   143.1500
 24      0.0000     0.0000E+00    0.0000E+00    6.405400E+08  0.02000  3.657E-04    0   0.6322   age132_m62            0.0000     1.3974E+02    11.8134   0.5428   139.8998
 25      0.0000     0.0000E+00    0.0000E+00    9.047900E+08  0.02000  2.312E-04    0   0.6152   age135_m62            0.0000     7.5335E+01     8.8699   0.3438   130.0936
 26      0.0000     0.0000E+00    0.0000E+00    1.434000E+09  0.02000  1.168E-04    0   0.5865   age139_m62            0.0000     3.5286E+01     5.2251   0.1733   112.2246
 27      0.0000     0.0000E+00    0.0000E+00    2.500000E+09  0.02000  5.505E-05    0   0.5610   age150_m62            0.0000     6.4555E+01     5.6541  -0.1145   105.4437
 28      0.0000     0.0000E+00    0.0000E+00    5.000000E+09  0.02000  2.596E-05    0   0.5353   age161_m62            0.0000     1.2722E+02     7.2931  -0.4231   104.3702
 29      0.0000     0.0000E+00    0.0000E+00    1.100000E+10  0.02000  1.169E-05    0   0.5103   age185_m62            0.0000     2.0565E+02     8.9746  -0.7919   105.9183
 30      0.0000     0.0000E+00    0.0000E+00    1.300000E+10  0.02000  9.691E-06    0   0.5047   age193_m62            0.0000     2.2220E+02     9.2343  -0.8371   106.0924
 31      0.0000     0.0000E+00    0.0000E+00    1.000000E+06  0.05000  2.651E-02    0   0.9998   age020_m72            0.0000     2.0507E+02    13.6873   4.0000    70.5008
 32      0.0000     0.0000E+00    0.0000E+00    3.160000E+06  0.05000  4.817E-02    0   0.9577   age045_m72            0.0000     8.7910E+01     8.2652   3.9503    75.7377
 33      0.0000     0.0000E+00    0.0000E+00    5.010000E+06  0.05000  3.101E-02    0   0.9147   age055_m72            0.0000     7.9095E+01     8.1390   3.5816    78.5965
 34      0.0000     0.0000E+00    0.0000E+00    1.000000E+07  0.05000  8.954E-03    0   0.8524   age070_m72            0.0000     9.6475E+01     8.3536   3.8397    76.7939
 35      0.0000     0.0000E+00    0.0000E+00    2.512000E+07  0.05000  4.207E-03    0   0.7902   age090_m72            0.0000     4.7656E+01     5.4047   3.2881    86.3841
 36      0.0000     0.0000E+00    0.0000E+00    4.000000E+07  0.05000  3.198E-03    0   0.7618   age104_m72            0.0000     3.5871E+01     4.3455   2.4744   106.7583
 37      0.0000     0.0000E+00    0.0000E+00    1.015200E+08  0.05000  1.716E-03    0   0.7092   age116_m72            0.0000     1.0627E+02     8.1613   1.9691   121.3961
 38      0.0000     0.0000E+00    0.0000E+00    2.861200E+08  0.05000  7.047E-04    0   0.6618   age125_m72            0.0000     2.4780E+02    14.3633   0.8601   144.0013
 39      0.0000     0.0000E+00    0.0000E+00    6.405400E+08  0.05000  2.633E-04    0   0.6253   age132_m72            0.0000     1.1399E+02    10.6687   0.2398   135.2473
 40      0.0000     0.0000E+00    0.0000E+00    9.047900E+08  0.05000  1.484E-04    0   0.6088   age135_m72            0.0000     5.9667E+01     7.2544   0.0000   117.7054
 41      0.0000     0.0000E+00    0.0000E+00    1.434000E+09  0.05000  7.827E-05    0   0.5847   age139_m72            0.0000     9.0105E+01     7.0618  -0.2584   108.2393
 42      0.0000     0.0000E+00    0.0000E+00    2.500000E+09  0.05000  3.759E-05    0   0.5583   age150_m72            0.0000     1.4100E+02     7.7717  -0.5174   104.6850
 43      0.5336     4.2874E+00    4.2395E+00    5.000000E+09  0.05000  1.548E-05    0   0.5320   age161_m72            0.0000     1.9900E+02     9.2241  -0.9338   104.5064
 44      0.0000     0.0000E+00    0.0000E+00    1.100000E+10  0.05000  6.532E-06    0   0.5070   age185_m72            0.0000     3.5160E+02    14.4917  -1.0000   102.4172
 45      0.0000     0.0000E+00    0.0000E+00    1.300000E+10  0.05000  5.316E-06    0   0.5018   age193_m72            0.0000     4.6413E+02    17.5420  -1.0000   101.2779


## Synthesis Results - Average & Chains ##

# j      x_j: min, <> & last-chain-values for 1 ...  7 chains
  1      0.0000      0.0038      0.0077      0.0000      0.0000      0.0088      0.0000      0.0000      0.0000
  2      2.7386      3.9160      3.8330      3.9305      4.1611      3.8688      4.0118      4.0930      3.9486
  3      0.0000      0.1426      0.0000      0.2305      0.0000      0.0000      0.0000      0.1366      0.0732
  4     14.2156     11.7393     12.1684     11.9061     12.0931     12.1582     12.1133     11.9092     12.5210
  5      0.0000      0.2635      0.2340      0.4763      0.2808      0.2941      0.3068      0.0431      0.0897
  6      0.0000      0.0246      0.0311      0.0000      0.0144      0.0000      0.0000      0.0010      0.0005
  7     25.2405     24.2520     24.6531     24.1241     24.3599     24.1565     24.1856     24.3168     24.1565
  8      0.0000      0.0172      0.0000      0.0411      0.0000      0.0000      0.0000      0.0000      0.0000
  9      0.0000      0.0501      0.0000      0.0677      0.0526      0.0000      0.0057      0.0000      0.0532
 10      9.1556     11.1812     10.8635     11.1908     11.1199     11.2831     11.0544     11.1352     11.4096
 11      0.0000      0.0558      0.0000      0.0498      0.0183      0.0000      0.0000      0.0000      0.0000
 12     30.1117     28.9007     29.2408     28.9093     29.0390     29.1376     28.5255     29.0311     29.0832
 13     20.0347     19.0120     18.9914     19.2385     18.8301     19.3399     19.2140     19.2821     18.8389
 14      0.0000      0.0350      0.0000      0.0214      0.0000      0.0000      0.0000      0.0000      0.0000
 15      0.0000      0.0329      0.0000      0.0068      0.0000      0.0000      0.0000      0.0000      0.0665
 16      0.0000      0.0034      0.0000      0.0000      0.0000      0.0000      0.0000      0.0000      0.0000
 17      0.0000      0.0096      0.0000      0.0000      0.0000      0.0000      0.0000      0.0000      0.0000
 18      0.6195      0.7750      1.1061      0.7991      0.8663      0.8353      1.0364      0.8871      0.7767
 19      0.0000      0.1396      0.0000      0.0812      0.1377      0.0452      0.0000      0.0000      0.0000
 20      0.0000      0.0069      0.0000      0.0000      0.0000      0.0226      0.0039      0.0000      0.0000
 21      0.0000      0.0173      0.0000      0.0000      0.0000      0.0000      0.0000      0.0000      0.0000
 22      0.0000      0.0245      0.0000      0.0000      0.0000      0.0000      0.0095      0.0000      0.0000
 23      0.0000      0.0095      0.0000      0.0000      0.0000      0.0000      0.0000      0.0000      0.0000
 24      0.0000      0.0090      0.0000      0.0000      0.0081      0.0000      0.0000      0.0000      0.0000
 25      0.0000      0.0180      0.0000      0.0000      0.0000      0.0000      0.0000      0.0000      0.0000
 26      0.0000      0.0619      0.0000      0.0804      0.0000      0.0000      0.1093      0.0000      0.2249
 27      0.0000      0.0595      0.0000      0.0000      0.0000      0.0000      0.0000      0.0000      0.0000
 28      0.0000      0.0309      0.0676      0.0000      0.1397      0.1337      0.0000      0.0000      0.0000
 29      0.0000      0.0237      0.0000      0.0000      0.0000      0.0000      0.0000      0.0000      0.0000
 30      0.0000      0.0455      0.0000      0.0000      0.0000      0.0000      0.0000      0.1510      0.0000
 31      0.0000      0.0035      0.0021      0.0000      0.0000      0.0029      0.0000      0.0000      0.0000
 32      0.0000      0.0198      0.0000      0.0000      0.0000      0.0000      0.0000      0.0100      0.0000
 33      0.0000      0.1544      0.0253      0.0000      0.1128      0.0824      0.0810      0.1850      0.1438
 34      0.0000      0.0066      0.0000      0.0000      0.0000      0.0000      0.0000      0.0000      0.0000
 35      0.0000      0.0092      0.0000      0.0000      0.0000      0.0000      0.0000      0.0000      0.0000
 36      0.0000      0.0354      0.0174      0.0000      0.0000      0.0000      0.0000      0.0000      0.0000
 37      0.0000      0.0390      0.0000      0.0000      0.0000      0.0241      0.1699      0.0307      0.0000
 38      0.0000      0.0121      0.0024      0.0013      0.0000      0.0000      0.0000      0.0000      0.0000
 39      0.0000      0.0215      0.0000      0.0000      0.0000      0.0000      0.0000      0.0142      0.0000
 40      0.0000      0.0670      0.0000      0.0793      0.0313      0.0000      0.0000      0.0000      0.0000
 41      0.0000      0.2010      0.0000      0.5133      0.1433      0.2024      0.5989      0.3512      0.2260
 42      0.0000      0.2572      0.3238      0.0000      0.2361      0.2764      0.0000      0.3885      0.0000
 43      0.5336      0.7611      0.7458      0.7387      0.7231      0.8211      0.9173      0.7477      0.8342
 44      0.0000      0.3265      0.4259      0.1830      0.2931      0.3245      0.2816      0.2195      0.2958
 45      0.0000      0.2881      0.2449      0.3513      0.2911      0.0000      0.3355      0.1089      0.2788

# j      m_j: min, <> & last-chain-values for 1 ...  7 chains
  1  0.0000E+00  6.9477E-05  1.4210E-04  0.0000E+00  0.0000E+00  1.6853E-04  0.0000E+00  0.0000E+00  0.0000E+00
  2  1.5541E-02  1.9597E-02  1.9262E-02  2.0100E-02  2.1248E-02  2.0375E-02  2.0126E-02  2.1279E-02  2.0141E-02
  3  0.0000E+00  1.0885E-03  0.0000E+00  1.7978E-03  0.0000E+00  0.0000E+00  0.0000E+00  1.0835E-03  5.6943E-04
  4  2.2913E-01  1.6685E-01  1.7367E-01  1.7293E-01  1.7539E-01  1.8186E-01  1.7260E-01  1.7585E-01  1.8140E-01
  5  0.0000E+00  8.6584E-03  7.7210E-03  1.5995E-02  9.4149E-03  1.0173E-02  1.0108E-02  1.4713E-03  3.0056E-03
  6  0.0000E+00  1.1211E-03  1.4279E-03  0.0000E+00  6.7120E-04  0.0000E+00  0.0000E+00  4.5105E-05  2.4229E-05
  7  1.8541E+00  1.5709E+00  1.6036E+00  1.5969E+00  1.6101E+00  1.6467E+00  1.5706E+00  1.6364E+00  1.5949E+00
  8  0.0000E+00  2.1538E-03  0.0000E+00  5.2481E-03  0.0000E+00  0.0000E+00  0.0000E+00  0.0000E+00  0.0000E+00
  9  0.0000E+00  1.2473E-02  0.0000E+00  1.7206E-02  1.3356E-02  0.0000E+00  1.4259E-03  0.0000E+00  1.3489E-02
 10  3.6066E+00  3.8841E+00  3.7894E+00  3.9726E+00  3.9415E+00  4.1247E+00  3.8496E+00  4.0185E+00  4.0398E+00
 11  0.0000E+00  3.4059E-02  0.0000E+00  3.1040E-02  1.1378E-02  0.0000E+00  0.0000E+00  0.0000E+00  0.0000E+00
 12  3.8732E+01  3.2781E+01  3.3305E+01  3.3509E+01  3.3609E+01  3.4780E+01  3.2436E+01  3.4209E+01  3.3624E+01
 13  5.1319E+01  4.2944E+01  4.3077E+01  4.4408E+01  4.3401E+01  4.5973E+01  4.3510E+01  4.5249E+01  4.3374E+01
 14  0.0000E+00  1.6135E-01  0.0000E+00  1.0066E-01  0.0000E+00  0.0000E+00  0.0000E+00  0.0000E+00  0.0000E+00
 15  0.0000E+00  1.7544E-01  0.0000E+00  3.7252E-02  0.0000E+00  0.0000E+00  0.0000E+00  0.0000E+00  3.6153E-01
 16  0.0000E+00  3.4602E-05  0.0000E+00  0.0000E+00  0.0000E+00  0.0000E+00  0.0000E+00  0.0000E+00  0.0000E+00
 17  0.0000E+00  5.1396E-05  0.0000E+00  0.0000E+00  0.0000E+00  0.0000E+00  0.0000E+00  0.0000E+00  0.0000E+00
 18  4.1459E-03  4.5737E-03  6.5547E-03  4.8191E-03  5.2167E-03  5.1873E-03  6.1314E-03  5.4385E-03  4.6721E-03
 19  0.0000E+00  2.4640E-03  0.0000E+00  1.4650E-03  2.4788E-03  8.3844E-04  0.0000E+00  0.0000E+00  0.0000E+00
 20  0.0000E+00  2.6979E-04  0.0000E+00  0.0000E+00  0.0000E+00  9.3200E-04  1.5167E-04  0.0000E+00  0.0000E+00
 21  0.0000E+00  8.1599E-04  0.0000E+00  0.0000E+00  0.0000E+00  0.0000E+00  0.0000E+00  0.0000E+00  0.0000E+00
 22  0.0000E+00  1.9182E-03  0.0000E+00  0.0000E+00  0.0000E+00  0.0000E+00  7.4371E-04  0.0000E+00  0.0000E+00
 23  0.0000E+00  1.4574E-03  0.0000E+00  0.0000E+00  0.0000E+00  0.0000E+00  0.0000E+00  0.0000E+00  0.0000E+00
 24  0.0000E+00  3.1705E-03  0.0000E+00  0.0000E+00  2.8962E-03  0.0000E+00  0.0000E+00  0.0000E+00  0.0000E+00
 25  0.0000E+00  9.7376E-03  0.0000E+00  0.0000E+00  0.0000E+00  0.0000E+00  0.0000E+00  0.0000E+00  0.0000E+00
 26  0.0000E+00  6.3371E-02  0.0000E+00  8.4091E-02  0.0000E+00  0.0000E+00  1.1213E-01  0.0000E+00  2.3461E-01
 27  0.0000E+00  1.2363E-01  0.0000E+00  0.0000E+00  0.0000E+00  0.0000E+00  0.0000E+00  0.0000E+00  0.0000E+00
 28  0.0000E+00  1.2990E-01  2.8548E-01  0.0000E+00  5.9906E-01  5.9153E-01  0.0000E+00  0.0000E+00  0.0000E+00
 29  0.0000E+00  2.1075E-01  0.0000E+00  0.0000E+00  0.0000E+00  0.0000E+00  0.0000E+00  0.0000E+00  0.0000E+00
 30  0.0000E+00  4.8307E-01  0.0000E+00  0.0000E+00  0.0000E+00  0.0000E+00  0.0000E+00  1.6658E+00  0.0000E+00
 31  0.0000E+00  2.6729E-05  1.6238E-05  0.0000E+00  0.0000E+00  2.3537E-05  0.0000E+00  0.0000E+00  0.0000E+00
 32  0.0000E+00  8.0144E-05  0.0000E+00  0.0000E+00  0.0000E+00  0.0000E+00  0.0000E+00  4.2248E-05  0.0000E+00
 33  0.0000E+00  9.2857E-04  1.5287E-04  0.0000E+00  6.9187E-04  5.2142E-04  4.8847E-04  1.1558E-03  8.8162E-04
 34  0.0000E+00  1.2813E-04  0.0000E+00  0.0000E+00  0.0000E+00  0.0000E+00  6.5878E-07  0.0000E+00  0.0000E+00
 35  0.0000E+00  3.5312E-04  0.0000E+00  0.0000E+00  0.0000E+00  0.0000E+00  0.0000E+00  0.0000E+00  0.0000E+00
 36  0.0000E+00  1.7174E-03  8.5044E-04  0.0000E+00  0.0000E+00  0.0000E+00  0.0000E+00  0.0000E+00  0.0000E+00
 37  0.0000E+00  3.2887E-03  0.0000E+00  0.0000E+00  0.0000E+00  2.1386E-03  1.4347E-02  2.6880E-03  0.0000E+00
 38  0.0000E+00  2.3158E-03  4.6637E-04  2.4756E-04  0.0000E+00  0.0000E+00  0.0000E+00  0.0000E+00  0.0000E+00
 39  0.0000E+00  1.0395E-02  0.0000E+00  0.0000E+00  0.0000E+00  0.0000E+00  0.0000E+00  7.1538E-03  0.0000E+00
 40  0.0000E+00  5.6051E-02  0.0000E+00  6.7766E-02  2.6680E-02  0.0000E+00  0.0000E+00  0.0000E+00  0.0000E+00
 41  0.0000E+00  3.0602E-01  0.0000E+00  7.9874E-01  2.2271E-01  3.2432E-01  9.1432E-01  5.5555E-01  3.5074E-01
 42  0.0000E+00  7.7864E-01  9.8440E-01  0.0000E+00  7.2940E-01  8.8063E-01  0.0000E+00  1.2220E+00  0.0000E+00
 43  4.2395E+00  5.3321E+00  5.2462E+00  5.2881E+00  5.1692E+00  6.0537E+00  6.4425E+00  5.4414E+00  5.9569E+00
 44  0.0000E+00  5.1661E+00  6.7667E+00  2.9582E+00  4.7328E+00  5.4026E+00  4.4671E+00  3.6086E+00  4.7703E+00
 45  0.0000E+00  5.5436E+00  4.7323E+00  6.9073E+00  5.7158E+00  0.0000E+00  6.4718E+00  2.1777E+00  5.4685E+00

# AV, chi2 & Mass for <> & i_chain = 1 ...  7 solutions
AV       1.0029      0.9680      0.9751      0.9745      0.9811      0.9744      0.9732      0.9737      0.9786
chi2 2.3393E+00  2.3810E+00  2.3659E+00  2.3704E+00  2.3630E+00  2.3675E+00  2.3661E+00  2.3702E+00  2.3653E+00
Mass 2.4907E-10  2.6949E-10  2.7098E-10  2.6603E-10  2.6882E-10  2.5830E-10  2.7074E-10  2.6143E-10  2.6821E-10
 -15.65                                  [v0_min (km/s) before EX0s...]
 118.26                                  [vd_min (km/s) before EX0s...]


## Synthetic spectrum (Best Model) ##l_obs f_obs f_syn wei
 3070    [Nl_obs]
 3359.00    0.00000   0.49812   -2.000
 3360.00    0.00000   0.48630   -2.000
 3361.00    0.23162   0.48600   -1.000
 3362.00    0.28353   0.49714   -1.000
 3363.00    0.31250   0.51286   -1.000
 3364.00    0.31140   0.52406   -1.000
 3365.00    0.32200   0.52515   -1.000
 3366.00    0.31911   0.51673   -1.000
 3367.00    0.29619   0.50413   -1.000
 3368.00    0.31458   0.49330   -1.000
 3369.00    0.30489   0.48693   -1.000
 3370.00    0.29314   0.48401   -1.000
 3371.00    0.29272   0.48312   -1.000
 3372.00    0.29005   0.48566   -1.000
 3373.00    0.32252   0.49471   -1.000
 3374.00    0.33784   0.51029   -1.000
 3375.00    0.33199   0.52655   -1.000
 3376.00    0.34882   0.53500   -1.000
 3377.00    0.36521   0.53150   -1.000
 3378.00    0.35342   0.51986   -1.000
 3379.00    0.35277   0.50869   -1.000
 3380.00    0.36174   0.50518   -1.000
 3381.00    0.36950   0.51087   -1.000
 3382.00    0.35824   0.52201   -1.000
 3383.00    0.36124   0.53342   -1.000
 3384.00    0.36886   0.54217   -1.000
 3385.00    0.39931   0.54769   -1.000
 3386.00    0.40512   0.55002   -1.000
 3387.00    0.38426   0.54974   -1.000
 3388.00    0.41392   0.54813   -1.000
 3389.00    0.42758   0.54601   -1.000
 3390.00    0.41164   0.54280   -1.000
 3391.00    0.41422   0.53795   -1.000
 3392.00    0.40886   0.53321   -1.000
 3393.00    0.42260   0.53242   -1.000
 3394.00    0.42237   0.53821   -1.000
 3395.00    0.42772   0.54944   -1.000
 3396.00    0.44763   0.56199   -1.000
 3397.00    0.44618   0.57135   -1.000
 3398.00    0.48813   0.57475   -1.000
 3399.00    0.46897   0.57187   -1.000
 3400.00    0.46761   0.56444   -1.000
 3401.00    0.46533   0.55497   -1.000
 3402.00    0.46104   0.54583   -1.000
 3403.00    0.45255   0.53880   -1.000
 3404.00    0.45126   0.53408   -1.000
 3405.00    0.46573   0.53023   -1.000
 3406.00    0.46142   0.52628   -1.000
 3407.00    0.44575   0.52339   -1.000
 3408.00    0.43466   0.52362   -1.000
 3409.00    0.44239   0.52721   -1.000
 3410.00    0.45005   0.53167   -1.000
 3411.00    0.44995   0.53395   -1.000
 3412.00    0.44494   0.53322   -1.000
 3413.00    0.45794   0.53137   -1.000
 3414.00    0.44278   0.53119   -1.000
 3415.00    0.43410   0.53464   -1.000
 3416.00    0.44709   0.54205   -1.000
 3417.00    0.46048   0.55224   -1.000
 3418.00    0.47198   0.56277   -1.000
 3419.00    0.49525   0.57055   -1.000
 3420.00    0.48605   0.57325   -1.000
 3421.00    0.47436   0.57088   -1.000
 3422.00    0.46727   0.56586   -1.000
 3423.00    0.47485   0.56114   -1.000
 3424.00    0.49171   0.55872   -1.000
 3425.00    0.48616   0.55949   -1.000
 3426.00    0.48036   0.56392   -1.000
 3427.00    0.46477   0.57169   -1.000
 3428.00    0.48598   0.58041   -1.000
 3429.00    0.49005   0.58578   -1.000
 3430.00    0.50818   0.58473   -1.000
 3431.00    0.51524   0.57825   -1.000
 3432.00    0.49625   0.57061   -1.000
 3433.00    0.48820   0.56596   -1.000
 3434.00    0.49753   0.56537   -1.000
 3435.00    0.51472   0.56651   -1.000
 3436.00    0.51808   0.56554   -1.000
 3437.00    0.50852   0.55942   -1.000
 3438.00    0.49703   0.54714   -1.000
 3439.00    0.46958   0.53037   -1.000
 3440.00    0.44060   0.51342   -1.000
 3441.00    0.44331   0.50158   -1.000
 3442.00    0.46140   0.49794   -1.000
 3443.00    0.46404   0.50180   -1.000
 3444.00    0.48230   0.51053   -1.000
 3445.00    0.48744   0.52251   -1.000
 3446.00    0.48765   0.53725   -1.000
 3447.00    0.50806   0.55315   -1.000
 3448.00    0.52089   0.56623   -1.000
 3449.00    0.52840   0.57173   -1.000
 3450.00    0.51919   0.56776   -1.000
 3451.00    0.53408   0.55722   -1.000
 3452.00    0.51948   0.54621   -1.000
 3453.00    0.51697   0.54009   -1.000
 3454.00    0.51478   0.53996   -1.000
 3455.00    0.52612   0.54246   -1.000
 3456.00    0.52286   0.54286   -1.000
 3457.00    0.52487   0.53882   -1.000
 3458.00    0.52925   0.53158  897.644
 3459.00    0.52843   0.52429   -1.000
 3460.00    0.51371   0.52037  176.542
 3461.00    0.51920   0.52207  153.504
 3462.00    0.53177   0.52884  152.938
 3463.00    0.54062   0.53703   -1.000
 3464.00    0.54602   0.54298   -1.000
 3465.00    0.54356   0.54616  897.644
 3466.00    0.52774   0.54863   -1.000
 3467.00    0.54323   0.55224   -1.000
 3468.00    0.55182   0.55686   -1.000
 3469.00    0.55776   0.56078  897.644
 3470.00    0.56824   0.56181   -1.000
 3471.00    0.55466   0.55822  897.644
 3472.00    0.53615   0.54954   -1.000
 3473.00    0.53318   0.53724  897.644
 3474.00    0.53148   0.52495   -1.000
 3475.00    0.51336   0.51734  897.644
 3476.00    0.49971   0.51744  178.981
 3477.00    0.52254   0.52448  157.864
 3478.00    0.53719   0.53455  155.817
 3479.00    0.54032   0.54330  612.668
 3480.00    0.56536   0.54801   -1.000
 3481.00    0.55718   0.54818   -1.000
 3482.00    0.53761   0.54559   -1.000
 3483.00    0.54494   0.54376  897.644
 3484.00    0.54078   0.54616   -1.000
 3485.00    0.55218   0.55312  897.644
 3486.00    0.57071   0.56050   -1.000
 3487.00    0.56790   0.56251   -1.000
 3488.00    0.56002   0.55687   -1.000
 3489.00    0.55013   0.54699   -1.000
 3490.00    0.53694   0.53891  897.644
 3491.00    0.52789   0.53595   -1.000
 3492.00    0.53596   0.53648   -1.000
 3493.00    0.54337   0.53641   -1.000
 3494.00    0.55715   0.53366   -1.000
 3495.00    0.52909   0.53035  897.644
 3496.00    0.52524   0.53078  897.644
 3497.00    0.53150   0.53704  897.644
 3498.00    0.53539   0.54650   -1.000
 3499.00    0.56257   0.55438   -1.000
 3500.00    0.57536   0.55867   -1.000
 3501.00    0.58683   0.56088   -1.000
 3502.00    0.57950   0.56248   -1.000
 3503.00    0.57445   0.56256   -1.000
 3504.00    0.56993   0.55979   -1.000
 3505.00    0.56897   0.55519   -1.000
 3506.00    0.55839   0.55142   -1.000
 3507.00    0.57504   0.54979   -1.000
 3508.00    0.58225   0.54904   -1.000
 3509.00    0.58492   0.54708   -1.000
 3510.00    0.56177   0.54305   -1.000
 3511.00    0.55696   0.53759   -1.000
 3512.00    0.56289   0.53232   -1.000
 3513.00    0.55530   0.52984   -1.000
 3514.00    0.56079   0.53304   -1.000
 3515.00    0.56572   0.54261   -1.000
 3516.00    0.56002   0.55532   -1.000
 3517.00    0.56993   0.56552   -1.000
 3518.00    0.56148   0.56863   -1.000
 3519.00    0.55753   0.56383   -1.000
 3520.00    0.56525   0.55377   -1.000
 3521.00    0.55603   0.54212   -1.000
 3522.00    0.54447   0.53113   -1.000
 3523.00    0.53889   0.52187   -1.000
 3524.00    0.51833   0.51587   -1.000
 3525.00    0.52255   0.51555  180.637
 3526.00    0.52174   0.52236  156.192
 3527.00    0.53090   0.53476  156.299
 3528.00    0.53614   0.54835   -1.000
 3529.00    0.55991   0.55855   -1.000
 3530.00    0.56370   0.56367  897.644
 3531.00    0.56130   0.56545  897.644
 3532.00    0.56852   0.56686  897.644
 3533.00    0.55802   0.56949   -1.000
 3534.00    0.57544   0.57291   -1.000
 3535.00    0.58434   0.57614   -1.000
 3536.00    0.57550   0.57914   -1.000
 3537.00    0.56912   0.58255   -1.000
 3538.00    0.56977   0.58618   -1.000
 3539.00    0.57820   0.58870   -1.000
 3540.00    0.58380   0.58938   -1.000
 3541.00    0.57775   0.58938   -1.000
 3542.00    0.57556   0.59052   -1.000
 3543.00    0.57901   0.59305   -1.000
 3544.00    0.58255   0.59543   -1.000
 3545.00    0.58463   0.59623   -1.000
 3546.00    0.58076   0.59559   -1.000
 3547.00    0.57911   0.59479   -1.000
 3548.00    0.56540   0.59482   -1.000
 3549.00    0.54890   0.59544   -1.000
 3550.00    0.56074   0.59539   -1.000
 3551.00    0.56987   0.59340   -1.000
 3552.00    0.57015   0.58938   -1.000
 3553.00    0.55950   0.58477   -1.000
 3554.00    0.55507   0.58156   -1.000
 3555.00    0.56450   0.58051   -1.000
 3556.00    0.57164   0.58055   -1.000
 3557.00    0.55520   0.58013   -1.000
 3558.00    0.56681   0.57919   -1.000
 3559.00    0.56217   0.57950   -1.000
 3560.00    0.56207   0.58252   -1.000
 3561.00    0.56552   0.58647   -1.000
 3562.00    0.56086   0.58628   -1.000
 3563.00    0.54295   0.57757   -1.000
 3564.00    0.53566   0.56165   -1.000
 3565.00    0.52974   0.54525   -1.000
 3566.00    0.50191   0.53433   -1.000
 3567.00    0.51247   0.52882  158.300
 3568.00    0.51121   0.52452  157.990
 3569.00    0.49946   0.51909  156.922
 3570.00    0.50514   0.51437  161.122
 3571.00    0.52149   0.51335  164.580
 3572.00    0.53059   0.51635  160.882
 3573.00    0.52498   0.52094  154.041
 3574.00    0.52363   0.52488  548.440
 3575.00    0.52716   0.52746  897.644
 3576.00    0.52591   0.52840  897.644
 3577.00    0.53106   0.52640   -1.000
 3578.00    0.54070   0.52003   -1.000
 3579.00    0.53742   0.50987   -1.000
 3580.00    0.50877   0.49918  192.197
 3581.00    0.49583   0.49163  168.429
 3582.00    0.50584   0.48809   -1.000
 3583.00    0.49151   0.48621  181.286
 3584.00    0.48776   0.48331  182.095
 3585.00    0.48534   0.47962  185.965
 3586.00    0.47475   0.47828  191.847
 3587.00    0.48191   0.48244  195.254
 3588.00    0.48517   0.49283  187.661
 3589.00    0.50000   0.50756  177.718
 3590.00    0.53281   0.52310  168.968
 3591.00    0.55315   0.53588   -1.000
 3592.00    0.55349   0.54438   -1.000
 3593.00    0.55993   0.55001   -1.000
 3594.00    0.56925   0.55572   -1.000
 3595.00    0.56001   0.56338   -1.000
 3596.00    0.56924   0.57248   -1.000
 3597.00    0.58410   0.58093  897.644
 3598.00    0.58806   0.58647  897.644
 3599.00    0.59226   0.58714   -1.000
 3600.00    0.59572   0.58186   -1.000
 3601.00    0.57667   0.57143   -1.000
 3602.00    0.56429   0.55892   -1.000
 3603.00    0.55651   0.54846   -1.000
 3604.00    0.54986   0.54263   -1.000
 3605.00    0.54820   0.54082   -1.000
 3606.00    0.54317   0.53992   -1.000
 3607.00    0.54841   0.53750   -1.000
 3608.00    0.54141   0.53432   -1.000
 3609.00    0.53484   0.53326  897.644
 3610.00    0.55714   0.53602   -1.000
 3611.00    0.56037   0.54157   -1.000
 3612.00    0.55083   0.54786   -1.000
 3613.00    0.53588   0.55402   -1.000
 3614.00    0.54795   0.55918   -1.000
 3615.00    0.57162   0.56067   -1.000
 3616.00    0.57231   0.55584   -1.000
 3617.00    0.54191   0.54617   -1.000
 3618.00    0.51877   0.53798   -1.000
 3619.00    0.52565   0.53774   -1.000
 3620.00    0.54462   0.54627  186.108
 3621.00    0.56456   0.55930   -1.000
 3622.00    0.57864   0.57211   -1.000
 3623.00    0.58103   0.58330  897.644
 3624.00    0.58680   0.59437   -1.000
 3625.00    0.59198   0.60639   -1.000
 3626.00    0.59948   0.61702   -1.000
 3627.00    0.60321   0.62075   -1.000
 3628.00    0.60387   0.61310   -1.000
 3629.00    0.58518   0.59487   -1.000
 3630.00    0.55724   0.57318   -1.000
 3631.00    0.53863   0.55735   -1.000
 3632.00    0.54867   0.55235   -1.000
 3633.00    0.55690   0.55636  897.644
 3634.00    0.56489   0.56371  897.644
 3635.00    0.57520   0.57045   -1.000
 3636.00    0.58199   0.57671   -1.000
 3637.00    0.58587   0.58449  897.644
 3638.00    0.59923   0.59375   -1.000
 3639.00    0.60989   0.60112   -1.000
 3640.00    0.60399   0.60267  897.644
 3641.00    0.59835   0.59707  897.644
 3642.00    0.58205   0.58671   -1.000
 3643.00    0.57582   0.57567  897.644
 3644.00    0.57739   0.56686   -1.000
 3645.00    0.56806   0.56094   -1.000
 3646.00    0.56053   0.55729   -1.000
 3647.00    0.56183   0.55576   -1.000
 3648.00    0.56440   0.55735   -1.000
 3649.00    0.57223   0.56297   -1.000
 3650.00    0.57388   0.57238  897.644
 3651.00    0.57252   0.58398   -1.000
 3652.00    0.58929   0.59544   -1.000
 3653.00    0.60380   0.60484  897.644
 3654.00    0.60919   0.61192   -1.000
 3655.00    0.61765   0.61765  897.644
 3656.00    0.60848   0.62295   -1.000
 3657.00    0.60009   0.62755   -1.000
 3658.00    0.60643   0.63008   -1.000
 3659.00    0.61086   0.62958   -1.000
 3660.00    0.61544   0.62612   -1.000
 3661.00    0.61139   0.62071   -1.000
 3662.00    0.60512   0.61498   -1.000
 3663.00    0.60010   0.61055   -1.000
 3664.00    0.61190   0.60814  897.644
 3665.00    0.61204   0.60694  897.644
 3666.00    0.61922   0.60518   -1.000
 3667.00    0.62818   0.60207   -1.000
 3668.00    0.61592   0.59919   -1.000
 3669.00    0.60916   0.59931   -1.000
 3670.00    0.59845   0.60377   -1.000
 3671.00    0.61540   0.61051   -1.000
 3672.00    0.61892   0.61574  897.644
 3673.00    0.61266   0.61663   -1.000
 3674.00    0.61080   0.61251   -1.000
 3675.00    0.61085   0.60463   -1.000
 3676.00    0.60326   0.59491   -1.000
 3677.00    0.58938   0.58560  897.644
 3678.00    0.57877   0.57879  897.644
 3679.00    0.58910   0.57574   -1.000
 3680.00    0.59842   0.57659   -1.000
 3681.00    0.60365   0.57993   -1.000
 3682.00    0.60553   0.58320   -1.000
 3683.00    0.59691   0.58332   -1.000
 3684.00    0.59396   0.57865   -1.000
 3685.00    0.58051   0.57083   -1.000
 3686.00    0.56868   0.56476  897.644
 3687.00    0.57047   0.56568   -1.000
 3688.00    0.58583   0.57491   -1.000
 3689.00    0.60252   0.58883   -1.000
 3690.00    0.60830   0.60168   -1.000
 3691.00    0.60975   0.60987  897.644
 3692.00    0.61567   0.61318  897.644
 3693.00    0.62800   0.61337   -1.000
 3694.00    0.63042   0.61185   -1.000
 3695.00    0.62160   0.61001   -1.000
 3696.00    0.61201   0.61073  897.644
 3697.00    0.61713   0.61708  897.644
 3698.00    0.64476   0.62886   -1.000
 3699.00    0.66926   0.64038   -1.000
 3700.00    0.67153   0.64307   -1.000
 3701.00    0.64211   0.63111   -1.000
 3702.00    0.61539   0.60607   -1.000
 3703.00    0.59413   0.57668   -1.000
 3704.00    0.57187   0.55413   -1.000
 3705.00    0.56156   0.54507   -1.000
 3706.00    0.57715   0.54870   -1.000
 3707.00    0.58850   0.55822   -1.000
 3708.00    0.59941   0.56633   -1.000
 3709.00    0.60042   0.57022   -1.000
 3710.00    0.59392   0.57264   -1.000
 3711.00    0.59663   0.57942   -1.000
 3712.00    0.60976   0.59455   -1.000
 3713.00    0.63708   0.61674   -1.000
 3714.00    0.65630   0.63980   -1.000
 3715.00    0.66236   0.65616   -1.000
 3716.00    0.68102   0.65942   -1.000
 3717.00    0.67393   0.64565   -1.000
 3718.00    0.64102   0.61545   -1.000
 3719.00    0.59529   0.57592   -1.000
 3720.00    0.53925   0.53993   -1.000
 3721.00    0.50523   0.52147   -1.000
 3722.00    0.52989   0.52763  197.271
 3723.00    0.58223   0.55471   -1.000
 3724.00    0.62906   0.59087   -1.000
 3725.00    0.65254   0.62362   -1.000
 3726.00    0.66159   0.64624   -1.000
 3727.00    0.65749   0.65899  897.644
 3728.00    0.66333   0.66369  897.644
 3729.00    0.67232   0.65783   -1.000
 3730.00    0.66270   0.63702   -1.000
 3731.00    0.63058   0.60041   -1.000
 3732.00    0.57958   0.55432   -1.000
 3733.00    0.53619   0.51139   -1.000
 3734.00    0.50825   0.48496   -1.000
 3735.00    0.50166   0.48343  164.594
 3736.00    0.52195   0.50763  174.212
 3737.00    0.57517   0.55086   -1.000
 3738.00    0.62949   0.60143   -1.000
 3739.00    0.66396   0.64713   -1.000
 3740.00    0.68765   0.67851   -1.000
 3741.00    0.71193   0.69136   -1.000
 3742.00    0.69328   0.68714   -1.000
 3743.00    0.68204   0.67013   -1.000
 3744.00    0.66441   0.64458   -1.000
 3745.00    0.63236   0.61320   -1.000
 3746.00    0.59741   0.57694   -1.000
 3747.00    0.56462   0.53872   -1.000
 3748.00    0.53000   0.50626   -1.000
 3749.00    0.50956   0.49031  160.679
 3750.00    0.51373   0.49913  164.584
 3751.00    0.55645   0.53237   -1.000
 3752.00    0.61405   0.58082   -1.000
 3753.00    0.66091   0.63143   -1.000
 3754.00    0.70201   0.67218   -1.000
 3755.00    0.72825   0.69522   -1.000
 3756.00    0.72407   0.69971   -1.000
 3757.00    0.68908   0.69178   -1.000
 3758.00    0.67392   0.68146   -1.000
 3759.00    0.67422   0.67668   -1.000
 3760.00    0.68490   0.67923  897.644
 3761.00    0.69749   0.68570   -1.000
 3762.00    0.71277   0.69087   -1.000
 3763.00    0.71172   0.69049   -1.000
 3764.00    0.70243   0.68182   -1.000
 3765.00    0.70523   0.66413   -1.000
 3766.00    0.67997   0.63843   -1.000
 3767.00    0.65775   0.60769   -1.000
 3768.00    0.62695   0.57654   -1.000
 3769.00    0.58003   0.55194   -1.000
 3770.00    0.56575   0.54216   -1.000
 3771.00    0.58876   0.55186   -1.000
 3772.00    0.63126   0.57869   -1.000
 3773.00    0.66242   0.61457   -1.000
 3774.00    0.68775   0.65081   -1.000
 3775.00    0.70329   0.68373   -1.000
 3776.00    0.71680   0.71383  897.644
 3777.00    0.74261   0.74208   -1.000
 3778.00    0.76889   0.76844   -1.000
 3779.00    0.78304   0.79131   -1.000
 3780.00    0.79097   0.80910   -1.000
 3781.00    0.80356   0.82091   -1.000
 3782.00    0.80606   0.82620   -1.000
 3783.00    0.80334   0.82422   -1.000
 3784.00    0.80266   0.81439   -1.000
 3785.00    0.78561   0.79789   -1.000
 3786.00    0.76596   0.77833   -1.000
 3787.00    0.74917   0.76025   -1.000
 3788.00    0.74686   0.74630   -1.000
 3789.00    0.74844   0.73577   -1.000
 3790.00    0.74517   0.72496   -1.000
 3791.00    0.73829   0.70952   -1.000
 3792.00    0.71315   0.68606   -1.000
 3793.00    0.68882   0.65357   -1.000
 3794.00    0.65889   0.61411   -1.000
 3795.00    0.62538   0.57156   -1.000
 3796.00    0.57929   0.53292   -1.000
 3797.00    0.53532   0.50824   -1.000
 3798.00    0.53827   0.50651   -1.000
 3799.00    0.57333   0.53138   -1.000
 3800.00    0.61650   0.57709   -1.000
 3801.00    0.67022   0.63079   -1.000
 3802.00    0.70779   0.68047   -1.000
 3803.00    0.74095   0.71846  110.695
 3804.00    0.75764   0.74298  107.665
 3805.00    0.76442   0.75763  106.616
 3806.00    0.76104   0.76864  107.693
 3807.00    0.75396   0.78181   -1.000
 3808.00    0.77856   0.79894   -1.000
 3809.00    0.80822   0.81571  112.226
 3810.00    0.81764   0.82502  108.170
 3811.00    0.80661   0.82191  106.186
 3812.00    0.79155   0.80700   -1.000
 3813.00    0.78082   0.78701  112.311
 3814.00    0.75902   0.77071   -1.000
 3815.00    0.75835   0.76300  126.330
 3816.00    0.77238   0.76213  132.570
 3817.00    0.78152   0.76150  132.378
 3818.00    0.77830   0.75557  127.954
 3819.00    0.75449   0.74546  128.261
 3820.00    0.74463   0.73618  135.517
 3821.00    0.75514   0.73065  143.315
 3822.00    0.75782   0.72642   -1.000
 3823.00    0.74526   0.71785  136.987
 3824.00    0.72147   0.70294  136.349
 3825.00    0.69587   0.68498  145.424
 3826.00    0.68100   0.66832   21.125
 3827.00    0.68222   0.65420   16.093
 3828.00    0.67462   0.63999   16.080
 3829.00    0.66649   0.62147   15.848
 3830.00    0.64984   0.59556   15.588
 3831.00    0.61774   0.56165   15.663
 3832.00    0.58757   0.52279   16.242
 3833.00    0.54523   0.48600   17.398
 3834.00    0.50876   0.45937   18.170
 3835.00    0.50032   0.44917   18.044
 3836.00    0.51944   0.45664   17.402
 3837.00    0.54790   0.47852   16.934
 3838.00    0.57460   0.51092   17.101
 3839.00    0.59845   0.55076   17.509
 3840.00    0.63552   0.59556   17.390
 3841.00    0.68306   0.64219   16.563
 3842.00    0.72732   0.68569   44.802
 3843.00    0.75272   0.72228   -1.000
 3844.00    0.76391   0.75075  127.337
 3845.00    0.77994   0.77207  123.482
 3846.00    0.78702   0.78784  122.899
 3847.00    0.79019   0.79854  122.860
 3848.00    0.79740   0.80489  123.012
 3849.00    0.79006   0.80871   -1.000
 3850.00    0.79004   0.81300   -1.000
 3851.00    0.79693   0.81847   -1.000
 3852.00    0.80916   0.82281   -1.000
 3853.00    0.82100   0.82324  127.442
 3854.00    0.81887   0.81858  127.159
 3855.00    0.80758   0.81028  129.808
 3856.00    0.79010   0.80082   -1.000
 3857.00    0.78572   0.79202   -1.000
 3858.00    0.77278   0.78653   -1.000
 3859.00    0.75811   0.78689   20.268
 3860.00    0.76082   0.79417   15.680
 3861.00    0.78813   0.80603   15.695
 3862.00    0.82925   0.81735   42.076
 3863.00    0.84544   0.82462  129.148
 3864.00    0.84191   0.82712  121.350
 3865.00    0.83810   0.82725  120.474
 3866.00    0.83142   0.82697  122.491
 3867.00    0.82651   0.82577  124.516
 3868.00    0.82438   0.82167  126.794
 3869.00    0.80817   0.81248  131.154
 3870.00    0.78806   0.79890   -1.000
 3871.00    0.76119   0.78545   -1.000
 3872.00    0.76220   0.77806   20.675
 3873.00    0.77431   0.77952   41.352
 3874.00    0.78734   0.78563  137.196
 3875.00    0.80381   0.78886  124.624
 3876.00    0.78708   0.78349  118.146
 3877.00    0.75463   0.77096   -1.000
 3878.00    0.73768   0.75696   -1.000
 3879.00    0.74016   0.74531  137.233
 3880.00    0.72836   0.73521  140.537
 3881.00    0.70778   0.72328   -1.000
 3882.00    0.70233   0.70642  143.268
 3883.00    0.70891   0.68284  141.629
 3884.00    0.69907   0.65086   -1.000
 3885.00    0.66740   0.61089   -1.000
 3886.00    0.63356   0.56781   -1.000
 3887.00    0.59612   0.53116   -1.000
 3888.00    0.55571   0.51223   -1.000
 3889.00    0.55839   0.51737   -1.000
 3890.00    0.59681   0.54497   -1.000
 3891.00    0.64600   0.58557   -1.000
 3892.00    0.68999   0.62806   -1.000
 3893.00    0.72082   0.66465   -1.000
 3894.00    0.72904   0.69453   -1.000
 3895.00    0.74204   0.71994  103.769
 3896.00    0.76170   0.74188  104.194
 3897.00    0.77765   0.76014  102.040
 3898.00    0.78906   0.77451   99.208
 3899.00    0.79370   0.78655   99.722
 3900.00    0.80642   0.79771  101.312
 3901.00    0.80914   0.80713  100.677
 3902.00    0.81549   0.81252   99.579
 3903.00    0.82290   0.81341  100.005
 3904.00    0.82114   0.81266  103.363
 3905.00    0.80761   0.81544  106.469
 3906.00    0.80258   0.82588   -1.000
 3907.00    0.83184   0.84349  109.807
 3908.00    0.85931   0.86397  104.842
 3909.00    0.87556   0.88194   97.969
 3910.00    0.88352   0.89328   94.412
 3911.00    0.88247   0.89746   93.194
 3912.00    0.87588   0.89590   -1.000
 3913.00    0.87299   0.89083   -1.000
 3914.00    0.86531   0.88468   -1.000
 3915.00    0.86686   0.87906   93.995
 3916.00    0.86316   0.87372   96.145
 3917.00    0.85632   0.86764   97.674
 3918.00    0.85156   0.86016   98.951
 3919.00    0.83886   0.85236   -1.000
 3920.00    0.83354   0.84657   -1.000
 3921.00    0.82505   0.84419   -1.000
 3922.00    0.82448   0.84424   -1.000
 3923.00    0.84114   0.84294  113.509
 3924.00    0.84869   0.83600  111.687
 3925.00    0.83171   0.82035  111.692
 3926.00    0.80041   0.79532  115.895
 3927.00    0.76224   0.76232  125.477
 3928.00    0.72166   0.72276  139.832
 3929.00    0.66583   0.67816   23.227
 3930.00    0.58641   0.63007   18.669
 3931.00    0.49417   0.58249   21.856
 3932.00    0.41338   0.54419   -1.000
 3933.00    0.37559   0.52528   -1.000
 3934.00    0.40640   0.53268   -1.000
 3935.00    0.48636   0.56513   33.728
 3936.00    0.57859   0.61373   30.090
 3937.00    0.65573   0.66702   25.198
 3938.00    0.71562   0.71642   20.726
 3939.00    0.75722   0.75635   17.312
 3940.00    0.78168   0.78496   41.660
 3941.00    0.79484   0.80253  138.021
 3942.00    0.79671   0.81162   -1.000
 3943.00    0.80039   0.81696   -1.000
 3944.00    0.81386   0.82253  128.685
 3945.00    0.83202   0.82983  124.083
 3946.00    0.84769   0.83786  114.107
 3947.00    0.85480   0.84475  106.337
 3948.00    0.85621   0.84969  103.689
 3949.00    0.86113   0.85288  102.858
 3950.00    0.86936   0.85472   99.972
 3951.00    0.86595   0.85565   96.555
 3952.00    0.86649   0.85629   95.899
 3953.00    0.87434   0.85622   97.046
 3954.00    0.86982   0.85374   96.286
 3955.00    0.85823   0.84786   94.056
 3956.00    0.84412   0.83938   94.034
 3957.00    0.83854   0.82929   96.763
 3958.00    0.84097   0.81618   98.978
 3959.00    0.82987   0.79621   98.224
 3960.00    0.79170   0.76741   99.230
 3961.00    0.75415   0.73190  107.171
 3962.00    0.72139   0.69246  120.388
 3963.00    0.68310   0.64975   -1.000
 3964.00    0.63706   0.60037   -1.000
 3965.00    0.56360   0.54207   22.248
 3966.00    0.46140   0.47928   17.547
 3967.00    0.35874   0.42219   21.277
 3968.00    0.30505   0.38446   26.121
 3969.00    0.31181   0.37521   29.902
 3970.00    0.37087   0.39604   29.334
 3971.00    0.46081   0.44103   25.005
 3972.00    0.55314   0.50066   20.553
 3973.00    0.62072   0.56480   17.108
 3974.00    0.68710   0.62677   39.837
 3975.00    0.73794   0.68264   -1.000
 3976.00    0.76867   0.73121   -1.000
 3977.00    0.80506   0.77287   -1.000
 3978.00    0.84005   0.80707   98.439
 3979.00    0.86157   0.83324   93.097
 3980.00    0.86676   0.85070   88.120
 3981.00    0.86218   0.86147   85.913
 3982.00    0.87976   0.86944   86.031
 3983.00    0.89525   0.87810   87.382
 3984.00    0.90865   0.88869   87.489
 3985.00    0.92476   0.90024   86.009
 3986.00    0.92441   0.91155   84.271
 3987.00    0.92305   0.92217   82.816
 3988.00    0.92870   0.93195   81.305
 3989.00    0.93879   0.94101   80.277
 3990.00    0.94557   0.94943   80.245
 3991.00    0.95351   0.95687   79.999
 3992.00    0.96607   0.96197   78.548
 3993.00    0.97383   0.96295   76.649
 3994.00    0.96842   0.95919   76.686
 3995.00    0.94989   0.95268   78.276
 3996.00    0.93201   0.94730   80.121
 3997.00    0.93372   0.94653   81.756
 3998.00    0.94395   0.95159   82.721
 3999.00    0.95684   0.96065   81.645
 4000.00    0.97077   0.96954   78.442
 4001.00    0.97699   0.97404   75.468
 4002.00    0.98480   0.97128   73.846
 4003.00    0.97556   0.96168   72.763
 4004.00    0.95342   0.94973   73.404
 4005.00    0.93895   0.94254   77.274
 4006.00    0.94086   0.94459   81.749
 4007.00    0.96558   0.95571   82.649
 4008.00    0.98828   0.97033   79.073
 4009.00    0.98646   0.98282   75.448
 4010.00    0.98992   0.99085   73.837
 4011.00    0.97592   0.99515   -1.000
 4012.00    1.00378   0.99780   72.586
 4013.00    1.00487   1.00013   72.869
 4014.00    0.99395   1.00255   73.316
 4015.00    1.00366   1.00501   73.068
 4016.00    1.01165   1.00775   72.172
 4017.00    1.00634   1.01130   72.256
 4018.00    1.00991   1.01535   73.086
 4019.00    1.00979   1.01873   73.142
 4020.00    1.00596   1.01956   72.240
 4021.00    1.00491   1.01687   71.985
 4022.00    0.99890   1.01113   72.772
 4023.00    0.99357   1.00478   73.420
 4024.00    0.99283   1.00107   73.877
 4025.00    0.98560   1.00201   -1.000
 4026.00    1.00000   1.00630   73.356
 4027.00    1.00772   1.00898   70.957
 4028.00    1.00670   1.00548   69.157
 4029.00    0.99258   0.99477   69.130
 4030.00    0.96295   0.98100   -1.000
 4031.00    0.95156   0.97028   -1.000
 4032.00    0.95937   0.96695   79.442
 4033.00    0.95951   0.97277   -1.000
 4034.00    0.96788   0.98643   -1.000
 4035.00    0.98822   1.00534   -1.000
 4036.00    1.01176   1.02503   75.114
 4037.00    1.02353   1.04052   71.386
 4038.00    1.02647   1.04809   -1.000
 4039.00    1.02516   1.04765   -1.000
 4040.00    1.01307   1.04120   -1.000
 4041.00    1.00799   1.03053   -1.000
 4042.00    1.00737   1.01471   71.164
 4043.00    0.99670   0.99417   71.640
 4044.00    0.96888   0.97460   74.042
 4045.00    0.93982   0.96419   -1.000
 4046.00    0.94323   0.96919   -1.000
 4047.00    0.98017   0.98692   86.677
 4048.00    1.01481   1.00880   79.639
 4049.00    1.02165   1.02602   73.819
 4050.00    1.01792   1.03378   70.957
 4051.00    1.01337   1.03233   69.760
 4052.00    1.00623   1.02493   69.823
 4053.00    0.99729   1.01600   -1.000
 4054.00    0.99667   1.00853   73.186
 4055.00    0.99518   1.00406   74.580
 4056.00    0.99397   1.00267   75.355
 4057.00    0.99890   1.00431   75.889
 4058.00    0.99899   1.00845   76.590
 4059.00    1.00251   1.01151   76.259
 4060.00    1.00940   1.00883   74.074
 4061.00    1.00120   0.99795   72.175
 4062.00    0.97929   0.98136   72.521
 4063.00    0.95935   0.96598   76.461
 4064.00    0.95750   0.95714   81.954
 4065.00    0.96748   0.95695   83.012
 4066.00    0.97364   0.96304   79.743
 4067.00    0.98371   0.97133   77.101
 4068.00    1.00310   0.97684   75.106
 4069.00    1.00758   0.97646   72.802
 4070.00    0.99469   0.97055   71.387
 4071.00    0.98200   0.96328   72.933
 4072.00    0.97625   0.95864   76.182
 4073.00    0.97784   0.95577   77.018
 4074.00    0.97238   0.95060   74.884
 4075.00    0.96308   0.94067   73.647
 4076.00    0.93797   0.92942   75.863
 4077.00    0.92078   0.92415   81.424
 4078.00    0.93262   0.92950   85.519
 4079.00    0.95633   0.94412   84.453
 4080.00    0.97227   0.96029   79.563
 4081.00    0.98249   0.97057   74.042
 4082.00    0.97843   0.97160   70.827
 4083.00    0.96049   0.96701   70.894
 4084.00    0.95139   0.96304   72.946
 4085.00    0.96221   0.96434   74.569
 4086.00    0.97286   0.97087   74.209
 4087.00    0.97854   0.97836   72.140
 4088.00    0.98260   0.98198   69.455
 4089.00    0.97810   0.97883   67.064
 4090.00    0.97354   0.96982   66.518
 4091.00    0.96706   0.95685   67.555
 4092.00    0.95566   0.94122   68.884
 4093.00    0.94616   0.92201   69.839
 4094.00    0.93408   0.89774   70.146
 4095.00    0.90998   0.86813   71.000
 4096.00    0.87919   0.83314   73.597
 4097.00    0.85548   0.79281   -1.000
 4098.00    0.83406   0.74682   -1.000
 4099.00    0.78635   0.69825   -1.000
 4100.00    0.71511   0.65615   -1.000
 4101.00    0.65565   0.63299   88.492
 4102.00    0.65510   0.63795   95.472
 4103.00    0.71393   0.67015   -1.000
 4104.00    0.78600   0.71842   -1.000
 4105.00    0.84299   0.76912   -1.000
 4106.00    0.87812   0.81213   -1.000
 4107.00    0.89104   0.84444   -1.000
 4108.00    0.89607   0.86797   73.798
 4109.00    0.90505   0.88621   74.150
 4110.00    0.91998   0.90261   75.357
 4111.00    0.93408   0.91915   76.615
 4112.00    0.95107   0.93622   76.387
 4113.00    0.96381   0.95311   74.897
 4114.00    0.97196   0.96771   73.456
 4115.00    0.98052   0.97789   72.285
 4116.00    0.98573   0.98199   71.438
 4117.00    0.97907   0.98100   71.424
 4118.00    0.96605   0.97765   72.546
 4119.00    0.96060   0.97530   74.702
 4120.00    0.96122   0.97568   76.187
 4121.00    0.96755   0.97887   75.859
 4122.00    0.97913   0.98404   74.990
 4123.00    0.98899   0.98988   74.766
 4124.00    0.99726   0.99457   74.285
 4125.00    1.00376   0.99591   73.132
 4126.00    0.99974   0.99323   72.502
 4127.00    0.99394   0.98775   73.057
 4128.00    0.98886   0.98174   74.446
 4129.00    0.98326   0.97593   75.430
 4130.00    0.97971   0.97012   75.883
 4131.00    0.97025   0.96514   76.631
 4132.00    0.95863   0.96391   78.536
 4133.00    0.96059   0.96982   81.048
 4134.00    0.97260   0.98333   82.111
 4135.00    0.99189   1.00189   80.402
 4136.00    1.01571   1.02073   76.780
 4137.00    1.02768   1.03612   73.769
 4138.00    1.03231   1.04470   72.164
 4139.00    1.03288   1.04435   71.038
 4140.00    1.02714   1.03402   70.458
 4141.00    1.01489   1.01651   71.286
 4142.00    0.98712   0.99808   74.225
 4143.00    0.96864   0.98705   -1.000
 4144.00    0.97659   0.98729   84.891
 4145.00    0.99321   0.99678   84.443
 4146.00    1.00564   1.00880   79.947
 4147.00    1.01430   1.01744   76.281
 4148.00    1.01285   1.02152   74.767
 4149.00    1.00176   1.02270   -1.000
 4150.00    0.99856   1.02271   -1.000
 4151.00    1.00567   1.02135   78.737
 4152.00    1.00441   1.01789   78.709
 4153.00    0.99125   1.01323   -1.000
 4154.00    0.97035   1.00992   -1.000
 4155.00    1.03963   1.01059   79.601
 4156.00    1.22709   1.01597   -1.000
 4157.00    1.14532   1.02473   -1.000
 4158.00    0.83102   1.03429   -1.000
 4159.00    0.85792   1.04268   -1.000
 4160.00    1.03596   1.04913   75.397
 4161.00    1.04819   1.05413   75.425
 4162.00    1.02262   1.05810   -1.000
 4163.00    1.02590   1.06059   -1.000
 4164.00    1.03650   1.06039   -1.000
 4165.00    1.03223   1.05698   -1.000
 4166.00    1.01647   1.05105   -1.000
 4167.00    1.01316   1.04398   -1.000
 4168.00    1.02007   1.03563   77.312
 4169.00    1.02268   1.02417   77.369
 4170.00    1.00697   1.00862   76.270
 4171.00    0.98281   0.99130   76.261
 4172.00    0.96108   0.97842   -1.000
 4173.00    0.95196   0.97457   -1.000
 4174.00    0.95407   0.97985   -1.000
 4175.00    0.96387   0.98924   -1.000
 4176.00    0.97116   0.99797   -1.000
 4177.00    0.97211   1.00454   -1.000
 4178.00    0.97718   1.01018   -1.000
 4179.00    0.98545   1.01545   -1.000
 4180.00    1.00133   1.01965   -1.000
 4181.00    1.00966   1.02220   78.565
 4182.00    1.00504   1.02404   -1.000
 4183.00    1.00417   1.02599   -1.000
 4184.00    1.01254   1.02715   76.521
 4185.00    1.01451   1.02610   75.085
 4186.00    1.00347   1.02273   -1.000
 4187.00    0.98585   1.01949   -1.000
 4188.00    0.98616   1.01884   -1.000
 4189.00    0.99867   1.02172   -1.000
 4190.00    1.00606   1.02727   -1.000
 4191.00    1.00941   1.03357   -1.000
 4192.00    1.01326   1.03798   -1.000
 4193.00    1.02094   1.03760   74.449
 4194.00    1.02442   1.03060   73.214
 4195.00    1.00596   1.01763   74.175
 4196.00    0.98238   1.00201   -1.000
 4197.00    0.96962   0.98758   -1.000
 4198.00    0.96049   0.97749   -1.000
 4199.00    0.96021   0.97283   83.185
 4200.00    0.96705   0.97320   82.660
 4201.00    0.96676   0.97752   81.467
 4202.00    0.97053   0.98505   80.828
 4203.00    0.98013   0.99545   80.440
 4204.00    0.98251   1.00814   -1.000
 4205.00    0.98313   1.02178   -1.000
 4206.00    0.99081   1.03417   -1.000
 4207.00    1.00121   1.04347   -1.000
 4208.00    1.01193   1.04898   -1.000
 4209.00    1.01384   1.05175   -1.000
 4210.00    1.01183   1.05316   -1.000
 4211.00    1.01500   1.05317   -1.000
 4212.00    1.01566   1.04998   -1.000
 4213.00    1.00770   1.04229   -1.000
 4214.00    0.99576   1.03204   -1.000
 4215.00    0.97704   1.02420   -1.000
 4216.00    0.97461   1.02358   -1.000
 4217.00    0.99094   1.03114   -1.000
 4218.00    1.00781   1.04284   -1.000
 4219.00    1.02091   1.05258   -1.000
 4220.00    1.03114   1.05445   68.963
 4221.00    1.02915   1.04527   67.790
 4222.00    1.01096   1.02414   67.905
 4223.00    0.98531   0.99409   69.877
 4224.00    0.95516   0.96168   74.036
 4225.00    0.91817   0.93725   -1.000
 4226.00    0.89564   0.92955   -1.000
 4227.00    0.90692   0.94223   -1.000
 4228.00    0.94963   0.96858   -1.000
 4229.00    0.99906   0.99712   87.695
 4230.00    1.02093   1.01643   77.576
 4231.00    1.01571   1.02274   72.110
 4232.00    0.99887   1.01883   70.370
 4233.00    0.98733   1.01091   -1.000
 4234.00    0.98715   1.00401   72.995
 4235.00    0.98429   1.00067   74.190
 4236.00    0.98012   1.00129   -1.000
 4237.00    0.98096   1.00584   -1.000
 4238.00    0.98946   1.01335   -1.000
 4239.00    0.99648   1.02257   -1.000
 4240.00    1.00538   1.03156   -1.000
 4241.00    1.01172   1.03935   -1.000
 4242.00    1.00729   1.04522   -1.000
 4243.00    1.01201   1.04835   -1.000
 4244.00    1.01734   1.04711   -1.000
 4245.00    1.00755   1.04038   -1.000
 4246.00    0.98946   1.02928   -1.000
 4247.00    0.97414   1.01768   -1.000
 4248.00    0.96318   1.00964   -1.000
 4249.00    0.95858   1.00760   -1.000
 4250.00    0.96302   1.01028   -1.000
 4251.00    0.97875   1.01480   -1.000
 4252.00    0.99496   1.01770   -1.000
 4253.00    1.00309   1.01827   74.335
 4254.00    1.00046   1.01813   73.767
 4255.00    0.99474   1.01874   -1.000
 4256.00    1.00224   1.01894   75.460
 4257.00    1.00734   1.01583   73.191
 4258.00    0.99706   1.00885   71.660
 4259.00    0.97422   1.00242   -1.000
 4260.00    0.95735   1.00244   -1.000
 4261.00    0.96646   1.01242   -1.000
 4262.00    0.99483   1.02923   -1.000
 4263.00    1.01537   1.04686   -1.000
 4264.00    1.02305   1.05883   -1.000
 4265.00    1.02741   1.06242   -1.000
 4266.00    1.02722   1.05727   -1.000
 4267.00    1.01839   1.04474   -1.000
 4268.00    1.00911   1.02621   69.851
 4269.00    0.99024   1.00433   72.084
 4270.00    0.96459   0.98268   74.620
 4271.00    0.93887   0.96633   -1.000
 4272.00    0.93376   0.95899   -1.000
 4273.00    0.93902   0.96231   -1.000
 4274.00    0.94417   0.97493   -1.000
 4275.00    0.96723   0.99376   -1.000
 4276.00    0.99396   1.01337   80.266
 4277.00    1.01063   1.02849   75.626
 4278.00    1.00893   1.03516   -1.000
 4279.00    0.98983   1.03440   -1.000
 4280.00    0.98124   1.02974   -1.000
 4281.00    0.97435   1.02524   -1.000
 4282.00    0.97773   1.02168   -1.000
 4283.00    0.98587   1.01762   -1.000
 4284.00    0.98327   1.01137   -1.000
 4285.00    0.97456   1.00172   -1.000
 4286.00    0.96338   0.98893   -1.000
 4287.00    0.95561   0.97385   78.821
 4288.00    0.94038   0.95935   80.285
 4289.00    0.91388   0.94974   -1.000
 4290.00    0.90179   0.94859   -1.000
 4291.00    0.92002   0.95502   -1.000
 4292.00    0.94441   0.96419   85.528
 4293.00    0.95995   0.96948   80.417
 4294.00    0.96166   0.96762   77.415
 4295.00    0.95298   0.95776   77.319
 4296.00    0.94469   0.94154   78.419
 4297.00    0.92661   0.92040   80.024
 4298.00    0.89099   0.89798   83.168
 4299.00    0.86046   0.87838   -1.000
 4300.00    0.84712   0.86598   -1.000
 4301.00    0.84687   0.86223  100.061
 4302.00    0.85154   0.86581   98.639
 4303.00    0.85944   0.87287   96.467
 4304.00    0.87565   0.87865   95.036
 4305.00    0.88068   0.87931   93.766
 4306.00    0.86750   0.87468   93.545
 4307.00    0.84418   0.86851   -1.000
 4308.00    0.83133   0.86660   -1.000
 4309.00    0.83721   0.87239   -1.000
 4310.00    0.85715   0.88554   -1.000
 4311.00    0.87074   0.90335   -1.000
 4312.00    0.87873   0.92506   -1.000
 4313.00    0.89356   0.95099   -1.000
 4314.00    0.92298   0.98235   -1.000
 4315.00    0.96826   1.01576   -1.000
 4316.00    1.00735   1.04572   -1.000
 4317.00    1.03017   1.06566   -1.000
 4318.00    1.03942   1.07258   64.285
 4319.00    1.02890   1.06690   -1.000
 4320.00    1.01665   1.05090   -1.000
 4321.00    1.00792   1.02680   65.333
 4322.00    0.98683   0.99777   67.257
 4323.00    0.95374   0.96889   70.163
 4324.00    0.92369   0.94827   -1.000
 4325.00    0.90623   0.94198   -1.000
 4326.00    0.91344   0.95183   -1.000
 4327.00    0.94875   0.97094   83.901
 4328.00    0.98372   0.99026   76.154
 4329.00    0.99269   1.00230   69.567
 4330.00    0.98563   1.00571   66.786
 4331.00    0.98196   1.00255   66.508
 4332.00    0.98295   0.99388   66.447
 4333.00    0.98129   0.97821   65.586
 4334.00    0.96939   0.95124   64.696
 4335.00    0.94265   0.91033   64.354
 4336.00    0.90566   0.85567   64.952
 4337.00    0.85605   0.79493   -1.000
 4338.00    0.78967   0.73966   73.607
 4339.00    0.71633   0.70398   80.671
 4340.00    0.67258   0.69665   -1.000
 4341.00    0.70048   0.71877   91.984
 4342.00    0.77667   0.76155   88.669
 4343.00    0.84450   0.81319   80.572
 4344.00    0.88909   0.86346   74.350
 4345.00    0.92259   0.90728   71.162
 4346.00    0.94552   0.94283   69.150
 4347.00    0.95837   0.96859   67.690
 4348.00    0.97271   0.98277   66.817
 4349.00    0.97862   0.98532   65.890
 4350.00    0.96734   0.98014   65.529
 4351.00    0.95061   0.97549   67.718
 4352.00    0.94077   0.97826   -1.000
 4353.00    0.95876   0.99103   -1.000
 4354.00    0.99255   1.00964   73.786
 4355.00    1.01262   1.02820   70.464
 4356.00    1.02299   1.04230   67.863
 4357.00    1.02456   1.05137   66.196
 4358.00    1.01965   1.05774   -1.000
 4359.00    1.01814   1.06434   -1.000
 4360.00    1.02603   1.07300   -1.000
 4361.00    1.04090   1.08307   -1.000
 4362.00    1.04568   1.09277   -1.000
 4363.00    1.04283   1.09971   -1.000
 4364.00    1.04759   1.10191   -1.000
 4365.00    1.04600   1.09807   -1.000
 4366.00    1.03121   1.08909   -1.000
 4367.00    1.02264   1.07760   -1.000
 4368.00    1.02015   1.06662   -1.000
 4369.00    1.01896   1.05754   -1.000
 4370.00    1.02414   1.04943   67.583
 4371.00    1.02773   1.04050   67.021
 4372.00    1.02508   1.02989   66.821
 4373.00    1.01778   1.01990   67.189
 4374.00    1.00182   1.01452   69.063
 4375.00    0.99392   1.01768   71.923
 4376.00    1.00977   1.02839   73.168
 4377.00    1.03133   1.04184   71.338
 4378.00    1.04271   1.05031   67.929
 4379.00    1.05010   1.04788   65.772
 4380.00    1.04895   1.03126   65.560
 4381.00    1.03712   1.00343   66.442
 4382.00    1.00395   0.97206   68.757
 4383.00    0.95728   0.94884   74.483
 4384.00    0.93994   0.94228   83.047
 4385.00    0.96274   0.95231   87.625
 4386.00    0.99334   0.97171   82.956
 4387.00    1.01823   0.99095   74.974
 4388.00    1.03002   1.00519   70.563
 4389.00    1.02786   1.01456   69.725
 4390.00    1.02669   1.02135   70.242
 4391.00    1.03284   1.02720   70.721
 4392.00    1.03859   1.03160   70.012
 4393.00    1.04141   1.03459   68.478
 4394.00    1.02789   1.03771   68.066
 4395.00    1.02052   1.04248   69.190
 4396.00    1.03474   1.04828   69.743
 4397.00    1.04230   1.05174   67.721
 4398.00    1.04732   1.05084   65.181
 4399.00    1.03989   1.04648   64.906
 4400.00    1.02400   1.04141   66.748
 4401.00    1.02674   1.03697   69.002
 4402.00    1.03859   1.03196   69.408
 4403.00    1.03638   1.02562   68.253
 4404.00    1.02261   1.01976   69.033
 4405.00    1.01271   1.01728   72.498
 4406.00    1.02696   1.02045   74.752
 4407.00    1.03524   1.02924   73.451
 4408.00    1.02985   1.04263   71.685
 4409.00    1.03185   1.05878   70.919
 4410.00    1.04520   1.07375   69.099
 4411.00    1.06315   1.08237   66.203
 4412.00    1.07227   1.08088   63.695
 4413.00    1.06420   1.06946   62.348
 4414.00    1.04004   1.05402   63.004
 4415.00    1.02038   1.04264   65.863
 4416.00    1.01337   1.04225   -1.000
 4417.00    1.02093   1.05302   -1.000
 4418.00    1.03963   1.07038   -1.000
 4419.00    1.05910   1.08624   65.419
 4420.00    1.07092   1.09518   63.181
 4421.00    1.06960   1.09665   62.627
 4422.00    1.05754   1.09374   -1.000
 4423.00    1.05238   1.09019   -1.000
 4424.00    1.05670   1.08783   -1.000
 4425.00    1.05471   1.08651   -1.000
 4426.00    1.04939   1.08633   -1.000
 4427.00    1.04640   1.08716   -1.000
 4428.00    1.04675   1.08882   -1.000
 4429.00    1.05023   1.09048   -1.000
 4430.00    1.05323   1.09069   -1.000
 4431.00    1.05700   1.08802   -1.000
 4432.00    1.06351   1.08212   65.279
 4433.00    1.05555   1.07458   64.620
 4434.00    1.03101   1.06974   -1.000
 4435.00    1.02015   1.07214   -1.000
 4436.00    1.04082   1.08280   -1.000
 4437.00    1.07658   1.09770   69.059
 4438.00    1.09813   1.10911   65.336
 4439.00    1.10002   1.11142   61.984
 4440.00    1.08876   1.10331   60.762
 4441.00    1.06595   1.09051   61.816
 4442.00    1.04469   1.08065   -1.000
 4443.00    1.03410   1.08017   -1.000
 4444.00    1.03295   1.08942   -1.000
 4445.00    1.04997   1.10372   -1.000
 4446.00    1.07400   1.11683   -1.000
 4447.00    1.08466   1.12489   -1.000
 4448.00    1.08165   1.12744   -1.000
 4449.00    1.07288   1.12591   -1.000
 4450.00    1.07255   1.12112   -1.000
 4451.00    1.07842   1.11309   -1.000
 4452.00    1.07629   1.10083   63.360
 4453.00    1.06619   1.08576   63.340
 4454.00    1.04937   1.07121   64.839
 4455.00    1.03289   1.06149   -1.000
 4456.00    1.03999   1.05848   69.852
 4457.00    1.06534   1.06077   69.790
 4458.00    1.07471   1.06543   68.490
 4459.00    1.06703   1.07028   67.961
 4460.00    1.06202   1.07512   68.216
 4461.00    1.06055   1.08067   68.777
 4462.00    1.06360   1.08771   69.453
 4463.00    1.07807   1.09508   68.972
 4464.00    1.08328   1.10080   66.789
 4465.00    1.07599   1.10262   64.695
 4466.00    1.07760   1.10012   63.984
 4467.00    1.07111   1.09516   64.011
 4468.00    1.05598   1.09143   -1.000
 4469.00    1.04817   1.09261   -1.000
 4470.00    1.05287   1.10035   -1.000
 4471.00    1.07526   1.11361   -1.000
 4472.00    1.09991   1.12936   64.327
 4473.00    1.11411   1.14386   62.154
 4474.00    1.11914   1.15455   -1.000
 4475.00    1.11426   1.16007   -1.000
 4476.00    1.11132   1.16013   -1.000
 4477.00    1.12078   1.15390   58.893
 4478.00    1.12460   1.14154   58.446
 4479.00    1.11422   1.12490   58.578
 4480.00    1.09825   1.10940   60.012
 4481.00    1.08440   1.10190   62.573
 4482.00    1.07739   1.10579   -1.000
 4483.00    1.08424   1.11980   -1.000
 4484.00    1.10550   1.13725   63.354
 4485.00    1.12207   1.15087   60.768
 4486.00    1.12537   1.15560   59.021
 4487.00    1.12029   1.15188   58.512
 4488.00    1.10897   1.14369   -1.000
 4489.00    1.09127   1.13687   -1.000
 4490.00    1.08340   1.13484   -1.000
 4491.00    1.09683   1.13712   -1.000
 4492.00    1.10606   1.14106   -1.000
 4493.00    1.10390   1.14344   -1.000
 4494.00    1.09555   1.14441   -1.000
 4495.00    1.09095   1.14544   -1.000
 4496.00    1.09627   1.14794   -1.000
 4497.00    1.10252   1.15156   -1.000
 4498.00    1.11389   1.15480   -1.000
 4499.00    1.11571   1.15709   -1.000
 4500.00    1.10348   1.15954   -1.000
 4501.00    1.09487   1.16500   -1.000
 4502.00    1.10328   1.17405   -1.000
 4503.00    1.12817   1.18545   -1.000
 4504.00    1.14670   1.19529   -1.000
 4505.00    1.14504   1.20075   -1.000
 4506.00    1.13664   1.20123   -1.000
 4507.00    1.13051   1.19873   -1.000
 4508.00    1.13273   1.19611   -1.000
 4509.00    1.14477   1.19442   -1.000
 4510.00    1.14611   1.19294   -1.000
 4511.00    1.13448   1.18986   -1.000
 4512.00    1.12799   1.18443   -1.000
 4513.00    1.13002   1.17746   -1.000
 4514.00    1.12696   1.17047   -1.000
 4515.00    1.12174   1.16509   -1.000
 4516.00    1.12105   1.16164   -1.000
 4517.00    1.11652   1.15941   -1.000
 4518.00    1.11188   1.15814   -1.000
 4519.00    1.11494   1.15733   -1.000
 4520.00    1.11788   1.15638   -1.000
 4521.00    1.11191   1.15434   -1.000
 4522.00    1.10149   1.15018   -1.000
 4523.00    1.09756   1.14375   -1.000
 4524.00    1.10005   1.13519   -1.000
 4525.00    1.10215   1.12451   61.660
 4526.00    1.10148   1.11253   62.426
 4527.00    1.08783   1.10068   63.942
 4528.00    1.07329   1.09194   65.858
 4529.00    1.07861   1.08771   67.159
 4530.00    1.09000   1.08747   67.254
 4531.00    1.09483   1.08831   66.360
 4532.00    1.08939   1.08778   65.147
 4533.00    1.07268   1.08703   64.406
 4534.00    1.05783   1.08958   -1.000
 4535.00    1.05943   1.09946   -1.000
 4536.00    1.07775   1.11640   -1.000
 4537.00    1.10574   1.13640   65.393
 4538.00    1.13100   1.15308   61.506
 4539.00    1.13836   1.16265   58.900
 4540.00    1.13500   1.16535   58.480
 4541.00    1.13291   1.16403   59.550
 4542.00    1.12813   1.16157   60.248
 4543.00    1.15388   1.15868   59.940
 4544.00    1.00599   1.15470   -1.000
 4545.00    0.41844   1.14904   -1.000
 4546.00   -0.02213   1.14130    0.000
 4547.00    0.14709   1.13205   -1.000
 4548.00    0.58679   1.12306   -1.000
 4549.00    0.56004   1.11707   -1.000
 4550.00    0.65549   1.11576   -1.000
 4551.00    1.10464   1.11797   38.092
 4552.00    1.10380   1.12057   65.771
 4553.00    1.09119   1.12202   62.204
 4554.00    1.08943   1.12346   -1.000
 4555.00    1.09523   1.12793   -1.000
 4556.00    1.11066   1.13773   63.475
 4557.00    1.12820   1.15147   61.765
 4558.00    1.13651   1.16608   59.347
 4559.00    1.14158   1.17801   57.636
 4560.00    1.14721   1.18462   57.338
 4561.00    1.14385   1.18503   -1.000
 4562.00    1.13129   1.17996   -1.000
 4563.00    1.12031   1.17223   -1.000
 4564.00    1.11560   1.16608   -1.000
 4565.00    1.12055   1.16449   -1.000
 4566.00    1.13632   1.16831   61.053
 4567.00    1.14627   1.17439   59.880
 4568.00    1.14717   1.17866   58.299
 4569.00    1.14135   1.17818   57.237
 4570.00    1.12957   1.17346   -1.000
 4571.00    1.11932   1.16816   -1.000
 4572.00    1.11701   1.16631   -1.000
 4573.00    1.12680   1.16940   -1.000
 4574.00    1.13654   1.17500   -1.000
 4575.00    1.13568   1.17983   -1.000
 4576.00    1.13254   1.18072   -1.000
 4577.00    1.13547   1.17655   -1.000
 4578.00    1.13566   1.16747   58.031
 4579.00    1.13210   1.15540   58.696
 4580.00    1.12721   1.14281   60.098
 4581.00    1.11906   1.13268   61.653
 4582.00    1.11716   1.12676   62.188
 4583.00    1.11578   1.12577   61.617
 4584.00    1.11447   1.12890   60.932
 4585.00    1.12556   1.13508   60.809
 4586.00    1.13936   1.14303   61.110
 4587.00    1.14767   1.15128   60.888
 4588.00    1.14785   1.15823   59.626
 4589.00    1.14202   1.16223   58.186
 4590.00    1.13764   1.16272   57.527
 4591.00    1.12986   1.16072   57.933
 4592.00    1.12292   1.15835   58.927
 4593.00    1.12211   1.15782   60.003
 4594.00    1.12615   1.15976   60.564
 4595.00    1.13401   1.16360   60.306
 4596.00    1.14055   1.16779   59.795
 4597.00    1.14268   1.17083   59.479
 4598.00    1.14609   1.17156   59.347
 4599.00    1.14240   1.17006   59.218
 4600.00    1.13128   1.16712   59.405
 4601.00    1.12759   1.16436   -1.000
 4602.00    1.12689   1.16315   60.313
 4603.00    1.12944   1.16410   60.073
 4604.00    1.13527   1.16729   59.391
 4605.00    1.13794   1.17240   59.097
 4606.00    1.14151   1.17901   59.123
 4607.00    1.15146   1.18645   58.750
 4608.00    1.16213   1.19337   57.836
 4609.00    1.16208   1.19839   56.628
 4610.00    1.16194   1.19991   55.679
 4611.00    1.15985   1.19868   55.478
 4612.00    1.15150   1.19576   -1.000
 4613.00    1.14976   1.19267   -1.000
 4614.00    1.14966   1.19009   -1.000
 4615.00    1.15231   1.18756   57.265
 4616.00    1.15539   1.18484   56.850
 4617.00    1.15525   1.18216   56.472
 4618.00    1.14918   1.18087   56.547
 4619.00    1.14164   1.18226   -1.000
 4620.00    1.15183   1.18667   57.159
 4621.00    1.16315   1.19295   56.850
 4622.00    1.16900   1.19867   56.115
 4623.00    1.17380   1.20211   55.632
 4624.00    1.16840   1.20292   55.720
 4625.00    1.15530   1.20126   -1.000
 4626.00    1.14349   1.19846   -1.000
 4627.00    1.14760   1.19544   -1.000
 4628.00    1.15573   1.19317   56.546
 4629.00    1.15211   1.19245   56.702
 4630.00    1.14596   1.19326   -1.000
 4631.00    1.15225   1.19466   -1.000
 4632.00    1.15926   1.19475   56.403
 4633.00    1.15735   1.19279   56.170
 4634.00    1.15868   1.18930   56.725
 4635.00    1.15447   1.18570   57.478
 4636.00    1.14767   1.18308   57.776
 4637.00    1.14747   1.18252   57.949
 4638.00    1.15310   1.18424   58.582
 4639.00    1.15677   1.18832   59.114
 4640.00    1.16132   1.19394   59.182
 4641.00    1.17518   1.19948   58.645
 4642.00    1.18441   1.20241   57.405
 4643.00    1.18469   1.20061   56.280
 4644.00    1.17490   1.19395   56.003
 4645.00    1.15923   1.18394   56.650
 4646.00    1.14583   1.17376   57.991
 4647.00    1.14303   1.16760   59.635
 4648.00    1.14469   1.16742   60.625
 4649.00    1.15635   1.17251   60.199
 4650.00    1.16440   1.17990   58.924
 4651.00    1.15660   1.18578   57.807
 4652.00    1.14768   1.18819   57.361
 4653.00    1.14963   1.18695   57.274
 4654.00    1.14846   1.18422   57.530
 4655.00    1.14103   1.18316   -1.000
 4656.00    1.13764   1.18665   -1.000
 4657.00    1.14491   1.19530   -1.000
 4658.00    1.15697   1.20732   -1.000
 4659.00    1.17272   1.21807   -1.000
 4660.00    1.18636   1.22381   54.649
 4661.00    1.18306   1.22267   54.001
 4662.00    1.17213   1.21517   54.325
 4663.00    1.16768   1.20310   55.333
 4664.00    1.16654   1.18830   56.594
 4665.00    1.16482   1.17209   57.239
 4666.00    1.15661   1.15685   57.713
 4667.00    1.13534   1.14595   59.400
 4668.00    1.12237   1.14276   61.983
 4669.00    1.13125   1.14784   63.386
 4670.00    1.14529   1.15937   62.410
 4671.00    1.15602   1.17312   60.094
 4672.00    1.15813   1.18566   57.975
 4673.00    1.15883   1.19525   57.008
 4674.00    1.16749   1.20168   56.888
 4675.00    1.17501   1.20510   56.896
 4676.00    1.18234   1.20447   56.513
 4677.00    1.18648   1.19962   55.698
 4678.00    1.16747   1.19146   55.373
 4679.00    1.14512   1.18247   56.118
 4680.00    1.14420   1.17554   57.323
 4681.00    1.14937   1.17219   58.367
 4682.00    1.15296   1.17283   59.141
 4683.00    1.15991   1.17620   59.090
 4684.00    1.17130   1.18058   57.953
 4685.00    1.17263   1.18460   56.790
 4686.00    1.17511   1.18762   56.503
 4687.00    1.17918   1.18962   56.649
 4688.00    1.17786   1.19067   56.803
 4689.00    1.17545   1.19124   56.992
 4690.00    1.17180   1.19143   56.984
 4691.00    1.17257   1.19192   57.176
 4692.00    1.17385   1.19343   57.469
 4693.00    1.18221   1.19572   57.207
 4694.00    1.19245   1.19789   56.419
 4695.00    1.19546   1.19864   55.379
 4696.00    1.19388   1.19657   54.372
 4697.00    1.18938   1.19089   54.136
 4698.00    1.17468   1.18270   55.022
 4699.00    1.16058   1.17316   56.698
 4700.00    1.16107   1.16395   57.937
 4701.00    1.16704   1.15630   58.050
 4702.00    1.16035   1.15148   57.953
 4703.00    1.14768   1.15031   58.691
 4704.00    1.14852   1.15205   59.420
 4705.00    1.15454   1.15446   59.041
 4706.00    1.15927   1.15568   57.985
 4707.00    1.15301   1.15557   57.889
 4708.00    1.14321   1.15597   58.920
 4709.00    1.14292   1.15872   59.841
 4710.00    1.15447   1.16390   59.990
 4711.00    1.16805   1.17047   58.975
 4712.00    1.17576   1.17595   57.242
 4713.00    1.17735   1.17946   56.133
 4714.00    1.17184   1.18231   56.104
 4715.00    1.16832   1.18614   56.917
 4716.00    1.17060   1.19217   57.531
 4717.00    1.17996   1.19924   56.971
 4718.00    1.18453   1.20585   55.816
 4719.00    1.18494   1.21047   55.073
 4720.00    1.18999   1.21292   54.824
 4721.00    1.18900   1.21400   54.637
 4722.00    1.18662   1.21444   54.742
 4723.00    1.19121   1.21438   55.200
 4724.00    1.19406   1.21275   55.267
 4725.00    1.18365   1.20839   54.792
 4726.00    1.16922   1.20054   54.491
 4727.00    1.16567   1.19042   55.149
 4728.00    1.16437   1.18060   56.873
 4729.00    1.16603   1.17355   58.679
 4730.00    1.17025   1.17032   59.275
 4731.00    1.16937   1.17103   58.828
 4732.00    1.17285   1.17436   58.276
 4733.00    1.17405   1.17823   57.714
 4734.00    1.17491   1.18121   57.095
 4735.00    1.17429   1.18292   56.684
 4736.00    1.17148   1.18378   56.371
 4737.00    1.17813   1.18491   56.463
 4738.00    1.17453   1.18717   56.869
 4739.00    1.17364   1.19031   56.559
 4740.00    1.17916   1.19359   56.131
 4741.00    1.18327   1.19691   56.319
 4742.00    1.18768   1.20015   56.546
 4743.00    1.18505   1.20324   56.376
 4744.00    1.18281   1.20631   55.831
 4745.00    1.17922   1.20935   55.533
 4746.00    1.17638   1.21273   55.645
 4747.00    1.18799   1.21686   55.485
 4748.00    1.19393   1.22110   54.988
 4749.00    1.19104   1.22488   54.620
 4750.00    1.18442   1.22687   54.608
 4751.00    1.18368   1.22580   54.678
 4752.00    1.18818   1.22167   54.870
 4753.00    1.18429   1.21562   55.382
 4754.00    1.17882   1.20990   55.948
 4755.00    1.17788   1.20644   56.374
 4756.00    1.17427   1.20616   56.545
 4757.00    1.17266   1.20836   56.567
 4758.00    1.17941   1.21127   56.887
 4759.00    1.18344   1.21237   57.161
 4760.00    1.17950   1.20946   56.975
 4761.00    1.17149   1.20208   56.643
 4762.00    1.15979   1.19148   56.980
 4763.00    1.14715   1.18142   58.140
 4764.00    1.14614   1.17474   59.315
 4765.00    1.15514   1.17332   59.759
 4766.00    1.16974   1.17746   59.732
 4767.00    1.17462   1.18590   59.472
 4768.00    1.17767   1.19611   58.867
 4769.00    1.18295   1.20537   57.808
 4770.00    1.18293   1.21181   56.697
 4771.00    1.18176   1.21573   56.308
 4772.00    1.17788   1.21849   56.599
 4773.00    1.17867   1.22202   57.103
 4774.00    1.18716   1.22651   57.105
 4775.00    1.19328   1.23070   56.157
 4776.00    1.19392   1.23324   55.286
 4777.00    1.19395   1.23305   55.119
 4778.00    1.19588   1.23060   55.227
 4779.00    1.19046   1.22697   55.479
 4780.00    1.18269   1.22335   55.961
 4781.00    1.18657   1.21980   56.474
 4782.00    1.19078   1.21613   56.714
 4783.00    1.18277   1.21238   56.907
 4784.00    1.17466   1.20846   57.268
 4785.00    1.17258   1.20491   57.531
 4786.00    1.17078   1.20244   57.581
 4787.00    1.17058   1.20191   57.946
 4788.00    1.16913   1.20361   58.435
 4789.00    1.16934   1.20768   58.595
 4790.00    1.17732   1.21413   58.424
 4791.00    1.18524   1.22252   58.098
 4792.00    1.20089   1.23213   57.632
 4793.00    1.20240   1.24152   56.874
 4794.00    1.19739   1.24914   -1.000
 4795.00    1.20174   1.25306   -1.000
 4796.00    1.20544   1.25248   54.033
 4797.00    1.19843   1.24847   -1.000
 4798.00    1.18576   1.24298   -1.000
 4799.00    1.18336   1.23881   -1.000
 4800.00    1.19063   1.23768   -1.000
 4801.00    1.19227   1.23923   -1.000
 4802.00    1.19568   1.24136   -1.000
 4803.00    1.19547   1.24224   55.284
 4804.00    1.19042   1.24091   -1.000
 4805.00    1.18371   1.23826   -1.000
 4806.00    1.17779   1.23587   -1.000
 4807.00    1.18208   1.23465   -1.000
 4808.00    1.18992   1.23518   -1.000
 4809.00    1.19582   1.23704   56.832
 4810.00    1.19296   1.23933   -1.000
 4811.00    1.18613   1.24180   -1.000
 4812.00    1.19033   1.24482   -1.000
 4813.00    1.19968   1.24845   -1.000
 4814.00    1.20388   1.25275   -1.000
 4815.00    1.20311   1.25741   -1.000
 4816.00    1.20301   1.26153   -1.000
 4817.00    1.20412   1.26430   -1.000
 4818.00    1.20946   1.26514   -1.000
 4819.00    1.21502   1.26362   54.119
 4820.00    1.20470   1.25886   -1.000
 4821.00    1.19503   1.25057   -1.000
 4822.00    1.19531   1.24001   54.179
 4823.00    1.18745   1.22979   55.062
 4824.00    1.17990   1.22361   56.392
 4825.00    1.18718   1.22275   56.967
 4826.00    1.20015   1.22556   56.445
 4827.00    1.20205   1.22937   55.468
 4828.00    1.19569   1.23134   55.059
 4829.00    1.19437   1.23078   55.498
 4830.00    1.19304   1.22791   56.044
 4831.00    1.18666   1.22406   56.233
 4832.00    1.18437   1.22123   56.423
 4833.00    1.18882   1.22010   56.793
 4834.00    1.19470   1.22070   56.461
 4835.00    1.19975   1.22200   55.584
 4836.00    1.19597   1.22230   55.069
 4837.00    1.19101   1.22045   55.003
 4838.00    1.18535   1.21604   55.173
 4839.00    1.17493   1.21009   55.640
 4840.00    1.17055   1.20426   56.516
 4841.00    1.17139   1.20022   57.143
 4842.00    1.17535   1.19854   57.080
 4843.00    1.17155   1.19867   56.887
 4844.00    1.17123   1.19997   56.540
 4845.00    1.17973   1.20102   56.055
 4846.00    1.18421   1.19987   55.359
 4847.00    1.17123   1.19621   54.713
 4848.00    1.15564   1.19119   55.003
 4849.00    1.15335   1.18564   56.055
 4850.00    1.15767   1.17971   56.544
 4851.00    1.15441   1.17186   56.192
 4852.00    1.14759   1.15996   55.639
 4853.00    1.14224   1.14228   55.710
 4854.00    1.13255   1.11882   56.105
 4855.00    1.10606   1.09133   57.059
 4856.00    1.08621   1.06015   58.777
 4857.00    1.07313   1.02425   59.728
 4858.00    1.04234   0.98133   -1.000
 4859.00    0.97891   0.93374   59.595
 4860.00    0.89300   0.89067   62.630
 4861.00    0.81840   0.86410   -1.000
 4862.00    0.80899   0.86375   -1.000
 4863.00    0.88315   0.88891   75.412
 4864.00    0.97755   0.93179   -1.000
 4865.00    1.03510   0.98095   -1.000
 4866.00    1.07256   1.02608   -1.000
 4867.00    1.10264   1.06142   59.379
 4868.00    1.12450   1.08478   58.428
 4869.00    1.13166   1.09715   58.026
 4870.00    1.11724   1.10160   58.078
 4871.00    1.10077   1.10330   59.044
 4872.00    1.10006   1.10808   60.669
 4873.00    1.11498   1.11783   61.365
 4874.00    1.13388   1.13141   60.295
 4875.00    1.14058   1.14572   58.800
 4876.00    1.14456   1.15858   58.021
 4877.00    1.15120   1.17020   57.639
 4878.00    1.14890   1.18103   57.375
 4879.00    1.15331   1.19095   56.935
 4880.00    1.16808   1.19868   56.171
 4881.00    1.17191   1.20240   56.001
 4882.00    1.16476   1.20237   56.696
 4883.00    1.15935   1.19941   57.420
 4884.00    1.15973   1.19470   57.537
 4885.00    1.16266   1.18973   57.520
 4886.00    1.16407   1.18494   58.067
 4887.00    1.16441   1.18029   58.761
 4888.00    1.16719   1.17534   58.817
 4889.00    1.16373   1.17052   58.573
 4890.00    1.14629   1.16870   58.859
 4891.00    1.13268   1.17335   59.926
 4892.00    1.14633   1.18694   60.613
 4893.00    1.17379   1.20816   59.370
 4894.00    1.19905   1.23134   56.783
 4895.00    1.20967   1.25154   54.499
 4896.00    1.20615   1.26480   -1.000
 4897.00    1.20985   1.26986   -1.000
 4898.00    1.20802   1.26835   -1.000
 4899.00    1.19131   1.26304   -1.000
 4900.00    1.18705   1.25652   -1.000
 4901.00    1.18825   1.25068   -1.000
 4902.00    1.18615   1.24650   -1.000
 4903.00    1.18586   1.24485   -1.000
 4904.00    1.19318   1.24663   -1.000
 4905.00    1.20541   1.25046   55.725
 4906.00    1.21261   1.25318   54.859
 4907.00    1.21126   1.25238   53.946
 4908.00    1.21236   1.24647   53.888
 4909.00    1.20188   1.23719   54.709
 4910.00    1.19332   1.22849   56.155
 4911.00    1.18855   1.22455   57.456
 4912.00    1.19245   1.22678   57.604
 4913.00    1.20057   1.23324   56.699
 4914.00    1.20703   1.24005   55.758
 4915.00    1.21332   1.24207   55.014
 4916.00    1.21265   1.23484   54.383
 4917.00    1.20016   1.21763   54.180
 4918.00    1.17458   1.19374   55.052
 4919.00    1.14582   1.16961   57.423
 4920.00    1.13054   1.15232   60.467
 4921.00    1.13376   1.14573   62.547
 4922.00    1.14453   1.14955   62.179
 4923.00    1.16097   1.16048   60.003
 4924.00    1.17234   1.17597   58.291
 4925.00    1.17680   1.19399   57.753
 4926.00    1.19075   1.21268   57.466
 4927.00    1.20832   1.23078   56.428
 4928.00    1.22305   1.24571   55.103
 4929.00    1.22388   1.25522   54.301
 4930.00    1.22304   1.25771   53.852
 4931.00    1.22047   1.25273   53.502
 4932.00    1.20366   1.24212   53.487
 4933.00    1.18750   1.22983   54.371
 4934.00    1.17053   1.21925   -1.000
 4935.00    1.17467   1.21197   57.433
 4936.00    1.19116   1.20667   57.099
 4937.00    1.19372   1.20219   56.400
 4938.00    1.17786   1.20030   56.992
 4939.00    1.16663   1.20299   58.685
 4940.00    1.17780   1.21188   59.533
 4941.00    1.19967   1.22575   58.408
 4942.00    1.22035   1.24036   56.421
 4943.00    1.22746   1.25214   54.892
 4944.00    1.22500   1.25914   54.079
 4945.00    1.22232   1.26220   53.787
 4946.00    1.21711   1.26380   53.963
 4947.00    1.21536   1.26622   54.261
 4948.00    1.21908   1.26974   54.153
 4949.00    1.22753   1.27306   53.595
 4950.00    1.23116   1.27468   53.124
 4951.00    1.22989   1.27368   52.952
 4952.00    1.22414   1.26951   52.904
 4953.00    1.22449   1.26166   53.224
 4954.00    1.22402   1.24952   53.681
 4955.00    1.21010   1.23263   54.327
 4956.00    1.19212   1.21389   55.278
 4957.00    1.16413   1.20011   57.255
 4958.00    1.14955   1.19675   -1.000
 4959.00    1.16862   1.20529   61.146
 4960.00    1.20304   1.22128   58.998
 4961.00    1.22232   1.23799   56.050
 4962.00    1.22510   1.24997   54.676
 4963.00    1.23044   1.25427   54.523
 4964.00    1.23486   1.25172   54.857
 4965.00    1.22375   1.24522   55.374
 4966.00    1.21172   1.23789   56.218
 4967.00    1.21104   1.23207   57.265
 4968.00    1.21020   1.22921   57.744
 4969.00    1.20941   1.23007   57.677
 4970.00    1.21174   1.23431   57.414
 4971.00    1.21453   1.24086   56.917
 4972.00    1.21823   1.24828   56.302
 4973.00    1.22651   1.25503   55.674
 4974.00    1.22978   1.25938   55.055
 4975.00    1.22576   1.26044   54.642
 4976.00    1.23042   1.25785   54.634
 4977.00    1.22519   1.25147   55.096
 4978.00    1.21224   1.24153   55.740
 4979.00    1.20764   1.22800   56.555
 4980.00    1.19958   1.21092   57.405
 4981.00    1.18399   1.19171   58.144
 4982.00    1.16462   1.17412   59.341
 4983.00    1.15126   1.16306   61.319
 4984.00    1.15422   1.16216   62.627
 4985.00    1.16857   1.17114   62.175
 4986.00    1.18697   1.18622   60.778
 4987.00    1.20198   1.20209   58.980
 4988.00    1.21201   1.21353   57.243
 4989.00    1.20877   1.21874   56.334
 4990.00    1.19514   1.21917   56.679
 4991.00    1.19345   1.21783   57.449
 4992.00    1.19588   1.21740   57.842
 4993.00    1.19505   1.21904   57.670
 4994.00    1.19664   1.22230   57.235
 4995.00    1.20428   1.22558   57.073
 4996.00    1.21454   1.22683   56.959
 4997.00    1.21359   1.22433   56.662
 4998.00    1.20358   1.21740   56.592
 4999.00    1.19251   1.20734   57.089
 5000.00    1.18771   1.19673   57.996
 5001.00    1.18978   1.18822   59.031
 5002.00    1.19763   1.18275   59.526
 5003.00    1.20648   1.17905   59.347
 5004.00    1.20013   1.17540   58.828
 5005.00    1.18629   1.17173   58.855
 5006.00    1.16857   1.17043   59.947
 5007.00    1.16143   1.17335   61.097
 5008.00    1.18070   1.17952   60.787
 5009.00    1.20503   1.18557   59.132
 5010.00    1.20812   1.18686   57.714
 5011.00    1.19925   1.18136   57.577
 5012.00    1.18257   1.17054   58.684
 5013.00    1.16227   1.15882   60.619
 5014.00    1.15473   1.15007   62.626
 5015.00    1.15814   1.14587   63.479
 5016.00    1.16726   1.14569   62.764
 5017.00    1.17464   1.14808   61.375
 5018.00    1.17277   1.15277   60.433
 5019.00    1.17589   1.15937   60.289
 5020.00    1.19119   1.16691   60.074
 5021.00    1.19890   1.17466   59.438
 5022.00    1.19482   1.18203   59.203
 5023.00    1.19263   1.18921   59.440
 5024.00    1.19711   1.19590   59.411
 5025.00    1.21119   1.20081   58.965
 5026.00    1.21424   1.20401   58.409
 5027.00    1.20998   1.20648   58.242
 5028.00    1.21003   1.20926   58.536
 5029.00    1.20767   1.21371   58.547
 5030.00    1.21336   1.22007   57.803
 5031.00    1.22413   1.22696   56.789
 5032.00    1.22975   1.23190   55.947
 5033.00    1.23439   1.23221   55.121
 5034.00    1.22936   1.22649   54.729
 5035.00    1.21378   1.21588   55.370
 5036.00    1.19736   1.20228   57.328
 5037.00    1.18884   1.18748   59.194
 5038.00    1.18789   1.17184   59.893
 5039.00    1.17702   1.15655   60.258
 5040.00    1.15560   1.14580   61.533
 5041.00    1.13701   1.14409   64.030
 5042.00    1.15509   1.15403   65.808
 5043.00    1.18222   1.17397   64.701
 5044.00    1.20581   1.19786   61.202
 5045.00    1.23526   1.21887   57.823
 5046.00    1.01067   1.23128   -1.000
 5047.00    0.31546   1.23293   -1.000
 5048.00    0.02083   1.22578   -1.000
 5049.00    0.17604   1.21462   -1.000
 5050.00    0.75397   1.20473   -1.000
 5051.00    1.16291   1.20038   -1.000
 5052.00    1.20377   1.20345   58.288
 5053.00    1.21281   1.21251   58.635
 5054.00    1.22573   1.22391   57.236
 5055.00    1.24115   1.23515   55.917
 5056.00    1.25138   1.24474   55.064
 5057.00    1.24509   1.25217   54.663
 5058.00    1.23959   1.25776   54.584
 5059.00    1.24009   1.26142   54.692
 5060.00    1.24144   1.26259   54.754
 5061.00    1.23999   1.26039   54.616
 5062.00    1.23954   1.25380   54.362
 5063.00    1.23332   1.24316   54.626
 5064.00    1.21379   1.23119   55.652
 5065.00    1.20494   1.22070   57.416
 5066.00    1.21145   1.21393   59.041
 5067.00    1.21581   1.21105   59.236
 5068.00    1.22017   1.21092   58.422
 5069.00    1.22008   1.21205   57.754
 5070.00    1.22993   1.21277   57.560
 5071.00    1.22840   1.21231   57.249
 5072.00    1.22842   1.21138   57.133
 5073.00    1.22910   1.21107   57.617
 5074.00    1.22294   1.21137   57.702
 5075.00    1.22451   1.21118   57.040
 5076.00    1.23010   1.20863   56.718
 5077.00    1.22979   1.20216   56.663
 5078.00    1.22146   1.19195   56.805
 5079.00    1.20236   1.18104   57.817
 5080.00    1.17896   1.17334   60.109
 5081.00    1.18600   1.17108   62.329
 5082.00    1.20647   1.17485   62.339
 5083.00    1.20469   1.18340   60.963
 5084.00    1.21164   1.19494   59.813
 5085.00    1.21801   1.20720   58.919
 5086.00    1.23339   1.21826   57.828
 5087.00    1.24283   1.22741   57.021
 5088.00    1.24319   1.23463   56.733
 5089.00    1.24151   1.24029   56.599
 5090.00    1.23941   1.24504   56.268
 5091.00    1.24532   1.24924   55.887
 5092.00    1.24547   1.25237   55.588
 5093.00    1.25758   1.25285   55.190
 5094.00    1.28186   1.24885   54.585
 5095.00    1.26077   1.23964   54.403
 5096.00    1.23326   1.22660   55.127
 5097.00    1.22136   1.21294   56.314
 5098.00    1.20551   1.20261   57.577
 5099.00    1.20831   1.19847   58.922
 5100.00    1.22261   1.20113   59.830
 5101.00    1.23134   1.20815   59.469
 5102.00    1.24342   1.21552   57.875
 5103.00    1.24715   1.22008   56.549
 5104.00    1.24138   1.22000   56.342
 5105.00    1.23731   1.21543   56.825
 5106.00    1.22272   1.20832   57.580
 5107.00    1.20531   1.20150   58.299
 5108.00    1.20248   1.19747   59.018
 5109.00    1.20488   1.19775   59.507
 5110.00    1.20964   1.20269   59.300
 5111.00    1.21667   1.21139   58.897
 5112.00    1.23133   1.22185   58.342
 5113.00    1.24135   1.23244   57.527
 5114.00    1.25683   1.24194   56.827
 5115.00    1.25740   1.24970   56.189
 5116.00    1.25339   1.25528   55.751
 5117.00    1.25518   1.25809   55.370
 5118.00    1.26003   1.25750   54.812
 5119.00    1.25806   1.25297   54.545
 5120.00    1.25528   1.24470   54.893
 5121.00    1.25114   1.23360   55.664
 5122.00    1.23879   1.22107   56.530
 5123.00    1.22085   1.20876   57.623
 5124.00    1.21204   1.19862   59.204
 5125.00    1.21755   1.19162   60.591
 5126.00    1.21863   1.18779   60.674
 5127.00    1.21651   1.18655   60.176
 5128.00    1.21947   1.18748   59.872
 5129.00    1.21730   1.19035   59.644
 5130.00    1.21783   1.19497   59.704
 5131.00    1.22484   1.20086   59.426
 5132.00    1.22955   1.20717   58.553
 5133.00    1.22911   1.21284   57.702
 5134.00    1.23299   1.21659   57.227
 5135.00    1.23937   1.21719   56.690
 5136.00    1.23710   1.21404   56.298
 5137.00    1.22765   1.20786   56.505
 5138.00    1.21708   1.20033   57.673
 5139.00    1.20636   1.19365   58.950
 5140.00    1.20410   1.18916   59.619
 5141.00    1.20627   1.18718   59.486
 5142.00    1.20667   1.18738   59.216
 5143.00    1.20825   1.18904   59.848
 5144.00    1.21788   1.19109   60.453
 5145.00    1.22356   1.19245   59.853
 5146.00    1.22383   1.19282   59.056
 5147.00    1.23279   1.19294   59.103
 5148.00    1.23714   1.19312   59.565
 5149.00    1.23628   1.19258   59.436
 5150.00    1.23531   1.19103   58.790
 5151.00    1.22123   1.18889   58.782
 5152.00    1.20653   1.18719   59.652
 5153.00    1.21159   1.18788   60.554
 5154.00    1.22176   1.19276   60.720
 5155.00    1.23331   1.20220   60.134
 5156.00    1.24824   1.21452   58.840
 5157.00    1.25925   1.22717   57.331
 5158.00    1.27437   1.23742   55.986
 5159.00    1.26713   1.24331   55.137
 5160.00    1.26505   1.24367   54.869
 5161.00    1.26192   1.23784   54.930
 5162.00    1.25455   1.22512   55.159
 5163.00    1.24591   1.20438   55.569
 5164.00    1.23548   1.17467   -1.000
 5165.00    1.21637   1.13783   -1.000
 5166.00    1.17453   1.09981   -1.000
 5167.00    1.12473   1.06836   -1.000
 5168.00    1.10027   1.04919   -1.000
 5169.00    1.10886   1.04101   -1.000
 5170.00    1.14139   1.03913   -1.000
 5171.00    1.16144   1.04113   -1.000
 5172.00    1.13429   1.04877   -1.000
 5173.00    1.11791   1.06633   -1.000
 5174.00    1.14639   1.09432   -1.000
 5175.00    1.20485   1.12843   -1.000
 5176.00    1.24667   1.16157   -1.000
 5177.00    1.26379   1.18620   -1.000
 5178.00    1.26966   1.19704   -1.000
 5179.00    1.26765   1.19185   -1.000
 5180.00    1.25900   1.17141   -1.000
 5181.00    1.24281   1.14024   -1.000
 5182.00    1.20552   1.10717   -1.000
 5183.00    1.14895   1.08372   -1.000
 5184.00    1.12413   1.07809   -1.000
 5185.00    1.15274   1.09126   -1.000
 5186.00    1.20060   1.11659   -1.000
 5187.00    1.23411   1.14435   -1.000
 5188.00    1.23658   1.16708   -1.000
 5189.00    1.23388   1.18060   -1.000
 5190.00    1.23773   1.18457   -1.000
 5191.00    1.22692   1.18213   58.259
 5192.00    1.20885   1.17791   59.262
 5193.00    1.19854   1.17519   61.139
 5194.00    1.20525   1.17581   62.212
 5195.00    1.21793   1.18014   61.477
 5196.00    1.22772   1.18805   60.437
 5197.00    1.23771   1.19858   59.554
 5198.00    1.24900   1.20984   58.592
 5199.00    1.26493   1.21929   57.449
 5200.00    1.26312   1.22428   56.622
 5201.00    1.25324   1.22250   56.293
 5202.00    1.24779   1.21310   56.396
 5203.00    1.23617   1.19738   57.030
 5204.00    1.22130   1.17858   58.166
 5205.00    1.20606   1.16076   59.647
 5206.00    1.19155   1.14754   61.540
 5207.00    1.19281   1.14111   -1.000
 5208.00    1.20122   1.14266   -1.000
 5209.00    1.21132   1.15232   -1.000
 5210.00    1.22487   1.16887   -1.000
 5211.00    1.23569   1.18914   -1.000
 5212.00    1.24948   1.20847   60.013
 5213.00    1.26476   1.22245   57.596
 5214.00    1.27142   1.22896   55.638
 5215.00    1.25901   1.22984   55.011
 5216.00    1.24372   1.22947   55.891
 5217.00    1.23701   1.23209   57.075
 5218.00    1.25258   1.23924   57.418
 5219.00    1.27155   1.24926   56.676
 5220.00    1.28125   1.25838   55.516
 5221.00    1.28574   1.26218   54.806
 5222.00    1.28374   1.25749   54.458
 5223.00    1.28240   1.24322   54.495
 5224.00    1.27127   1.22134   55.501
 5225.00    1.24096   1.19747   57.405
 5226.00    1.20459   1.17917   59.893
 5227.00    1.17814   1.17216   62.417
 5228.00    1.19059   1.17722   63.255
 5229.00    1.22864   1.18970   61.158
 5230.00    1.25231   1.20315   -1.000
 5231.00    1.26471   1.21219   -1.000
 5232.00    1.26095   1.21570   55.250
 5233.00    1.24297   1.21657   55.524
 5234.00    1.23885   1.21948   56.676
 5235.00    1.24721   1.22707   57.374
 5236.00    1.26286   1.23883   56.870
 5237.00    1.27967   1.25211   55.493
 5238.00    1.28914   1.26380   54.355
 5239.00    1.29208   1.27208   53.927
 5240.00    1.28352   1.27667   53.963
 5241.00    1.28693   1.27862   54.075
 5242.00    1.28756   1.27921   53.904
 5243.00    1.28393   1.27892   53.680
 5244.00    1.28464   1.27672   53.733
 5245.00    1.28335   1.27150   53.618
 5246.00    1.27432   1.26334   53.837
 5247.00    1.26139   1.25368   55.138
 5248.00    1.26009   1.24454   56.787
 5249.00    1.25111   1.23757   57.775
 5250.00    1.24481   1.23391   57.851
 5251.00    1.24789   1.23358   58.029
 5252.00    1.25530   1.23565   58.246
 5253.00    1.26130   1.23914   57.795
 5254.00    1.26481   1.24417   57.026
 5255.00    1.26124   1.25114   56.624
 5256.00    1.26927   1.25938   56.554
 5257.00    1.28346   1.26664   55.881
 5258.00    1.28864   1.26953   54.474
 5259.00    1.29882   1.26489   53.250
 5260.00    1.28823   1.25096   53.081
 5261.00    1.27116   1.22884   53.871
 5262.00    1.25376   1.20208   55.606
 5263.00    1.23418   1.17565   -1.000
 5264.00    1.21124   1.15420   -1.000
 5265.00    1.20377   1.14018   -1.000
 5266.00    1.20429   1.13264   -1.000
 5267.00    1.20616   1.12873   -1.000
 5268.00    1.20713   1.12645   -1.000
 5269.00    1.19634   1.12686   -1.000
 5270.00    1.17927   1.13262   -1.000
 5271.00    1.18103   1.14424   65.059
 5272.00    1.21086   1.15999   -1.000
 5273.00    1.23701   1.17713   -1.000
 5274.00    1.24745   1.19394   -1.000
 5275.00    1.25570   1.21008   57.080
 5276.00    1.25963   1.22571   57.097
 5277.00    1.26623   1.24019   56.705
 5278.00    1.28131   1.25089   55.342
 5279.00    1.28676   1.25535   53.626
 5280.00    1.28623   1.25309   53.006
 5281.00    1.28608   1.24633   53.635
 5282.00    1.26862   1.23940   55.007
 5283.00    1.25079   1.23708   56.340
 5284.00    1.24871   1.24243   57.158
 5285.00    1.25772   1.25473   57.034
 5286.00    1.27656   1.27053   55.652
 5287.00    1.30118   1.28573   53.906
 5288.00    1.31301   1.29779   52.530
 5289.00    1.31228   1.30555   52.371
 5290.00    1.30571   1.30910   52.612
 5291.00    1.30626   1.30916   52.511
 5292.00    1.30840   1.30624   52.236
 5293.00    1.29890   1.29997   52.240
 5294.00    1.29838   1.28967   52.617
 5295.00    1.29190   1.27555   53.175
 5296.00    1.28122   1.25989   54.072
 5297.00    1.26729   1.24647   55.732
 5298.00    1.25211   1.23854   57.759
 5299.00    1.24900   1.23741   58.797
 5300.00    1.26837   1.24216   58.042
 5301.00    1.28459   1.25103   56.608
 5302.00    1.28277   1.26222   55.749
 5303.00    1.28499   1.27356   55.350
 5304.00    1.29433   1.28323   54.444
 5305.00    1.30360   1.29018   53.046
 5306.00    1.30343   1.29461   52.304
 5307.00    1.29737   1.29778   52.370
 5308.00    1.30070   1.30091   52.904
 5309.00    1.29800   1.30444   53.163
 5310.00    1.30397   1.30759   52.718
 5311.00    1.31256   1.30883   52.207
 5312.00    1.31237   1.30691   51.979
 5313.00    1.30857   1.30138   52.110
 5314.00    1.30247   1.29312   52.401
 5315.00    1.29765   1.28442   52.659
 5316.00    1.28156   1.27812   53.086
 5317.00    1.27316   1.27610   53.607
 5318.00    1.27938   1.27777   53.969
 5319.00    1.28746   1.28040   53.859
 5320.00    1.30133   1.28099   53.477
 5321.00    1.29995   1.27712   53.361
 5322.00    1.29250   1.26815   53.625
 5323.00    1.28230   1.25497   54.072
 5324.00    1.26784   1.23915   54.798
 5325.00    1.26189   1.22179   55.672
 5326.00    1.26064   1.20401   -1.000
 5327.00    1.24114   1.18940   56.340
 5328.00    1.21225   1.18249   58.465
 5329.00    1.20224   1.18624   61.941
 5330.00    1.23474   1.19956   62.733
 5331.00    1.27187   1.21808   -1.000
 5332.00    1.28802   1.23733   -1.000
 5333.00    1.28335   1.25358   55.058
 5334.00    1.28696   1.26470   54.555
 5335.00    1.29361   1.27011   54.006
 5336.00    1.29435   1.27037   53.463
 5337.00    1.28758   1.26632   53.390
 5338.00    1.28185   1.25901   53.768
 5339.00    1.27560   1.25079   54.170
 5340.00    1.26833   1.24492   54.957
 5341.00    1.26132   1.24388   56.303
 5342.00    1.26772   1.24742   56.923
 5343.00    1.28333   1.25295   56.113
 5344.00    1.29549   1.25763   54.654
 5345.00    1.30623   1.25958   53.933
 5346.00    1.29933   1.25896   54.069
 5347.00    1.28455   1.25726   54.440
 5348.00    1.28376   1.25676   54.770
 5349.00    1.28392   1.25925   55.085
 5350.00    1.28743   1.26522   55.515
 5351.00    1.30145   1.27367   55.394
 5352.00    1.30716   1.28309   54.377
 5353.00    1.30465   1.29254   53.223
 5354.00    1.30393   1.30138   52.710
 5355.00    1.31344   1.30906   52.514
 5356.00    1.32173   1.31490   52.023
 5357.00    1.32111   1.31832   51.404
 5358.00    1.31893   1.31880   51.135
 5359.00    1.32093   1.31573   51.214
 5360.00    1.32281   1.30896   51.318
 5361.00    1.31259   1.29929   51.605
 5362.00    1.29991   1.28818   52.298
 5363.00    1.29412   1.27745   53.168
 5364.00    1.29059   1.26843   53.848
 5365.00    1.29208   1.26153   54.186
 5366.00    1.29566   1.25581   54.500
 5367.00    1.29112   1.24953   54.719
 5368.00    1.29178   1.24136   -1.000
 5369.00    1.28000   1.23182   54.688
 5370.00    1.25844   1.22399   55.459
 5371.00    1.24260   1.22185   56.965
 5372.00    1.25155   1.22815   58.374
 5373.00    1.27167   1.24197   57.920
 5374.00    1.30515   1.25968   -1.000
 5375.00    1.31920   1.27662   53.210
 5376.00    1.32707   1.28911   52.187
 5377.00    1.32718   1.29556   51.973
 5378.00    1.32067   1.29632   52.132
 5379.00    1.31420   1.29314   52.159
 5380.00    1.31288   1.28804   52.312
 5381.00    1.30714   1.28295   52.676
 5382.00    1.29020   1.27958   53.212
 5383.00    1.28437   1.27917   53.678
 5384.00    1.29609   1.28190   53.857
 5385.00    1.30236   1.28641   53.754
 5386.00    1.31229   1.29052   53.414
 5387.00    1.31549   1.29221   52.920
 5388.00    1.31812   1.29032   52.924
 5389.00    1.31971   1.28504   53.245
 5390.00    1.30803   1.27746   53.844
 5391.00    1.31143   1.26896   54.644
 5392.00    1.30119   1.26076   55.160
 5393.00    1.28907   1.25307   55.333
 5394.00    1.28750   1.24545   55.377
 5395.00    1.29233   1.23811   -1.000
 5396.00    1.27625   1.23216   56.108
 5397.00    1.25791   1.22979   56.958
 5398.00    1.26033   1.23197   57.906
 5399.00    1.27462   1.23747   57.477
 5400.00    1.29050   1.24347   -1.000
 5401.00    1.29873   1.24636   -1.000
 5402.00    1.29829   1.24342   -1.000
 5403.00    1.28574   1.23481   -1.000
 5404.00    1.26658   1.22374   55.102
 5405.00    1.25074   1.21437   56.901
 5406.00    1.24435   1.20981   58.551
 5407.00    1.25507   1.21003   59.035
 5408.00    1.27294   1.21364   -1.000
 5409.00    1.27729   1.21957   -1.000
 5410.00    1.28059   1.22715   -1.000
 5411.00    1.28405   1.23610   -1.000
 5412.00    1.28989   1.24552   -1.000
 5413.00    1.30053   1.25457   -1.000
 5414.00    1.30510   1.26314   53.957
 5415.00    1.30369   1.27094   53.568
 5416.00    1.30423   1.27772   53.640
 5417.00    1.30655   1.28304   53.572
 5418.00    1.30929   1.28636   53.149
 5419.00    1.30177   1.28755   52.934
 5420.00    1.29469   1.28652   53.258
 5421.00    1.29921   1.28342   53.767
 5422.00    1.30660   1.27923   53.959
 5423.00    1.29970   1.27526   53.701
 5424.00    1.29247   1.27313   53.686
 5425.00    1.28474   1.27296   54.463
 5426.00    1.29094   1.27246   54.712
 5427.00    1.30922   1.26974   53.976
 5428.00    1.30366   1.26401   53.260
 5429.00    1.28089   1.25687   53.777
 5430.00    1.26937   1.25046   55.417
 5431.00    1.27226   1.24552   56.870
 5432.00    1.28390   1.24244   56.604
 5433.00    1.29120   1.24145   -1.000
 5434.00    1.27919   1.24339   55.933
 5435.00    1.26396   1.24957   56.765
 5436.00    1.26788   1.26015   57.228
 5437.00    1.28627   1.27406   56.761
 5438.00    1.30456   1.28860   55.473
 5439.00    1.32035   1.30123   53.988
 5440.00    1.32258   1.30976   52.965
 5441.00    1.31764   1.31268   52.312
 5442.00    1.32298   1.30930   51.968
 5443.00    1.31866   1.29949   51.923
 5444.00    1.30700   1.28504   52.033
 5445.00    1.29190   1.26951   52.793
 5446.00    1.26634   1.25762   54.421
 5447.00    1.25515   1.25326   56.651
 5448.00    1.26372   1.25682   58.027
 5449.00    1.28475   1.26592   57.129
 5450.00    1.30729   1.27596   55.234
 5451.00    1.31575   1.28233   53.918
 5452.00    1.31485   1.28228   53.585
 5453.00    1.31476   1.27624   53.716
 5454.00    1.30580   1.26760   54.364
 5455.00    1.28462   1.26167   55.757
 5456.00    1.26957   1.26158   57.311
 5457.00    1.27826   1.26735   58.113
 5458.00    1.30980   1.27584   56.871
 5459.00    1.32529   1.28292   54.897
 5460.00    1.31733   1.28559   53.669
 5461.00    1.31634   1.28355   53.638
 5462.00    1.31413   1.27919   54.414
 5463.00    1.30899   1.27573   55.414
 5464.00    1.30148   1.27546   56.051
 5465.00    1.30283   1.27854   56.129
 5466.00    1.31371   1.28386   55.357
 5467.00    1.30980   1.28965   54.796
 5468.00    1.31202   1.29403   54.501
 5469.00    1.32182   1.29587   53.932
 5470.00    1.33374   1.29480   53.880
 5471.00    1.33145   1.29077   54.460
 5472.00    1.31726   1.28400   54.958
 5473.00    1.31029   1.27476   55.136
 5474.00    1.30670   1.26384   55.483
 5475.00    1.29984   1.25348   -1.000
 5476.00    1.27909   1.24632   57.008
 5477.00    1.27261   1.24445   58.204
 5478.00    1.28303   1.24777   58.811
 5479.00    1.30081   1.25404   -1.000
 5480.00    1.31443   1.26143   -1.000
 5481.00    1.30995   1.26852   55.439
 5482.00    1.30475   1.27517   56.037
 5483.00    1.30917   1.28146   56.599
 5484.00    1.31365   1.28673   56.253
 5485.00    1.31415   1.29027   55.166
 5486.00    1.31169   1.29160   54.147
 5487.00    1.30732   1.29132   53.914
 5488.00    1.30444   1.29062   54.569
 5489.00    1.30846   1.29046   55.286
 5490.00    1.31129   1.29137   55.507
 5491.00    1.31291   1.29294   55.420
 5492.00    1.32047   1.29451   54.993
 5493.00    1.32338   1.29530   54.630
 5494.00    1.32040   1.29467   54.504
 5495.00    1.31658   1.29263   54.635
 5496.00    1.31345   1.28972   54.639
 5497.00    1.29851   1.28668   54.702
 5498.00    1.29141   1.28393   55.139
 5499.00    1.30114   1.28096   55.399
 5500.00    1.30819   1.27756   54.978
 5501.00    1.30188   1.27440   54.518
 5502.00    1.30048   1.27153   55.134
 5503.00    1.30338   1.26902   55.917
 5504.00    1.30855   1.26660   55.836
 5505.00    1.31302   1.26427   -1.000
 5506.00    1.30398   1.26306   55.465
 5507.00    1.29320   1.26335   56.261
 5508.00    1.29812   1.26490   56.602
 5509.00    1.30665   1.26653   55.918
 5510.00    1.31079   1.26687   -1.000
 5511.00    1.31342   1.26549   -1.000
 5512.00    1.31154   1.26339   -1.000
 5513.00    1.30975   1.26250   -1.000
 5514.00    1.30633   1.26444   57.542
 5515.00    1.30216   1.26986   57.806
 5516.00    1.30771   1.27809   56.956
 5517.00    1.32161   1.28758   55.960
 5518.00    1.32192   1.29640   55.091
 5519.00    1.33380   1.30323   54.056
 5520.00    1.33257   1.30731   53.302
 5521.00    1.33177   1.30858   53.275
 5522.00    1.33174   1.30694   53.375
 5523.00    1.32945   1.30209   53.496
 5524.00    1.32382   1.29391   53.674
 5525.00    1.31436   1.28293   53.795
 5526.00    1.30724   1.27130   54.211
 5527.00    1.29399   1.26199   55.071
 5528.00    1.27778   1.25805   56.418
 5529.00    1.28304   1.26030   57.699
 5530.00    1.30020   1.26692   57.649
 5531.00    1.31145   1.27480   56.220
 5532.00    1.31639   1.28102   54.841
 5533.00    1.30965   1.28443   54.337
 5534.00    1.30359   1.28577   54.585
 5535.00    1.30204   1.28676   55.091
 5536.00    1.30536   1.28862   55.258
 5537.00    1.32155   1.29174   54.984
 5538.00    1.32657   1.29580   54.562
 5539.00    1.32391   1.29988   54.443
 5540.00    1.32674   1.30274   54.143
 5541.00    1.33073   1.30375   53.604
 5542.00    1.33120   1.30302   53.264
 5543.00    1.32732   1.30155   53.416
 5544.00    1.31945   1.30056   54.014
 5545.00    1.31226   1.30095   54.490
 5546.00    1.32009   1.30315   54.545
 5547.00    1.32054   1.30694   54.372
 5548.00    1.32692   1.31126   54.219
 5549.00    1.33069   1.31497   53.824
 5550.00    1.32890   1.31714   53.285
 5551.00    1.33344   1.31726   52.901
 5552.00    1.33498   1.31569   52.873
 5553.00    1.32934   1.31335   53.221
 5554.00    1.32063   1.31133   53.724
 5555.00    1.32280   1.31025   54.299
 5556.00    1.32227   1.31023   54.470
 5557.00    1.32505   1.31087   54.345
 5558.00    1.32328   1.31137   54.179
 5559.00    1.33199   1.31088   54.099
 5560.00    1.33752   1.30885   54.034
 5561.00    1.33948   1.30534   54.004
 5562.00    1.33410   1.30097   54.162
 5563.00    1.32405   1.29645   54.498
 5564.00    1.31815   1.29239   55.055
 5565.00    1.31561   1.28907   55.384
 5566.00    1.32154   1.28642   55.514
 5567.00    1.31917   1.28418   55.616
 5568.00    1.30471   1.28215   55.641
 5569.00    1.30219   1.28016   55.508
 5570.00    1.30599   1.27827   55.435
 5571.00    1.30286   1.27674   55.593
 5572.00    1.30338   1.27622   55.537
 5573.00    1.27832   1.27716   55.574
 5574.00    1.22275   1.27947   55.692
 5575.00    1.07448   1.28305   -1.000
 5576.00    0.89423   1.28753   -1.000
 5577.00    1.07921   1.29228   -1.000
 5578.00    1.51833   1.29663   -1.000
 5579.00    1.68720   1.29993   -1.000
 5580.00    1.55351   1.30178   -1.000
 5581.00    1.36926   1.30191   -1.000
 5582.00    1.32134   1.29992   56.054
 5583.00    1.32525   1.29513   55.298
 5584.00    1.32177   1.28656   54.773
 5585.00    1.31435   1.27429   54.766
 5586.00    1.30191   1.26020   55.254
 5587.00    1.28757   1.24719   56.606
 5588.00    1.27696   1.23850   58.029
 5589.00    1.26627   1.23590   59.188
 5590.00    1.27336   1.23902   59.382
 5591.00    1.29201   1.24565   -1.000
 5592.00    1.30574   1.25339   -1.000
 5593.00    1.31020   1.26052   -1.000
 5594.00    1.30502   1.26627   56.725
 5595.00    1.29730   1.27024   56.908
 5596.00    1.30691   1.27188   56.434
 5597.00    1.31575   1.27117   -1.000
 5598.00    1.31142   1.26855   -1.000
 5599.00    1.30328   1.26464   56.030
 5600.00    1.31680   1.26096   -1.000
 5601.00    1.30732   1.25973   -1.000
 5602.00    1.29411   1.26278   57.420
 5603.00    1.29220   1.27096   57.784
 5604.00    1.29898   1.28337   57.879
 5605.00    1.31216   1.29774   56.712
 5606.00    1.33218   1.31149   55.138
 5607.00    1.33904   1.32254   53.993
 5608.00    1.34239   1.32992   53.480
 5609.00    1.33276   1.33350   53.441
 5610.00    1.33891   1.33327   53.543
 5611.00    1.34081   1.32878   53.632
 5612.00    1.34457   1.31977   53.544
 5613.00    1.33950   1.30705   53.423
 5614.00    1.32442   1.29328   53.840
 5615.00    1.30445   1.28240   55.147
 5616.00    1.29205   1.27704   57.067
 5617.00    1.29835   1.27795   58.067
 5618.00    1.31838   1.28363   57.284
 5619.00    1.32656   1.29120   55.905
 5620.00    1.32306   1.29774   55.290
 5621.00    1.33368   1.30121   55.205
 5622.00    1.34061   1.30108   54.932
 5623.00    1.32844   1.29867   54.725
 5624.00    1.31510   1.29616   55.128
 5625.00    1.31016   1.29571   56.306
 5626.00    1.31901   1.29844   57.162
 5627.00    1.33334   1.30399   56.681
 5628.00    1.33761   1.31101   55.674
 5629.00    1.33345   1.31760   54.912
 5630.00    1.33758   1.32209   54.322
 5631.00    1.34450   1.32369   53.977
 5632.00    1.34430   1.32250   53.842
 5633.00    1.34145   1.31917   53.650
 5634.00    1.33490   1.31468   53.786
 5635.00    1.33734   1.30994   54.243
 5636.00    1.32740   1.30568   54.618
 5637.00    1.32811   1.30237   54.965
 5638.00    1.33058   1.30005   55.374
 5639.00    1.33731   1.29860   55.697
 5640.00    1.32486   1.29803   55.653
 5641.00    1.32175   1.29833   55.622
 5642.00    1.32148   1.29943   55.821
 5643.00    1.32544   1.30126   55.797
 5644.00    1.33863   1.30356   55.542
 5645.00    1.33034   1.30589   55.304
 5646.00    1.33650   1.30779   55.197
 5647.00    1.34613   1.30900   54.803
 5648.00    1.33828   1.30952   54.681
 5649.00    1.34208   1.30960   54.545
 5650.00    1.34118   1.30933   54.498
 5651.00    1.33892   1.30854   54.639
 5652.00    1.33427   1.30669   54.563
 5653.00    1.34416   1.30305   -1.000
 5654.00    1.33973   1.29710   -1.000
 5655.00    1.32936   1.28879   54.327
 5656.00    1.33352   1.27916   -1.000
 5657.00    1.32168   1.27023   -1.000
 5658.00    1.30101   1.26405   56.606
 5659.00    1.28734   1.26177   58.332
 5660.00    1.28755   1.26337   58.953
 5661.00    1.30084   1.26791   57.855
 5662.00    1.31437   1.27425   -1.000
 5663.00    1.31634   1.28119   56.622
 5664.00    1.31708   1.28758   56.652
 5665.00    1.32857   1.29263   55.911
 5666.00    1.32926   1.29604   55.172
 5667.00    1.32794   1.29815   55.080
 5668.00    1.33505   1.29977   55.433
 5669.00    1.33290   1.30183   55.733
 5670.00    1.32561   1.30480   55.745
 5671.00    1.32834   1.30856   55.555
 5672.00    1.33426   1.31253   55.155
 5673.00    1.33691   1.31598   54.654
 5674.00    1.34636   1.31851   54.100
 5675.00    1.34156   1.31998   53.644
 5676.00    1.33731   1.32031   53.741
 5677.00    1.34015   1.31937   53.894
 5678.00    1.33849   1.31686   53.689
 5679.00    1.33353   1.31253   53.661
 5680.00    1.33684   1.30652   53.972
 5681.00    1.34270   1.29961   -1.000
 5682.00    1.34122   1.29307   -1.000
 5683.00    1.33569   1.28806   -1.000
 5684.00    1.32860   1.28498   -1.000
 5685.00    1.32546   1.28352   -1.000
 5686.00    1.32330   1.28319   -1.000
 5687.00    1.33123   1.28381   -1.000
 5688.00    1.32658   1.28570   -1.000
 5689.00    1.31538   1.28920   56.322
 5690.00    1.32969   1.29431   56.350
 5691.00    1.33841   1.30037   -1.000
 5692.00    1.33867   1.30640   54.565
 5693.00    1.34291   1.31139   54.134
 5694.00    1.34522   1.31465   53.829
 5695.00    1.34318   1.31586   53.779
 5696.00    1.34389   1.31493   53.860
 5697.00    1.34000   1.31203   53.909
 5698.00    1.33042   1.30765   54.119
 5699.00    1.33749   1.30259   54.713
 5700.00    1.33559   1.29784   55.340
 5701.00    1.32251   1.29416   55.818
 5702.00    1.30991   1.29175   56.400
 5703.00    1.31085   1.28995   56.538
 5704.00    1.31741   1.28769   56.017
 5705.00    1.32278   1.28393   55.465
 5706.00    1.32881   1.27816   -1.000
 5707.00    1.32137   1.27097   -1.000
 5708.00    1.31234   1.26393   -1.000
 5709.00    1.30304   1.25905   -1.000
 5710.00    1.29251   1.25815   58.676
 5711.00    1.28559   1.26203   58.895
 5712.00    1.29752   1.27013   58.654
 5713.00    1.31387   1.28070   57.933
 5714.00    1.32081   1.29171   56.642
 5715.00    1.33125   1.30157   55.270
 5716.00    1.33712   1.30957   54.561
 5717.00    1.33425   1.31588   54.448
 5718.00    1.33485   1.32110   54.325
 5719.00    1.33734   1.32570   54.137
 5720.00    1.33940   1.32980   53.851
 5721.00    1.33849   1.33319   53.501
 5722.00    1.34335   1.33547   53.278
 5723.00    1.35554   1.33620   53.169
 5724.00    1.35132   1.33522   53.093
 5725.00    1.35195   1.33286   53.050
 5726.00    1.34265   1.32986   53.234
 5727.00    1.33126   1.32709   53.736
 5728.00    1.34232   1.32511   54.303
 5729.00    1.34660   1.32413   54.644
 5730.00    1.34976   1.32411   54.252
 5731.00    1.34296   1.32496   53.978
 5732.00    1.33474   1.32660   54.202
 5733.00    1.34061   1.32885   54.443
 5734.00    1.34120   1.33136   54.141
 5735.00    1.35055   1.33363   53.593
 5736.00    1.34809   1.33526   53.321
 5737.00    1.34613   1.33610   53.418
 5738.00    1.33892   1.33624   53.486
 5739.00    1.34281   1.33587   53.653
 5740.00    1.34370   1.33524   53.680
 5741.00    1.33506   1.33462   53.808
 5742.00    1.33588   1.33423   53.884
 5743.00    1.33782   1.33408   53.991
 5744.00    1.33919   1.33399   53.834
 5745.00    1.33841   1.33374   53.767
 5746.00    1.33824   1.33319   53.329
 5747.00    1.34375   1.33238   53.115
 5748.00    1.34798   1.33114   53.504
 5749.00    1.34829   1.32911   54.034
 5750.00    1.34970   1.32603   54.143
 5751.00    1.34064   1.32200   53.772
 5752.00    1.33555   1.31805   53.688
 5753.00    1.32341   1.31559   54.210
 5754.00    1.32030   1.31586   54.885
 5755.00    1.32828   1.31899   55.366
 5756.00    1.34388   1.32388   55.219
 5757.00    1.34335   1.32864   54.400
 5758.00    1.34443   1.33148   53.388
 5759.00    1.34912   1.33146   52.878
 5760.00    1.34267   1.32913   53.178
 5761.00    1.33787   1.32610   53.831
 5762.00    1.33357   1.32432   54.549
 5763.00    1.32795   1.32511   55.260
 5764.00    1.33784   1.32852   55.396
 5765.00    1.34533   1.33354   54.657
 5766.00    1.34091   1.33861   53.665
 5767.00    1.34254   1.34237   53.096
 5768.00    1.34922   1.34414   52.999
 5769.00    1.34825   1.34389   52.949
 5770.00    1.34165   1.34203   52.869
 5771.00    1.33921   1.33918   53.011
 5772.00    1.34116   1.33599   53.202
 5773.00    1.34559   1.33308   53.518
 5774.00    1.34091   1.33085   53.837
 5775.00    1.33797   1.32911   53.938
 5776.00    1.33295   1.32709   53.985
 5777.00    1.33014   1.32390   53.836
 5778.00    1.31868   1.31893   53.563
 5779.00    1.30104   1.31247   53.562
 5780.00    1.28740   1.30561   53.803
 5781.00    1.29963   1.29978   54.702
 5782.00    1.31299   1.29611   55.954
 5783.00    1.32104   1.29506   56.540
 5784.00    1.33163   1.29661   56.331
 5785.00    1.33293   1.30019   56.110
 5786.00    1.34618   1.30490   -1.000
 5787.00    1.33976   1.30980   55.675
 5788.00    1.33625   1.31400   54.989
 5789.00    1.33772   1.31720   54.271
 5790.00    1.34239   1.31961   53.931
 5791.00    1.34113   1.32188   54.061
 5792.00    1.33645   1.32461   54.300
 5793.00    1.34642   1.32786   54.147
 5794.00    1.34176   1.33112   53.662
 5795.00    1.34159   1.33373   53.314
 5796.00    1.34112   1.33550   53.015
 5797.00    1.33410   1.33669   53.040
 5798.00    1.33927   1.33786   53.402
 5799.00    1.34335   1.33937   53.700
 5800.00    1.35565   1.34108   53.338
 5801.00    1.36202   1.34237   52.607
 5802.00    1.35623   1.34261   51.923
 5803.00    1.35412   1.34172   51.916
 5804.00    1.35714   1.34014   52.413
 5805.00    1.34836   1.33864   52.810
 5806.00    1.34840   1.33790   53.235
 5807.00    1.35559   1.33821   53.421
 5808.00    1.34827   1.33945   53.251
 5809.00    1.34452   1.34110   53.048
 5810.00    1.35599   1.34257   52.906
 5811.00    1.35953   1.34334   52.920
 5812.00    1.35826   1.34309   52.850
 5813.00    1.36760   1.34186   52.635
 5814.00    1.36380   1.34024   52.505
 5815.00    1.35524   1.33907   52.663
 5816.00    1.35978   1.33905   53.130
 5817.00    1.35551   1.34046   53.311
 5818.00    1.35528   1.34298   52.970
 5819.00    1.36689   1.34591   52.606
 5820.00    1.37129   1.34858   52.331
 5821.00    1.36823   1.35057   52.080
 5822.00    1.36906   1.35184   51.932
 5823.00    1.37152   1.35261   52.055
 5824.00    1.36253   1.35311   52.232
 5825.00    1.36000   1.35354   52.101
 5826.00    1.36671   1.35398   52.031
 5827.00    1.36944   1.35443   51.932
 5828.00    1.36820   1.35478   51.894
 5829.00    1.37689   1.35491   51.920
 5830.00    1.36606   1.35468   52.025
 5831.00    1.36308   1.35404   51.898
 5832.00    1.36208   1.35310   51.928
 5833.00    1.36445   1.35213   51.851
 5834.00    1.36963   1.35145   51.995
 5835.00    1.37878   1.35130   52.360
 5836.00    1.37667   1.35172   52.390
 5837.00    1.35559   1.35255   52.191
 5838.00    1.36297   1.35354   52.117
 5839.00    1.37332   1.35441   52.318
 5840.00    1.37385   1.35493   52.411
 5841.00    1.37723   1.35495   52.195
 5842.00    1.37641   1.35429   51.789
 5843.00    1.36782   1.35285   51.554
 5844.00    1.36064   1.35068   51.609
 5845.00    1.36520   1.34810   51.800
 5846.00    1.37397   1.34548   52.010
 5847.00    1.37736   1.34303   52.375
 5848.00    1.36614   1.34067   52.620
 5849.00    1.35435   1.33794   52.867
 5850.00    1.36208   1.33436   52.770
 5851.00    1.37056   1.32967   -1.000
 5852.00    1.35985   1.32398   53.223
 5853.00    1.35530   1.31756   53.567
 5854.00    1.35203   1.31072   -1.000
 5855.00    1.33842   1.30404   54.320
 5856.00    1.34642   1.29840   -1.000
 5857.00    1.33252   1.29484   54.474
 5858.00    1.32352   1.29431   55.105
 5859.00    1.34076   1.29702   -1.000
 5860.00    1.34249   1.30229   -1.000
 5861.00    1.35565   1.30874   -1.000
 5862.00    1.35822   1.31482   -1.000
 5863.00    1.35557   1.31945   -1.000
 5864.00    1.35515   1.32226   53.547
 5865.00    1.35825   1.32359   53.507
 5866.00    1.35117   1.32436   53.684
 5867.00    1.35494   1.32553   53.876
 5868.00    1.35893   1.32765   54.139
 5869.00    1.35578   1.33055   54.017
 5870.00    1.35961   1.33343   53.449
 5871.00    1.36311   1.33533   53.025
 5872.00    1.37289   1.33566   52.830
 5873.00    1.37178   1.33447   52.854
 5874.00    1.36774   1.33227   53.009
 5875.00    1.37131   1.32965   -1.000
 5876.00    1.36574   1.32702   52.911
 5877.00    1.36907   1.32447   -1.000
 5878.00    1.36107   1.32185   -1.000
 5879.00    1.34645   1.31892   53.402
 5880.00    1.35182   1.31540   53.872
 5881.00    1.34999   1.31109   -1.000
 5882.00    1.34413   1.30570   -1.000
 5883.00    1.34925   1.29854   -1.000
 5884.00    1.34994   1.28813   -1.000
 5885.00    1.33038   1.27244   -1.000
 5886.00    1.28976   1.24997   -1.000
 5887.00    1.22476   1.22163   54.522
 5888.00    1.11582   1.19123   -1.000
 5889.00    1.02616   1.16446   -1.000
 5890.00    1.03903   1.14625   -1.000
 5891.00    1.13570   1.13802   65.285
 5892.00    1.20836   1.13725   -1.000
 5893.00    1.20960   1.13974   -1.000
 5894.00    1.14965   1.14294   61.231
 5895.00    1.09215   1.14732   60.315
 5896.00    1.10201   1.15548   61.290
 5897.00    1.17811   1.16972   63.120
 5898.00    1.26031   1.19006   -1.000
 5899.00    1.30806   1.21404   -1.000
 5900.00    1.32695   1.23820   -1.000
 5901.00    1.34104   1.25965   -1.000
 5902.00    1.35176   1.27681   -1.000
 5903.00    1.34982   1.28941   -1.000
 5904.00    1.34177   1.29811   -1.000
 5905.00    1.35187   1.30396   -1.000
 5906.00    1.34892   1.30800   -1.000
 5907.00    1.35273   1.31093   -1.000
 5908.00    1.35392   1.31303   -1.000
 5909.00    1.34129   1.31410   54.309
 5910.00    1.35303   1.31381   -1.000
 5911.00    1.34733   1.31199   54.421
 5912.00    1.34913   1.30885   -1.000
 5913.00    1.34453   1.30512   -1.000
 5914.00    1.34244   1.30189   -1.000
 5915.00    1.33032   1.30020   55.659
 5916.00    1.34447   1.30055   -1.000
 5917.00    1.32467   1.30277   55.804
 5918.00    1.32240   1.30607   55.451
 5919.00    1.32135   1.30953   55.278
 5920.00    1.32690   1.31246   55.037
 5921.00    1.34053   1.31464   54.924
 5922.00    1.33330   1.31625   54.707
 5923.00    1.33465   1.31757   54.767
 5924.00    1.34214   1.31862   54.812
 5925.00    1.34977   1.31912   54.547
 5926.00    1.35780   1.31866   -1.000
 5927.00    1.35355   1.31711   -1.000
 5928.00    1.34656   1.31489   54.275
 5929.00    1.34686   1.31277   54.406
 5930.00    1.35124   1.31149   -1.000
 5931.00    1.34394   1.31143   55.267
 5932.00    1.34264   1.31243   55.128
 5933.00    1.35146   1.31406   -1.000
 5934.00    1.34422   1.31597   54.340
 5935.00    1.33776   1.31791   54.841
 5936.00    1.34447   1.31965   55.197
 5937.00    1.35031   1.32077   55.228
 5938.00    1.35218   1.32094   54.811
 5939.00    1.35233   1.32010   54.340
 5940.00    1.33461   1.31863   54.187
 5941.00    1.32139   1.31718   54.451
 5942.00    1.32684   1.31628   55.065
 5943.00    1.33710   1.31600   55.308
 5944.00    1.33325   1.31599   55.219
 5945.00    1.33791   1.31577   54.853
 5946.00    1.34194   1.31501   54.540
 5947.00    1.34595   1.31384   54.347
 5948.00    1.33269   1.31258   54.565
 5949.00    1.32960   1.31158   55.106
 5950.00    1.33917   1.31100   55.692
 5951.00    1.34295   1.31069   55.730
 5952.00    1.34193   1.31039   55.391
 5953.00    1.33943   1.31001   55.212
 5954.00    1.34748   1.30961   -1.000
 5955.00    1.33737   1.30945   55.319
 5956.00    1.33060   1.30994   55.215
 5957.00    1.32751   1.31141   55.249
 5958.00    1.32373   1.31403   55.511
 5959.00    1.33602   1.31752   55.555
 5960.00    1.34516   1.32121   55.291
 5961.00    1.33804   1.32429   54.588
 5962.00    1.34862   1.32618   54.095
 5963.00    1.35143   1.32673   53.931
 5964.00    1.34560   1.32627   53.891
 5965.00    1.34297   1.32541   54.047
 5966.00    1.33836   1.32483   54.372
 5967.00    1.33232   1.32499   54.529
 5968.00    1.34110   1.32599   54.734
 5969.00    1.34507   1.32752   54.546
 5970.00    1.33443   1.32897   54.090
 5971.00    1.34802   1.32963   54.016
 5972.00    1.34681   1.32890   54.012
 5973.00    1.34160   1.32661   53.872
 5974.00    1.34168   1.32314   53.829
 5975.00    1.33236   1.31933   54.183
 5976.00    1.33378   1.31624   54.628
 5977.00    1.33143   1.31467   55.039
 5978.00    1.32741   1.31469   55.428
 5979.00    1.33674   1.31563   55.651
 5980.00    1.35397   1.31636   -1.000
 5981.00    1.34921   1.31598   54.820
 5982.00    1.33709   1.31428   54.661
 5983.00    1.33416   1.31192   54.843
 5984.00    1.32748   1.31001   55.340
 5985.00    1.32459   1.30949   55.825
 5986.00    1.32939   1.31064   56.063
 5987.00    1.32820   1.31305   55.787
 5988.00    1.33207   1.31596   55.148
 5989.00    1.34126   1.31881   54.870
 5990.00    1.33549   1.32136   54.702
 5991.00    1.33085   1.32366   54.417
 5992.00    1.33232   1.32574   54.566
 5993.00    1.33328   1.32739   54.688
 5994.00    1.33594   1.32823   54.352
 5995.00    1.34055   1.32804   53.876
 5996.00    1.34032   1.32696   53.779
 5997.00    1.33129   1.32539   54.234
 5998.00    1.32449   1.32379   54.598
 5999.00    1.33087   1.32234   54.816
 6000.00    1.33962   1.32098   54.914
 6001.00    1.34080   1.31953   54.783
 6002.00    1.33866   1.31783   54.866
 6003.00    1.32518   1.31582   55.236
 6004.00    1.32795   1.31349   55.386
 6005.00    1.33116   1.31094   55.339
 6006.00    1.32550   1.30850   55.170
 6007.00    1.31895   1.30677   55.242
 6008.00    1.31521   1.30633   55.695
 6009.00    1.31528   1.30734   56.276
 6010.00    1.31232   1.30929   56.174
 6011.00    1.32772   1.31130   55.442
 6012.00    1.33089   1.31259   54.892
 6013.00    1.33023   1.31291   55.008
 6014.00    1.34326   1.31243   55.482
 6015.00    1.32409   1.31146   55.743
 6016.00    1.32875   1.31014   55.381
 6017.00    1.33613   1.30850   55.431
 6018.00    1.34095   1.30656   -1.000
 6019.00    1.31369   1.30453   55.788
 6020.00    1.31638   1.30289   55.607
 6021.00    1.31137   1.30220   55.834
 6022.00    1.31367   1.30288   56.211
 6023.00    1.32152   1.30509   55.902
 6024.00    1.30890   1.30870   55.512
 6025.00    1.31981   1.31333   55.435
 6026.00    1.32858   1.31846   55.364
 6027.00    1.31901   1.32356   54.989
 6028.00    1.32754   1.32822   54.860
 6029.00    1.32700   1.33218   54.477
 6030.00    1.33863   1.33538   54.263
 6031.00    1.33482   1.33788   54.209
 6032.00    1.34135   1.33979   54.234
 6033.00    1.33121   1.34119   54.377
 6034.00    1.32691   1.34207   54.241
 6035.00    1.32689   1.34231   53.982
 6036.00    1.32904   1.34181   53.865
 6037.00    1.32752   1.34055   53.855
 6038.00    1.32511   1.33869   53.739
 6039.00    1.32614   1.33660   53.825
 6040.00    1.32500   1.33477   54.168
 6041.00    1.33102   1.33369   54.241
 6042.00    1.33602   1.33369   54.430
 6043.00    1.32719   1.33481   54.267
 6044.00    1.33160   1.33679   54.208
 6045.00    1.33087   1.33925   53.896
 6046.00    1.32923   1.34176   53.449
 6047.00    1.32464   1.34395   53.550
 6048.00    1.32796   1.34553   53.548
 6049.00    1.33694   1.34626   53.448
 6050.00    1.33825   1.34596   53.523
 6051.00    1.33482   1.34457   53.728
 6052.00    1.33439   1.34219   53.835
 6053.00    1.33216   1.33919   53.875
 6054.00    1.32269   1.33620   53.988
 6055.00    1.32446   1.33393   54.225
 6056.00    1.31719   1.33288   54.380
 6057.00    1.32191   1.33309   54.705
 6058.00    1.32699   1.33405   54.846
 6059.00    1.32264   1.33483   54.722
 6060.00    1.32465   1.33448   54.408
 6061.00    1.33070   1.33241   54.134
 6062.00    1.32716   1.32872   54.245
 6063.00    1.29989   1.32429   54.368
 6064.00    1.37523   1.32059   -1.000
 6065.00    0.66624   1.31906   -1.000
 6066.00    0.45605   1.32042   -1.000
 6067.00    1.19141   1.32442   -1.000
 6068.00    1.29696   1.32998   16.477
 6069.00    1.28369   1.33576   58.456
 6070.00    1.37421   1.34073   -1.000
 6071.00    0.74376   1.34436   -1.000
 6072.00    0.49393   1.34654   -1.000
 6073.00    1.37473   1.34728   52.139
 6074.00    1.32496   1.34662   53.486
 6075.00    1.32231   1.34463   53.726
 6076.00    1.32235   1.34150   53.761
 6077.00    1.32870   1.33768   53.961
 6078.00    1.32581   1.33374   54.252
 6079.00    1.31216   1.33013   54.564
 6080.00    1.31716   1.32713   55.004
 6081.00    1.31630   1.32478   55.326
 6082.00    1.31601   1.32309   55.321
 6083.00    1.31109   1.32216   55.380
 6084.00    1.30577   1.32208   55.552
 6085.00    1.30712   1.32282   55.526
 6086.00    1.31008   1.32408   55.484
 6087.00    1.31673   1.32536   55.423
 6088.00    1.31994   1.32624   55.250
 6089.00    1.31179   1.32660   55.021
 6090.00    1.31303   1.32673   55.169
 6091.00    1.30638   1.32708   55.526
 6092.00    1.30382   1.32808   55.746
 6093.00    1.30924   1.32982   55.690
 6094.00    1.31209   1.33203   55.298
 6095.00    1.31234   1.33415   55.037
 6096.00    1.31640   1.33532   54.718
 6097.00    1.31583   1.33462   54.491
 6098.00    1.31732   1.33127   54.537
 6099.00    1.31465   1.32508   54.683
 6100.00    1.31085   1.31684   54.706
 6101.00    1.31011   1.30840   54.708
 6102.00    1.29268   1.30218   55.435
 6103.00    1.28186   1.30004   56.867
 6104.00    1.28595   1.30250   57.718
 6105.00    1.30059   1.30856   57.173
 6106.00    1.31227   1.31632   56.026
 6107.00    1.30583   1.32394   55.213
 6108.00    1.29868   1.33024   55.083
 6109.00    1.30303   1.33482   55.327
 6110.00    1.29509   1.33785   55.450
 6111.00    1.29758   1.33972   55.413
 6112.00    1.30783   1.34083   55.285
 6113.00    1.30494   1.34143   55.029
 6114.00    1.29980   1.34148   55.044
 6115.00    1.30449   1.34067   54.718
 6116.00    1.29973   1.33850   54.607
 6117.00    1.30099   1.33440   54.850
 6118.00    1.30924   1.32800   55.225
 6119.00    1.31197   1.31955   55.272
 6120.00    1.29687   1.31020   55.564
 6121.00    1.28772   1.30182   56.422
 6122.00    1.27664   1.29639   57.139
 6123.00    1.26785   1.29509   57.667
 6124.00    1.27347   1.29780   57.668
 6125.00    1.28329   1.30327   56.646
 6126.00    1.28815   1.30988   55.947
 6127.00    1.28939   1.31640   55.991
 6128.00    1.29001   1.32228   56.343
 6129.00    1.29748   1.32731   56.230
 6130.00    1.30197   1.33107   56.109
 6131.00    1.29297   1.33262   55.618
 6132.00    1.29324   1.33071   55.090
 6133.00    1.30165   1.32446   55.013
 6134.00    1.30079   1.31416   55.134
 6135.00    1.28259   1.30161   55.694
 6136.00    1.26499   1.28959   57.021
 6137.00    1.24517   1.28080   58.745
 6138.00    1.23279   1.27687   60.194
 6139.00    1.24464   1.27799   60.258
 6140.00    1.25646   1.28325   58.616
 6141.00    1.26327   1.29124   56.956
 6142.00    1.26297   1.30040   56.411
 6143.00    1.26634   1.30914   56.562
 6144.00    1.27669   1.31607   56.646
 6145.00    1.27981   1.32033   56.017
 6146.00    1.28418   1.32180   55.343
 6147.00    1.29176   1.32112   55.310
 6148.00    1.28733   1.31935   55.588
 6149.00    1.28075   1.31756   55.948
 6150.00    1.27836   1.31640   56.357
 6151.00    1.27935   1.31593   56.678
 6152.00    1.27988   1.31572   56.656
 6153.00    1.27601   1.31515   56.433
 6154.00    1.28149   1.31366   56.023
 6155.00    1.28541   1.31087   55.985
 6156.00    1.27693   1.30633   56.505
 6157.00    1.27859   1.29941   56.772
 6158.00    1.28247   1.28957   56.795
 6159.00    1.26931   1.27694   57.051
 6160.00    1.26635   1.26291   57.688
 6161.00    1.25689   1.25000   58.829
 6162.00    1.24187   1.24096   60.670
 6163.00    1.22881   1.23740   62.418
 6164.00    1.23191   1.23904   62.922
 6165.00    1.24757   1.24386   61.880
 6166.00    1.25655   1.24933   60.115
 6167.00    1.26125   1.25378   59.265
 6168.00    1.25826   1.25706   59.053
 6169.00    1.24939   1.26026   59.235
 6170.00    1.23926   1.26466   60.059
 6171.00    1.24581   1.27082   60.644
 6172.00    1.25345   1.27830   60.115
 6173.00    1.26715   1.28603   58.899
 6174.00    1.26092   1.29302   58.111
 6175.00    1.26680   1.29873   58.233
 6176.00    1.26407   1.30318   58.267
 6177.00    1.25708   1.30670   58.110
 6178.00    1.26456   1.30968   58.004
 6179.00    1.26825   1.31242   57.842
 6180.00    1.27162   1.31495   57.545
 6181.00    1.27040   1.31709   57.345
 6182.00    1.26750   1.31841   57.163
 6183.00    1.27011   1.31848   56.889
 6184.00    1.27754   1.31696   56.757
 6185.00    1.27599   1.31375   56.891
 6186.00    1.26900   1.30898   57.096
 6187.00    1.26665   1.30297   57.574
 6188.00    1.26518   1.29633   58.217
 6189.00    1.26897   1.29006   58.814
 6190.00    1.26461   1.28543   59.370
 6191.00    1.24996   1.28368   59.787
 6192.00    1.23983   1.28534   60.608
 6193.00    1.23711   1.28995   60.954
 6194.00    1.24655   1.29613   60.194
 6195.00    1.25504   1.30217   58.637
 6196.00    1.26018   1.30674   57.733
 6197.00    1.26403   1.30930   57.417
 6198.00    1.26443   1.31022   57.348
 6199.00    1.25829   1.31046   57.759
 6200.00    1.25447   1.31110   58.453
 6201.00    1.25183   1.31287   58.908
 6202.00    1.24238   1.31587   58.813
 6203.00    1.24542   1.31962   58.177
 6204.00    1.25414   1.32342   57.440
 6205.00    1.26353   1.32654   57.327
 6206.00    1.26697   1.32845   57.337
 6207.00    1.27436   1.32874   57.230
 6208.00    1.27017   1.32714   57.238
 6209.00    1.27010   1.32347   57.478
 6210.00    1.26638   1.31786   57.450
 6211.00    1.26110   1.31082   57.730
 6212.00    1.25615   1.30327   58.280
 6213.00    1.25151   1.29625   58.724
 6214.00    1.25259   1.29058   59.313
 6215.00    1.23951   1.28658   60.245
 6216.00    1.24408   1.28413   60.821
 6217.00    1.25320   1.28292   60.951
 6218.00    1.24663   1.28277   60.081
 6219.00    1.24032   1.28366   59.844
 6220.00    1.24155   1.28557   60.351
 6221.00    1.24749   1.28824   60.065
 6222.00    1.25089   1.29109   59.613
 6223.00    1.28269   1.29339   60.048
 6224.00    1.27386   1.29438   64.865
 6225.00    1.25614   1.29344   62.193
 6226.00    1.25401   1.29026   59.315
 6227.00    1.25454   1.28495   59.350
 6228.00    1.25509   1.27833   59.369
 6229.00    1.24959   1.27188   59.730
 6230.00    1.24224   1.26728   60.577
 6231.00    1.22429   1.26582   61.594
 6232.00    1.21810   1.26769   62.361
 6233.00    1.23735   1.27191   62.028
 6234.00    1.24458   1.27674   61.104
 6235.00    1.25244   1.28052   59.933
 6236.00    1.25736   1.28225   58.971
 6237.00    1.25367   1.28186   58.741
 6238.00    1.24767   1.27986   59.172
 6239.00    1.24383   1.27689   59.780
 6240.00    1.24222   1.27335   60.386
 6241.00    1.23603   1.26943   61.033
 6242.00    1.23243   1.26529   61.261
 6243.00    1.22630   1.26144   61.225
 6244.00    1.22298   1.25871   61.707
 6245.00    1.22834   1.25800   62.105
 6246.00    1.22281   1.25971   62.041
 6247.00    1.22185   1.26334   61.628
 6248.00    1.23001   1.26744   61.006
 6249.00    1.24233   1.27027   60.220
 6250.00    1.24584   1.27052   59.602
 6251.00    1.22928   1.26798   59.570
 6252.00    1.22550   1.26353   60.152
 6253.00    1.21528   1.25864   61.295
 6254.00    1.20040   1.25463   62.026
 6255.00    1.20603   1.25228   62.437
 6256.00    1.20860   1.25189   62.600
 6257.00    1.20961   1.25344   62.566
 6258.00    1.20936   1.25687   63.167
 6259.00    1.21232   1.26194   63.725
 6260.00    1.21585   1.26821   63.415
 6261.00    1.21928   1.27493   62.433
 6262.00    1.22654   1.28129   61.500
 6263.00    1.22724   1.28668   60.669
 6264.00    1.23157   1.29082   59.722
 6265.00    1.23111   1.29377   59.453
 6266.00    1.22417   1.29569   59.954
 6267.00    1.22520   1.29670   60.345
 6268.00    1.22808   1.29690   60.050
 6269.00    1.22272   1.29638   59.608
 6270.00    1.21718   1.29516   -1.000
 6271.00    1.21804   1.29305   -1.000
 6272.00    1.22265   1.28966   60.056
 6273.00    1.22057   1.28457   59.845
 6274.00    1.21465   1.27773   59.707
 6275.00    1.21057   1.26968   59.875
 6276.00    1.19116   1.26154   60.320
 6277.00    1.16255   1.25470   -1.000
 6278.00    1.14278   1.25040   -1.000
 6279.00    1.15282   1.24946   -1.000
 6280.00    1.16399   1.25202   -1.000
 6281.00    1.15424   1.25760   -1.000
 6282.00    1.14633   1.26519   -1.000
 6283.00    1.15376   1.27350   -1.000
 6284.00    1.16707   1.28128   -1.000
 6285.00    1.18960   1.28761   -1.000
 6286.00    1.21364   1.29195   -1.000
 6287.00    1.21057   1.29419   -1.000
 6288.00    1.21280   1.29457   -1.000
 6289.00    1.21672   1.29360   -1.000
 6290.00    1.21620   1.29187   59.232
 6291.00    1.20099   1.28987   -1.000
 6292.00    1.20334   1.28779   -1.000
 6293.00    1.20711   1.28555   -1.000
 6294.00    1.20218   1.28286   -1.000
 6295.00    1.20395   1.27958   -1.000
 6296.00    1.21364   1.27579   60.799
 6297.00    1.21453   1.27189   61.280
 6298.00    1.21752   1.26843   61.681
 6299.00    1.23458   1.26604   61.769
 6300.00    1.27845   1.26531   61.674
 6301.00    1.28906   1.26676   61.410
 6302.00    1.26621   1.27051   61.137
 6303.00    1.23678   1.27618   61.671
 6304.00    1.21558   1.28285   62.379
 6305.00    1.21096   1.28937   -1.000
 6306.00    1.21700   1.29475   -1.000
 6307.00    1.22328   1.29844   60.110
 6308.00    1.21817   1.30035   -1.000
 6309.00    1.21904   1.30064   -1.000
 6310.00    1.21318   1.29954   -1.000
 6311.00    1.21789   1.29724   -1.000
 6312.00    1.21738   1.29395   -1.000
 6313.00    1.21281   1.28996   -1.000
 6314.00    1.20055   1.28578   -1.000
 6315.00    1.19790   1.28210   -1.000
 6316.00    1.20089   1.27965   -1.000
 6317.00    1.20588   1.27907   60.941
 6318.00    1.19423   1.28066   -1.000
 6319.00    1.18887   1.28425   -1.000
 6320.00    1.20075   1.28931   -1.000
 6321.00    1.20891   1.29511   -1.000
 6322.00    1.21045   1.30092   -1.000
 6323.00    1.21353   1.30616   -1.000
 6324.00    1.21519   1.31044   -1.000
 6325.00    1.21005   1.31354   -1.000
 6326.00    1.22055   1.31549   -1.000
 6327.00    1.22911   1.31646   -1.000
 6328.00    1.22442   1.31670   -1.000
 6329.00    1.22791   1.31632   -1.000
 6330.00    1.23111   1.31521   -1.000
 6331.00    1.23414   1.31306   58.218
 6332.00    1.23039   1.30965   -1.000
 6333.00    1.23215   1.30515   58.047
 6334.00    1.21721   1.30031   -1.000
 6335.00    1.19109   1.29630   -1.000
 6336.00    1.20549   1.29423   -1.000
 6337.00    1.20912   1.29466   -1.000
 6338.00    1.21411   1.29731   -1.000
 6339.00    1.22153   1.30120   -1.000
 6340.00    1.22302   1.30506   -1.000
 6341.00    1.23296   1.30787   58.010
 6342.00    1.22641   1.30921   -1.000
 6343.00    1.22765   1.30937   -1.000
 6344.00    1.22762   1.30917   -1.000
 6345.00    1.22412   1.30958   -1.000
 6346.00    1.22357   1.31125   -1.000
 6347.00    1.23009   1.31423   -1.000
 6348.00    1.23000   1.31798   -1.000
 6349.00    1.22922   1.32153   -1.000
 6350.00    1.23384   1.32394   -1.000
 6351.00    1.22940   1.32460   -1.000
 6352.00    1.22626   1.32346   -1.000
 6353.00    1.22587   1.32087   -1.000
 6354.00    1.22698   1.31743   -1.000
 6355.00    1.22092   1.31367   -1.000
 6356.00    1.21738   1.30996   -1.000
 6357.00    1.23027   1.30648   58.602
 6358.00    1.22453   1.30331   -1.000
 6359.00    1.22163   1.30054   -1.000
 6360.00    1.22118   1.29833   -1.000
 6361.00    1.21349   1.29687   -1.000
 6362.00    1.22725   1.29641   59.501
 6363.00    1.23668   1.29708   59.308
 6364.00    1.25153   1.29878   59.250
 6365.00    1.25479   1.30119   59.048
 6366.00    1.24100   1.30381   58.661
 6367.00    1.23251   1.30619   58.286
 6368.00    1.23077   1.30813   57.972
 6369.00    1.21756   1.30976   -1.000
 6370.00    1.22084   1.31140   -1.000
 6371.00    1.21695   1.31327   -1.000
 6372.00    1.21613   1.31530   -1.000
 6373.00    1.22111   1.31711   -1.000
 6374.00    1.21510   1.31820   -1.000
 6375.00    1.21446   1.31824   -1.000
 6376.00    1.21533   1.31720   -1.000
 6377.00    1.21090   1.31539   -1.000
 6378.00    1.20659   1.31321   -1.000
 6379.00    1.20634   1.31109   -1.000
 6380.00    1.20951   1.30939   -1.000
 6381.00    1.20316   1.30834   -1.000
 6382.00    1.20413   1.30810   -1.000
 6383.00    1.19913   1.30869   -1.000
 6384.00    1.19821   1.30994   -1.000
 6385.00    1.19525   1.31148   -1.000
 6386.00    1.19475   1.31280   -1.000
 6387.00    1.18775   1.31335   -1.000
 6388.00    1.18171   1.31270   -1.000
 6389.00    1.17901   1.31067   -1.000
 6390.00    1.16911   1.30750   -1.000
 6391.00    1.16160   1.30386   -1.000
 6392.00    1.15227   1.30067   -1.000
 6393.00    1.14415   1.29870   -1.000
 6394.00    1.13405   1.29813   -1.000
 6395.00    1.12444   1.29842   -1.000
 6396.00    1.12337   1.29864   -1.000
 6397.00    1.12691   1.29816   -1.000
 6398.00    1.12990   1.29714   -1.000
 6399.00    1.12867   1.29647   -1.000
 6400.00    1.11049   1.29714   -1.000
 6401.00    1.08816   1.29955   -1.000
 6402.00    1.09006   1.30319   -1.000
 6403.00    1.11148   1.30684   -1.000
 6404.00    1.11233   1.30932   -1.000
 6405.00    1.10039   1.30999   -1.000
 6406.00    1.09911   1.30905   -1.000
 6407.00    1.08787   1.30721   -1.000
 6408.00    1.08417   1.30533   -1.000
 6409.00    1.07484   1.30400   -1.000
 6410.00    1.06158   1.30349   -1.000
 6411.00    1.05606   1.30379   -1.000
 6412.00    1.05091   1.30472   -1.000
 6413.00    1.03735   1.30597   -1.000
 6414.00    1.03094   1.30710   -1.000
 6415.00    1.03701   1.30764   -1.000
 6416.00    1.02976   1.30727   -1.000
 6417.00    1.02039   1.30596   -1.000
 6418.00    1.01450   1.30417   -1.000
 6419.00    1.00578   1.30277   -1.000
 6420.00    0.99827   1.30277   -1.000
 6421.00    0.98738   1.30486   -1.000
 6422.00    0.97469   1.30901   -1.000
 6423.00    0.96389   1.31440   -1.000
 6424.00    0.95629   1.31971   -1.000
 6425.00    0.96373   1.32356   -1.000
 6426.00    0.95587   1.32494   -1.000
 6427.00    0.94495   1.32355   -1.000
 6428.00    0.93359   1.31992   -1.000
