###################################################################
## OUTPUT of StarlightChains_v04.for    [Cid@UFSC - 01/Apr/2007] ##
###################################################################

## Some input info
NGC6316_a_1.cxt                          [arq_obs]
Base.BC03.N                              [arq_base]
NGC6316_a_1.msk                          [arq_masks]
StCv04.C99.config                        [arq_config]
   45                                    [N_base]
    0                                    [N_YAV_components = # of components with extra extinction!]
    0                                    [i_FitPowerLaw (1/0 = Yes/No)]
-9.99                                    [alpha_PowerLaw]
CCM                                      [red_law_option]
 1.458241                                [q_norm = A(l_norm)/A(V)]

## (Re)Sampling Parameters
 3359.00                                 [l_ini (A)]
 6428.00                                 [l_fin (A)]
    1.00                                 [dl    (A)]     (OBS: dl_cushion =    50.00 A)

## Normalization info
 4020.00                                 [l_norm (A) - for base]
 4010.00                                 [llow_norm (A) - window for f_obs]
 4060.00                                 [lupp_norm (A) - window for f_obs]
3.447620E-15                             [fobs_norm (in input units)]

## S/N
 4730.00                                 [llow_SN (A) - window for S/N]
 4780.00                                 [lupp_SN (A) - window for S/N]
  41.849                                 [S/N in S/N window]
  23.735                                 [S/N in norm. window]
 229.586                                 [S/N_err in S/N window]
 130.210                                 [S/N_err in norm. window]
  1.0000                                 [fscale_chi2]

## etc...
  2147483618                             [idum_orig]
  3065                                   [NOl_eff]
   600                                   [Nl_eff]
  2465    NSIGMA                         [Ntot_cliped & clip_method]
  2165800                                [Nglobal_steps]
   7                                     [N_chains]
  14                                     [NEX0s_base = N_base in EX0s-fits]
 0   0   1      227   2.0   2.812E+02    [Clip-Bug, RC-Crash & Burn-In warning-flags, n_censored_weights, wei_nsig_threshold & wei_limit]
    26     25.782     25.778      0.004  [idt_all, wdt_TotTime, wdt_UsrTime & wdt_SysTime (sec)]

## Synthesis Results - Best model ##

 2.90740E+00                             [chi2/Nl_eff]
     1.88805                             [adev (%)]

    99.52209                             [sum-of-x (%)]
 4.52888E-14                             [Flux_tot (units of input spectrum!)]
 1.89144E-09                             [Mini_tot (???)]
 9.56684E-10                             [Mcor_tot (???)]

 -32.94                                  [v0_min  (km/s)]
  55.07                                  [vd_min  (km/s)]
 1.9211                                  [AV_min  (mag)]
 0.0000                                  [YAV_min (mag)]

# j     x_j(%)      Mini_j(%)     Mcor_j(%)     age_j(yr)     Z_j      (L/M)_j    YAV?  Mstars   component_j        a/Fe...       SSP_chi2r SSP_adev(%)   SSP_AV   SSP_x(%)
  1      5.4063     1.1676E-02    2.3084E-02    1.000000E+06  0.00400  1.114E-02    0   1.0000   age020_m42            0.0000     5.3490E+03    41.3658   4.0000   103.1769
  2      4.7896     2.8292E-03    5.5930E-03    3.160000E+06  0.00400  4.073E-02    0   0.9999   age045_m42            0.0000     1.1883E+03    18.1005   4.0000   107.9701
  3      4.0624     3.8570E-03    7.2352E-03    5.010000E+06  0.00400  2.534E-02    0   0.9488   age055_m42            0.0000     2.5108E+03    29.0999   4.0000   107.4733
  4      1.6862     3.1919E-03    5.5925E-03    1.000000E+07  0.00400  1.271E-02    0   0.8862   age070_m42            0.0000     4.2632E+02    13.0216   4.0000    98.2363
  5      0.8314     3.9451E-03    6.3755E-03    2.512000E+07  0.00400  5.070E-03    0   0.8174   age090_m42            0.0000     2.9173E+02    10.3588   4.0000    96.9902
  6      0.0000     0.0000E+00    0.0000E+00    4.000000E+07  0.00400  3.505E-03    0   0.7851   age104_m42            0.0000     2.2528E+02     8.0085   3.8374    96.2565
  7      0.0000     0.0000E+00    0.0000E+00    1.015200E+08  0.00400  2.268E-03    0   0.7207   age116_m42            0.0000     7.7466E+02    15.5671   3.9474   101.2418
  8      0.0000     0.0000E+00    0.0000E+00    2.861200E+08  0.00400  1.079E-03    0   0.6613   age125_m42            0.0000     8.1038E+02    16.1468   3.4560   103.1435
  9      0.0000     0.0000E+00    0.0000E+00    6.405400E+08  0.00400  5.077E-04    0   0.6197   age132_m42            0.0000     8.4654E+02    17.0355   3.1007   106.8592
 10      0.0000     0.0000E+00    0.0000E+00    9.047900E+08  0.00400  3.535E-04    0   0.6024   age135_m42            0.0000     6.3752E+02    14.9203   2.8448   106.8803
 11      0.0000     0.0000E+00    0.0000E+00    1.434000E+09  0.00400  1.910E-04    0   0.5716   age139_m42            0.0000     3.8611E+02    11.8628   2.2985   107.0414
 12      0.0949     2.3252E-02    2.5114E-02    2.500000E+09  0.00400  9.818E-05    0   0.5463   age150_m42            0.0000     1.7365E+02     8.1240   1.9851   104.0792
 13     26.1566     1.3338E+01    1.3787E+01    5.000000E+09  0.00400  4.718E-05    0   0.5228   age161_m42            0.0000     9.4193E+01     6.2074   1.7951   101.8219
 14     13.8648     1.5128E+01    1.4895E+01    1.100000E+10  0.00400  2.205E-05    0   0.4980   age185_m42            0.0000     1.0568E+02     6.8674   1.5196   100.6119
 15     10.9586     1.4002E+01    1.3639E+01    1.300000E+10  0.00400  1.883E-05    0   0.4927   age193_m42            0.0000     1.0798E+02     6.9769   1.4996   100.6189
 16      3.4027     4.1160E-03    8.1376E-03    1.000000E+06  0.02000  1.989E-02    0   1.0000   age020_m62            0.0000     5.1362E+03    40.3971   4.0000   103.9487
 17      1.3286     8.4744E-04    1.6517E-03    3.160000E+06  0.02000  3.772E-02    0   0.9858   age045_m62            0.0000     4.4035E+03    38.1448   4.0000   105.7676
 18      0.0000     0.0000E+00    0.0000E+00    5.010000E+06  0.02000  3.227E-02    0   0.9342   age055_m62            0.0000     2.0129E+03    25.1958   4.0000   108.7580
 19      0.0000     0.0000E+00    0.0000E+00    1.000000E+07  0.02000  1.011E-02    0   0.8751   age070_m62            0.0000     5.7882E+02    17.1633   4.0000    95.6441
 20      0.0000     0.0000E+00    0.0000E+00    2.512000E+07  0.02000  4.206E-03    0   0.8099   age090_m62            0.0000     3.9731E+02    14.1273   4.0000    94.9661
 21      0.0000     0.0000E+00    0.0000E+00    4.000000E+07  0.02000  3.373E-03    0   0.7799   age104_m62            0.0000     3.1524E+02     8.8902   4.0000    98.7257
 22      0.0000     0.0000E+00    0.0000E+00    1.015200E+08  0.02000  1.878E-03    0   0.7221   age116_m62            0.0000     6.9829E+02    14.6227   3.9569   102.2421
 23      0.0000     0.0000E+00    0.0000E+00    2.861200E+08  0.02000  8.869E-04    0   0.6700   age125_m62            0.0000     1.1264E+03    19.3171   3.4907   107.3207
 24      0.0000     0.0000E+00    0.0000E+00    6.405400E+08  0.02000  3.657E-04    0   0.6322   age132_m62            0.0000     8.5143E+02    17.0911   2.7959   111.3349
 25      0.0000     0.0000E+00    0.0000E+00    9.047900E+08  0.02000  2.312E-04    0   0.6152   age135_m62            0.0000     5.7786E+02    14.2440   2.3999   111.5179
 26      0.0000     0.0000E+00    0.0000E+00    1.434000E+09  0.02000  1.168E-04    0   0.5865   age139_m62            0.0000     2.5371E+02     9.4800   1.9386   107.9451
 27      0.0000     0.0000E+00    0.0000E+00    2.500000E+09  0.02000  5.505E-05    0   0.5610   age150_m62            0.0000     1.7927E+02     8.4136   1.5425   106.4761
 28      0.0000     0.0000E+00    0.0000E+00    5.000000E+09  0.02000  2.596E-05    0   0.5353   age161_m62            0.0000     2.5363E+02    10.4517   1.1953   107.5487
 29     10.5893     2.1794E+01    2.1988E+01    1.100000E+10  0.02000  1.169E-05    0   0.5103   age185_m62            0.0000     4.0934E+02    12.9391   0.8217   109.9440
 30     14.3729     3.5683E+01    3.5605E+01    1.300000E+10  0.02000  9.691E-06    0   0.5047   age193_m62            0.0000     4.4246E+02    13.3754   0.7741   110.3528
 31      1.9777     1.7949E-03    3.5479E-03    1.000000E+06  0.05000  2.651E-02    0   0.9998   age020_m72            0.0000     5.0972E+03    39.9780   4.0000   105.1034
 32      0.0000     0.0000E+00    0.0000E+00    3.160000E+06  0.05000  4.817E-02    0   0.9577   age045_m72            0.0000     3.5894E+03    34.1573   4.0000   108.4164
 33      0.0000     0.0000E+00    0.0000E+00    5.010000E+06  0.05000  3.101E-02    0   0.9147   age055_m72            0.0000     2.0699E+03    27.1994   4.0000   107.4143
 34      0.0000     0.0000E+00    0.0000E+00    1.000000E+07  0.05000  8.954E-03    0   0.8524   age070_m72            0.0000     2.9924E+03    31.3494   4.0000   108.9484
 35      0.0000     0.0000E+00    0.0000E+00    2.512000E+07  0.05000  4.207E-03    0   0.7902   age090_m72            0.0000     1.3897E+03    20.4552   4.0000   109.0418
 36      0.0000     0.0000E+00    0.0000E+00    4.000000E+07  0.05000  3.198E-03    0   0.7618   age104_m72            0.0000     6.9258E+02    12.6303   4.0000   106.8246
 37      0.0000     0.0000E+00    0.0000E+00    1.015200E+08  0.05000  1.716E-03    0   0.7092   age116_m72            0.0000     7.9655E+02    15.7624   4.0000   103.7644
 38      0.0000     0.0000E+00    0.0000E+00    2.861200E+08  0.05000  7.047E-04    0   0.6618   age125_m72            0.0000     1.0891E+03    18.9839   3.3016   107.6469
 39      0.0000     0.0000E+00    0.0000E+00    6.405400E+08  0.05000  2.633E-04    0   0.6253   age132_m72            0.0000     6.9580E+02    15.6126   2.4227   111.2846
 40      0.0000     0.0000E+00    0.0000E+00    9.047900E+08  0.05000  1.484E-04    0   0.6088   age135_m72            0.0000     3.6711E+02    11.5610   1.8920   108.4482
 41      0.0000     0.0000E+00    0.0000E+00    1.434000E+09  0.05000  7.827E-05    0   0.5847   age139_m72            0.0000     2.6540E+02    10.4627   1.4708   106.6761
 42      0.0000     0.0000E+00    0.0000E+00    2.500000E+09  0.05000  3.759E-05    0   0.5583   age150_m72            0.0000     2.9189E+02    11.2535   1.1300   107.0547
 43      0.0000     0.0000E+00    0.0000E+00    5.000000E+09  0.05000  1.548E-05    0   0.5320   age161_m72            0.0000     4.3591E+02    13.1414   0.7249   107.4430
 44      0.0000     0.0000E+00    0.0000E+00    1.100000E+10  0.05000  6.532E-06    0   0.5070   age185_m72            0.0000     6.9108E+02    15.8216   0.3482   107.9648
 45      0.0000     0.0000E+00    0.0000E+00    1.300000E+10  0.05000  5.316E-06    0   0.5018   age193_m72            0.0000     8.0989E+02    16.9861   0.2322   108.2329


## Synthesis Results - Average & Chains ##

# j      x_j: min, <> & last-chain-values for 1 ...  7 chains
  1      5.4063      5.1049      5.2434      5.1737      5.1276      5.1582      4.9919      5.0565      4.9724
  2      4.7896      3.3701      3.4759      3.4048      3.3725      3.4578      3.5619      3.6155      3.4306
  3      4.0624      3.4038      3.2311      3.4080      3.4248      3.5595      3.4924      3.4448      3.7357
  4      1.6862      1.1553      1.2682      1.1578      1.1149      1.0820      1.2567      1.1608      1.1501
  5      0.8314      1.2951      1.2965      1.4075      1.3322      1.0605      1.2884      1.3189      1.3869
  6      0.0000      0.0354      0.0000      0.0000      0.0000      0.0000      0.0000      0.0000      0.0000
  7      0.0000      0.0223      0.1340      0.0000      0.0283      0.0000      0.0199      0.0000      0.0000
  8      0.0000      0.0128      0.0009      0.0000      0.0115      0.0000      0.0000      0.0000      0.0000
  9      0.0000      0.0286      0.0000      0.0000      0.0000      0.0786      0.0000      0.0000      0.0270
 10      0.0000      0.0316      0.0000      0.0000      0.0000      0.0000      0.0000      0.0000      0.0000
 11      0.0000      0.0692      0.2501      0.0000      0.0169      0.0000      0.0000      0.0000      0.0000
 12      0.0949      2.0325      1.5702      2.1966      1.9873      2.6107      2.0886      1.8135      1.9850
 13     26.1566     25.0995     25.0920     25.2581     26.2433     25.3921     25.1771     25.3914     25.2275
 14     13.8648     12.4695     13.1034     12.5759     12.6453     12.3475     12.7282     12.5836     12.5591
 15     10.9586     11.3704     11.2443     11.2708     11.0641     11.3659     11.1452     11.8199     11.8561
 16      3.4027      3.6766      3.5707      3.6822      3.5735      3.6591      3.7078      3.4578      3.7647
 17      1.3286      1.8233      1.8225      1.7248      1.8074      1.8474      1.8644      1.9316      1.7544
 18      0.0000      0.0370      0.1855      0.1095      0.1830      0.0025      0.0000      0.2339      0.0878
 19      0.0000      0.0634      0.0000      0.0249      0.0000      0.0000      0.3462      0.0000      0.0075
 20      0.0000      0.0206      0.0000      0.0000      0.0000      0.0000      0.0218      0.0000      0.0000
 21      0.0000      0.0196      0.0000      0.0000      0.0018      0.0000      0.0000      0.0000      0.0607
 22      0.0000      0.0221      0.0000      0.0000      0.0000      0.0286      0.0668      0.0420      0.0000
 23      0.0000      0.0136      0.0000      0.0000      0.0000      0.0000      0.0000      0.0000      0.0000
 24      0.0000      0.0160      0.0000      0.0000      0.0000      0.0000      0.0094      0.0000      0.0000
 25      0.0000      0.0287      0.0000      0.1464      0.0000      0.0000      0.0510      0.0101      0.0000
 26      0.0000      0.0459      0.0000      0.0000      0.0000      0.0174      0.0000      0.0369      0.0073
 27      0.0000      0.1485      0.3198      0.0000      0.0067      0.0103      0.0000      0.1250      0.1472
 28      0.0000      0.1977      0.0000      0.3226      0.1429      0.0000      0.2381      0.1282      0.0000
 29     10.5893     10.3882     10.5812     10.4127     10.2079     10.1984     10.5223     10.3306     10.4013
 30     14.3729     14.2492     14.2514     14.1119     14.3082     14.4392     14.3454     14.3012     14.2574
 31      1.9777      2.3410      2.3333      2.3280      2.2980      2.1626      2.2230      2.4067      2.3471
 32      0.0000      0.4841      0.4693      0.5117      0.5657      0.6668      0.3144      0.3330      0.2477
 33      0.0000      0.0233      0.0000      0.0056      0.0000      0.0000      0.0000      0.0000      0.0098
 34      0.0000      0.0216      0.0000      0.0000      0.0000      0.0000      0.0000      0.0000      0.0000
 35      0.0000      0.0147      0.0000      0.0000      0.0000      0.1228      0.0000      0.0000      0.0000
 36      0.0000      0.0103      0.0000      0.0000      0.0000      0.0000      0.0045      0.0000      0.0000
 37      0.0000      0.0145      0.0000      0.0000      0.0000      0.0000      0.0000      0.0000      0.0000
 38      0.0000      0.0112      0.0000      0.0000      0.0000      0.0000      0.0000      0.0001      0.0546
 39      0.0000      0.0225      0.0000      0.0000      0.0000      0.0000      0.0000      0.0000      0.0000
 40      0.0000      0.0467      0.0000      0.0000      0.0000      0.0000      0.0000      0.0000      0.0000
 41      0.0000      0.1117      0.0859      0.2883      0.0000      0.0000      0.0000      0.0000      0.0582
 42      0.0000      0.0990      0.0000      0.0000      0.0010      0.2278      0.0000      0.0077      0.0000
 43      0.0000      0.0769      0.0327      0.0269      0.0000      0.0424      0.0772      0.0000      0.0000
 44      0.0000      0.0220      0.0000      0.0000      0.0905      0.0095      0.0000      0.0000      0.0000
 45      0.0000      0.0178      0.0000      0.0000      0.0000      0.0000      0.0000      0.0000      0.0000

# j      m_j: min, <> & last-chain-values for 1 ...  7 chains
  1  2.3084E-02  2.2028E-02  2.2541E-02  2.2415E-02  2.2138E-02  2.2299E-02  2.1490E-02  2.1757E-02  2.1414E-02
  2  5.5930E-03  3.9771E-03  4.0864E-03  4.0342E-03  3.9821E-03  4.0881E-03  4.1935E-03  4.2545E-03  4.0404E-03
  3  7.2352E-03  6.1264E-03  5.7936E-03  6.1586E-03  6.1677E-03  6.4185E-03  6.2712E-03  6.1825E-03  6.7106E-03
  4  5.5925E-03  3.8723E-03  4.2345E-03  3.8963E-03  3.7389E-03  3.6332E-03  4.2022E-03  3.8795E-03  3.8470E-03
  5  6.3755E-03  1.0037E-02  1.0010E-02  1.0952E-02  1.0331E-02  8.2342E-03  9.9613E-03  1.0192E-02  1.0727E-02
  6  0.0000E+00  3.8135E-04  0.0000E+00  0.0000E+00  0.0000E+00  0.0000E+00  0.0000E+00  0.0000E+00  0.0000E+00
  7  0.0000E+00  3.4115E-04  2.0397E-03  0.0000E+00  4.3259E-04  0.0000E+00  3.0363E-04  0.0000E+00  0.0000E+00
  8  0.0000E+00  3.7585E-04  2.6649E-05  0.0000E+00  3.3881E-04  0.0000E+00  0.0000E+00  0.0000E+00  0.0000E+00
  9  0.0000E+00  1.6787E-03  0.0000E+00  0.0000E+00  0.0000E+00  4.6208E-03  0.0000E+00  0.0000E+00  1.5831E-03
 10  0.0000E+00  2.5859E-03  0.0000E+00  0.0000E+00  0.0000E+00  0.0000E+00  0.0000E+00  0.0000E+00  0.0000E+00
 11  0.0000E+00  9.9531E-03  3.5850E-02  0.0000E+00  2.4370E-03  0.0000E+00  0.0000E+00  0.0000E+00  0.0000E+00
 12  2.5114E-02  5.4363E-01  4.1841E-01  5.8989E-01  5.3186E-01  6.9958E-01  5.5735E-01  4.8367E-01  5.2989E-01
 13  1.3787E+01  1.3369E+01  1.3315E+01  1.3508E+01  1.3987E+01  1.3550E+01  1.3379E+01  1.3487E+01  1.3411E+01
 14  1.4895E+01  1.3538E+01  1.4172E+01  1.3708E+01  1.3736E+01  1.3430E+01  1.3786E+01  1.3623E+01  1.3608E+01
 15  1.3639E+01  1.4301E+01  1.4090E+01  1.4233E+01  1.3924E+01  1.4322E+01  1.3985E+01  1.4825E+01  1.4883E+01
 16  8.1376E-03  8.8856E-03  8.5971E-03  8.9349E-03  8.6412E-03  8.8594E-03  8.9399E-03  8.3331E-03  9.0806E-03
 17  1.6517E-03  2.2906E-03  2.2810E-03  2.1756E-03  2.2719E-03  2.3251E-03  2.3368E-03  2.4197E-03  2.1997E-03
 18  0.0000E+00  5.1429E-05  2.5714E-04  1.5303E-04  2.5482E-04  3.5339E-06  0.0000E+00  3.2458E-04  1.2194E-04
 19  0.0000E+00  2.6370E-04  0.0000E+00  1.0383E-04  0.0000E+00  0.0000E+00  1.4370E-03  0.0000E+00  3.1252E-05
 20  0.0000E+00  1.9094E-04  0.0000E+00  0.0000E+00  0.0000E+00  0.0000E+00  2.0115E-04  0.0000E+00  0.0000E+00
 21  0.0000E+00  2.1800E-04  0.0000E+00  0.0000E+00  2.0340E-05  0.0000E+00  0.0000E+00  0.0000E+00  6.7359E-04
 22  0.0000E+00  4.0772E-04  0.0000E+00  0.0000E+00  0.0000E+00  5.3037E-04  1.2324E-03  7.7320E-04  0.0000E+00
 23  0.0000E+00  4.9524E-04  0.0000E+00  0.0000E+00  0.0000E+00  0.0000E+00  0.0000E+00  0.0000E+00  0.0000E+00
 24  0.0000E+00  1.3309E-03  0.0000E+00  0.0000E+00  0.0000E+00  0.0000E+00  7.7760E-04  0.0000E+00  0.0000E+00
 25  0.0000E+00  3.6691E-03  0.0000E+00  1.8803E-02  0.0000E+00  0.0000E+00  6.5043E-03  1.2891E-03  0.0000E+00
 26  0.0000E+00  1.1076E-02  0.0000E+00  0.0000E+00  0.0000E+00  4.2082E-03  0.0000E+00  8.8773E-03  1.7664E-03
 27  0.0000E+00  7.2734E-02  1.5609E-01  0.0000E+00  3.3041E-03  5.0634E-03  0.0000E+00  6.1065E-02  7.1950E-02
 28  0.0000E+00  1.9600E-01  0.0000E+00  3.2103E-01  1.4174E-01  0.0000E+00  2.3542E-01  1.2672E-01  0.0000E+00
 29  2.1988E+01  2.1798E+01  2.2120E+01  2.1938E+01  2.1432E+01  2.1440E+01  2.2028E+01  2.1616E+01  2.1783E+01
 30  3.5605E+01  3.5672E+01  3.5543E+01  3.5471E+01  3.5840E+01  3.6214E+01  3.5829E+01  3.5700E+01  3.5623E+01
 31  3.5479E-03  4.2441E-03  4.2142E-03  4.2375E-03  4.1685E-03  3.9279E-03  4.0206E-03  4.3507E-03  4.2468E-03
 32  0.0000E+00  4.6265E-04  4.4685E-04  4.9098E-04  5.4092E-04  6.3843E-04  2.9979E-04  3.1736E-04  2.3627E-04
 33  0.0000E+00  3.3042E-05  0.0000E+00  8.0058E-06  0.0000E+00  0.0000E+00  0.0000E+00  0.0000E+00  1.3885E-05
 34  0.0000E+00  9.8991E-05  0.0000E+00  0.0000E+00  0.0000E+00  0.0000E+00  0.0000E+00  0.0000E+00  0.0000E+00
 35  0.0000E+00  1.3301E-04  0.0000E+00  0.0000E+00  0.0000E+00  1.1105E-03  0.0000E+00  0.0000E+00  0.0000E+00
 36  0.0000E+00  1.1743E-04  0.0000E+00  0.0000E+00  0.0000E+00  0.0000E+00  5.1582E-05  0.0000E+00  0.0000E+00
 37  0.0000E+00  2.8885E-04  0.0000E+00  0.0000E+00  0.0000E+00  0.0000E+00  0.0000E+00  0.0000E+00  0.0000E+00
 38  0.0000E+00  5.0435E-04  0.0000E+00  0.0000E+00  0.0000E+00  0.0000E+00  0.0000E+00  2.8129E-06  2.4591E-03
 39  0.0000E+00  2.5685E-03  0.0000E+00  0.0000E+00  0.0000E+00  0.0000E+00  0.0000E+00  0.0000E+00  0.0000E+00
 40  0.0000E+00  9.1998E-03  0.0000E+00  0.0000E+00  0.0000E+00  0.0000E+00  0.0000E+00  0.0000E+00  0.0000E+00
 41  0.0000E+00  4.0107E-02  3.0743E-02  1.0395E-01  0.0000E+00  0.0000E+00  0.0000E+00  0.0000E+00  2.0845E-02
 42  0.0000E+00  7.0657E-02  0.0000E+00  0.0000E+00  7.0116E-04  1.6296E-01  0.0000E+00  5.4505E-03  0.0000E+00
 43  0.0000E+00  1.2711E-01  5.3777E-02  4.4650E-02  0.0000E+00  7.0181E-02  1.2717E-01  0.0000E+00  0.0000E+00
 44  0.0000E+00  8.2267E-02  0.0000E+00  0.0000E+00  3.3792E-01  3.5430E-02  0.0000E+00  0.0000E+00  0.0000E+00
 45  0.0000E+00  8.0928E-02  0.0000E+00  0.0000E+00  0.0000E+00  0.0000E+00  0.0000E+00  0.0000E+00  0.0000E+00

# AV, chi2 & Mass for <> & i_chain = 1 ...  7 solutions
AV       1.9211      1.9219      1.9206      1.9237      1.9217      1.9229      1.9224      1.9216      1.9226
chi2 2.9074E+00  2.9511E+00  2.9437E+00  2.9450E+00  2.9457E+00  2.9430E+00  2.9398E+00  2.9400E+00  2.9430E+00
Mass 9.5668E-10  9.4769E-10  9.4959E-10  9.4627E-10  9.4693E-10  9.4721E-10  9.5062E-10  9.5002E-10  9.5050E-10
 -33.16                                  [v0_min (km/s) before EX0s...]
  54.86                                  [vd_min (km/s) before EX0s...]


## Synthetic spectrum (Best Model) ##l_obs f_obs f_syn wei
 3070    [Nl_obs]
 3359.00    0.25155   0.45306   -1.000
 3360.00    0.28686   0.43744   -1.000
 3361.00    0.26337   0.44448   -1.000
 3362.00    0.26264   0.47052   -1.000
 3363.00    0.30699   0.49916   -1.000
 3364.00    0.29813   0.51481   -1.000
 3365.00    0.29866   0.51108   -1.000
 3366.00    0.33946   0.49257   -1.000
 3367.00    0.30017   0.47054   -1.000
 3368.00    0.30608   0.45515   -1.000
 3369.00    0.34565   0.44894   -1.000
 3370.00    0.32885   0.44686   -1.000
 3371.00    0.29450   0.44589   -1.000
 3372.00    0.28433   0.45113   -1.000
 3373.00    0.38177   0.46787   -1.000
 3374.00    0.40128   0.49399   -1.000
 3375.00    0.37003   0.52031   -1.000
 3376.00    0.38408   0.53124   -1.000
 3377.00    0.41180   0.52133   -1.000
 3378.00    0.37912   0.50059   -1.000
 3379.00    0.35458   0.48247   -1.000
 3380.00    0.36761   0.47744   -1.000
 3381.00    0.37354   0.48698   -1.000
 3382.00    0.34982   0.50285   -1.000
 3383.00    0.36135   0.51587   -1.000
 3384.00    0.36415   0.52575   -1.000
 3385.00    0.38807   0.53454   -1.000
 3386.00    0.40637   0.53832   -1.000
 3387.00    0.37800   0.53698   -1.000
 3388.00    0.41122   0.53388   -1.000
 3389.00    0.42197   0.53033   -1.000
 3390.00    0.42348   0.52407   -1.000
 3391.00    0.42644   0.51363   -1.000
 3392.00    0.40592   0.50436   -1.000
 3393.00    0.38873   0.50548   -1.000
 3394.00    0.43404   0.51939   -1.000
 3395.00    0.45437   0.53835   -1.000
 3396.00    0.44452   0.55525   -1.000
 3397.00    0.44261   0.56791   -1.000
 3398.00    0.49824   0.57245   36.456
 3399.00    0.51718   0.56865   36.064
 3400.00    0.45774   0.56100   -1.000
 3401.00    0.44983   0.55027   -1.000
 3402.00    0.45614   0.53758   -1.000
 3403.00    0.46065   0.52816   39.121
 3404.00    0.46611   0.52313   39.829
 3405.00    0.44937   0.51850   40.431
 3406.00    0.43848   0.51239   40.652
 3407.00    0.45840   0.50845   41.275
 3408.00    0.46515   0.51031   41.444
 3409.00    0.47302   0.51779   41.076
 3410.00    0.45390   0.52344   39.900
 3411.00    0.44681   0.51937   39.799
 3412.00    0.45985   0.50797   41.477
 3413.00    0.46633   0.49722   42.134
 3414.00    0.42472   0.49539   41.926
 3415.00    0.44731   0.50427   40.784
 3416.00    0.45455   0.51952   38.997
 3417.00    0.46359   0.53669   37.134
 3418.00    0.49856   0.55303   35.426
 3419.00    0.50180   0.56566   35.301
 3420.00    0.52667   0.56933   35.100
 3421.00    0.49764   0.56285   35.405
 3422.00    0.46854   0.55216   36.440
 3423.00    0.47854   0.54508   37.065
 3424.00    0.49665   0.54355   35.979
 3425.00    0.50740   0.54593   35.109
 3426.00    0.49026   0.55125   38.421
 3427.00    0.49819   0.56247   -1.000
 3428.00    0.49521   0.57933   -1.000
 3429.00    0.50193   0.58989   -1.000
 3430.00    0.52211   0.58524   -1.000
 3431.00    0.50624   0.56933   -1.000
 3432.00    0.48562   0.55308   35.073
 3433.00    0.49125   0.54698   38.395
 3434.00    0.51789   0.55157   -1.000
 3435.00    0.52500   0.55748   -1.000
 3436.00    0.52453   0.55564   35.009
 3437.00    0.50882   0.54292   36.715
 3438.00    0.50132   0.51995   39.007
 3439.00    0.50781   0.49103   41.974
 3440.00    0.49784   0.46415   43.475
 3441.00    0.43419   0.45043   43.501
 3442.00    0.43209   0.45335   43.142
 3443.00    0.43218   0.46554   41.336
 3444.00    0.44287   0.47901   39.061
 3445.00    0.45898   0.49279   36.987
 3446.00    0.50377   0.51077   39.635
 3447.00    0.49402   0.53282   -1.000
 3448.00    0.52080   0.55374   -1.000
 3449.00    0.54640   0.56395   -1.000
 3450.00    0.55010   0.55882  281.232
 3451.00    0.56908   0.54425   -1.000
 3452.00    0.53578   0.53153  281.232
 3453.00    0.53721   0.53000  281.232
 3454.00    0.56461   0.53778   -1.000
 3455.00    0.55750   0.54447   -1.000
 3456.00    0.57859   0.54122   -1.000
 3457.00    0.58131   0.52720   -1.000
 3458.00    0.56721   0.51098   35.001
 3459.00    0.50152   0.49855   35.399
 3460.00    0.50232   0.49251   39.082
 3461.00    0.52441   0.49933   -1.000
 3462.00    0.53907   0.51851   -1.000
 3463.00    0.53439   0.53478  281.232
 3464.00    0.55961   0.53822   -1.000
 3465.00    0.55480   0.53566   -1.000
 3466.00    0.56684   0.53585   -1.000
 3467.00    0.56983   0.54363   -1.000
 3468.00    0.56462   0.55518   -1.000
 3469.00    0.58188   0.56389   -1.000
 3470.00    0.59443   0.56396   -1.000
 3471.00    0.57954   0.55337   -1.000
 3472.00    0.54531   0.53557   -1.000
 3473.00    0.55035   0.51385   -1.000
 3474.00    0.52667   0.49285   35.390
 3475.00    0.49330   0.48256   36.481
 3476.00    0.51226   0.48861   39.905
 3477.00    0.52156   0.50539   -1.000
 3478.00    0.53195   0.52422  281.232
 3479.00    0.56397   0.53830   -1.000
 3480.00    0.58205   0.54438   -1.000
 3481.00    0.54674   0.54171  281.232
 3482.00    0.56546   0.53309   -1.000
 3483.00    0.56959   0.52663   -1.000
 3484.00    0.57083   0.53086   -1.000
 3485.00    0.56952   0.54632   -1.000
 3486.00    0.57924   0.56190   -1.000
 3487.00    0.62762   0.56361   -1.000
 3488.00    0.62313   0.54829   -1.000
 3489.00    0.57612   0.52606   -1.000
 3490.00    0.53642   0.51199   -1.000
 3491.00    0.54457   0.51276   -1.000
 3492.00    0.55518   0.52182   -1.000
 3493.00    0.57631   0.52902   -1.000
 3494.00    0.56796   0.52798   -1.000
 3495.00    0.57305   0.52019   -1.000
 3496.00    0.55684   0.51646   -1.000
 3497.00    0.52759   0.52736  281.232
 3498.00    0.53255   0.54871   -1.000
 3499.00    0.58816   0.56413   -1.000
 3500.00    0.60273   0.56939   -1.000
 3501.00    0.57833   0.57353  272.388
 3502.00    0.56766   0.57982  271.632
 3503.00    0.60096   0.58244   -1.000
 3504.00    0.62733   0.57609   -1.000
 3505.00    0.59877   0.56594   -1.000
 3506.00    0.58749   0.56024   -1.000
 3507.00    0.59178   0.55934   -1.000
 3508.00    0.59680   0.55664   -1.000
 3509.00    0.61388   0.54864   -1.000
 3510.00    0.60395   0.53839   -1.000
 3511.00    0.57801   0.52908   -1.000
 3512.00    0.54739   0.51952   -1.000
 3513.00    0.54428   0.51195   -1.000
 3514.00    0.55176   0.51659   -1.000
 3515.00    0.57284   0.53727   -1.000
 3516.00    0.55714   0.56484  280.081
 3517.00    0.57912   0.58394  277.544
 3518.00    0.61748   0.58524   -1.000
 3519.00    0.60089   0.57020   -1.000
 3520.00    0.56558   0.54741   -1.000
 3521.00    0.56554   0.52673   -1.000
 3522.00    0.53951   0.50979   -1.000
 3523.00    0.50625   0.49383   35.096
 3524.00    0.49730   0.48301   36.169
 3525.00    0.48252   0.48399   40.767
 3526.00    0.48778   0.50053   -1.000
 3527.00    0.52435   0.52797  281.232
 3528.00    0.53153   0.55422   -1.000
 3529.00    0.58135   0.56903   -1.000
 3530.00    0.57671   0.57134  281.232
 3531.00    0.56909   0.56835  281.232
 3532.00    0.57710   0.56925  281.232
 3533.00    0.59140   0.57614   -1.000
 3534.00    0.58991   0.58477  281.232
 3535.00    0.57546   0.58949   -1.000
 3536.00    0.59276   0.59115  280.633
 3537.00    0.57067   0.59584   -1.000
 3538.00    0.56422   0.60335   -1.000
 3539.00    0.60405   0.60620  277.534
 3540.00    0.64007   0.60111   -1.000
 3541.00    0.60861   0.59603   -1.000
 3542.00    0.57059   0.59879   -1.000
 3543.00    0.59319   0.60660   -1.000
 3544.00    0.63127   0.61234   -1.000
 3545.00    0.62115   0.61081   -1.000
 3546.00    0.60819   0.60502  281.232
 3547.00    0.62371   0.60151   -1.000
 3548.00    0.61014   0.60197  281.232
 3549.00    0.60310   0.60359  281.232
 3550.00    0.59980   0.60249  281.232
 3551.00    0.59306   0.59604  281.232
 3552.00    0.59578   0.58537   -1.000
 3553.00    0.55478   0.57656   -1.000
 3554.00    0.56208   0.57454   -1.000
 3555.00    0.56504   0.57790   -1.000
 3556.00    0.59974   0.58060   -1.000
 3557.00    0.60082   0.57848   -1.000
 3558.00    0.57996   0.57445  281.232
 3559.00    0.56508   0.57556  281.232
 3560.00    0.54966   0.58494   -1.000
 3561.00    0.56505   0.59724   -1.000
 3562.00    0.60049   0.59919  281.232
 3563.00    0.59675   0.57864   -1.000
 3564.00    0.55737   0.54217   35.494
 3565.00    0.50742   0.51481   36.679
 3566.00    0.50561   0.50747   36.269
 3567.00    0.50325   0.50827   36.277
 3568.00    0.50546   0.50269   37.452
 3569.00    0.50107   0.48891   37.852
 3570.00    0.46513   0.48132   36.567
 3571.00    0.47027   0.48932   40.498
 3572.00    0.50081   0.50509  281.232
 3573.00    0.52556   0.51774  281.232
 3574.00    0.52921   0.52418  281.232
 3575.00    0.52996   0.52691  281.232
 3576.00    0.52294   0.52659  281.232
 3577.00    0.52511   0.51888  152.536
 3578.00    0.53682   0.50078   36.884
 3579.00    0.52822   0.47674   39.709
 3580.00    0.48606   0.45724   41.588
 3581.00    0.45655   0.44966   41.823
 3582.00    0.47551   0.45376   42.127
 3583.00    0.46267   0.45857   43.253
 3584.00    0.46276   0.45461   44.565
 3585.00    0.44737   0.44675   44.723
 3586.00    0.45963   0.44548   42.410
 3587.00    0.45271   0.45591   40.179
 3588.00    0.47066   0.47761   37.963
 3589.00    0.46986   0.50564   40.596
 3590.00    0.49247   0.53255   -1.000
 3591.00    0.52851   0.54950   -1.000
 3592.00    0.55064   0.55428  281.232
 3593.00    0.55203   0.55572  281.232
 3594.00    0.55319   0.56373  281.232
 3595.00    0.57919   0.57961  280.352
 3596.00    0.56834   0.59546   -1.000
 3597.00    0.58229   0.60772   -1.000
 3598.00    0.61767   0.61776  262.504
 3599.00    0.63167   0.62208   -1.000
 3600.00    0.62814   0.61400   -1.000
 3601.00    0.61435   0.59308   -1.000
 3602.00    0.59432   0.56723   -1.000
 3603.00    0.55237   0.54662  281.232
 3604.00    0.53281   0.53807  281.232
 3605.00    0.52375   0.53760   -1.000
 3606.00    0.52190   0.53506   -1.000
 3607.00    0.52159   0.52524  281.232
 3608.00    0.51922   0.51382  281.232
 3609.00    0.51808   0.51326  281.232
 3610.00    0.52943   0.52676  281.232
 3611.00    0.53061   0.54312   -1.000
 3612.00    0.53047   0.55523   -1.000
 3613.00    0.53548   0.56604   -1.000
 3614.00    0.55436   0.57718   -1.000
 3615.00    0.56334   0.58145   -1.000
 3616.00    0.58387   0.56483   -1.000
 3617.00    0.54907   0.53055  140.560
 3618.00    0.52711   0.50681   40.646
 3619.00    0.49438   0.51139   -1.000
 3620.00    0.53904   0.53713  281.232
 3621.00    0.57381   0.56786  279.595
 3622.00    0.58924   0.59015  273.555
 3623.00    0.58123   0.60429   -1.000
 3624.00    0.59806   0.62092   -1.000
 3625.00    0.61333   0.64418   -1.000
 3626.00    0.64467   0.66556   -1.000
 3627.00    0.64716   0.67241   -1.000
 3628.00    0.66188   0.65294  271.257
 3629.00    0.61909   0.60916   -1.000
 3630.00    0.58459   0.56326   -1.000
 3631.00    0.55587   0.53802   -1.000
 3632.00    0.53657   0.53874  281.232
 3633.00    0.55919   0.55476  281.232
 3634.00    0.54884   0.57104   -1.000
 3635.00    0.57329   0.58101  281.232
 3636.00    0.57249   0.59062   -1.000
 3637.00    0.58963   0.60799   -1.000
 3638.00    0.61380   0.62933   -1.000
 3639.00    0.62715   0.64528   -1.000
 3640.00    0.63698   0.64728  260.249
 3641.00    0.63088   0.63427  269.987
 3642.00    0.62305   0.61304   -1.000
 3643.00    0.58027   0.59230  281.232
 3644.00    0.57325   0.57718  281.232
 3645.00    0.57168   0.56541  281.232
 3646.00    0.56947   0.55370   -1.000
 3647.00    0.55385   0.54700  281.232
 3648.00    0.53184   0.55068   -1.000
 3649.00    0.57111   0.56524  281.232
 3650.00    0.58626   0.58818  269.075
 3651.00    0.59387   0.61419   -1.000
 3652.00    0.60570   0.63597   -1.000
 3653.00    0.62987   0.64914   -1.000
 3654.00    0.64121   0.65638   -1.000
 3655.00    0.63960   0.66372   -1.000
 3656.00    0.64381   0.67458   -1.000
 3657.00    0.64943   0.68446   -1.000
 3658.00    0.68457   0.68971  239.834
 3659.00    0.67589   0.69065   -1.000
 3660.00    0.64426   0.68633   -1.000
 3661.00    0.66709   0.67642  245.872
 3662.00    0.65802   0.66431  249.716
 3663.00    0.63854   0.65531   -1.000
 3664.00    0.61649   0.65254   -1.000
 3665.00    0.64213   0.65379  249.242
 3666.00    0.66841   0.65243   -1.000
 3667.00    0.65185   0.64381  257.540
 3668.00    0.64052   0.63241  262.547
 3669.00    0.61468   0.63021   -1.000
 3670.00    0.59879   0.64174   -1.000
 3671.00    0.63843   0.65862   -1.000
 3672.00    0.65701   0.66975  245.262
 3673.00    0.67501   0.67144  245.331
 3674.00    0.67212   0.66477  247.178
 3675.00    0.66280   0.65080   -1.000
 3676.00    0.63810   0.63201  262.922
 3677.00    0.63597   0.61190   -1.000
 3678.00    0.63019   0.59581   -1.000
 3679.00    0.58310   0.58909  274.005
 3680.00    0.57754   0.59363   -1.000
 3681.00    0.59085   0.60633   -1.000
 3682.00    0.59215   0.61911   -1.000
 3683.00    0.60107   0.62308   -1.000
 3684.00    0.61965   0.61165  277.439
 3685.00    0.61301   0.58829   -1.000
 3686.00    0.55966   0.56912  281.232
 3687.00    0.54985   0.56868   -1.000
 3688.00    0.56164   0.58932   -1.000
 3689.00    0.60363   0.62230   -1.000
 3690.00    0.65009   0.65211  239.826
 3691.00    0.67185   0.66480  242.718
 3692.00    0.68199   0.66006   -1.000
 3693.00    0.67818   0.64958   -1.000
 3694.00    0.64636   0.64172  250.014
 3695.00    0.63386   0.63949  247.602
 3696.00    0.61776   0.64523   -1.000
 3697.00    0.62710   0.66066   -1.000
 3698.00    0.65530   0.68158   -1.000
 3699.00    0.71516   0.69774   -1.000
 3700.00    0.72691   0.69883   -1.000
 3701.00    0.69554   0.67709   -1.000
 3702.00    0.66744   0.63446   -1.000
 3703.00    0.62243   0.58551   -1.000
 3704.00    0.59096   0.54699   -1.000
 3705.00    0.54813   0.53057   -1.000
 3706.00    0.54033   0.53427  281.232
 3707.00    0.55863   0.54529   -1.000
 3708.00    0.58293   0.55734   -1.000
 3709.00    0.57502   0.57207  268.545
 3710.00    0.59988   0.59184  255.674
 3711.00    0.63227   0.61857   -1.000
 3712.00    0.65804   0.64997  231.103
 3713.00    0.69259   0.67638   -1.000
 3714.00    0.71288   0.69006   -1.000
 3715.00    0.72013   0.68739   -1.000
 3716.00    0.69847   0.66718   -1.000
 3717.00    0.66065   0.63053   -1.000
 3718.00    0.61745   0.57818   -1.000
 3719.00    0.56741   0.52016   -1.000
 3720.00    0.52552   0.48212   42.931
 3721.00    0.50654   0.47981   -1.000
 3722.00    0.54218   0.50949   -1.000
 3723.00    0.57801   0.55729   -1.000
 3724.00    0.59846   0.60059  252.430
 3725.00    0.64508   0.61977   -1.000
 3726.00    0.67263   0.61882   -1.000
 3727.00    0.64512   0.61715   -1.000
 3728.00    0.62606   0.62139  260.798
 3729.00    0.64394   0.62225   -1.000
 3730.00    0.65168   0.60621   -1.000
 3731.00    0.62000   0.56687   -1.000
 3732.00    0.57752   0.51477   35.582
 3733.00    0.52063   0.46559   39.330
 3734.00    0.45975   0.43386   40.058
 3735.00    0.45734   0.43149   37.639
 3736.00    0.47268   0.45812   42.294
 3737.00    0.48578   0.50554   -1.000
 3738.00    0.54993   0.56224  273.116
 3739.00    0.62473   0.61005   -1.000
 3740.00    0.66687   0.63342   -1.000
 3741.00    0.66921   0.62998   -1.000
 3742.00    0.64527   0.60619   -1.000
 3743.00    0.60751   0.57386   -1.000
 3744.00    0.57240   0.54555   -1.000
 3745.00    0.54569   0.52366   -1.000
 3746.00    0.53467   0.50093   35.754
 3747.00    0.51709   0.47352   37.693
 3748.00    0.48182   0.45014   46.415
 3749.00    0.47251   0.45071   -1.000
 3750.00    0.50919   0.48426   -1.000
 3751.00    0.55396   0.53769   -1.000
 3752.00    0.59706   0.59317  246.432
 3753.00    0.65465   0.64036   -1.000
 3754.00    0.68889   0.66746   -1.000
 3755.00    0.69048   0.66385   -1.000
 3756.00    0.65306   0.63165   -1.000
 3757.00    0.60623   0.58921   -1.000
 3758.00    0.57722   0.56201   -1.000
 3759.00    0.57276   0.56134   -1.000
 3760.00    0.58521   0.57610  273.640
 3761.00    0.61476   0.59063   -1.000
 3762.00    0.64172   0.59888   -1.000
 3763.00    0.62723   0.60215   -1.000
 3764.00    0.62635   0.60008   -1.000
 3765.00    0.64480   0.59165   -1.000
 3766.00    0.64379   0.58116   -1.000
 3767.00    0.61823   0.57302   -1.000
 3768.00    0.60999   0.56666   -1.000
 3769.00    0.61894   0.56192   -1.000
 3770.00    0.61348   0.56539   -1.000
 3771.00    0.62972   0.58481   -1.000
 3772.00    0.66101   0.61471   -1.000
 3773.00    0.68934   0.63965   -1.000
 3774.00    0.69171   0.65401   -1.000
 3775.00    0.67879   0.66336   -1.000
 3776.00    0.67516   0.67302  239.124
 3777.00    0.69484   0.68598  234.668
 3778.00    0.71561   0.70107   -1.000
 3779.00    0.72297   0.71600  222.780
 3780.00    0.73475   0.72810  221.375
 3781.00    0.73941   0.73577  220.353
 3782.00    0.72585   0.73900  221.584
 3783.00    0.73127   0.73377  228.247
 3784.00    0.73028   0.71416   -1.000
 3785.00    0.71145   0.68264   -1.000
 3786.00    0.67646   0.64977   -1.000
 3787.00    0.63197   0.62547  273.489
 3788.00    0.62921   0.61502   -1.000
 3789.00    0.61272   0.61666  267.650
 3790.00    0.61235   0.62287  266.457
 3791.00    0.62861   0.62346  272.008
 3792.00    0.65142   0.61183   -1.000
 3793.00    0.63375   0.59048   -1.000
 3794.00    0.60117   0.56584   -1.000
 3795.00    0.57886   0.54055   -1.000
 3796.00    0.55896   0.51236   -1.000
 3797.00    0.53730   0.48812   -1.000
 3798.00    0.53290   0.48898   -1.000
 3799.00    0.53252   0.52321  280.820
 3800.00    0.55698   0.57590   -1.000
 3801.00    0.61351   0.62792   -1.000
 3802.00    0.63677   0.66553   -1.000
 3803.00    0.68091   0.68406  246.028
 3804.00    0.68335   0.68476  251.169
 3805.00    0.67245   0.67162  259.857
 3806.00    0.64266   0.65915   -1.000
 3807.00    0.63233   0.66291   -1.000
 3808.00    0.65833   0.68199   -1.000
 3809.00    0.67843   0.70128   -1.000
 3810.00    0.70775   0.70510  251.765
 3811.00    0.69795   0.68777   -1.000
 3812.00    0.67641   0.65564   -1.000
 3813.00    0.64385   0.61975   -1.000
 3814.00    0.61862   0.59322   -1.000
 3815.00    0.58469   0.58627  281.232
 3816.00    0.59060   0.59325  281.232
 3817.00    0.59961   0.59587  281.232
 3818.00    0.60713   0.58171   -1.000
 3819.00    0.58818   0.55812   -1.000
 3820.00    0.54318   0.54621  281.232
 3821.00    0.55605   0.55431  281.232
 3822.00    0.58718   0.56485   -1.000
 3823.00    0.58554   0.55814   -1.000
 3824.00    0.53790   0.53712   36.680
 3825.00    0.50982   0.51739   37.201
 3826.00    0.49494   0.50827   36.793
 3827.00    0.48127   0.50919   36.190
 3828.00    0.48874   0.51303   35.838
 3829.00    0.51490   0.51212   36.579
 3830.00    0.50868   0.50164   38.564
 3831.00    0.50385   0.48117   41.258
 3832.00    0.50862   0.45443   41.984
 3833.00    0.48588   0.43034   40.902
 3834.00    0.46144   0.41903   39.409
 3835.00    0.47415   0.42240   38.959
 3836.00    0.48476   0.43285   39.854
 3837.00    0.49192   0.44264   40.419
 3838.00    0.47529   0.45294   39.267
 3839.00    0.46618   0.47215   47.317
 3840.00    0.49713   0.50606  281.232
 3841.00    0.54416   0.54951  281.232
 3842.00    0.59518   0.59277  281.232
 3843.00    0.63585   0.62495   -1.000
 3844.00    0.64273   0.64192  281.232
 3845.00    0.64460   0.65067  281.232
 3846.00    0.66006   0.65716  281.232
 3847.00    0.66227   0.65869  281.232
 3848.00    0.64484   0.65267  281.232
 3849.00    0.62626   0.64605   -1.000
 3850.00    0.60846   0.64740   -1.000
 3851.00    0.61443   0.65679   -1.000
 3852.00    0.62986   0.66453   -1.000
 3853.00    0.62788   0.66022   -1.000
 3854.00    0.61972   0.64503   -1.000
 3855.00    0.60781   0.62747   -1.000
 3856.00    0.60105   0.60959  108.108
 3857.00    0.59181   0.58971   35.071
 3858.00    0.56568   0.57283   36.564
 3859.00    0.53258   0.57090   45.590
 3860.00    0.53725   0.59030   -1.000
 3861.00    0.56891   0.62380   -1.000
 3862.00    0.60813   0.65309   -1.000
 3863.00    0.65531   0.66404  279.438
 3864.00    0.66286   0.66125  281.232
 3865.00    0.66101   0.65598  281.232
 3866.00    0.64652   0.65335  281.232
 3867.00    0.63672   0.65266   -1.000
 3868.00    0.61939   0.64755   -1.000
 3869.00    0.58652   0.63226   -1.000
 3870.00    0.54290   0.61008   44.779
 3871.00    0.51924   0.59309   -1.000
 3872.00    0.53708   0.59356   -1.000
 3873.00    0.58404   0.61492   -1.000
 3874.00    0.64125   0.64373  271.277
 3875.00    0.66283   0.65538  281.232
 3876.00    0.64864   0.64126  281.232
 3877.00    0.59892   0.61841   -1.000
 3878.00    0.57252   0.60566   -1.000
 3879.00    0.56912   0.60587   -1.000
 3880.00    0.56145   0.61030   -1.000
 3881.00    0.54783   0.61179   -1.000
 3882.00    0.56003   0.61223   -1.000
 3883.00    0.58862   0.61035   -1.000
 3884.00    0.60756   0.59581   -1.000
 3885.00    0.60542   0.56334   -1.000
 3886.00    0.57625   0.52497   -1.000
 3887.00    0.56888   0.49939   -1.000
 3888.00    0.55895   0.49930   -1.000
 3889.00    0.58761   0.52802   -1.000
 3890.00    0.62879   0.57697   -1.000
 3891.00    0.66147   0.62630   -1.000
 3892.00    0.69729   0.65540   -1.000
 3893.00    0.70512   0.66269   -1.000
 3894.00    0.71123   0.66336   -1.000
 3895.00    0.71186   0.67031   -1.000
 3896.00    0.71671   0.68230   -1.000
 3897.00    0.72592   0.68949   -1.000
 3898.00    0.72296   0.68943   -1.000
 3899.00    0.71721   0.69024   -1.000
 3900.00    0.73971   0.69605   -1.000
 3901.00    0.73282   0.70056   -1.000
 3902.00    0.70519   0.69659  242.673
 3903.00    0.72209   0.68372   -1.000
 3904.00    0.71058   0.67129   -1.000
 3905.00    0.66381   0.67026  248.110
 3906.00    0.65048   0.68563   -1.000
 3907.00    0.69495   0.71517   -1.000
 3908.00    0.74705   0.74594  215.430
 3909.00    0.76484   0.76575  213.519
 3910.00    0.76786   0.77630  211.678
 3911.00    0.78296   0.78222  211.424
 3912.00    0.78491   0.78216  214.507
 3913.00    0.76451   0.77614  219.177
 3914.00    0.75662   0.76692  223.739
 3915.00    0.76482   0.75691  226.565
 3916.00    0.76621   0.74656   -1.000
 3917.00    0.75714   0.73205   -1.000
 3918.00    0.72809   0.71094   -1.000
 3919.00    0.68578   0.68742  259.385
 3920.00    0.64919   0.66939   -1.000
 3921.00    0.65195   0.66385   -1.000
 3922.00    0.68059   0.66933  256.266
 3923.00    0.68123   0.67496  261.241
 3924.00    0.66744   0.66982  277.658
 3925.00    0.63576   0.64909   -1.000
 3926.00    0.60862   0.61445  111.503
 3927.00    0.57440   0.57108   40.195
 3928.00    0.50021   0.52642   47.114
 3929.00    0.43760   0.48216   55.271
 3930.00    0.38172   0.43699   -1.000
 3931.00    0.32601   0.39245   -1.000
 3932.00    0.29052   0.35406   -1.000
 3933.00    0.28327   0.33809   -1.000
 3934.00    0.28696   0.35608   -1.000
 3935.00    0.30114   0.39840   -1.000
 3936.00    0.34065   0.45067   -1.000
 3937.00    0.39963   0.50559   -1.000
 3938.00    0.46797   0.55557   -1.000
 3939.00    0.52469   0.59654   -1.000
 3940.00    0.56696   0.62463   -1.000
 3941.00    0.60279   0.63767   -1.000
 3942.00    0.60470   0.64080   -1.000
 3943.00    0.60177   0.64396   -1.000
 3944.00    0.61884   0.65772   -1.000
 3945.00    0.67210   0.68061  239.762
 3946.00    0.71074   0.70108  237.574
 3947.00    0.70176   0.71422  233.882
 3948.00    0.71253   0.72604  225.412
 3949.00    0.74383   0.74032  220.349
 3950.00    0.75863   0.74969  222.121
 3951.00    0.76086   0.75118  223.439
 3952.00    0.74773   0.75310  218.884
 3953.00    0.75112   0.75907  215.514
 3954.00    0.78027   0.76143   -1.000
 3955.00    0.78283   0.75379   -1.000
 3956.00    0.76574   0.74321   -1.000
 3957.00    0.75374   0.73872   -1.000
 3958.00    0.75056   0.73242   -1.000
 3959.00    0.74219   0.70768   -1.000
 3960.00    0.69420   0.66337   -1.000
 3961.00    0.62165   0.61533  281.232
 3962.00    0.57443   0.57835  103.466
 3963.00    0.54799   0.54999   37.898
 3964.00    0.52541   0.51596   45.058
 3965.00    0.46228   0.46474   55.532
 3966.00    0.37805   0.40056   66.231
 3967.00    0.30966   0.34533   69.654
 3968.00    0.28357   0.31931   62.242
 3969.00    0.29495   0.32986   51.184
 3970.00    0.33801   0.37218   42.287
 3971.00    0.38850   0.43267   49.283
 3972.00    0.45479   0.49784   -1.000
 3973.00    0.52893   0.56166   -1.000
 3974.00    0.60031   0.61991   -1.000
 3975.00    0.65048   0.67097   -1.000
 3976.00    0.68567   0.71547   -1.000
 3977.00    0.73423   0.75502   -1.000
 3978.00    0.78901   0.79076  198.700
 3979.00    0.82598   0.81546  197.545
 3980.00    0.83962   0.82361   -1.000
 3981.00    0.82866   0.81980  202.104
 3982.00    0.81378   0.81529  199.734
 3983.00    0.81164   0.81976  195.571
 3984.00    0.82927   0.83159  191.918
 3985.00    0.86409   0.84483   -1.000
 3986.00    0.85563   0.85845  185.540
 3987.00    0.86887   0.87231  184.505
 3988.00    0.87994   0.88273  184.703
 3989.00    0.87189   0.88849  182.569
 3990.00    0.88487   0.89463  178.193
 3991.00    0.90874   0.90470  175.716
 3992.00    0.94150   0.91396   -1.000
 3993.00    0.93914   0.91372   -1.000
 3994.00    0.91825   0.90200   -1.000
 3995.00    0.90132   0.88467   -1.000
 3996.00    0.90144   0.87245   -1.000
 3997.00    0.87557   0.87478  183.964
 3998.00    0.87407   0.89111   -1.000
 3999.00    0.90885   0.91393  171.061
 4000.00    0.94051   0.93538  168.477
 4001.00    0.95472   0.94744  167.736
 4002.00    0.97207   0.94228   -1.000
 4003.00    0.96979   0.91674   -1.000
 4004.00    0.93090   0.88037   -1.000
 4005.00    0.87402   0.85832  186.335
 4006.00    0.87640   0.86789  176.351
 4007.00    0.91781   0.89966   -1.000
 4008.00    0.95618   0.93127   -1.000
 4009.00    0.97309   0.95017   -1.000
 4010.00    1.02690   0.95881   -1.000
 4011.00    0.99331   0.96297   -1.000
 4012.00    0.97822   0.96643  168.763
 4013.00    0.97172   0.97083  167.103
 4014.00    0.99583   0.97448   -1.000
 4015.00    1.00450   0.97466   -1.000
 4016.00    0.98960   0.97281  168.772
 4017.00    0.98406   0.97498  167.342
 4018.00    1.00000   0.98226  165.592
 4019.00    1.01891   0.98949   -1.000
 4020.00    1.01462   0.99139   -1.000
 4021.00    1.00793   0.98749   -1.000
 4022.00    0.99287   0.98033  170.910
 4023.00    0.99315   0.97077   -1.000
 4024.00    0.96991   0.96482  165.598
 4025.00    0.98229   0.97142  160.411
 4026.00    1.03965   0.99027   -1.000
 4027.00    1.07052   1.00426   -1.000
 4028.00    1.04252   0.99329   -1.000
 4029.00    1.01501   0.95665   -1.000
 4030.00    0.96899   0.91280   -1.000
 4031.00    0.90700   0.88130   -1.000
 4032.00    0.90922   0.87052   -1.000
 4033.00    0.90556   0.88130   -1.000
 4034.00    0.91818   0.91158  167.374
 4035.00    0.96565   0.95529  159.850
 4036.00    1.01715   1.00251  155.807
 4037.00    1.06190   1.03614   -1.000
 4038.00    1.08399   1.04249   -1.000
 4039.00    1.07066   1.02991   -1.000
 4040.00    1.02529   1.01660  164.713
 4041.00    1.02125   1.00432  167.627
 4042.00    1.03324   0.97781   -1.000
 4043.00    1.00393   0.92495   -1.000
 4044.00    0.92684   0.86476   -1.000
 4045.00    0.85204   0.83881  190.197
 4046.00    0.85895   0.86495  173.664
 4047.00    0.92248   0.92270  165.001
 4048.00    0.99326   0.98019  161.267
 4049.00    1.04172   1.01744   -1.000
 4050.00    1.06238   1.03052   -1.000
 4051.00    1.07149   1.02521   -1.000
 4052.00    1.05656   1.00817   -1.000
 4053.00    1.00979   0.98905   -1.000
 4054.00    0.99278   0.97527   -1.000
 4055.00    1.00613   0.96422   -1.000
 4056.00    0.99126   0.95412   -1.000
 4057.00    0.96750   0.95260  172.801
 4058.00    0.95825   0.96576  167.314
 4059.00    1.00511   0.98438   -1.000
 4060.00    1.04637   0.98471   -1.000
 4061.00    1.04013   0.95399   -1.000
 4062.00    0.98492   0.90878   -1.000
 4063.00    0.91516   0.87755   -1.000
 4064.00    0.91468   0.87375   -1.000
 4065.00    0.93812   0.89251   -1.000
 4066.00    0.95102   0.92124   -1.000
 4067.00    0.97048   0.94904   -1.000
 4068.00    1.03191   0.96618   -1.000
 4069.00    1.06371   0.96075   -1.000
 4070.00    1.02333   0.93565   -1.000
 4071.00    0.96202   0.91622   -1.000
 4072.00    0.95806   0.92135   -1.000
 4073.00    0.99603   0.93901   -1.000
 4074.00    1.02915   0.94059   -1.000
 4075.00    0.99322   0.91637   -1.000
 4076.00    0.89912   0.88697  196.772
 4077.00    0.85538   0.87968   -1.000
 4078.00    0.88019   0.90530   -1.000
 4079.00    0.93698   0.95264  164.685
 4080.00    1.00234   0.99554  162.291
 4081.00    1.03692   1.01180   -1.000
 4082.00    1.04318   1.00082   -1.000
 4083.00    1.01458   0.98137   -1.000
 4084.00    0.99100   0.97559  168.024
 4085.00    1.01025   0.99218   -1.000
 4086.00    1.04642   1.02293   -1.000
 4087.00    1.07220   1.05229   -1.000
 4088.00    1.09808   1.06635   -1.000
 4089.00    1.11410   1.06135   -1.000
 4090.00    1.07979   1.04626   -1.000
 4091.00    1.05643   1.03358   -1.000
 4092.00    1.05860   1.02475   -1.000
 4093.00    1.05923   1.01178   -1.000
 4094.00    1.05465   0.98831   -1.000
 4095.00    1.01569   0.95700   -1.000
 4096.00    0.96313   0.92718   -1.000
 4097.00    0.95022   0.89967   -1.000
 4098.00    0.96400   0.86442   -1.000
 4099.00    0.93979   0.81334   -1.000
 4100.00    0.86298   0.76012   -1.000
 4101.00    0.78804   0.73536   -1.000
 4102.00    0.77783   0.75680   -1.000
 4103.00    0.84404   0.81571   -1.000
 4104.00    0.92297   0.88435   -1.000
 4105.00    0.97383   0.93663   -1.000
 4106.00    1.00768   0.96685   -1.000
 4107.00    1.02003   0.98033   -1.000
 4108.00    1.01915   0.98139   -1.000
 4109.00    0.99576   0.97847   -1.000
 4110.00    0.99070   0.98010  173.711
 4111.00    1.00377   0.98927  170.046
 4112.00    1.02428   1.00440   -1.000
 4113.00    1.04391   1.02327   -1.000
 4114.00    1.05263   1.04079  164.210
 4115.00    1.05638   1.04837  165.973
 4116.00    1.05442   1.04194  170.286
 4117.00    1.03791   1.02622  174.880
 4118.00    1.03168   1.01100   -1.000
 4119.00    1.02627   1.00488   -1.000
 4120.00    1.02431   1.00852  172.103
 4121.00    1.03910   1.01542   -1.000
 4122.00    1.04186   1.02239   -1.000
 4123.00    1.03110   1.03117  167.106
 4124.00    1.04779   1.04053  167.544
 4125.00    1.07081   1.04333   -1.000
 4126.00    1.07302   1.03575   -1.000
 4127.00    1.05801   1.02396   -1.000
 4128.00    1.04100   1.01505   -1.000
 4129.00    1.02742   1.00509   -1.000
 4130.00    1.01227   0.98606   -1.000
 4131.00    0.99274   0.96130   -1.000
 4132.00    0.96353   0.94653   -1.000
 4133.00    0.93961   0.95616   -1.000
 4134.00    0.96363   0.98745   -1.000
 4135.00    1.02447   1.02636  166.938
 4136.00    1.07179   1.05953  164.337
 4137.00    1.07338   1.08120  162.421
 4138.00    1.08085   1.09257  163.167
 4139.00    1.10971   1.08894   -1.000
 4140.00    1.11457   1.06114   -1.000
 4141.00    1.05743   1.01272   -1.000
 4142.00    0.96980   0.96469  196.718
 4143.00    0.91951   0.94380   -1.000
 4144.00    0.95061   0.96178  177.524
 4145.00    1.00657   1.00128  172.642
 4146.00    1.03807   1.03280  172.690
 4147.00    1.05549   1.04219  176.653
 4148.00    1.04496   1.03747  180.724
 4149.00    1.03738   1.03345  181.667
 4150.00    1.02875   1.03409  180.349
 4151.00    1.01839   1.03279  180.257
 4152.00    1.04432   1.02414   -1.000
 4153.00    1.19961   1.01104   -1.000
 4154.00    1.27169   1.00332   -1.000
 4155.00    0.93056   1.00779   -1.000
 4156.00    0.77063   1.02265   -1.000
 4157.00    1.01142   1.04356   -1.000
 4158.00    1.08819   1.06632   -1.000
 4159.00    1.07376   1.08484  171.346
 4160.00    1.08494   1.09763  167.147
 4161.00    1.08409   1.10755   -1.000
 4162.00    1.10013   1.11499  168.053
 4163.00    1.11003   1.11660  170.793
 4164.00    1.09298   1.10784  173.792
 4165.00    1.05834   1.08920   -1.000
 4166.00    1.04802   1.07043   -1.000
 4167.00    1.03925   1.06203   -1.000
 4168.00    1.04197   1.06306   -1.000
 4169.00    1.07194   1.05874  179.992
 4170.00    1.07360   1.03601   -1.000
 4171.00    1.02078   1.00087   -1.000
 4172.00    0.96926   0.97460  196.403
 4173.00    0.94965   0.97415   -1.000
 4174.00    0.96909   0.99453   -1.000
 4175.00    1.00624   1.01578  185.082
 4176.00    1.00981   1.02807   -1.000
 4177.00    1.00437   1.03827   -1.000
 4178.00    1.00508   1.05109   -1.000
 4179.00    1.02032   1.05976   -1.000
 4180.00    1.03083   1.05706   -1.000
 4181.00    1.02724   1.04964   -1.000
 4182.00    1.01926   1.05216   -1.000
 4183.00    1.03276   1.06529   -1.000
 4184.00    1.06628   1.07317  174.134
 4185.00    1.07001   1.06414  179.903
 4186.00    1.03243   1.04516  182.605
 4187.00    0.99835   1.03405   -1.000
 4188.00    1.00518   1.03918   -1.000
 4189.00    1.02731   1.05352   -1.000
 4190.00    1.04676   1.06838   -1.000
 4191.00    1.05829   1.08304   -1.000
 4192.00    1.08288   1.09573  169.507
 4193.00    1.10068   1.09646  176.097
 4194.00    1.08900   1.07711  184.321
 4195.00    1.04974   1.04343  189.297
 4196.00    1.01208   1.00989  191.494
 4197.00    0.98591   0.98641  190.907
 4198.00    0.96420   0.97402  188.377
 4199.00    0.97305   0.97114  186.234
 4200.00    1.01108   0.97636   -1.000
 4201.00    1.01086   0.98731   -1.000
 4202.00    0.99598   1.00494  181.313
 4203.00    1.00747   1.03076   -1.000
 4204.00    1.02771   1.06080   -1.000
 4205.00    1.04377   1.08869   -1.000
 4206.00    1.08009   1.11056   -1.000
 4207.00    1.12030   1.12267  168.639
 4208.00    1.12807   1.12381  168.998
 4209.00    1.11336   1.11984  168.296
 4210.00    1.10325   1.11977  167.877
 4211.00    1.10639   1.12415   -1.000
 4212.00    1.11258   1.11970  177.148
 4213.00    1.10150   1.09666  184.211
 4214.00    1.04547   1.06684   -1.000
 4215.00    1.00366   1.05237   -1.000
 4216.00    1.01867   1.06648   -1.000
 4217.00    1.05002   1.10253   -1.000
 4218.00    1.11078   1.13987   -1.000
 4219.00    1.16333   1.16194  156.018
 4220.00    1.18309   1.16161   -1.000
 4221.00    1.18166   1.13670   -1.000
 4222.00    1.14043   1.08484   -1.000
 4223.00    1.08853   1.00859   -1.000
 4224.00    1.00585   0.92464   -1.000
 4225.00    0.88881   0.86107   -1.000
 4226.00    0.80076   0.84759   -1.000
 4227.00    0.81678   0.89802   -1.000
 4228.00    0.92904   0.98625   -1.000
 4229.00    1.04209   1.06246   -1.000
 4230.00    1.10549   1.10023  163.038
 4231.00    1.13573   1.10381   -1.000
 4232.00    1.11698   1.08885   -1.000
 4233.00    1.08330   1.07009  172.973
 4234.00    1.08224   1.05531   -1.000
 4235.00    1.06859   1.04715   -1.000
 4236.00    1.03791   1.04715  175.688
 4237.00    1.03164   1.05824   -1.000
 4238.00    1.05326   1.07834   -1.000
 4239.00    1.05960   1.10057   -1.000
 4240.00    1.06933   1.12062   -1.000
 4241.00    1.09337   1.13755   -1.000
 4242.00    1.11241   1.15420   -1.000
 4243.00    1.14920   1.17190   -1.000
 4244.00    1.18104   1.18151  162.650
 4245.00    1.17514   1.16989  169.906
 4246.00    1.12963   1.13655  175.532
 4247.00    1.08488   1.09571  178.849
 4248.00    1.04990   1.06516  179.687
 4249.00    1.03127   1.05554   -1.000
 4250.00    1.04717   1.06455   -1.000
 4251.00    1.07564   1.07927  169.610
 4252.00    1.10736   1.08302   -1.000
 4253.00    1.10328   1.07189   -1.000
 4254.00    1.07043   1.06626  170.033
 4255.00    1.07470   1.08392  165.252
 4256.00    1.11210   1.10890  166.990
 4257.00    1.13261   1.10996   -1.000
 4258.00    1.09810   1.07996   -1.000
 4259.00    1.05022   1.04599  182.669
 4260.00    1.01095   1.04298   -1.000
 4261.00    1.00947   1.08099   -1.000
 4262.00    1.07550   1.13863   -1.000
 4263.00    1.16172   1.18557   -1.000
 4264.00    1.20347   1.20716  156.085
 4265.00    1.20523   1.20615  159.761
 4266.00    1.18740   1.18899  165.006
 4267.00    1.15997   1.15768  170.522
 4268.00    1.13427   1.11246   -1.000
 4269.00    1.09847   1.05689   -1.000
 4270.00    1.02559   1.00347   -1.000
 4271.00    0.97049   0.96840  197.834
 4272.00    0.93825   0.96062   -1.000
 4273.00    0.93652   0.97762   -1.000
 4274.00    0.98021   1.01252   -1.000
 4275.00    1.03919   1.06245   -1.000
 4276.00    1.09707   1.11825   -1.000
 4277.00    1.14499   1.15701  164.563
 4278.00    1.15495   1.16212  171.587
 4279.00    1.12485   1.14342   -1.000
 4280.00    1.07936   1.12531   -1.000
 4281.00    1.06841   1.12212   -1.000
 4282.00    1.10411   1.12668   -1.000
 4283.00    1.12127   1.12409  175.658
 4284.00    1.09803   1.11208  180.668
 4285.00    1.05720   1.09650   -1.000
 4286.00    1.03704   1.07847   -1.000
 4287.00    1.02894   1.05302   -1.000
 4288.00    1.00051   1.01813   -1.000
 4289.00    0.95721   0.99011   -1.000
 4290.00    0.94627   0.99276   -1.000
 4291.00    0.98966   1.02537   -1.000
 4292.00    1.03448   1.06185   -1.000
 4293.00    1.06530   1.07878  180.032
 4294.00    1.08238   1.07300  183.508
 4295.00    1.07568   1.05201   -1.000
 4296.00    1.04092   1.01838   -1.000
 4297.00    1.00289   0.97128   -1.000
 4298.00    0.93650   0.91913   -1.000
 4299.00    0.86959   0.88113  228.496
 4300.00    0.83552   0.86872   -1.000
 4301.00    0.83900   0.87583   -1.000
 4302.00    0.86947   0.89033   -1.000
 4303.00    0.89165   0.90482  215.226
 4304.00    0.91101   0.91174  218.879
 4305.00    0.89603   0.90059  228.421
 4306.00    0.86918   0.87225  238.315
 4307.00    0.83496   0.84375  239.651
 4308.00    0.80281   0.83648   -1.000
 4309.00    0.80335   0.85996   -1.000
 4310.00    0.83857   0.90533   -1.000
 4311.00    0.88578   0.95781   -1.000
 4312.00    0.91926   1.01467   -1.000
 4313.00    0.96377   1.08152   -1.000
 4314.00    1.03902   1.15912   -1.000
 4315.00    1.14956   1.23946   -1.000
 4316.00    1.24629   1.30291   -1.000
 4317.00    1.30398   1.33268   -1.000
 4318.00    1.31311   1.33071  149.876
 4319.00    1.28196   1.31043   -1.000
 4320.00    1.25211   1.27646   -1.000
 4321.00    1.23352   1.22298  169.841
 4322.00    1.18919   1.14820   -1.000
 4323.00    1.09359   1.06805   -1.000
 4324.00    0.98572   1.01592   -1.000
 4325.00    0.94519   1.01977   -1.000
 4326.00    0.99843   1.08211   -1.000
 4327.00    1.09977   1.17198   -1.000
 4328.00    1.19389   1.24342   -1.000
 4329.00    1.24303   1.27614   -1.000
 4330.00    1.24814   1.28379   -1.000
 4331.00    1.24383   1.28908   -1.000
 4332.00    1.25302   1.29953   -1.000
 4333.00    1.28216   1.30567   -1.000
 4334.00    1.31161   1.29230   -1.000
 4335.00    1.30531   1.24544   -1.000
 4336.00    1.24213   1.16090   -1.000
 4337.00    1.13955   1.05584   -1.000
 4338.00    1.02900   0.96607   -1.000
 4339.00    0.93693   0.92247   -1.000
 4340.00    0.89968   0.93817   -1.000
 4341.00    0.94060   1.00508   -1.000
 4342.00    1.03357   1.09024   -1.000
 4343.00    1.12026   1.15999   -1.000
 4344.00    1.17600   1.20852   -1.000
 4345.00    1.21333   1.24464   -1.000
 4346.00    1.24314   1.27535   -1.000
 4347.00    1.25622   1.30106   -1.000
 4348.00    1.27602   1.30881   -1.000
 4349.00    1.29027   1.28231  164.821
 4350.00    1.23764   1.22850  173.149
 4351.00    1.15638   1.18142   -1.000
 4352.00    1.13559   1.17182   -1.000
 4353.00    1.17332   1.20184   -1.000
 4354.00    1.21205   1.24734   -1.000
 4355.00    1.25017   1.28252   -1.000
 4356.00    1.28319   1.29925  152.704
 4357.00    1.28086   1.30130  155.561
 4358.00    1.24508   1.29751   -1.000
 4359.00    1.22913   1.30126   -1.000
 4360.00    1.25584   1.31934   -1.000
 4361.00    1.29605   1.34415   -1.000
 4362.00    1.31103   1.36489   -1.000
 4363.00    1.32071   1.37983   -1.000
 4364.00    1.34565   1.38647   -1.000
 4365.00    1.35243   1.37476   -1.000
 4366.00    1.31909   1.34560   -1.000
 4367.00    1.26718   1.31614   -1.000
 4368.00    1.23877   1.29815   -1.000
 4369.00    1.25214   1.28959   -1.000
 4370.00    1.25894   1.28205   -1.000
 4371.00    1.24661   1.26666  158.153
 4372.00    1.24955   1.23988  164.778
 4373.00    1.21191   1.20762  168.542
 4374.00    1.13949   1.18752   -1.000
 4375.00    1.15208   1.19833   -1.000
 4376.00    1.22020   1.23637  151.775
 4377.00    1.27356   1.27565  150.833
 4378.00    1.31722   1.29278   -1.000
 4379.00    1.31807   1.27755   -1.000
 4380.00    1.30306   1.22522   -1.000
 4381.00    1.25539   1.14103   -1.000
 4382.00    1.13888   1.05132   -1.000
 4383.00    1.00893   0.99937  193.541
 4384.00    0.96341   1.01675   -1.000
 4385.00    1.04141   1.08694   -1.000
 4386.00    1.15810   1.15847  160.515
 4387.00    1.21504   1.19661  161.531
 4388.00    1.22989   1.20603   -1.000
 4389.00    1.22377   1.20829  161.646
 4390.00    1.20286   1.21751  158.138
 4391.00    1.22946   1.23518  156.582
 4392.00    1.26893   1.25108  158.896
 4393.00    1.26760   1.25739  160.719
 4394.00    1.24699   1.26395  156.883
 4395.00    1.23916   1.28559   -1.000
 4396.00    1.27439   1.31590   -1.000
 4397.00    1.31927   1.33030  153.033
 4398.00    1.32184   1.31812  158.377
 4399.00    1.27831   1.29422  160.110
 4400.00    1.24231   1.27642   -1.000
 4401.00    1.25512   1.26418  158.281
 4402.00    1.27679   1.23987   -1.000
 4403.00    1.23919   1.19750   -1.000
 4404.00    1.18237   1.16126   -1.000
 4405.00    1.17233   1.15682  165.325
 4406.00    1.19460   1.18163  163.474
 4407.00    1.20823   1.21785  159.853
 4408.00    1.21945   1.25971   -1.000
 4409.00    1.25547   1.31276   -1.000
 4410.00    1.30454   1.36681   -1.000
 4411.00    1.35281   1.39346   -1.000
 4412.00    1.39922   1.37784   -1.000
 4413.00    1.37984   1.33105   -1.000
 4414.00    1.28668   1.27901  160.829
 4415.00    1.20500   1.25457   -1.000
 4416.00    1.20536   1.27684   -1.000
 4417.00    1.25011   1.33135   -1.000
 4418.00    1.30031   1.38644   -1.000
 4419.00    1.35038   1.41593   -1.000
 4420.00    1.35741   1.41067   -1.000
 4421.00    1.31922   1.38478   -1.000
 4422.00    1.27466   1.36190   -1.000
 4423.00    1.25288   1.35450   -1.000
 4424.00    1.26274   1.35689   -1.000
 4425.00    1.25694   1.35760   -1.000
 4426.00    1.23957   1.35808   -1.000
 4427.00    1.24964   1.36322   -1.000
 4428.00    1.26186   1.36901   -1.000
 4429.00    1.26483   1.37189   -1.000
 4430.00    1.26992   1.37278   -1.000
 4431.00    1.29248   1.37128   -1.000
 4432.00    1.30780   1.35824   -1.000
 4433.00    1.26459   1.32738   -1.000
 4434.00    1.20762   1.29783   -1.000
 4435.00    1.19709   1.30081   -1.000
 4436.00    1.24773   1.34596   -1.000
 4437.00    1.32851   1.40748   -1.000
 4438.00    1.39829   1.44806   -1.000
 4439.00    1.42423   1.44827   -1.000
 4440.00    1.38097   1.41241   -1.000
 4441.00    1.31022   1.36676   -1.000
 4442.00    1.26286   1.34452   -1.000
 4443.00    1.26192   1.36333   -1.000
 4444.00    1.31183   1.40977   -1.000
 4445.00    1.37101   1.45376   -1.000
 4446.00    1.39973   1.47713   -1.000
 4447.00    1.40878   1.48197   -1.000
 4448.00    1.42045   1.48007   -1.000
 4449.00    1.41704   1.47618   -1.000
 4450.00    1.40108   1.46733   -1.000
 4451.00    1.41061   1.44901   -1.000
 4452.00    1.40821   1.41429  155.186
 4453.00    1.36109   1.36303  160.624
 4454.00    1.29946   1.31553  160.969
 4455.00    1.26316   1.29417   -1.000
 4456.00    1.27027   1.29951   -1.000
 4457.00    1.28945   1.31432   -1.000
 4458.00    1.30557   1.32273  158.254
 4459.00    1.30729   1.32434  159.838
 4460.00    1.29360   1.32840   -1.000
 4461.00    1.28805   1.34299   -1.000
 4462.00    1.31731   1.37087   -1.000
 4463.00    1.36167   1.40455   -1.000
 4464.00    1.38622   1.42967   -1.000
 4465.00    1.38816   1.43751   -1.000
 4466.00    1.38365   1.43065   -1.000
 4467.00    1.38754   1.41787   -1.000
 4468.00    1.37698   1.40811   -1.000
 4469.00    1.34385   1.41122   -1.000
 4470.00    1.34918   1.43454   -1.000
 4471.00    1.39346   1.47275   -1.000
 4472.00    1.44139   1.51197   -1.000
 4473.00    1.48682   1.54015   -1.000
 4474.00    1.50729   1.55490   -1.000
 4475.00    1.51954   1.56396   -1.000
 4476.00    1.55101   1.57070  134.813
 4477.00    1.57308   1.56592  137.862
 4478.00    1.55890   1.53858   -1.000
 4479.00    1.49927   1.49091  149.134
 4480.00    1.41817   1.44577   -1.000
 4481.00    1.36724   1.43114   -1.000
 4482.00    1.38355   1.45552   -1.000
 4483.00    1.43395   1.50501   -1.000
 4484.00    1.48422   1.55586   -1.000
 4485.00    1.52117   1.58506   -1.000
 4486.00    1.54588   1.58007   -1.000
 4487.00    1.52360   1.54767   -1.000
 4488.00    1.46642   1.51042   -1.000
 4489.00    1.44187   1.49160   -1.000
 4490.00    1.44905   1.49875   -1.000
 4491.00    1.47538   1.51848   -1.000
 4492.00    1.49956   1.52679   -1.000
 4493.00    1.47210   1.51304   -1.000
 4494.00    1.43115   1.49223   -1.000
 4495.00    1.40117   1.48790   -1.000
 4496.00    1.41394   1.50671   -1.000
 4497.00    1.47067   1.53567   -1.000
 4498.00    1.50788   1.55906   -1.000
 4499.00    1.51164   1.56928   -1.000
 4500.00    1.49405   1.57202   -1.000
 4501.00    1.47971   1.58284   -1.000
 4502.00    1.51178   1.60845   -1.000
 4503.00    1.57045   1.64164   -1.000
 4504.00    1.61154   1.66750   -1.000
 4505.00    1.61384   1.67400   -1.000
 4506.00    1.61099   1.66403   -1.000
 4507.00    1.60205   1.65120   -1.000
 4508.00    1.58096   1.64629   -1.000
 4509.00    1.59285   1.64846   -1.000
 4510.00    1.61251   1.64830   -1.000
 4511.00    1.59718   1.63743   -1.000
 4512.00    1.56722   1.61747   -1.000
 4513.00    1.54726   1.59740   -1.000
 4514.00    1.54168   1.58439   -1.000
 4515.00    1.54139   1.58057   -1.000
 4516.00    1.53348   1.58135   -1.000
 4517.00    1.52064   1.58086   -1.000
 4518.00    1.52366   1.58317   -1.000
 4519.00    1.56222   1.59422   -1.000
 4520.00    1.59520   1.60791  136.799
 4521.00    1.57424   1.61128   -1.000
 4522.00    1.54133   1.59773   -1.000
 4523.00    1.52479   1.57272   -1.000
 4524.00    1.51558   1.54372   -1.000
 4525.00    1.49381   1.50962  151.526
 4526.00    1.44665   1.46865   -1.000
 4527.00    1.39519   1.42938   -1.000
 4528.00    1.38115   1.40757   -1.000
 4529.00    1.39562   1.41102  150.109
 4530.00    1.41085   1.43187   -1.000
 4531.00    1.44217   1.45244  150.032
 4532.00    1.46173   1.45691  154.868
 4533.00    1.42849   1.44594  156.597
 4534.00    1.37444   1.43836   -1.000
 4535.00    1.37061   1.45712   -1.000
 4536.00    1.45662   1.50740   -1.000
 4537.00    1.55950   1.56812  134.633
 4538.00    1.59791   1.60806  137.057
 4539.00    1.58657   1.61384   -1.000
 4540.00    1.59340   1.60015  138.059
 4541.00    1.39720   1.59017   -1.000
 4542.00    0.60478   1.59164   -1.000
 4543.00   -0.03563   1.59417    0.000
 4544.00    0.19186   1.58779   -1.000
 4545.00    0.81590   1.57561   -1.000
 4546.00    0.80626   1.56407   -1.000
 4547.00    0.88298   1.55140   -1.000
 4548.00    1.50192   1.53626   86.403
 4549.00    1.46904   1.52787   -1.000
 4550.00    1.47592   1.53583   -1.000
 4551.00    1.51916   1.55175   -1.000
 4552.00    1.52109   1.55697   -1.000
 4553.00    1.48678   1.54872   -1.000
 4554.00    1.45984   1.54185   -1.000
 4555.00    1.47432   1.55357   -1.000
 4556.00    1.51969   1.58928   -1.000
 4557.00    1.58893   1.63480   -1.000
 4558.00    1.63145   1.67069   -1.000
 4559.00    1.62341   1.69005   -1.000
 4560.00    1.62559   1.69547   -1.000
 4561.00    1.64061   1.68886   -1.000
 4562.00    1.61615   1.66905   -1.000
 4563.00    1.56790   1.63985   -1.000
 4564.00    1.53996   1.61580   -1.000
 4565.00    1.53488   1.61329   -1.000
 4566.00    1.56891   1.63612   -1.000
 4567.00    1.61729   1.66849   -1.000
 4568.00    1.64374   1.68708   -1.000
 4569.00    1.62899   1.68080   -1.000
 4570.00    1.58468   1.65724   -1.000
 4571.00    1.54876   1.63648   -1.000
 4572.00    1.53947   1.63737   -1.000
 4573.00    1.57772   1.65961   -1.000
 4574.00    1.62951   1.68362   -1.000
 4575.00    1.64062   1.69423   -1.000
 4576.00    1.63307   1.69073   -1.000
 4577.00    1.62797   1.67487   -1.000
 4578.00    1.59831   1.64620   -1.000
 4579.00    1.55099   1.61127   -1.000
 4580.00    1.52568   1.58426   -1.000
 4581.00    1.53461   1.57540   -1.000
 4582.00    1.55467   1.58236   -1.000
 4583.00    1.56295   1.59301   -1.000
 4584.00    1.55081   1.59756   -1.000
 4585.00    1.54065   1.60020   -1.000
 4586.00    1.55065   1.61354   -1.000
 4587.00    1.58005   1.64048   -1.000
 4588.00    1.62490   1.66928   -1.000
 4589.00    1.64360   1.68381   -1.000
 4590.00    1.61956   1.67698   -1.000
 4591.00    1.58628   1.65558   -1.000
 4592.00    1.56959   1.63467   -1.000
 4593.00    1.56907   1.62540   -1.000
 4594.00    1.58013   1.62695   -1.000
 4595.00    1.59744   1.63320   -1.000
 4596.00    1.61032   1.64115   -1.000
 4597.00    1.60833   1.64915   -1.000
 4598.00    1.60515   1.65310   -1.000
 4599.00    1.60209   1.65030   -1.000
 4600.00    1.58249   1.64351   -1.000
 4601.00    1.56937   1.63876   -1.000
 4602.00    1.58302   1.63948   -1.000
 4603.00    1.60643   1.64396   -1.000
 4604.00    1.61066   1.65051   -1.000
 4605.00    1.60718   1.66166   -1.000
 4606.00    1.62836   1.68187   -1.000
 4607.00    1.65443   1.71102   -1.000
 4608.00    1.68438   1.74172   -1.000
 4609.00    1.71928   1.76104   -1.000
 4610.00    1.72699   1.75921   -1.000
 4611.00    1.70287   1.74305   -1.000
 4612.00    1.66741   1.72803   -1.000
 4613.00    1.65278   1.72287   -1.000
 4614.00    1.65540   1.72747   -1.000
 4615.00    1.66571   1.73518   -1.000
 4616.00    1.67447   1.73941   -1.000
 4617.00    1.67508   1.73884   -1.000
 4618.00    1.67212   1.73684   -1.000
 4619.00    1.66888   1.73885   -1.000
 4620.00    1.68710   1.74836   -1.000
 4621.00    1.71118   1.76123   -1.000
 4622.00    1.71563   1.76788   -1.000
 4623.00    1.71189   1.76514   -1.000
 4624.00    1.70720   1.75873   -1.000
 4625.00    1.69187   1.75255   -1.000
 4626.00    1.68941   1.74789   -1.000
 4627.00    1.69810   1.74684   -1.000
 4628.00    1.69353   1.74874   -1.000
 4629.00    1.69026   1.75231   -1.000
 4630.00    1.69373   1.75827   -1.000
 4631.00    1.70471   1.76377   -1.000
 4632.00    1.70911   1.76035   -1.000
 4633.00    1.69908   1.74684   -1.000
 4634.00    1.69152   1.73239   -1.000
 4635.00    1.69498   1.72170   -1.000
 4636.00    1.66964   1.71088   -1.000
 4637.00    1.63315   1.69820   -1.000
 4638.00    1.62143   1.68897   -1.000
 4639.00    1.63213   1.69034   -1.000
 4640.00    1.66890   1.70477   -1.000
 4641.00    1.71629   1.72603  128.999
 4642.00    1.74191   1.74036  130.572
 4643.00    1.72819   1.73497  133.719
 4644.00    1.70953   1.70952  137.503
 4645.00    1.67461   1.67319  139.631
 4646.00    1.61736   1.63963   -1.000
 4647.00    1.59898   1.62648   -1.000
 4648.00    1.62669   1.64188  133.038
 4649.00    1.64479   1.67597   -1.000
 4650.00    1.65927   1.71023   -1.000
 4651.00    1.68735   1.73102   -1.000
 4652.00    1.69878   1.73550   -1.000
 4653.00    1.69202   1.72631   -1.000
 4654.00    1.66179   1.71067   -1.000
 4655.00    1.61599   1.70272   -1.000
 4656.00    1.61337   1.71597   -1.000
 4657.00    1.66410   1.75287   -1.000
 4658.00    1.72964   1.80098   -1.000
 4659.00    1.78456   1.83752   -1.000
 4660.00    1.79660   1.84581   -1.000
 4661.00    1.77199   1.82724   -1.000
 4662.00    1.75158   1.79459   -1.000
 4663.00    1.73571   1.75926  133.042
 4664.00    1.71344   1.72304  137.144
 4665.00    1.67825   1.68076  143.081
 4666.00    1.61090   1.63460   -1.000
 4667.00    1.53853   1.60254   -1.000
 4668.00    1.52614   1.60485   -1.000
 4669.00    1.57916   1.64206   -1.000
 4670.00    1.64536   1.69265   -1.000
 4671.00    1.69209   1.73220   -1.000
 4672.00    1.71557   1.75143   -1.000
 4673.00    1.72558   1.75845   -1.000
 4674.00    1.72524   1.76649   -1.000
 4675.00    1.74490   1.77924   -1.000
 4676.00    1.76844   1.78543  129.429
 4677.00    1.74937   1.77334  132.181
 4678.00    1.70244   1.74602   -1.000
 4679.00    1.67049   1.71702   -1.000
 4680.00    1.65652   1.69837   -1.000
 4681.00    1.64676   1.69445   -1.000
 4682.00    1.65704   1.70468   -1.000
 4683.00    1.68269   1.72347   -1.000
 4684.00    1.73417   1.74029  130.459
 4685.00    1.76046   1.74837  130.869
 4686.00    1.73759   1.74909  131.243
 4687.00    1.72793   1.74739  131.229
 4688.00    1.72096   1.74640   -1.000
 4689.00    1.71870   1.74659   -1.000
 4690.00    1.71420   1.74667   -1.000
 4691.00    1.71073   1.74777   -1.000
 4692.00    1.73591   1.75469  127.305
 4693.00    1.77254   1.76814  125.094
 4694.00    1.79989   1.78264  124.729
 4695.00    1.80886   1.79176  127.013
 4696.00    1.80905   1.78846  130.879
 4697.00    1.77137   1.76851  133.534
 4698.00    1.72696   1.73889  133.583
 4699.00    1.71253   1.71182  133.552
 4700.00    1.69993   1.69258  135.362
 4701.00    1.68186   1.67902  136.889
 4702.00    1.65307   1.67169  135.731
 4703.00    1.63800   1.67759   -1.000
 4704.00    1.66769   1.69601   -1.000
 4705.00    1.70720   1.71121  135.923
 4706.00    1.70234   1.70971  137.913
 4707.00    1.66732   1.69706   -1.000
 4708.00    1.65456   1.69115   -1.000
 4709.00    1.66615   1.70240   -1.000
 4710.00    1.69582   1.72562   -1.000
 4711.00    1.74423   1.74890  129.325
 4712.00    1.76531   1.76045  131.305
 4713.00    1.74233   1.75735  132.473
 4714.00    1.71555   1.75306   -1.000
 4715.00    1.71182   1.76371   -1.000
 4716.00    1.73419   1.79128   -1.000
 4717.00    1.77148   1.82353   -1.000
 4718.00    1.79696   1.84795   -1.000
 4719.00    1.79758   1.86082   -1.000
 4720.00    1.79381   1.86363   -1.000
 4721.00    1.78718   1.86024   -1.000
 4722.00    1.77399   1.85730   -1.000
 4723.00    1.78125   1.85939   -1.000
 4724.00    1.79815   1.86081   -1.000
 4725.00    1.79380   1.84887   -1.000
 4726.00    1.75603   1.81615   -1.000
 4727.00    1.70810   1.77093   -1.000
 4728.00    1.67570   1.73467   -1.000
 4729.00    1.66628   1.72237   -1.000
 4730.00    1.67931   1.73134   -1.000
 4731.00    1.69354   1.75129   -1.000
 4732.00    1.71520   1.77356   -1.000
 4733.00    1.74529   1.79045   -1.000
 4734.00    1.76258   1.79729   -1.000
 4735.00    1.75863   1.79706   -1.000
 4736.00    1.75701   1.79626   -1.000
 4737.00    1.76794   1.80058   -1.000
 4738.00    1.77733   1.81211   -1.000
 4739.00    1.77793   1.82452   -1.000
 4740.00    1.76678   1.83016   -1.000
 4741.00    1.75296   1.83227   -1.000
 4742.00    1.76209   1.83776   -1.000
 4743.00    1.79200   1.84601   -1.000
 4744.00    1.81177   1.85393   -1.000
 4745.00    1.79973   1.86169   -1.000
 4746.00    1.79300   1.87164   -1.000
 4747.00    1.80812   1.88444   -1.000
 4748.00    1.82099   1.89653   -1.000
 4749.00    1.82837   1.90448   -1.000
 4750.00    1.82398   1.90559   -1.000
 4751.00    1.80731   1.89645   -1.000
 4752.00    1.77758   1.87726   -1.000
 4753.00    1.75655   1.85430   -1.000
 4754.00    1.74794   1.83785   -1.000
 4755.00    1.73018   1.83376   -1.000
 4756.00    1.72156   1.83993   -1.000
 4757.00    1.72628   1.85210   -1.000
 4758.00    1.74934   1.86634   -1.000
 4759.00    1.77841   1.87586   -1.000
 4760.00    1.76590   1.87135   -1.000
 4761.00    1.72791   1.84835   -1.000
 4762.00    1.70040   1.81324   -1.000
 4763.00    1.69611   1.78168   -1.000
 4764.00    1.69915   1.76309   -1.000
 4765.00    1.67922   1.75569   -1.000
 4766.00    1.67579   1.76089   -1.000
 4767.00    1.70964   1.78525   -1.000
 4768.00    1.75476   1.82449   -1.000
 4769.00    1.79899   1.85944   -1.000
 4770.00    1.79786   1.87403   -1.000
 4771.00    1.76253   1.87190   -1.000
 4772.00    1.75417   1.87129   -1.000
 4773.00    1.77737   1.88490   -1.000
 4774.00    1.80776   1.90850   -1.000
 4775.00    1.81741   1.92841   -1.000
 4776.00    1.82005   1.93716   -1.000
 4777.00    1.81920   1.93637   -1.000
 4778.00    1.80346   1.92933   -1.000
 4779.00    1.78334   1.91789   -1.000
 4780.00    1.78216   1.90464   -1.000
 4781.00    1.78742   1.89028   -1.000
 4782.00    1.78221   1.87367   -1.000
 4783.00    1.77791   1.85877   -1.000
 4784.00    1.76847   1.85019   -1.000
 4785.00    1.76372   1.84639   -1.000
 4786.00    1.75075   1.84411   -1.000
 4787.00    1.74176   1.84383   -1.000
 4788.00    1.76082   1.84754   -1.000
 4789.00    1.75171   1.85628   -1.000
 4790.00    1.74500   1.87187   -1.000
 4791.00    1.77602   1.89650   -1.000
 4792.00    1.80298   1.92913   -1.000
 4793.00    1.83365   1.96457   -1.000
 4794.00    1.86932   1.99466   -1.000
 4795.00    1.88265   2.00873   -1.000
 4796.00    1.86941   2.00053   -1.000
 4797.00    1.83799   1.97537   -1.000
 4798.00    1.80201   1.94589   -1.000
 4799.00    1.77403   1.92655   -1.000
 4800.00    1.78476   1.92841   -1.000
 4801.00    1.83398   1.95005   -1.000
 4802.00    1.86373   1.97518   -1.000
 4803.00    1.85263   1.98557   -1.000
 4804.00    1.83324   1.97624   -1.000
 4805.00    1.81325   1.95656   -1.000
 4806.00    1.78932   1.93883   -1.000
 4807.00    1.79790   1.92935   -1.000
 4808.00    1.80771   1.93069   -1.000
 4809.00    1.81391   1.94217   -1.000
 4810.00    1.84203   1.95738   -1.000
 4811.00    1.86001   1.96854   -1.000
 4812.00    1.84991   1.97427   -1.000
 4813.00    1.82352   1.97917   -1.000
 4814.00    1.83322   1.98792   -1.000
 4815.00    1.86326   2.00196   -1.000
 4816.00    1.87812   2.01836   -1.000
 4817.00    1.89852   2.03205   -1.000
 4818.00    1.91068   2.04051   -1.000
 4819.00    1.92491   2.04314   -1.000
 4820.00    1.92416   2.03607   -1.000
 4821.00    1.88163   2.01352   -1.000
 4822.00    1.84350   1.97687   -1.000
 4823.00    1.82106   1.94063   -1.000
 4824.00    1.81726   1.92653   -1.000
 4825.00    1.84481   1.94118   -1.000
 4826.00    1.87997   1.96549   -1.000
 4827.00    1.88229   1.97798   -1.000
 4828.00    1.86243   1.97566   -1.000
 4829.00    1.85446   1.96785   -1.000
 4830.00    1.85680   1.95783   -1.000
 4831.00    1.83801   1.94413   -1.000
 4832.00    1.82404   1.93502   -1.000
 4833.00    1.85558   1.94053   -1.000
 4834.00    1.88321   1.95887   -1.000
 4835.00    1.88213   1.97799   -1.000
 4836.00    1.88288   1.98625   -1.000
 4837.00    1.88101   1.98064   -1.000
 4838.00    1.86192   1.96377   -1.000
 4839.00    1.82956   1.94234   -1.000
 4840.00    1.80399   1.92608   -1.000
 4841.00    1.81303   1.92067   -1.000
 4842.00    1.83254   1.92422   -1.000
 4843.00    1.84776   1.93380   -1.000
 4844.00    1.88027   1.95142   -1.000
 4845.00    1.91043   1.97443   -1.000
 4846.00    1.89709   1.98812   -1.000
 4847.00    1.86633   1.98233   -1.000
 4848.00    1.83789   1.96779   -1.000
 4849.00    1.85419   1.96239   -1.000
 4850.00    1.88006   1.96900   -1.000
 4851.00    1.88416   1.97493   -1.000
 4852.00    1.88206   1.96653   -1.000
 4853.00    1.86398   1.93729   -1.000
 4854.00    1.81856   1.89209   -1.000
 4855.00    1.77928   1.84897   -1.000
 4856.00    1.78585   1.82246   -1.000
 4857.00    1.80808   1.80143  146.530
 4858.00    1.75499   1.74974  162.075
 4859.00    1.60883   1.64727   -1.000
 4860.00    1.44841   1.52963   -1.000
 4861.00    1.36415   1.46326   -1.000
 4862.00    1.41023   1.48786   -1.000
 4863.00    1.53975   1.58195   -1.000
 4864.00    1.65794   1.69170   -1.000
 4865.00    1.72342   1.78147   -1.000
 4866.00    1.76515   1.84301   -1.000
 4867.00    1.80775   1.87927   -1.000
 4868.00    1.82448   1.89029   -1.000
 4869.00    1.79656   1.87249   -1.000
 4870.00    1.73761   1.82932   -1.000
 4871.00    1.67636   1.78458   -1.000
 4872.00    1.66867   1.77550   -1.000
 4873.00    1.72327   1.81339   -1.000
 4874.00    1.75810   1.86896   -1.000
 4875.00    1.76675   1.90951   -1.000
 4876.00    1.78257   1.92998   -1.000
 4877.00    1.78767   1.94647   -1.000
 4878.00    1.80710   1.97006   -1.000
 4879.00    1.82751   1.99442   -1.000
 4880.00    1.82650   2.00489   -1.000
 4881.00    1.81472   1.99589   -1.000
 4882.00    1.81116   1.97929   -1.000
 4883.00    1.80898   1.96486   -1.000
 4884.00    1.80557   1.94680   -1.000
 4885.00    1.78692   1.92249   -1.000
 4886.00    1.78221   1.90231   -1.000
 4887.00    1.79324   1.89295   -1.000
 4888.00    1.79157   1.88401   -1.000
 4889.00    1.75678   1.86129   -1.000
 4890.00    1.71148   1.83298   -1.000
 4891.00    1.70946   1.83105   -1.000
 4892.00    1.76782   1.88112   -1.000
 4893.00    1.87081   1.97370   -1.000
 4894.00    1.95843   2.06649   -1.000
 4895.00    1.99261   2.12528   -1.000
 4896.00    2.00855   2.14719   -1.000
 4897.00    1.99938   2.14331   -1.000
 4898.00    1.97887   2.12398   -1.000
 4899.00    1.93901   2.09901   -1.000
 4900.00    1.91924   2.07784   -1.000
 4901.00    1.91655   2.06261   -1.000
 4902.00    1.90457   2.04891   -1.000
 4903.00    1.89272   2.03903   -1.000
 4904.00    1.88916   2.04675   -1.000
 4905.00    1.92869   2.07504   -1.000
 4906.00    1.97650   2.10005   -1.000
 4907.00    1.96404   2.09624   -1.000
 4908.00    1.92751   2.06139   -1.000
 4909.00    1.90401   2.01471   -1.000
 4910.00    1.87484   1.98223   -1.000
 4911.00    1.86323   1.98084   -1.000
 4912.00    1.89171   2.00811   -1.000
 4913.00    1.93383   2.04643   -1.000
 4914.00    1.97424   2.07966   -1.000
 4915.00    1.99526   2.09516   -1.000
 4916.00    1.98923   2.07494   -1.000
 4917.00    1.94503   2.00673   -1.000
 4918.00    1.84186   1.90491   -1.000
 4919.00    1.74507   1.81033   -1.000
 4920.00    1.72760   1.76649   -1.000
 4921.00    1.76687   1.78768   -1.000
 4922.00    1.82233   1.84819   -1.000
 4923.00    1.86824   1.90736   -1.000
 4924.00    1.87404   1.94888   -1.000
 4925.00    1.86871   1.98614   -1.000
 4926.00    1.89535   2.03138   -1.000
 4927.00    1.94816   2.08049   -1.000
 4928.00    1.99480   2.12228   -1.000
 4929.00    2.02440   2.14917   -1.000
 4930.00    2.04136   2.15548   -1.000
 4931.00    2.01766   2.13510   -1.000
 4932.00    1.95678   2.09124   -1.000
 4933.00    1.90542   2.04475   -1.000
 4934.00    1.89399   2.01920   -1.000
 4935.00    1.93935   2.01565   -1.000
 4936.00    1.95266   2.00829   -1.000
 4937.00    1.89709   1.97666   -1.000
 4938.00    1.83998   1.94010   -1.000
 4939.00    1.84972   1.93757   -1.000
 4940.00    1.90119   1.98288   -1.000
 4941.00    1.96814   2.05320   -1.000
 4942.00    2.01275   2.11260   -1.000
 4943.00    2.02162   2.14281   -1.000
 4944.00    2.01125   2.14761   -1.000
 4945.00    2.00761   2.14038   -1.000
 4946.00    2.00834   2.13681   -1.000
 4947.00    2.01621   2.14741   -1.000
 4948.00    2.03893   2.16892   -1.000
 4949.00    2.05189   2.18758   -1.000
 4950.00    2.04675   2.19421   -1.000
 4951.00    2.05342   2.18960   -1.000
 4952.00    2.05466   2.17762   -1.000
 4953.00    2.04977   2.15847   -1.000
 4954.00    2.04206   2.12328   -1.000
 4955.00    2.00114   2.05651   -1.000
 4956.00    1.89997   1.96294   -1.000
 4957.00    1.79996   1.89052   -1.000
 4958.00    1.80953   1.89130   -1.000
 4959.00    1.90748   1.96417   -1.000
 4960.00    1.99809   2.05681   -1.000
 4961.00    2.03271   2.11854   -1.000
 4962.00    2.03414   2.13801   -1.000
 4963.00    2.02192   2.12756   -1.000
 4964.00    1.99662   2.09904   -1.000
 4965.00    1.97654   2.06431   -1.000
 4966.00    1.96341   2.03735   -1.000
 4967.00    1.95135   2.02561   -1.000
 4968.00    1.93067   2.02803   -1.000
 4969.00    1.92967   2.04184   -1.000
 4970.00    1.96232   2.06471   -1.000
 4971.00    1.99300   2.09331   -1.000
 4972.00    2.01764   2.12217   -1.000
 4973.00    2.04046   2.14443   -1.000
 4974.00    2.04514   2.15449   -1.000
 4975.00    2.06388   2.15080   -1.000
 4976.00    2.05804   2.13431   -1.000
 4977.00    2.01536   2.10804   -1.000
 4978.00    1.98576   2.07764   -1.000
 4979.00    1.96836   2.04528   -1.000
 4980.00    1.92137   2.00360   -1.000
 4981.00    1.87093   1.94495   -1.000
 4982.00    1.81799   1.88188   -1.000
 4983.00    1.79594   1.84605   -1.000
 4984.00    1.82250   1.85968   -1.000
 4985.00    1.86902   1.91573   -1.000
 4986.00    1.92320   1.98662   -1.000
 4987.00    1.98377   2.04531   -1.000
 4988.00    2.00810   2.07394   -1.000
 4989.00    1.98314   2.07124   -1.000
 4990.00    1.97079   2.05534   -1.000
 4991.00    1.96172   2.04710   -1.000
 4992.00    1.97726   2.05258   -1.000
 4993.00    1.98609   2.06397   -1.000
 4994.00    1.98365   2.07471   -1.000
 4995.00    1.99905   2.08581   -1.000
 4996.00    2.01192   2.09468   -1.000
 4997.00    2.00091   2.08930   -1.000
 4998.00    1.97180   2.06102   -1.000
 4999.00    1.95088   2.01673   -1.000
 5000.00    1.92068   1.97612   -1.000
 5001.00    1.92206   1.95668   -1.000
 5002.00    1.95021   1.95839  136.104
 5003.00    1.96863   1.96265  139.048
 5004.00    1.94880   1.94923  140.898
 5005.00    1.89876   1.91877  138.970
 5006.00    1.87160   1.89950   -1.000
 5007.00    1.90642   1.91890  132.529
 5008.00    1.98830   1.96904  133.115
 5009.00    2.02849   2.01411  136.309
 5010.00    1.99678   2.02227   -1.000
 5011.00    1.93657   1.98752   -1.000
 5012.00    1.86989   1.93016   -1.000
 5013.00    1.82694   1.88224   -1.000
 5014.00    1.82911   1.86533   -1.000
 5015.00    1.85885   1.87678  139.023
 5016.00    1.89753   1.89888  138.854
 5017.00    1.90462   1.91817  137.869
 5018.00    1.91135   1.93620   -1.000
 5019.00    1.92935   1.95701   -1.000
 5020.00    1.94306   1.97326   -1.000
 5021.00    1.95086   1.97822   -1.000
 5022.00    1.94238   1.97965   -1.000
 5023.00    1.95827   1.99339   -1.000
 5024.00    1.99924   2.02126   -1.000
 5025.00    2.00422   2.04239   -1.000
 5026.00    1.99215   2.04149   -1.000
 5027.00    1.98666   2.03054   -1.000
 5028.00    1.99368   2.03117   -1.000
 5029.00    2.02422   2.05324   -1.000
 5030.00    2.05888   2.09116   -1.000
 5031.00    2.08109   2.13193   -1.000
 5032.00    2.08523   2.16178   -1.000
 5033.00    2.09149   2.16555   -1.000
 5034.00    2.06649   2.13440   -1.000
 5035.00    1.99852   2.08218   -1.000
 5036.00    1.96443   2.03622   -1.000
 5037.00    1.96285   2.00710   -1.000
 5038.00    1.95022   1.97576   -1.000
 5039.00    1.88898   1.92174   -1.000
 5040.00    1.80023   1.86329   -1.000
 5041.00    1.75452   1.84665   -1.000
 5042.00    1.87496   1.89794   -1.000
 5043.00    1.17953   1.99831   -1.000
 5044.00    0.26738   2.10051   -1.000
 5045.00   -0.02727   2.16798    0.000
 5046.00    0.60496   2.18838   -1.000
 5047.00    1.61148   2.16420   -1.000
 5048.00    2.01623   2.10986   -1.000
 5049.00    1.99115   2.05231   -1.000
 5050.00    1.96675   2.01735   -1.000
 5051.00    1.98160   2.01590   -1.000
 5052.00    2.00088   2.04541   -1.000
 5053.00    2.05022   2.09325   -1.000
 5054.00    2.10728   2.13826   -1.000
 5055.00    2.13056   2.16808   -1.000
 5056.00    2.13903   2.18614   -1.000
 5057.00    2.14957   2.19940   -1.000
 5058.00    2.15916   2.21232   -1.000
 5059.00    2.15696   2.22574   -1.000
 5060.00    2.15330   2.23697   -1.000
 5061.00    2.16071   2.23910   -1.000
 5062.00    2.15804   2.21840   -1.000
 5063.00    2.11402   2.16875   -1.000
 5064.00    2.04329   2.10936   -1.000
 5065.00    2.00862   2.06901   -1.000
 5066.00    2.02430   2.05922   -1.000
 5067.00    2.04817   2.06903  132.348
 5068.00    2.05258   2.08317   -1.000
 5069.00    2.07273   2.09686   -1.000
 5070.00    2.09049   2.10675  133.027
 5071.00    2.07973   2.10528   -1.000
 5072.00    2.04545   2.09495   -1.000
 5073.00    2.04983   2.09122   -1.000
 5074.00    2.08368   2.10120  130.455
 5075.00    2.09954   2.11468  131.252
 5076.00    2.09886   2.11631  134.701
 5077.00    2.09166   2.09452  140.595
 5078.00    2.02574   2.04615  144.014
 5079.00    1.94147   1.98913   -1.000
 5080.00    1.90935   1.95579   -1.000
 5081.00    1.93156   1.95948   -1.000
 5082.00    1.97805   1.98727  134.815
 5083.00    2.02703   2.02232  132.408
 5084.00    2.07257   2.05993  131.017
 5085.00    2.11187   2.09909  130.600
 5086.00    2.12015   2.13227  130.113
 5087.00    2.10146   2.15319   -1.000
 5088.00    2.12046   2.16487   -1.000
 5089.00    2.14201   2.17410   -1.000
 5090.00    2.27393   2.18580   -1.000
 5091.00    2.30785   2.20306   -1.000
 5092.00    2.21235   2.22440  125.706
 5093.00    2.20856   2.23884   -1.000
 5094.00    2.22185   2.23034  130.631
 5095.00    2.19376   2.19220  133.690
 5096.00    2.15140   2.13482  136.651
 5097.00    2.07098   2.07755  137.896
 5098.00    1.99486   2.03989   -1.000
 5099.00    1.99600   2.03695   -1.000
 5100.00    2.04397   2.06964   -1.000
 5101.00    2.09920   2.11775  130.042
 5102.00    2.14257   2.15126  131.471
 5103.00    2.14816   2.15694  133.176
 5104.00    2.11891   2.14240   -1.000
 5105.00    2.08716   2.11838   -1.000
 5106.00    2.05619   2.09095   -1.000
 5107.00    2.02877   2.06612   -1.000
 5108.00    2.01352   2.05153   -1.000
 5109.00    2.03041   2.05395   -1.000
 5110.00    2.04284   2.07531   -1.000
 5111.00    2.05331   2.11034   -1.000
 5112.00    2.09277   2.14691   -1.000
 5113.00    2.13876   2.17700   -1.000
 5114.00    2.15246   2.20211   -1.000
 5115.00    2.15848   2.22567   -1.000
 5116.00    2.19787   2.24602   -1.000
 5117.00    2.23103   2.25793   -1.000
 5118.00    2.23154   2.25685   -1.000
 5119.00    2.21738   2.24027  130.951
 5120.00    2.18408   2.20937   -1.000
 5121.00    2.13351   2.16848   -1.000
 5122.00    2.08308   2.12279   -1.000
 5123.00    2.04828   2.07879   -1.000
 5124.00    2.02463   2.04837   -1.000
 5125.00    2.04739   2.03970  137.577
 5126.00    2.07562   2.04660   -1.000
 5127.00    2.06370   2.05562  137.441
 5128.00    2.05113   2.06213  136.172
 5129.00    2.05431   2.07183  133.990
 5130.00    2.07173   2.09038  132.510
 5131.00    2.10868   2.11606  131.325
 5132.00    2.15029   2.14142  130.133
 5133.00    2.15975   2.16172  129.540
 5134.00    2.16909   2.17599  131.031
 5135.00    2.19847   2.17979  134.010
 5136.00    2.19430   2.16357   -1.000
 5137.00    2.12896   2.12820  137.329
 5138.00    2.07355   2.09157  136.508
 5139.00    2.06148   2.07211  136.788
 5140.00    2.06888   2.07085  138.678
 5141.00    2.06905   2.07549  138.857
 5142.00    2.04661   2.07923   -1.000
 5143.00    2.05864   2.08625   -1.000
 5144.00    2.10127   2.09643  136.616
 5145.00    2.11187   2.09806  137.280
 5146.00    2.09219   2.08684  136.203
 5147.00    2.08042   2.07785  135.119
 5148.00    2.08766   2.08481  136.045
 5149.00    2.10598   2.09719  138.328
 5150.00    2.11128   2.09684  139.764
 5151.00    2.07156   2.08305  139.531
 5152.00    2.05253   2.06807  137.435
 5153.00    2.05801   2.06454  134.167
 5154.00    2.08628   2.08150  130.740
 5155.00    2.13434   2.12130  128.023
 5156.00    2.18847   2.17303  126.645
 5157.00    2.23259   2.21933  126.367
 5158.00    2.24239   2.24891  126.668
 5159.00    2.27069   2.26036  127.312
 5160.00    2.27855   2.25608  128.538
 5161.00    2.25763   2.23575  130.379
 5162.00    2.24075   2.19769   -1.000
 5163.00    2.21273   2.14161   -1.000
 5164.00    2.16643   2.05923   -1.000
 5165.00    2.01502   1.93743   -1.000
 5166.00    1.80163   1.79430  171.425
 5167.00    1.68877   1.68963  163.162
 5168.00    1.72588   1.67349   -1.000
 5169.00    1.84224   1.71811   -1.000
 5170.00    1.87913   1.73738   -1.000
 5171.00    1.76482   1.69456   -1.000
 5172.00    1.62719   1.64458   -1.000
 5173.00    1.64772   1.67134   -1.000
 5174.00    1.82702   1.79463   -1.000
 5175.00    2.03264   1.94891   -1.000
 5176.00    2.14319   2.06415   -1.000
 5177.00    2.18579   2.12167   -1.000
 5178.00    2.19889   2.13514   -1.000
 5179.00    2.19082   2.11070   -1.000
 5180.00    2.15078   2.03473   -1.000
 5181.00    2.01458   1.90155   -1.000
 5182.00    1.78553   1.74729   -1.000
 5183.00    1.61117   1.64892   -1.000
 5184.00    1.64779   1.66988   -1.000
 5185.00    1.85444   1.79888   -1.000
 5186.00    2.06031   1.96074   -1.000
 5187.00    2.16496   2.08086   -1.000
 5188.00    2.20096   2.14049   -1.000
 5189.00    2.21758   2.15626   -1.000
 5190.00    2.18901   2.13743   -1.000
 5191.00    2.12093   2.09274   -1.000
 5192.00    2.06120   2.05180  140.553
 5193.00    2.07315   2.04163   -1.000
 5194.00    2.12588   2.06097   -1.000
 5195.00    2.15793   2.09330   -1.000
 5196.00    2.18456   2.13115   -1.000
 5197.00    2.23178   2.17532   -1.000
 5198.00    2.26359   2.22023   -1.000
 5199.00    2.27597   2.25296  130.332
 5200.00    2.28355   2.26391  132.340
 5201.00    2.28716   2.24854   -1.000
 5202.00    2.25112   2.20562   -1.000
 5203.00    2.19515   2.13769   -1.000
 5204.00    2.13715   2.05734   -1.000
 5205.00    2.08036   1.98624   -1.000
 5206.00    2.05495   1.94267   -1.000
 5207.00    2.05388   1.92849   -1.000
 5208.00    2.04046   1.93876   -1.000
 5209.00    2.04928   1.97753   -1.000
 5210.00    2.12780   2.04966   -1.000
 5211.00    2.21531   2.14376   -1.000
 5212.00    2.30173   2.22957   -1.000
 5213.00    2.34681   2.27508   -1.000
 5214.00    2.33505   2.27007   -1.000
 5215.00    2.26846   2.23652   -1.000
 5216.00    2.22789   2.21445  129.277
 5217.00    2.24854   2.22969  127.052
 5218.00    2.29240   2.27687  125.827
 5219.00    2.34217   2.33024  125.210
 5220.00    2.38859   2.36780  126.243
 5221.00    2.40327   2.37776   -1.000
 5222.00    2.39260   2.35433   -1.000
 5223.00    2.34702   2.29561   -1.000
 5224.00    2.25796   2.20529   -1.000
 5225.00    2.14525   2.10422   -1.000
 5226.00    2.04660   2.03651  137.291
 5227.00    2.07022   2.03990   -1.000
 5228.00    2.19754   2.11344   -1.000
 5229.00    2.29649   2.20983   -1.000
 5230.00    2.35988   2.27206   -1.000
 5231.00    2.36197   2.27818   -1.000
 5232.00    2.30823   2.24769   -1.000
 5233.00    2.27460   2.22108   -1.000
 5234.00    2.27363   2.23066   -1.000
 5235.00    2.31930   2.27852   -1.000
 5236.00    2.37070   2.34137   -1.000
 5237.00    2.41317   2.39232  124.458
 5238.00    2.41808   2.41772  124.412
 5239.00    2.41169   2.42182  123.801
 5240.00    2.39385   2.41575  123.732
 5241.00    2.39358   2.40842  123.615
 5242.00    2.40525   2.40704  123.393
 5243.00    2.42991   2.41420  125.148
 5244.00    2.43822   2.41773  128.757
 5245.00    2.41543   2.39839  132.069
 5246.00    2.35758   2.35465  133.116
 5247.00    2.29922   2.30701  133.336
 5248.00    2.29042   2.27638  134.033
 5249.00    2.28808   2.26531   -1.000
 5250.00    2.27827   2.26679  132.235
 5251.00    2.28451   2.27788  130.765
 5252.00    2.32938   2.29380   -1.000
 5253.00    2.33275   2.30517   -1.000
 5254.00    2.30959   2.31300  127.273
 5255.00    2.32060   2.33435  123.909
 5256.00    2.39064   2.37912  122.216
 5257.00    2.46537   2.43140   -1.000
 5258.00    2.49275   2.46182   -1.000
 5259.00    2.48269   2.44988   -1.000
 5260.00    2.42504   2.39260   -1.000
 5261.00    2.34084   2.30086   -1.000
 5262.00    2.24335   2.19514   -1.000
 5263.00    2.15657   2.09817   -1.000
 5264.00    2.10411   2.03035   -1.000
 5265.00    2.09652   2.00432   -1.000
 5266.00    2.14085   2.01143   -1.000
 5267.00    2.18460   2.01765   -1.000
 5268.00    2.14526   1.99489   -1.000
 5269.00    2.06343   1.95849   -1.000
 5270.00    2.06067   1.96351   -1.000
 5271.00    2.16860   2.03831   -1.000
 5272.00    2.28897   2.14034   -1.000
 5273.00    2.31944   2.21305   -1.000
 5274.00    2.31888   2.24930   -1.000
 5275.00    2.33919   2.28020   -1.000
 5276.00    2.38408   2.33142   -1.000
 5277.00    2.45950   2.39628   -1.000
 5278.00    2.52535   2.44347   -1.000
 5279.00    2.51464   2.44579   -1.000
 5280.00    2.46639   2.40535   -1.000
 5281.00    2.40564   2.34709   -1.000
 5282.00    2.33589   2.29981   -1.000
 5283.00    2.31381   2.28871   -1.000
 5284.00    2.35923   2.32778   -1.000
 5285.00    2.46739   2.40468   -1.000
 5286.00    2.54206   2.48185   -1.000
 5287.00    2.56220   2.52886   -1.000
 5288.00    2.56560   2.54654  120.573
 5289.00    2.54432   2.55322  120.192
 5290.00    2.54909   2.55792  120.669
 5291.00    2.55878   2.55691  121.723
 5292.00    2.57517   2.54815   -1.000
 5293.00    2.56449   2.53127   -1.000
 5294.00    2.53725   2.49908   -1.000
 5295.00    2.48376   2.44069   -1.000
 5296.00    2.38437   2.36132   -1.000
 5297.00    2.29992   2.29304  131.960
 5298.00    2.29467   2.27187  129.242
 5299.00    2.36382   2.29906   -1.000
 5300.00    2.40914   2.34552   -1.000
 5301.00    2.42557   2.38750   -1.000
 5302.00    2.47133   2.42846   -1.000
 5303.00    2.53458   2.47910   -1.000
 5304.00    2.57524   2.52864   -1.000
 5305.00    2.59245   2.55535   -1.000
 5306.00    2.57334   2.55584  121.977
 5307.00    2.55905   2.54830  120.775
 5308.00    2.56833   2.55383  119.875
 5309.00    2.58137   2.57410  119.791
 5310.00    2.60987   2.59295  120.350
 5311.00    2.62466   2.59664   -1.000
 5312.00    2.61010   2.58438   -1.000
 5313.00    2.59467   2.56279   -1.000
 5314.00    2.57748   2.53746   -1.000
 5315.00    2.56531   2.51144   -1.000
 5316.00    2.55496   2.49298   -1.000
 5317.00    2.53761   2.49202   -1.000
 5318.00    2.54492   2.50694   -1.000
 5319.00    2.56248   2.52180   -1.000
 5320.00    2.56480   2.52142   -1.000
 5321.00    2.56184   2.50102   -1.000
 5322.00    2.54371   2.46158   -1.000
 5323.00    2.50389   2.41231   -1.000
 5324.00    2.48689   2.36414   -1.000
 5325.00    2.46959   2.31389   -1.000
 5326.00    2.42145   2.24376   -1.000
 5327.00    2.28922   2.16011   -1.000
 5328.00    2.20755   2.11414   -1.000
 5329.00    2.27140   2.15191   -1.000
 5330.00    2.40998   2.25708   -1.000
 5331.00    2.49423   2.36603   -1.000
 5332.00    2.52705   2.43629   -1.000
 5333.00    2.55615   2.47611   -1.000
 5334.00    2.59246   2.50775   -1.000
 5335.00    2.59954   2.53165   -1.000
 5336.00    2.57580   2.53593   -1.000
 5337.00    2.56847   2.51503   -1.000
 5338.00    2.55159   2.46991   -1.000
 5339.00    2.48584   2.41146   -1.000
 5340.00    2.42365   2.36836   -1.000
 5341.00    2.44141   2.36971   -1.000
 5342.00    2.51056   2.41247   -1.000
 5343.00    2.56904   2.46063   -1.000
 5344.00    2.57813   2.48232   -1.000
 5345.00    2.55825   2.47504   -1.000
 5346.00    2.56153   2.45448   -1.000
 5347.00    2.53621   2.43523   -1.000
 5348.00    2.48907   2.42558   -1.000
 5349.00    2.49672   2.43461   -1.000
 5350.00    2.54318   2.46711   -1.000
 5351.00    2.58837   2.51487   -1.000
 5352.00    2.62179   2.55944   -1.000
 5353.00    2.64352   2.59147   -1.000
 5354.00    2.66162   2.61831   -1.000
 5355.00    2.66915   2.64488   -1.000
 5356.00    2.66861   2.66557  118.035
 5357.00    2.68055   2.67397  118.413
 5358.00    2.69197   2.67053  119.599
 5359.00    2.68762   2.65699   -1.000
 5360.00    2.67173   2.63263   -1.000
 5361.00    2.63286   2.59987   -1.000
 5362.00    2.58963   2.56501   -1.000
 5363.00    2.56492   2.53245   -1.000
 5364.00    2.56276   2.50568   -1.000
 5365.00    2.56597   2.48831   -1.000
 5366.00    2.57745   2.48106   -1.000
 5367.00    2.58375   2.47185   -1.000
 5368.00    2.54289   2.44051   -1.000
 5369.00    2.45687   2.38159   -1.000
 5370.00    2.39119   2.31945   -1.000
 5371.00    2.39476   2.29756   -1.000
 5372.00    2.46972   2.34144   -1.000
 5373.00    2.59684   2.43437   -1.000
 5374.00    2.66056   2.52881   -1.000
 5375.00    2.67265   2.58812   -1.000
 5376.00    2.67978   2.60930   -1.000
 5377.00    2.69444   2.61106   -1.000
 5378.00    2.69158   2.60845   -1.000
 5379.00    2.66954   2.60247   -1.000
 5380.00    2.64512   2.58798   -1.000
 5381.00    2.62629   2.56610   -1.000
 5382.00    2.60776   2.54606   -1.000
 5383.00    2.59263   2.54037   -1.000
 5384.00    2.63027   2.55491   -1.000
 5385.00    2.65809   2.58197   -1.000
 5386.00    2.66453   2.60252   -1.000
 5387.00    2.68042   2.60155   -1.000
 5388.00    2.66237   2.57797   -1.000
 5389.00    2.62793   2.54204   -1.000
 5390.00    2.60240   2.50750   -1.000
 5391.00    2.57391   2.48266   -1.000
 5392.00    2.54886   2.46830   -1.000
 5393.00    2.55343   2.46020   -1.000
 5394.00    2.56791   2.44737   -1.000
 5395.00    2.53786   2.41964   -1.000
 5396.00    2.46935   2.38520   -1.000
 5397.00    2.44225   2.36960   -1.000
 5398.00    2.50066   2.39426   -1.000
 5399.00    2.58101   2.44792   -1.000
 5400.00    2.61980   2.49710   -1.000
 5401.00    2.63289   2.51700   -1.000
 5402.00    2.61710   2.49708   -1.000
 5403.00    2.54605   2.43696   -1.000
 5404.00    2.44957   2.35798   -1.000
 5405.00    2.39343   2.30441   -1.000
 5406.00    2.43748   2.30484   -1.000
 5407.00    2.50986   2.34304   -1.000
 5408.00    2.52000   2.37753   -1.000
 5409.00    2.48213   2.39009   -1.000
 5410.00    2.48676   2.40470   -1.000
 5411.00    2.54484   2.44457   -1.000
 5412.00    2.62810   2.49854   -1.000
 5413.00    2.65911   2.54000   -1.000
 5414.00    2.64390   2.56186   -1.000
 5415.00    2.62608   2.58117   -1.000
 5416.00    2.66658   2.60730   -1.000
 5417.00    2.70095   2.62918   -1.000
 5418.00    2.69047   2.63426   -1.000
 5419.00    2.67075   2.62425   -1.000
 5420.00    2.67207   2.61011   -1.000
 5421.00    2.67392   2.59759   -1.000
 5422.00    2.66140   2.58190   -1.000
 5423.00    2.63435   2.56417   -1.000
 5424.00    2.62291   2.56029   -1.000
 5425.00    2.65380   2.58296   -1.000
 5426.00    2.70593   2.61380   -1.000
 5427.00    2.69219   2.61017   -1.000
 5428.00    2.62871   2.55742   -1.000
 5429.00    2.56040   2.49144   -1.000
 5430.00    2.54813   2.45904   -1.000
 5431.00    2.59118   2.46605   -1.000
 5432.00    2.60848   2.47612   -1.000
 5433.00    2.56985   2.46403   -1.000
 5434.00    2.51834   2.44546   -1.000
 5435.00    2.52914   2.45257   -1.000
 5436.00    2.58686   2.50070   -1.000
 5437.00    2.64232   2.57491   -1.000
 5438.00    2.69588   2.64708   -1.000
 5439.00    2.74208   2.69677   -1.000
 5440.00    2.76752   2.72390   -1.000
 5441.00    2.77160   2.73552   -1.000
 5442.00    2.77027   2.73016   -1.000
 5443.00    2.74380   2.69658   -1.000
 5444.00    2.66944   2.62708   -1.000
 5445.00    2.56121   2.53620   -1.000
 5446.00    2.46379   2.46411  128.948
 5447.00    2.46620   2.44840  125.198
 5448.00    2.55608   2.49458   -1.000
 5449.00    2.66452   2.56614   -1.000
 5450.00    2.70669   2.61974   -1.000
 5451.00    2.71149   2.63593   -1.000
 5452.00    2.71948   2.61465   -1.000
 5453.00    2.66966   2.56186   -1.000
 5454.00    2.58096   2.49599   -1.000
 5455.00    2.53222   2.45353   -1.000
 5456.00    2.56361   2.46994   -1.000
 5457.00    2.66666   2.53922   -1.000
 5458.00    2.73908   2.61302   -1.000
 5459.00    2.76981   2.64737   -1.000
 5460.00    2.74844   2.63372   -1.000
 5461.00    2.69191   2.59232   -1.000
 5462.00    2.63182   2.55264   -1.000
 5463.00    2.61491   2.53841   -1.000
 5464.00    2.66027   2.55459   -1.000
 5465.00    2.69135   2.58740   -1.000
 5466.00    2.71935   2.61851   -1.000
 5467.00    2.74138   2.63931   -1.000
 5468.00    2.75082   2.64845   -1.000
 5469.00    2.76106   2.64532   -1.000
 5470.00    2.74621   2.63249   -1.000
 5471.00    2.72587   2.61572   -1.000
 5472.00    2.71867   2.59736   -1.000
 5473.00    2.69213   2.57215   -1.000
 5474.00    2.65344   2.53292   -1.000
 5475.00    2.58834   2.48440   -1.000
 5476.00    2.54765   2.45044   -1.000
 5477.00    2.56160   2.45714   -1.000
 5478.00    2.62782   2.50045   -1.000
 5479.00    2.68127   2.54441   -1.000
 5480.00    2.66744   2.55895   -1.000
 5481.00    2.63133   2.55364   -1.000
 5482.00    2.62148   2.56162   -1.000
 5483.00    2.64920   2.59727   -1.000
 5484.00    2.69962   2.64129   -1.000
 5485.00    2.72192   2.66353   -1.000
 5486.00    2.70281   2.65315   -1.000
 5487.00    2.68483   2.62676   -1.000
 5488.00    2.68410   2.60993   -1.000
 5489.00    2.70832   2.61563   -1.000
 5490.00    2.72807   2.63429   -1.000
 5491.00    2.74410   2.65037   -1.000
 5492.00    2.74378   2.65698   -1.000
 5493.00    2.74839   2.65749   -1.000
 5494.00    2.76214   2.65563   -1.000
 5495.00    2.76364   2.64869   -1.000
 5496.00    2.73623   2.63606   -1.000
 5497.00    2.70475   2.62717   -1.000
 5498.00    2.73564   2.62995   -1.000
 5499.00    2.78010   2.63563   -1.000
 5500.00    2.76077   2.62676   -1.000
 5501.00    2.70991   2.60282   -1.000
 5502.00    2.69591   2.58504   -1.000
 5503.00    2.73506   2.58269   -1.000
 5504.00    2.71789   2.58226   -1.000
 5505.00    2.68341   2.57144   -1.000
 5506.00    2.65013   2.55902   -1.000
 5507.00    2.69521   2.56574   -1.000
 5508.00    2.73988   2.59281   -1.000
 5509.00    2.76941   2.61584   -1.000
 5510.00    2.73923   2.61122   -1.000
 5511.00    2.69110   2.57921   -1.000
 5512.00    2.63660   2.54141   -1.000
 5513.00    2.60445   2.52236   -1.000
 5514.00    2.63427   2.53224   -1.000
 5515.00    2.69697   2.56461   -1.000
 5516.00    2.76646   2.60813   -1.000
 5517.00    2.80545   2.65393   -1.000
 5518.00    2.83523   2.69450   -1.000
 5519.00    2.86355   2.72088   -1.000
 5520.00    2.85605   2.72979   -1.000
 5521.00    2.82381   2.72853   -1.000
 5522.00    2.82312   2.72598   -1.000
 5523.00    2.82866   2.72128   -1.000
 5524.00    2.80855   2.70344   -1.000
 5525.00    2.78846   2.66334   -1.000
 5526.00    2.73488   2.60500   -1.000
 5527.00    2.65481   2.55067   -1.000
 5528.00    2.63890   2.53215   -1.000
 5529.00    2.68153   2.56375   -1.000
 5530.00    2.73130   2.62396   -1.000
 5531.00    2.77054   2.67286   -1.000
 5532.00    2.77284   2.68968   -1.000
 5533.00    2.75232   2.68183   -1.000
 5534.00    2.73565   2.66764   -1.000
 5535.00    2.75918   2.66091   -1.000
 5536.00    2.78344   2.66679   -1.000
 5537.00    2.81174   2.68103   -1.000
 5538.00    2.83996   2.69784   -1.000
 5539.00    2.85578   2.71681   -1.000
 5540.00    2.88160   2.73453   -1.000
 5541.00    2.88641   2.74026   -1.000
 5542.00    2.87313   2.72968   -1.000
 5543.00    2.82550   2.71282   -1.000
 5544.00    2.79916   2.70366   -1.000
 5545.00    2.81109   2.70713   -1.000
 5546.00    2.82118   2.72003   -1.000
 5547.00    2.85516   2.74091   -1.000
 5548.00    2.91050   2.76650   -1.000
 5549.00    2.91841   2.78712   -1.000
 5550.00    2.93388   2.79471   -1.000
 5551.00    2.92703   2.78762   -1.000
 5552.00    2.88756   2.76889   -1.000
 5553.00    2.88115   2.74729   -1.000
 5554.00    2.85525   2.73381   -1.000
 5555.00    2.86224   2.73277   -1.000
 5556.00    2.87421   2.73827   -1.000
 5557.00    2.87937   2.74347   -1.000
 5558.00    2.89742   2.74798   -1.000
 5559.00    2.89604   2.75085   -1.000
 5560.00    2.88736   2.74576   -1.000
 5561.00    2.86853   2.72929   -1.000
 5562.00    2.83542   2.70884   -1.000
 5563.00    2.82003   2.69357   -1.000
 5564.00    2.81665   2.68435   -1.000
 5565.00    2.80762   2.67661   -1.000
 5566.00    2.80105   2.66865   -1.000
 5567.00    2.79936   2.66314   -1.000
 5568.00    2.79971   2.66197   -1.000
 5569.00    2.80944   2.66388   -1.000
 5570.00    2.78751   2.66517   -1.000
 5571.00    2.66517   2.66259  127.818
 5572.00    2.22806   2.65732   -1.000
 5573.00    0.68972   2.65875   -1.000
 5574.00   -2.06636   2.67457    0.000
 5575.00   -3.74335   2.69618    0.000
 5576.00   -2.42380   2.71293    0.000
 5577.00    0.41529   2.72686   -1.000
 5578.00    2.35489   2.74165   -1.000
 5579.00    2.87608   2.75267   -1.000
 5580.00    2.92709   2.75529   -1.000
 5581.00    2.89718   2.75036   -1.000
 5582.00    2.87722   2.74204   -1.000
 5583.00    2.89943   2.72972   -1.000
 5584.00    2.90935   2.70272   -1.000
 5585.00    2.84742   2.64951   -1.000
 5586.00    2.73459   2.57702   -1.000
 5587.00    2.66820   2.51506   -1.000
 5588.00    2.66296   2.49010   -1.000
 5589.00    2.68814   2.50664   -1.000
 5590.00    2.74879   2.54893   -1.000
 5591.00    2.77395   2.59299   -1.000
 5592.00    2.77304   2.62201   -1.000
 5593.00    2.77355   2.63833   -1.000
 5594.00    2.80121   2.65639   -1.000
 5595.00    2.83382   2.68134   -1.000
 5596.00    2.84629   2.69865   -1.000
 5597.00    2.83075   2.69047   -1.000
 5598.00    2.79346   2.65945   -1.000
 5599.00    2.75579   2.62554   -1.000
 5600.00    2.76231   2.59970   -1.000
 5601.00    2.75631   2.58520   -1.000
 5602.00    2.73635   2.59400   -1.000
 5603.00    2.76554   2.63749   -1.000
 5604.00    2.86434   2.70689   -1.000
 5605.00    2.92563   2.77678   -1.000
 5606.00    2.94758   2.82525   -1.000
 5607.00    2.95080   2.84763   -1.000
 5608.00    2.95911   2.85288   -1.000
 5609.00    2.96556   2.85369   -1.000
 5610.00    2.96444   2.85724   -1.000
 5611.00    2.98969   2.85694   -1.000
 5612.00    2.99616   2.83328   -1.000
 5613.00    2.92542   2.77144   -1.000
 5614.00    2.82512   2.68494   -1.000
 5615.00    2.74473   2.61598   -1.000
 5616.00    2.74857   2.60369   -1.000
 5617.00    2.83791   2.64322   -1.000
 5618.00    2.90627   2.69477   -1.000
 5619.00    2.90955   2.73207   -1.000
 5620.00    2.92879   2.75545   -1.000
 5621.00    2.97197   2.76590   -1.000
 5622.00    2.93061   2.75429   -1.000
 5623.00    2.86686   2.72034   -1.000
 5624.00    2.83802   2.68528   -1.000
 5625.00    2.82261   2.67756   -1.000
 5626.00    2.87158   2.70391   -1.000
 5627.00    2.92769   2.74777   -1.000
 5628.00    2.94124   2.78993   -1.000
 5629.00    2.96060   2.82134   -1.000
 5630.00    2.99674   2.83856   -1.000
 5631.00    2.99047   2.84021   -1.000
 5632.00    2.96965   2.82931   -1.000
 5633.00    2.95076   2.81161   -1.000
 5634.00    2.95900   2.79029   -1.000
 5635.00    2.95937   2.76860   -1.000
 5636.00    2.90946   2.75122   -1.000
 5637.00    2.89861   2.74253   -1.000
 5638.00    2.89401   2.74288   -1.000
 5639.00    2.91101   2.74582   -1.000
 5640.00    2.90290   2.74347   -1.000
 5641.00    2.87387   2.73861   -1.000
 5642.00    2.89745   2.74075   -1.000
 5643.00    2.91361   2.75121   -1.000
 5644.00    2.92376   2.76486   -1.000
 5645.00    2.92797   2.77819   -1.000
 5646.00    2.94064   2.78838   -1.000
 5647.00    2.96221   2.79208   -1.000
 5648.00    2.94232   2.78961   -1.000
 5649.00    2.94439   2.78711   -1.000
 5650.00    2.96654   2.79220   -1.000
 5651.00    2.97280   2.80349   -1.000
 5652.00    2.97935   2.80914   -1.000
 5653.00    2.97837   2.80098   -1.000
 5654.00    2.96118   2.78223   -1.000
 5655.00    2.92907   2.75655   -1.000
 5656.00    2.89121   2.72041   -1.000
 5657.00    2.81565   2.67572   -1.000
 5658.00    2.74946   2.64243   -1.000
 5659.00    2.78032   2.64231   -1.000
 5660.00    2.82892   2.66808   -1.000
 5661.00    2.83873   2.69453   -1.000
 5662.00    2.83694   2.71350   -1.000
 5663.00    2.86415   2.73586   -1.000
 5664.00    2.90077   2.76469   -1.000
 5665.00    2.90774   2.78650   -1.000
 5666.00    2.90514   2.79026   -1.000
 5667.00    2.89285   2.78234   -1.000
 5668.00    2.88099   2.77717   -1.000
 5669.00    2.87670   2.78236   -1.000
 5670.00    2.90028   2.79744   -1.000
 5671.00    2.95122   2.81991   -1.000
 5672.00    2.98961   2.84441   -1.000
 5673.00    2.99312   2.86321   -1.000
 5674.00    3.01030   2.87146   -1.000
 5675.00    3.01474   2.87225   -1.000
 5676.00    3.03118   2.87243   -1.000
 5677.00    3.04884   2.87266   -1.000
 5678.00    3.01390   2.86679   -1.000
 5679.00    3.01850   2.85115   -1.000
 5680.00    2.98100   2.82605   -1.000
 5681.00    2.94039   2.79432   -1.000
 5682.00    2.92053   2.76591   -1.000
 5683.00    2.90478   2.75442   -1.000
 5684.00    2.92258   2.76124   -1.000
 5685.00    2.92800   2.77104   -1.000
 5686.00    2.92851   2.76971   -1.000
 5687.00    2.92333   2.76090   -1.000
 5688.00    2.91346   2.76005   -1.000
 5689.00    2.93283   2.77811   -1.000
 5690.00    2.97386   2.81171   -1.000
 5691.00    3.01170   2.84690   -1.000
 5692.00    3.04192   2.87171   -1.000
 5693.00    3.03571   2.88280   -1.000
 5694.00    3.03154   2.88414   -1.000
 5695.00    3.01808   2.87955   -1.000
 5696.00    2.99993   2.86936   -1.000
 5697.00    2.98481   2.85170   -1.000
 5698.00    2.95007   2.82745   -1.000
 5699.00    2.92345   2.80139   -1.000
 5700.00    2.87924   2.77918   -1.000
 5701.00    2.85641   2.76838   -1.000
 5702.00    2.85675   2.77345   -1.000
 5703.00    2.87662   2.78743   -1.000
 5704.00    2.90472   2.79444   -1.000
 5705.00    2.89428   2.78227   -1.000
 5706.00    2.87669   2.75199   -1.000
 5707.00    2.84058   2.71423   -1.000
 5708.00    2.80488   2.67974   -1.000
 5709.00    2.78167   2.65883   -1.000
 5710.00    2.77070   2.65992   -1.000
 5711.00    2.81565   2.68563   -1.000
 5712.00    2.86539   2.73289   -1.000
 5713.00    2.93250   2.78906   -1.000
 5714.00    3.01006   2.83643   -1.000
 5715.00    3.02140   2.86623   -1.000
 5716.00    3.01978   2.88303   -1.000
 5717.00    3.02011   2.89476   -1.000
 5718.00    3.02410   2.90722   -1.000
 5719.00    3.05491   2.92324   -1.000
 5720.00    3.08438   2.94185   -1.000
 5721.00    3.09413   2.95911   -1.000
 5722.00    3.10457   2.97113   -1.000
 5723.00    3.12072   2.97496   -1.000
 5724.00    3.08994   2.96706   -1.000
 5725.00    3.07654   2.94668   -1.000
 5726.00    3.03875   2.92277   -1.000
 5727.00    3.01818   2.91025   -1.000
 5728.00    3.02113   2.91347   -1.000
 5729.00    3.04588   2.92090   -1.000
 5730.00    3.06898   2.92060   -1.000
 5731.00    3.03832   2.91619   -1.000
 5732.00    3.04620   2.92145   -1.000
 5733.00    3.07578   2.94050   -1.000
 5734.00    3.10719   2.96084   -1.000
 5735.00    3.11286   2.96908   -1.000
 5736.00    3.08625   2.96463   -1.000
 5737.00    3.06202   2.95674   -1.000
 5738.00    3.07938   2.95344   -1.000
 5739.00    3.06493   2.95428   -1.000
 5740.00    3.07994   2.95423   -1.000
 5741.00    3.06210   2.95118   -1.000
 5742.00    3.06338   2.95017   -1.000
 5743.00    3.06870   2.95722   -1.000
 5744.00    3.08219   2.96980   -1.000
 5745.00    3.09223   2.97606   -1.000
 5746.00    3.07929   2.96768   -1.000
 5747.00    3.06873   2.95307   -1.000
 5748.00    3.06662   2.94860   -1.000
 5749.00    3.08653   2.95557   -1.000
 5750.00    3.12085   2.95647   -1.000
 5751.00    3.09499   2.93535   -1.000
 5752.00    3.03092   2.89925   -1.000
 5753.00    2.98130   2.87364   -1.000
 5754.00    2.99676   2.88043   -1.000
 5755.00    3.06176   2.91859   -1.000
 5756.00    3.11121   2.96500   -1.000
 5757.00    3.15629   2.99463   -1.000
 5758.00    3.15937   2.99632   -1.000
 5759.00    3.11376   2.97270   -1.000
 5760.00    3.07246   2.93460   -1.000
 5761.00    3.02811   2.89872   -1.000
 5762.00    3.00792   2.88490   -1.000
 5763.00    3.02966   2.90461   -1.000
 5764.00    3.04985   2.94877   -1.000
 5765.00    3.07963   2.99324   -1.000
 5766.00    3.11747   3.02062   -1.000
 5767.00    3.12685   3.02964   -1.000
 5768.00    3.11736   3.02768   -1.000
 5769.00    3.09688   3.02111   -1.000
 5770.00    3.08084   3.01197   -1.000
 5771.00    3.05392   2.99936   -1.000
 5772.00    3.03539   2.98433   -1.000
 5773.00    3.02366   2.97238   -1.000
 5774.00    3.02455   2.96867   -1.000
 5775.00    2.97465   2.97460  123.322
 5776.00    2.89945   2.98358   -1.000
 5777.00    2.83769   2.98135   -1.000
 5778.00    2.76657   2.95653   -1.000
 5779.00    2.74796   2.91054   -1.000
 5780.00    2.79421   2.85832   -1.000
 5781.00    2.84917   2.81998   -1.000
 5782.00    2.90854   2.80607   -1.000
 5783.00    2.93847   2.80943   -1.000
 5784.00    2.92332   2.81872   -1.000
 5785.00    2.94117   2.83554   -1.000
 5786.00    2.98619   2.86669   -1.000
 5787.00    3.06450   2.90561   -1.000
 5788.00    3.09233   2.93503   -1.000
 5789.00    3.07917   2.94485   -1.000
 5790.00    3.05033   2.94213   -1.000
 5791.00    3.05091   2.94457   -1.000
 5792.00    3.05042   2.96368   -1.000
 5793.00    3.05131   2.99411   -1.000
 5794.00    3.03613   3.02030  122.814
 5795.00    3.04434   3.02895  123.605
 5796.00    3.05990   3.01888   -1.000
 5797.00    3.05752   3.00499   -1.000
 5798.00    3.08763   3.00702   -1.000
 5799.00    3.15263   3.02995   -1.000
 5800.00    3.19028   3.05886   -1.000
 5801.00    3.20638   3.07498   -1.000
 5802.00    3.21160   3.07028   -1.000
 5803.00    3.16909   3.04941   -1.000
 5804.00    3.13204   3.02581   -1.000
 5805.00    3.11247   3.01266   -1.000
 5806.00    3.10636   3.01362   -1.000
 5807.00    3.10194   3.02291   -1.000
 5808.00    3.12444   3.03382   -1.000
 5809.00    3.15382   3.04413   -1.000
 5810.00    3.16884   3.05251   -1.000
 5811.00    3.18095   3.05559   -1.000
 5812.00    3.19858   3.05043   -1.000
 5813.00    3.22159   3.03611   -1.000
 5814.00    3.19615   3.01510   -1.000
 5815.00    3.15088   2.99741   -1.000
 5816.00    3.13690   2.99775   -1.000
 5817.00    3.15960   3.02043   -1.000
 5818.00    3.19791   3.05234   -1.000
 5819.00    3.23401   3.07514   -1.000
 5820.00    3.25900   3.08177   -1.000
 5821.00    3.21801   3.07786   -1.000
 5822.00    3.20454   3.07251   -1.000
 5823.00    3.23647   3.07069   -1.000
 5824.00    3.24023   3.07235   -1.000
 5825.00    3.22942   3.07635   -1.000
 5826.00    3.23220   3.08170   -1.000
 5827.00    3.24754   3.08727   -1.000
 5828.00    3.23937   3.09175   -1.000
 5829.00    3.24819   3.09414   -1.000
 5830.00    3.24667   3.09402   -1.000
 5831.00    3.23956   3.09108   -1.000
 5832.00    3.22247   3.08464   -1.000
 5833.00    3.21909   3.07550   -1.000
 5834.00    3.23160   3.06810   -1.000
 5835.00    3.24253   3.06705   -1.000
 5836.00    3.24433   3.07107   -1.000
 5837.00    3.22924   3.07530   -1.000
 5838.00    3.22127   3.07972   -1.000
 5839.00    3.23099   3.08821   -1.000
 5840.00    3.23217   3.10076   -1.000
 5841.00    3.22966   3.11117   -1.000
 5842.00    3.21769   3.11322   -1.000
 5843.00    3.23835   3.10584   -1.000
 5844.00    3.24207   3.09119   -1.000
 5845.00    3.23044   3.07225   -1.000
 5846.00    3.21530   3.05419   -1.000
 5847.00    3.17558   3.04339   -1.000
 5848.00    3.19535   3.04129   -1.000
 5849.00    3.22652   3.04033   -1.000
 5850.00    3.21003   3.03067   -1.000
 5851.00    3.17917   3.01041   -1.000
 5852.00    3.13170   2.98769   -1.000
 5853.00    3.11408   2.97117   -1.000
 5854.00    3.13594   2.95871   -1.000
 5855.00    3.12826   2.93795   -1.000
 5856.00    3.09103   2.90408   -1.000
 5857.00    3.06317   2.87539   -1.000
 5858.00    3.09012   2.87685   -1.000
 5859.00    3.11931   2.90969   -1.000
 5860.00    3.14622   2.95107   -1.000
 5861.00    3.17882   2.98054   -1.000
 5862.00    3.18618   2.99569   -1.000
 5863.00    3.17526   3.00358   -1.000
 5864.00    3.17960   3.00503   -1.000
 5865.00    3.18459   2.99730   -1.000
 5866.00    3.18413   2.98765   -1.000
 5867.00    3.17474   2.99058   -1.000
 5868.00    3.18894   3.01095   -1.000
 5869.00    3.22343   3.03822   -1.000
 5870.00    3.23306   3.05737   -1.000
 5871.00    3.24596   3.06139   -1.000
 5872.00    3.24171   3.05462   -1.000
 5873.00    3.24020   3.04598   -1.000
 5874.00    3.26118   3.04002   -1.000
 5875.00    3.26119   3.03430   -1.000
 5876.00    3.25685   3.02471   -1.000
 5877.00    3.21354   3.01030   -1.000
 5878.00    3.18387   2.99337   -1.000
 5879.00    3.16410   2.97840   -1.000
 5880.00    3.11250   2.96926   -1.000
 5881.00    3.04415   2.96438   -1.000
 5882.00    2.94906   2.95711  125.009
 5883.00    2.88089   2.94444   -1.000
 5884.00    2.75339   2.92777   -1.000
 5885.00    2.47769   2.89732   -1.000
 5886.00    2.00940   2.82328   -1.000
 5887.00    1.51293   2.67934   -1.000
 5888.00    1.38489   2.48429   -1.000
 5889.00    1.64384   2.31593   -1.000
 5890.00    2.03780   2.25887   -1.000
 5891.00    2.24371   2.31918   -1.000
 5892.00    2.11613   2.41566   -1.000
 5893.00    1.90278   2.46141   -1.000
 5894.00    1.90833   2.43595   -1.000
 5895.00    2.18832   2.39279   -1.000
 5896.00    2.54713   2.40592   -1.000
 5897.00    2.80070   2.49739   -1.000
 5898.00    2.95871   2.62540   -1.000
 5899.00    3.03361   2.74202   -1.000
 5900.00    3.11681   2.83116   -1.000
 5901.00    3.16824   2.89468   -1.000
 5902.00    3.18958   2.93543   -1.000
 5903.00    3.18650   2.95728   -1.000
 5904.00    3.18612   2.96688   -1.000
 5905.00    3.18556   2.97256   -1.000
 5906.00    3.16333   2.98058   -1.000
 5907.00    3.16609   2.99188   -1.000
 5908.00    3.19973   3.00414   -1.000
 5909.00    3.17542   3.01509   -1.000
 5910.00    3.17864   3.02108   -1.000
 5911.00    3.20524   3.01588   -1.000
 5912.00    3.18256   2.99497   -1.000
 5913.00    3.15452   2.96416   -1.000
 5914.00    3.10927   2.93962   -1.000
 5915.00    3.07407   2.93425   -1.000
 5916.00    3.10033   2.94848   -1.000
 5917.00    3.11742   2.97436   -1.000
 5918.00    3.14072   3.00091   -1.000
 5919.00    3.16729   3.01877   -1.000
 5920.00    3.15559   3.02491   -1.000
 5921.00    3.15116   3.02302   -1.000
 5922.00    3.13636   3.02082   -1.000
 5923.00    3.14630   3.02524   -1.000
 5924.00    3.20375   3.03697   -1.000
 5925.00    3.25816   3.04923   -1.000
 5926.00    3.25803   3.05169   -1.000
 5927.00    3.24044   3.03852   -1.000
 5928.00    3.20368   3.01579   -1.000
 5929.00    3.14945   2.99896   -1.000
 5930.00    3.17383   2.99994   -1.000
 5931.00    3.20790   3.01446   -1.000
 5932.00    3.22020   3.02606   -1.000
 5933.00    3.21528   3.02619   -1.000
 5934.00    3.19491   3.02423   -1.000
 5935.00    3.20104   3.03307   -1.000
 5936.00    3.21413   3.05123   -1.000
 5937.00    3.22350   3.06600   -1.000
 5938.00    3.20197   3.06777   -1.000
 5939.00    3.19955   3.05575   -1.000
 5940.00    3.16122   3.03684   -1.000
 5941.00    3.16480   3.02312   -1.000
 5942.00    3.16569   3.02380   -1.000
 5943.00    3.18951   3.03764   -1.000
 5944.00    3.21229   3.05458   -1.000
 5945.00    3.23112   3.06322   -1.000
 5946.00    3.21049   3.05743   -1.000
 5947.00    3.17696   3.04134   -1.000
 5948.00    3.16618   3.02794   -1.000
 5949.00    3.15074   3.02628   -1.000
 5950.00    3.19419   3.03110   -1.000
 5951.00    3.19640   3.03098   -1.000
 5952.00    3.19848   3.02504   -1.000
 5953.00    3.18523   3.02274   -1.000
 5954.00    3.20097   3.02606   -1.000
 5955.00    3.18536   3.02621   -1.000
 5956.00    3.17011   3.02129   -1.000
 5957.00    3.17701   3.02168   -1.000
 5958.00    3.20708   3.03613   -1.000
 5959.00    3.24483   3.06157   -1.000
 5960.00    3.28523   3.08684   -1.000
 5961.00    3.29780   3.10266   -1.000
 5962.00    3.31111   3.10650   -1.000
 5963.00    3.26783   3.10029   -1.000
 5964.00    3.22708   3.08873   -1.000
 5965.00    3.18966   3.07946   -1.000
 5966.00    3.20432   3.07926   -1.000
 5967.00    3.23017   3.08827   -1.000
 5968.00    3.26543   3.10167   -1.000
 5969.00    3.28534   3.11551   -1.000
 5970.00    3.27087   3.12689   -1.000
 5971.00    3.29366   3.13255   -1.000
 5972.00    3.29538   3.12982   -1.000
 5973.00    3.27920   3.11651   -1.000
 5974.00    3.24551   3.09231   -1.000
 5975.00    3.20370   3.06314   -1.000
 5976.00    3.18453   3.04099   -1.000
 5977.00    3.21295   3.03630   -1.000
 5978.00    3.24134   3.05030   -1.000
 5979.00    3.25431   3.07344   -1.000
 5980.00    3.26570   3.08937   -1.000
 5981.00    3.26988   3.08445   -1.000
 5982.00    3.23540   3.05856   -1.000
 5983.00    3.16902   3.02806   -1.000
 5984.00    3.15628   3.01423   -1.000
 5985.00    3.18821   3.02455   -1.000
 5986.00    3.20269   3.04827   -1.000
 5987.00    3.22579   3.07179   -1.000
 5988.00    3.25206   3.08915   -1.000
 5989.00    3.25969   3.09932   -1.000
 5990.00    3.26127   3.10452   -1.000
 5991.00    3.25601   3.11183   -1.000
 5992.00    3.28543   3.12718   -1.000
 5993.00    3.31598   3.14479   -1.000
 5994.00    3.29803   3.15040   -1.000
 5995.00    3.30741   3.13757   -1.000
 5996.00    3.28608   3.11467   -1.000
 5997.00    3.25398   3.09679   -1.000
 5998.00    3.27906   3.09295   -1.000
 5999.00    3.25396   3.09926   -1.000
 6000.00    3.25067   3.10420   -1.000
 6001.00    3.25407   3.10055   -1.000
 6002.00    3.24951   3.09240   -1.000
 6003.00    3.25035   3.08858   -1.000
 6004.00    3.25468   3.08760   -1.000
 6005.00    3.24518   3.07750   -1.000
 6006.00    3.18170   3.05478   -1.000
 6007.00    3.13692   3.03490   -1.000
 6008.00    3.17346   3.03770   -1.000
 6009.00    3.19956   3.06320   -1.000
 6010.00    3.25998   3.08906   -1.000
 6011.00    3.26416   3.09596   -1.000
 6012.00    3.25449   3.08646   -1.000
 6013.00    3.26275   3.07553   -1.000
 6014.00    3.27431   3.07110   -1.000
 6015.00    3.26198   3.07014   -1.000
 6016.00    3.25452   3.06906   -1.000
 6017.00    3.25772   3.06693   -1.000
 6018.00    3.24542   3.06071   -1.000
 6019.00    3.24049   3.04953   -1.000
 6020.00    3.20420   3.04090   -1.000
 6021.00    3.22148   3.04290   -1.000
 6022.00    3.22048   3.05497   -1.000
 6023.00    3.23477   3.07244   -1.000
 6024.00    3.26780   3.09370   -1.000
 6025.00    3.28367   3.11695   -1.000
 6026.00    3.29904   3.13810   -1.000
 6027.00    3.31242   3.15624   -1.000
 6028.00    3.31632   3.17278   -1.000
 6029.00    3.32526   3.18641   -1.000
 6030.00    3.30937   3.19570   -1.000
 6031.00    3.31862   3.20335   -1.000
 6032.00    3.31977   3.21385   -1.000
 6033.00    3.36588   3.22791   -1.000
 6034.00    3.34827   3.23979   -1.000
 6035.00    3.33983   3.24284   -1.000
 6036.00    3.33552   3.23626   -1.000
 6037.00    3.37275   3.22388   -1.000
 6038.00    3.34255   3.20980   -1.000
 6039.00    3.31959   3.19827   -1.000
 6040.00    3.32044   3.19376   -1.000
 6041.00    3.32291   3.19826   -1.000
 6042.00    3.35885   3.20957   -1.000
 6043.00    3.35300   3.22280   -1.000
 6044.00    3.35539   3.23385   -1.000
 6045.00    3.35391   3.24184   -1.000
 6046.00    3.37132   3.24828   -1.000
 6047.00    3.38748   3.25407   -1.000
 6048.00    3.41040   3.25863   -1.000
 6049.00    3.40945   3.26041   -1.000
 6050.00    3.38813   3.25759   -1.000
 6051.00    3.39422   3.24844   -1.000
 6052.00    3.40060   3.23283   -1.000
 6053.00    3.38963   3.21294   -1.000
 6054.00    3.36547   3.19319   -1.000
 6055.00    3.33415   3.18007   -1.000
 6056.00    3.35980   3.17946   -1.000
 6057.00    3.37383   3.19128   -1.000
 6058.00    3.41037   3.20843   -1.000
 6059.00    3.35614   3.22182   -1.000
 6060.00    3.52357   3.22491   -1.000
 6061.00    2.09070   3.21423   -1.000
 6062.00    0.93289   3.18954   -1.000
 6063.00    2.42954   3.15691   -1.000
 6064.00    3.28401   3.13208   -1.000
 6065.00    3.12291   3.13313  126.725
 6066.00    3.36372   3.16304   -1.000
 6067.00    1.97381   3.20534   -1.000
 6068.00    1.23272   3.24120   -1.000
 6069.00    3.47821   3.26399   -1.000
 6070.00    3.39272   3.27648   -1.000
 6071.00    3.37605   3.28267   -1.000
 6072.00    3.41339   3.28488   -1.000
 6073.00    3.43459   3.28348   -1.000
 6074.00    3.43584   3.27673   -1.000
 6075.00    3.40928   3.26244   -1.000
 6076.00    3.38839   3.24091   -1.000
 6077.00    3.36077   3.21692   -1.000
 6078.00    3.34163   3.19750   -1.000
 6079.00    3.32080   3.18528   -1.000
 6080.00    3.28949   3.17681   -1.000
 6081.00    3.31182   3.16985   -1.000
 6082.00    3.31666   3.16632   -1.000
 6083.00    3.31633   3.16745   -1.000
 6084.00    3.31507   3.17284   -1.000
 6085.00    3.31395   3.18257   -1.000
 6086.00    3.34307   3.19424   -1.000
 6087.00    3.34917   3.20094   -1.000
 6088.00    3.31809   3.19711   -1.000
 6089.00    3.31105   3.18511   -1.000
 6090.00    3.31115   3.17414   -1.000
 6091.00    3.30292   3.17286   -1.000
 6092.00    3.32701   3.18377   -1.000
 6093.00    3.33314   3.20266   -1.000
 6094.00    3.33782   3.22182   -1.000
 6095.00    3.37045   3.23546   -1.000
 6096.00    3.36467   3.24374   -1.000
 6097.00    3.36535   3.24883   -1.000
 6098.00    3.39793   3.24576   -1.000
 6099.00    3.37955   3.22192   -1.000
 6100.00    3.33304   3.17055   -1.000
 6101.00    3.25813   3.10694   -1.000
 6102.00    3.19697   3.06608   -1.000
 6103.00    3.20347   3.07300   -1.000
 6104.00    3.29630   3.11761   -1.000
 6105.00    3.35612   3.16878   -1.000
 6106.00    3.35619   3.20616   -1.000
 6107.00    3.31751   3.22960   -1.000
 6108.00    3.32570   3.24489   -1.000
 6109.00    3.34223   3.25324   -1.000
 6110.00    3.35324   3.25573   -1.000
 6111.00    3.35411   3.25838   -1.000
 6112.00    3.33839   3.26602   -1.000
 6113.00    3.36966   3.27550   -1.000
 6114.00    3.38174   3.27949   -1.000
 6115.00    3.36588   3.27549   -1.000
 6116.00    3.34514   3.26676   -1.000
 6117.00    3.34071   3.25309   -1.000
 6118.00    3.34158   3.22687   -1.000
 6119.00    3.30657   3.18178   -1.000
 6120.00    3.26534   3.12540   -1.000
 6121.00    3.17652   3.08142   -1.000
 6122.00    3.20428   3.07285   -1.000
 6123.00    3.26258   3.10013   -1.000
 6124.00    3.31800   3.14160   -1.000
 6125.00    3.33194   3.17504   -1.000
 6126.00    3.30454   3.19369   -1.000
 6127.00    3.28918   3.20519   -1.000
 6128.00    3.31521   3.22081   -1.000
 6129.00    3.33211   3.24466   -1.000
 6130.00    3.35455   3.27055   -1.000
 6131.00    3.38866   3.28704   -1.000
 6132.00    3.39126   3.28113   -1.000
 6133.00    3.34448   3.24117   -1.000
 6134.00    3.28136   3.16637   -1.000
 6135.00    3.19819   3.07957   -1.000
 6136.00    3.10682   3.02205   -1.000
 6137.00    3.07466   3.02233   -1.000
 6138.00    3.15254   3.06788   -1.000
 6139.00    3.24606   3.12045   -1.000
 6140.00    3.27876   3.15749   -1.000
 6141.00    3.27726   3.18581   -1.000
 6142.00    3.27004   3.21793   -1.000
 6143.00    3.31004   3.25147   -1.000
 6144.00    3.34617   3.27401   -1.000
 6145.00    3.36521   3.27844   -1.000
 6146.00    3.38124   3.26754   -1.000
 6147.00    3.33877   3.24837   -1.000
 6148.00    3.30772   3.22783   -1.000
 6149.00    3.29098   3.21263   -1.000
 6150.00    3.29214   3.20888   -1.000
 6151.00    3.33019   3.21596   -1.000
 6152.00    3.34037   3.22300   -1.000
 6153.00    3.33537   3.21919   -1.000
 6154.00    3.29361   3.20638   -1.000
 6155.00    3.27747   3.19435   -1.000
 6156.00    3.28600   3.18563   -1.000
 6157.00    3.26489   3.16963   -1.000
 6158.00    3.22542   3.12899   -1.000
 6159.00    3.17986   3.05379   -1.000
 6160.00    3.07990   2.95714   -1.000
 6161.00    2.98220   2.87598   -1.000
 6162.00    2.95032   2.84620   -1.000
 6163.00    2.99002   2.87382   -1.000
 6164.00    3.05249   2.93379   -1.000
 6165.00    3.11563   2.99183   -1.000
 6166.00    3.14750   3.02220   -1.000
 6167.00    3.10696   3.01710   -1.000
 6168.00    3.05600   2.99379   -1.000
 6169.00    3.01549   2.98530   -1.000
 6170.00    3.04936   3.00994   -1.000
 6171.00    3.12102   3.05585   -1.000
 6172.00    3.14796   3.10009   -1.000
 6173.00    3.13933   3.13045  133.803
 6174.00    3.16683   3.14683   -1.000
 6175.00    3.14698   3.15506  133.186
 6176.00    3.17520   3.16268  132.486
 6177.00    3.17965   3.17337  132.039
 6178.00    3.20088   3.18529  131.620
 6179.00    3.20810   3.19721  130.977
 6180.00    3.24219   3.21076   -1.000
 6181.00    3.26834   3.22431   -1.000
 6182.00    3.26038   3.23113   -1.000
 6183.00    3.26029   3.22580   -1.000
 6184.00    3.25787   3.20858   -1.000
 6185.00    3.21504   3.18395   -1.000
 6186.00    3.19995   3.15777   -1.000
 6187.00    3.17990   3.13299   -1.000
 6188.00    3.16779   3.10580   -1.000
 6189.00    3.15055   3.07268   -1.000
 6190.00    3.08398   3.04481   -1.000
 6191.00    3.03960   3.04341  134.821
 6192.00    3.10883   3.07509   -1.000
 6193.00    3.16400   3.12324   -1.000
 6194.00    3.21141   3.16649   -1.000
 6195.00    3.22901   3.19371   -1.000
 6196.00    3.25889   3.20196   -1.000
 6197.00    3.22054   3.19285   -1.000
 6198.00    3.18234   3.17531  135.419
 6199.00    3.13227   3.16487   -1.000
 6200.00    3.08822   3.17205   -1.000
 6201.00    3.12890   3.19367   -1.000
 6202.00    3.21539   3.21872  132.045
 6203.00    3.21829   3.23917  131.776
 6204.00    3.24274   3.25310  131.816
 6205.00    3.28214   3.26200   -1.000
 6206.00    3.27987   3.26719  132.294
 6207.00    3.29827   3.26787   -1.000
 6208.00    3.28959   3.26124   -1.000
 6209.00    3.27798   3.24438   -1.000
 6210.00    3.25180   3.21505   -1.000
 6211.00    3.25062   3.17344   -1.000
 6212.00    3.18662   3.12647   -1.000
 6213.00    3.15179   3.08775   -1.000
 6214.00    3.14670   3.06882   -1.000
 6215.00    3.12460   3.06969   -1.000
 6216.00    3.17888   3.07848   -1.000
 6217.00    3.18535   3.08181   -1.000
 6218.00    3.17348   3.07744   -1.000
 6219.00    2.64855   3.07557   -1.000
 6220.00    2.94998   3.08527   -1.000
 6221.00    3.21381   3.10354   -1.000
 6222.00    3.18327   3.12079   -1.000
 6223.00    3.22690   3.13230   -1.000
 6224.00    3.22078   3.13936   -1.000
 6225.00    3.23576   3.14214   -1.000
 6226.00    3.23578   3.13517   -1.000
 6227.00    3.22348   3.11035   -1.000
 6228.00    3.18264   3.06707   -1.000
 6229.00    3.13729   3.01990   -1.000
 6230.00    3.07423   2.99245   -1.000
 6231.00    3.04907   3.00045   -1.000
 6232.00    3.12606   3.04085   -1.000
 6233.00    3.17370   3.09500   -1.000
 6234.00    3.24016   3.13986   -1.000
 6235.00    3.25764   3.16016   -1.000
 6236.00    3.23013   3.15469   -1.000
 6237.00    3.20204   3.13338   -1.000
 6238.00    3.15393   3.10885   -1.000
 6239.00    3.14974   3.08885   -1.000
 6240.00    3.14538   3.07366   -1.000
 6241.00    3.11443   3.05905   -1.000
 6242.00    3.11471   3.04278   -1.000
 6243.00    3.08960   3.02836   -1.000
 6244.00    3.07166   3.02294   -1.000
 6245.00    3.09769   3.03361   -1.000
 6246.00    3.13848   3.06303   -1.000
 6247.00    3.17573   3.10322   -1.000
 6248.00    3.21752   3.13612   -1.000
 6249.00    3.21583   3.14446   -1.000
 6250.00    3.18629   3.12348   -1.000
 6251.00    3.15860   3.08440   -1.000
 6252.00    3.11049   3.04642   -1.000
 6253.00    3.08581   3.02237   -1.000
 6254.00    3.07274   3.01082   -1.000
 6255.00    3.04539   3.00276   -1.000
 6256.00    3.03142   2.99509   -1.000
 6257.00    3.02942   2.99522   -1.000
 6258.00    3.03710   3.01230   -1.000
 6259.00    3.06704   3.04749  139.516
 6260.00    3.12119   3.09284   -1.000
 6261.00    3.17688   3.13610   -1.000
 6262.00    3.19009   3.16586   -1.000
 6263.00    3.19538   3.17783  139.041
 6264.00    3.19321   3.17911  138.196
 6265.00    3.16517   3.18142  137.183
 6266.00    3.14079   3.18841   -1.000
 6267.00    3.13011   3.19379   -1.000
 6268.00    3.14221   3.19305   -1.000
 6269.00    3.15136   3.19091   -1.000
 6270.00    3.15437   3.19444   -1.000
 6271.00    3.19764   3.20303  137.948
 6272.00    3.19892   3.20758  139.035
 6273.00    3.14422   3.19833   -1.000
 6274.00    3.08441   3.17343   -1.000
 6275.00    3.01619   3.13978   -1.000
 6276.00    2.94900   3.10682   -1.000
 6277.00    2.91511   3.08060   -1.000
 6278.00    2.89663   3.06349   -1.000
 6279.00    2.82146   3.05881   -1.000
 6280.00    2.76718   3.07127   -1.000
 6281.00    2.75020   3.10110   -1.000
 6282.00    2.81737   3.14089   -1.000
 6283.00    2.91126   3.17981   -1.000
 6284.00    2.99661   3.21052   -1.000
 6285.00    3.10580   3.23251   -1.000
 6286.00    3.17533   3.24814   -1.000
 6287.00    3.18872   3.25642   -1.000
 6288.00    3.23512   3.25341  138.480
 6289.00    3.23841   3.23930  139.467
 6290.00    3.21172   3.22124  139.633
 6291.00    3.19789   3.20759  139.784
 6292.00    3.16925   3.20127   -1.000
 6293.00    3.12543   3.19798   -1.000
 6294.00    3.09625   3.18945   -1.000
 6295.00    2.96394   3.17167   -1.000
 6296.00    2.75362   3.15119   -1.000
 6297.00    2.51988   3.13848   -1.000
 6298.00    2.57511   3.13450   -1.000
 6299.00    2.81795   3.13035   -1.000
 6300.00    3.06022   3.12242   -1.000
 6301.00    3.11832   3.12041  142.184
 6302.00    3.15976   3.13534   -1.000
 6303.00    3.18215   3.16585  138.224
 6304.00    3.18150   3.20133  137.099
 6305.00    3.20649   3.23339   -1.000
 6306.00    3.19531   3.25844   -1.000
 6307.00    3.21068   3.27359   -1.000
 6308.00    3.25644   3.27696  137.455
 6309.00    3.23887   3.27077   -1.000
 6310.00    3.20034   3.25984   -1.000
 6311.00    3.22166   3.24733  138.597
 6312.00    3.18483   3.23232   -1.000
 6313.00    3.17237   3.21303   -1.000
 6314.00    3.13398   3.19162   -1.000
 6315.00    3.09683   3.17212   -1.000
 6316.00    3.09335   3.15751   -1.000
 6317.00    3.10568   3.15329   -1.000
 6318.00    3.12921   3.16648   -1.000
 6319.00    3.14589   3.19518   -1.000
 6320.00    3.17290   3.22711   -1.000
 6321.00    3.19933   3.25352   -1.000
 6322.00    3.23444   3.27611   -1.000
 6323.00    3.23977   3.29783   -1.000
 6324.00    3.26334   3.31557   -1.000
 6325.00    3.27646   3.32547   -1.000
 6326.00    3.28849   3.32871   -1.000
 6327.00    3.27428   3.32937   -1.000
 6328.00    3.28160   3.33017   -1.000
 6329.00    3.31282   3.33275  133.604
 6330.00    3.27435   3.33799   -1.000
 6331.00    3.21760   3.34113   -1.000
 6332.00    3.27681   3.33132   -1.000
 6333.00    3.24526   3.30233   -1.000
 6334.00    3.22093   3.26270   -1.000
 6335.00    3.18709   3.23209   -1.000
 6336.00    3.16676   3.22534   -1.000
 6337.00    3.18719   3.24207   -1.000
 6338.00    3.24221   3.27166   -1.000
 6339.00    3.27150   3.30158   -1.000
 6340.00    3.27181   3.32003   -1.000
 6341.00    3.25927   3.32041   -1.000
 6342.00    3.28054   3.30749  133.767
 6343.00    3.25363   3.29530   -1.000
 6344.00    3.22984   3.29600   -1.000
 6345.00    3.22066   3.31153   -1.000
 6346.00    3.25738   3.33629   -1.000
 6347.00    3.28111   3.36300   -1.000
 6348.00    3.27616   3.38517   -1.000
 6349.00    3.29747   3.39855   -1.000
 6350.00    3.27973   3.40143   -1.000
 6351.00    3.27893   3.39296   -1.000
 6352.00    3.26482   3.37350   -1.000
 6353.00    3.25021   3.34807   -1.000
 6354.00    3.24419   3.32497   -1.000
 6355.00    3.23366   3.30738   -1.000
 6356.00    3.20870   3.29010   -1.000
 6357.00    3.21590   3.26877   -1.000
 6358.00    3.14128   3.24645   -1.000
 6359.00    3.07673   3.22782   -1.000
 6360.00    2.98667   3.21438   -1.000
 6361.00    2.98139   3.20832   -1.000
 6362.00    3.02929   3.21395   -1.000
 6363.00    3.13079   3.23265   -1.000
 6364.00    3.21155   3.26057   -1.000
 6365.00    3.21498   3.29216   -1.000
 6366.00    3.22487   3.32246   -1.000
 6367.00    3.21946   3.34617   -1.000
 6368.00    3.22681   3.36005   -1.000
 6369.00    3.22988   3.36748   -1.000
 6370.00    3.24835   3.37606   -1.000
 6371.00    3.24230   3.38937   -1.000
 6372.00    3.22742   3.40334   -1.000
 6373.00    3.21919   3.41177   -1.000
 6374.00    3.19073   3.41246   -1.000
 6375.00    3.18096   3.40620   -1.000
 6376.00    3.16971   3.39437   -1.000
 6377.00    3.17888   3.37978   -1.000
 6378.00    3.17158   3.36612   -1.000
 6379.00    3.14261   3.35608   -1.000
 6380.00    3.14758   3.35091   -1.000
 6381.00    3.15429   3.35027   -1.000
 6382.00    3.16158   3.35280   -1.000
 6383.00    3.15886   3.35831   -1.000
 6384.00    3.14884   3.36771   -1.000
 6385.00    3.15241   3.37947   -1.000
 6386.00    3.17118   3.38907   -1.000
 6387.00    3.14979   3.39355   -1.000
 6388.00    3.14009   3.39250   -1.000
 6389.00    3.11813   3.38315   -1.000
 6390.00    3.10236   3.36073   -1.000
 6391.00    3.04595   3.32807   -1.000
 6392.00    2.98784   3.30087   -1.000
 6393.00    2.92365   3.29721   -1.000
 6394.00    2.93925   3.31983   -1.000
 6395.00    3.00148   3.35120   -1.000
 6396.00    2.98796   3.36599   -1.000
 6397.00    2.97821   3.35052   -1.000
 6398.00    2.95755   3.31561   -1.000
 6399.00    2.89975   3.29086   -1.000
 6400.00    2.86129   3.29935   -1.000
 6401.00    2.87900   3.33790   -1.000
 6402.00    2.90795   3.38409   -1.000
 6403.00    2.91926   3.41581   -1.000
 6404.00    2.92384   3.42226   -1.000
 6405.00    2.87912   3.40667   -1.000
 6406.00    2.83400   3.38399   -1.000
 6407.00    2.79886   3.36990   -1.000
 6408.00    2.74509   3.36734   -1.000
 6409.00    2.75773   3.36710   -1.000
 6410.00    2.74476   3.36314   -1.000
 6411.00    2.71207   3.36070   -1.000
 6412.00    2.68446   3.36657   -1.000
 6413.00    2.67810   3.37958   -1.000
 6414.00    2.68444   3.39375   -1.000
 6415.00    2.66926   3.40340   -1.000
 6416.00    2.66247   3.40298   -1.000
 6417.00    2.65272   3.38823   -1.000
 6418.00    2.58168   3.36168   -1.000
 6419.00    2.53780   3.33625   -1.000
 6420.00    2.48073   3.32947   -1.000
 6421.00    2.43763   3.34967   -1.000
 6422.00    2.45014   3.38732   -1.000
 6423.00    2.45944   3.42488   -1.000
 6424.00    2.46817   3.45291   -1.000
 6425.00    2.45641   3.47033   -1.000
 6426.00    2.44037   3.47432   -1.000
 6427.00    2.41325   3.45861   -1.000
 6428.00    2.21618   3.42344   -1.000
