###################################################################
## OUTPUT of StarlightChains_v04.for    [Cid@UFSC - 01/Apr/2007] ##
###################################################################

## Some input info
NGC6284_a_2.cxt                          [arq_obs]
Base.BC03.N                              [arq_base]
NGC6284_a_2.msk                          [arq_masks]
StCv04.C99.config                        [arq_config]
   45                                    [N_base]
    0                                    [N_YAV_components = # of components with extra extinction!]
    0                                    [i_FitPowerLaw (1/0 = Yes/No)]
-9.99                                    [alpha_PowerLaw]
CCM                                      [red_law_option]
 1.458241                                [q_norm = A(l_norm)/A(V)]

## (Re)Sampling Parameters
 3359.00                                 [l_ini (A)]
 6428.00                                 [l_fin (A)]
    1.00                                 [dl    (A)]     (OBS: dl_cushion =    50.00 A)

## Normalization info
 4020.00                                 [l_norm (A) - for base]
 4010.00                                 [llow_norm (A) - window for f_obs]
 4060.00                                 [lupp_norm (A) - window for f_obs]
1.360561E-14                             [fobs_norm (in input units)]

## S/N
 4730.00                                 [llow_SN (A) - window for S/N]
 4780.00                                 [lupp_SN (A) - window for S/N]
  73.354                                 [S/N in S/N window]
  58.120                                 [S/N in norm. window]
  64.892                                 [S/N_err in S/N window]
  51.416                                 [S/N_err in norm. window]
  1.0000                                 [fscale_chi2]

## etc...
  2147483620                             [idum_orig]
  3068                                   [NOl_eff]
  1739                                   [Nl_eff]
  1329    NSIGMA                         [Ntot_cliped & clip_method]
  1570800                                [Nglobal_steps]
   7                                     [N_chains]
  10                                     [NEX0s_base = N_base in EX0s-fits]
 0   0   1      379   2.0   9.368E+02    [Clip-Bug, RC-Crash & Burn-In warning-flags, n_censored_weights, wei_nsig_threshold & wei_limit]
    22     22.112     22.112      0.000  [idt_all, wdt_TotTime, wdt_UsrTime & wdt_SysTime (sec)]

## Synthesis Results - Best model ##

 1.90102E+00                             [chi2/Nl_eff]
     1.52338                             [adev (%)]

   104.15073                             [sum-of-x (%)]
 4.81859E-14                             [Flux_tot (units of input spectrum!)]
 6.24487E-10                             [Mini_tot (???)]
 3.29032E-10                             [Mcor_tot (???)]

 -11.09                                  [v0_min  (km/s)]
  97.20                                  [vd_min  (km/s)]
 0.9113                                  [AV_min  (mag)]
 0.0000                                  [YAV_min (mag)]

# j     x_j(%)      Mini_j(%)     Mcor_j(%)     age_j(yr)     Z_j      (L/M)_j    YAV?  Mstars   component_j        a/Fe...       SSP_chi2r SSP_adev(%)   SSP_AV   SSP_x(%)
  1      0.0000     0.0000E+00    0.0000E+00    1.000000E+06  0.00400  1.114E-02    0   1.0000   age020_m42            0.0000     3.6507E+02    15.8340   4.0000    74.4115
  2      1.4683     2.6708E-03    5.0685E-03    3.160000E+06  0.00400  4.073E-02    0   0.9999   age045_m42            0.0000     3.6975E+01     3.8491   3.3865    89.3650
  3      0.0000     0.0000E+00    0.0000E+00    5.010000E+06  0.00400  2.534E-02    0   0.9488   age055_m42            0.0000     8.6379E+01     5.4569   3.8411    80.9658
  4      6.0627     3.5339E-02    5.9439E-02    1.000000E+07  0.00400  1.271E-02    0   0.8862   age070_m42            0.0000     6.2581E+01     6.0383   3.0613    84.2736
  5      0.6180     9.0311E-03    1.4011E-02    2.512000E+07  0.00400  5.070E-03    0   0.8174   age090_m42            0.0000     5.9463E+01     5.7695   2.9238    86.2855
  6      0.0000     0.0000E+00    0.0000E+00    4.000000E+07  0.00400  3.505E-03    0   0.7851   age104_m42            0.0000     4.5875E+01     4.6781   2.5831    90.6875
  7     22.5757     7.3745E-01    1.0087E+00    1.015200E+08  0.00400  2.268E-03    0   0.7207   age116_m42            0.0000     3.3973E+02     4.7201   2.4479   106.4188
  8      0.0000     0.0000E+00    0.0000E+00    2.861200E+08  0.00400  1.079E-03    0   0.6613   age125_m42            0.0000     3.4411E+02     5.3459   1.9180   110.6353
  9      0.0000     0.0000E+00    0.0000E+00    6.405400E+08  0.00400  5.077E-04    0   0.6197   age132_m42            0.0000     3.5620E+02     5.7054   1.5324   116.1152
 10      0.0000     0.0000E+00    0.0000E+00    9.047900E+08  0.00400  3.535E-04    0   0.6024   age135_m42            0.0000     1.9798E+02     4.7427   1.3076   114.9509
 11      0.0000     0.0000E+00    0.0000E+00    1.434000E+09  0.00400  1.910E-04    0   0.5716   age139_m42            0.0000     4.8194E+01     3.6626   0.7861   114.5520
 12     38.9918     2.9423E+01    3.0507E+01    2.500000E+09  0.00400  9.818E-05    0   0.5463   age150_m42            0.0000     1.5005E+01     2.6935   0.5457   108.5738
 13     30.9191     4.8552E+01    4.8175E+01    5.000000E+09  0.00400  4.718E-05    0   0.5228   age161_m42            0.0000     5.6979E+01     2.5474   0.4051   104.0142
 14      2.4613     8.2698E+00    7.8164E+00    1.100000E+10  0.00400  2.205E-05    0   0.4980   age185_m42            0.0000     1.4635E+02     3.4417   0.1436   102.4657
 15      0.0000     0.0000E+00    0.0000E+00    1.300000E+10  0.00400  1.883E-05    0   0.4927   age193_m42            0.0000     1.6543E+02     3.5463   0.1287   102.2477
 16      0.0000     0.0000E+00    0.0000E+00    1.000000E+06  0.02000  1.989E-02    0   1.0000   age020_m62            0.0000     3.4944E+02    14.6708   4.0000    75.1505
 17      0.0000     0.0000E+00    0.0000E+00    3.160000E+06  0.02000  3.772E-02    0   0.9858   age045_m62            0.0000     2.3522E+02    10.6846   4.0000    76.7859
 18      0.0000     0.0000E+00    0.0000E+00    5.010000E+06  0.02000  3.227E-02    0   0.9342   age055_m62            0.0000     5.7568E+01     4.9807   3.6813    84.5910
 19      0.0000     0.0000E+00    0.0000E+00    1.000000E+07  0.02000  1.011E-02    0   0.8751   age070_m62            0.0000     1.6880E+02     9.5858   3.1332    78.4217
 20      0.0000     0.0000E+00    0.0000E+00    2.512000E+07  0.02000  4.206E-03    0   0.8099   age090_m62            0.0000     1.3858E+02     8.0295   3.0481    80.5086
 21      0.0000     0.0000E+00    0.0000E+00    4.000000E+07  0.02000  3.373E-03    0   0.7799   age104_m62            0.0000     6.7441E+01     4.7897   2.7886    92.3103
 22      0.0000     0.0000E+00    0.0000E+00    1.015200E+08  0.02000  1.878E-03    0   0.7221   age116_m62            0.0000     2.9728E+02     4.3318   2.5100   104.9450
 23      0.0000     0.0000E+00    0.0000E+00    2.861200E+08  0.02000  8.869E-04    0   0.6700   age125_m62            0.0000     6.1216E+02     6.7841   1.8869   118.0160
 24      0.0000     0.0000E+00    0.0000E+00    6.405400E+08  0.02000  3.657E-04    0   0.6322   age132_m62            0.0000     2.8871E+02     6.6986   1.1515   126.1799
 25      0.0000     0.0000E+00    0.0000E+00    9.047900E+08  0.02000  2.312E-04    0   0.6152   age135_m62            0.0000     1.0610E+02     5.4938   0.8034   124.4533
 26      0.0000     0.0000E+00    0.0000E+00    1.434000E+09  0.02000  1.168E-04    0   0.5865   age139_m62            0.0000     1.9512E+01     3.6963   0.4528   115.2737
 27      0.0000     0.0000E+00    0.0000E+00    2.500000E+09  0.02000  5.505E-05    0   0.5610   age150_m62            0.0000     8.8371E+01     4.1000   0.0979   112.0433
 28      0.0000     0.0000E+00    0.0000E+00    5.000000E+09  0.02000  2.596E-05    0   0.5353   age161_m62            0.0000     2.4406E+02     5.5123  -0.2535   113.9999
 29      0.0000     0.0000E+00    0.0000E+00    1.100000E+10  0.02000  1.169E-05    0   0.5103   age185_m62            0.0000     4.2938E+02     6.8845  -0.6417   117.6599
 30      0.0000     0.0000E+00    0.0000E+00    1.300000E+10  0.02000  9.691E-06    0   0.5047   age193_m62            0.0000     4.7019E+02     7.0716  -0.6900   118.1510
 31      0.0000     0.0000E+00    0.0000E+00    1.000000E+06  0.05000  2.651E-02    0   0.9998   age020_m72            0.0000     3.3908E+02    14.4938   4.0000    76.2061
 32      0.0000     0.0000E+00    0.0000E+00    3.160000E+06  0.05000  4.817E-02    0   0.9577   age045_m72            0.0000     1.2441E+02     6.6752   4.0000    79.7719
 33      0.0000     0.0000E+00    0.0000E+00    5.010000E+06  0.05000  3.101E-02    0   0.9147   age055_m72            0.0000     9.8836E+01     6.0532   3.7296    81.4890
 34      0.0000     0.0000E+00    0.0000E+00    1.000000E+07  0.05000  8.954E-03    0   0.8524   age070_m72            0.0000     1.3380E+02     6.3333   3.9653    80.4951
 35      0.0000     0.0000E+00    0.0000E+00    2.512000E+07  0.05000  4.207E-03    0   0.7902   age090_m72            0.0000     6.9286E+01     4.9921   3.4930    87.6957
 36      0.0000     0.0000E+00    0.0000E+00    4.000000E+07  0.05000  3.198E-03    0   0.7618   age104_m72            0.0000     1.6253E+02     3.9148   2.9083    99.3810
 37      0.0000     0.0000E+00    0.0000E+00    1.015200E+08  0.05000  1.716E-03    0   0.7092   age116_m72            0.0000     3.5741E+02     4.7352   2.5780   105.9902
 38      0.0000     0.0000E+00    0.0000E+00    2.861200E+08  0.05000  7.047E-04    0   0.6618   age125_m72            0.0000     5.5732E+02     6.8729   1.6540   120.5233
 39      0.0000     0.0000E+00    0.0000E+00    6.405400E+08  0.05000  2.633E-04    0   0.6253   age132_m72            0.0000     1.6681E+02     6.1294   0.7678   126.7202
 40      0.0000     0.0000E+00    0.0000E+00    9.047900E+08  0.05000  1.484E-04    0   0.6088   age135_m72            0.0000     3.0922E+01     4.9763   0.3320   119.5616
 41      0.0000     0.0000E+00    0.0000E+00    1.434000E+09  0.05000  7.827E-05    0   0.5847   age139_m72            0.0000     1.0829E+02     5.3658  -0.0315   115.2687
 42      0.0000     0.0000E+00    0.0000E+00    2.500000E+09  0.05000  3.759E-05    0   0.5583   age150_m72            0.0000     2.5415E+02     6.0190  -0.3432   114.4496
 43      0.1133     5.4244E-01    5.4771E-01    5.000000E+09  0.05000  1.548E-05    0   0.5320   age161_m72            0.0000     4.0596E+02     7.2447  -0.7764   115.7495
 44      0.2611     2.9611E+00    2.8494E+00    1.100000E+10  0.05000  6.532E-06    0   0.5070   age185_m72            0.0000     5.6042E+02    11.1751  -1.0000   116.3493
 45      0.6794     9.4677E+00    9.0170E+00    1.300000E+10  0.05000  5.316E-06    0   0.5018   age193_m72            0.0000     6.7348E+02    14.3834  -1.0000   115.4357


## Synthesis Results - Average & Chains ##

# j      x_j: min, <> & last-chain-values for 1 ...  7 chains
  1      0.0000      0.0060      0.0000      0.0000      0.0080      0.0000      0.0060      0.0000      0.0000
  2      1.4683      0.8526      0.7928      0.8663      0.9581      0.9066      0.9290      0.8882      1.0312
  3      0.0000      0.0455      0.1162      0.0000      0.0000      0.0000      0.0000      0.0000      0.0309
  4      6.0627      4.8978      4.9872      5.0304      5.0309      5.2821      4.9290      5.0668      5.0603
  5      0.6180      0.7957      0.8708      0.9026      0.8333      0.7988      1.3788      0.6798      0.8732
  6      0.0000      0.0386      0.0000      0.0961      0.0000      0.0000      0.0000      0.0000      0.0000
  7     22.5757     21.7071     22.3317     22.0377     22.1741     22.0528     21.9126     22.3889     21.8264
  8      0.0000      0.0460      0.0000      0.0000      0.0000      0.0000      0.0000      0.0000      0.0000
  9      0.0000      0.1950      0.0000      0.0000      0.0287      0.0000      0.0000      0.1876      0.2419
 10      0.0000      0.3777      0.4349      0.4026      0.5611      0.5190      0.6459      0.2459      0.5643
 11      0.0000      0.1598      0.0000      0.0875      0.0000      0.0009      0.0000      0.0000      0.0000
 12     38.9918     41.3715     41.7010     41.1977     41.5227     40.9558     41.3683     40.9593     41.2075
 13     30.9191     29.1879     28.8997     29.4884     29.1386     30.0228     29.3941     30.0496     29.7670
 14      2.4613      0.2021      0.2369      0.0890      0.4230      0.1145      0.1158      0.5080      0.0000
 15      0.0000      0.3799      0.5825      0.8565      0.4249      0.6979      0.2908      0.2566      0.1596
 16      0.0000      0.0035      0.0000      0.0000      0.0000      0.0000      0.0000      0.0000      0.0000
 17      0.0000      0.0071      0.0000      0.0000      0.0000      0.0000      0.0000      0.0030      0.0032
 18      0.0000      0.4767      0.4560      0.4114      0.4556      0.0000      0.0000      0.4467      0.4992
 19      0.0000      0.4167      0.5252      0.3884      0.2606      0.4864      0.4730      0.4586      0.3633
 20      0.0000      0.0061      0.0000      0.0000      0.0000      0.0000      0.0000      0.0000      0.0000
 21      0.0000      0.0319      0.0000      0.0000      0.0113      0.0000      0.0000      0.0000      0.0000
 22      0.0000      0.0923      0.0000      0.0044      0.0000      0.0000      0.1259      0.0000      0.0000
 23      0.0000      0.0327      0.0000      0.0000      0.0000      0.0000      0.0000      0.0000      0.0000
 24      0.0000      0.0134      0.0000      0.0000      0.0000      0.0000      0.0000      0.0000      0.0000
 25      0.0000      0.0358      0.0000      0.0000      0.0000      0.0000      0.0000      0.0000      0.0000
 26      0.0000      0.0562      0.0000      0.0000      0.0000      0.1564      0.0000      0.0205      0.0000
 27      0.0000      0.1114      0.1767      0.0882      0.0986      0.1030      0.1695      0.0000      0.0780
 28      0.0000      0.0706      0.0522      0.0000      0.0000      0.0000      0.3643      0.0000      0.0183
 29      0.0000      0.2173      0.0709      0.0175      0.0000      0.0000      0.0000      0.0360      0.3169
 30      0.0000      0.1998      0.1024      0.0000      0.2412      0.0000      0.0464      0.1216      0.2869
 31      0.0000      0.0032      0.0000      0.0000      0.0000      0.0000      0.0000      0.0000      0.0000
 32      0.0000      0.0085      0.0000      0.0000      0.0000      0.0000      0.0000      0.0000      0.0000
 33      0.0000      0.0303      0.0000      0.0000      0.0434      0.0000      0.1780      0.0000      0.0000
 34      0.0000      0.0069      0.0000      0.0000      0.0023      0.0000      0.0000      0.0000      0.0000
 35      0.0000      0.0141      0.0000      0.0000      0.0000      0.0000      0.0148      0.0000      0.0000
 36      0.0000      0.0360      0.0000      0.0000      0.1446      0.0097      0.0000      0.0000      0.0000
 37      0.0000      0.1994      0.0142      0.2575      0.0367      0.2425      0.1135      0.0753      0.1436
 38      0.0000      0.0248      0.0000      0.0000      0.0000      0.0000      0.0000      0.0000      0.0000
 39      0.0000      0.0532      0.0000      0.0000      0.0147      0.0000      0.0000      0.0000      0.0350
 40      0.0000      0.0848      0.0000      0.0000      0.0000      0.0734      0.0000      0.0000      0.1949
 41      0.0000      0.0624      0.0000      0.0145      0.0979      0.0000      0.0394      0.0000      0.0000
 42      0.0000      0.0370      0.0000      0.1447      0.0000      0.0643      0.0000      0.0000      0.0000
 43      0.1133      0.6263      0.5812      0.6455      0.5835      0.6314      0.5819      0.6572      0.5360
 44      0.2611      0.6071      0.7029      0.6296      0.6122      0.6670      0.6117      0.6374      0.4400
 45      0.6794      0.7584      0.8145      0.8212      0.8415      0.7495      0.7810      0.8109      0.8555

# j      m_j: min, <> & last-chain-values for 1 ...  7 chains
  1  0.0000E+00  7.3051E-05  0.0000E+00  0.0000E+00  9.6332E-05  0.0000E+00  7.4323E-05  0.0000E+00  0.0000E+00
  2  5.0685E-03  2.8218E-03  2.6161E-03  2.8678E-03  3.1591E-03  3.0187E-03  3.1324E-03  2.9306E-03  3.4384E-03
  3  0.0000E+00  2.2953E-04  5.8496E-04  0.0000E+00  0.0000E+00  0.0000E+00  0.0000E+00  0.0000E+00  1.5712E-04
  4  5.9439E-02  4.6038E-02  4.6738E-02  4.7299E-02  4.7112E-02  4.9952E-02  4.7204E-02  4.7483E-02  4.7919E-02
  5  1.4011E-02  1.7294E-02  1.8871E-02  1.9624E-02  1.8043E-02  1.7467E-02  3.0532E-02  1.4731E-02  1.9121E-02
  6  0.0000E+00  1.1650E-03  0.0000E+00  2.9029E-03  0.0000E+00  0.0000E+00  0.0000E+00  0.0000E+00  0.0000E+00
  7  1.0087E+00  9.2992E-01  9.5382E-01  9.4436E-01  9.4636E-01  9.5047E-01  9.5639E-01  9.5622E-01  9.4199E-01
  8  0.0000E+00  3.8038E-03  0.0000E+00  0.0000E+00  0.0000E+00  0.0000E+00  0.0000E+00  0.0000E+00  0.0000E+00
  9  0.0000E+00  3.2089E-02  0.0000E+00  0.0000E+00  4.6990E-03  0.0000E+00  0.0000E+00  3.0776E-02  4.0094E-02
 10  0.0000E+00  8.6770E-02  9.9619E-02  9.2527E-02  1.2841E-01  1.1995E-01  1.5118E-01  5.6309E-02  1.3061E-01
 11  0.0000E+00  6.4489E-02  0.0000E+00  3.5331E-02  0.0000E+00  3.5860E-04  0.0000E+00  0.0000E+00  0.0000E+00
 12  3.0507E+01  3.1034E+01  3.1188E+01  3.0913E+01  3.1031E+01  3.0909E+01  3.1616E+01  3.0632E+01  3.1141E+01
 13  4.8175E+01  4.3602E+01  4.3043E+01  4.4065E+01  4.3366E+01  4.5122E+01  4.4737E+01  4.4754E+01  4.4799E+01
 14  7.8164E+00  6.1549E-01  7.1915E-01  2.7103E-01  1.2830E+00  3.5074E-01  3.5936E-01  1.5421E+00  0.0000E+00
 15  0.0000E+00  1.3401E+00  2.0487E+00  3.0222E+00  1.4931E+00  2.4767E+00  1.0451E+00  9.0245E-01  5.6725E-01
 16  0.0000E+00  2.3530E-05  0.0000E+00  0.0000E+00  0.0000E+00  0.0000E+00  0.0000E+00  0.0000E+00  0.0000E+00
 17  0.0000E+00  2.4940E-05  0.0000E+00  0.0000E+00  0.0000E+00  0.0000E+00  0.0000E+00  1.0384E-05  1.1445E-05
 18  0.0000E+00  1.8604E-03  1.7745E-03  1.6059E-03  1.7715E-03  0.0000E+00  0.0000E+00  1.7382E-03  1.9627E-03
 19  0.0000E+00  4.8623E-03  6.1098E-03  4.5337E-03  3.0291E-03  5.7108E-03  5.6236E-03  5.3348E-03  4.2706E-03
 20  0.0000E+00  1.5957E-04  0.0000E+00  0.0000E+00  0.0000E+00  0.0000E+00  0.0000E+00  0.0000E+00  0.0000E+00
 21  0.0000E+00  9.9542E-04  0.0000E+00  0.0000E+00  3.5070E-04  0.0000E+00  0.0000E+00  0.0000E+00  0.0000E+00
 22  0.0000E+00  4.7844E-03  0.0000E+00  2.2742E-04  0.0000E+00  0.0000E+00  6.6476E-03  0.0000E+00  0.0000E+00
 23  0.0000E+00  3.3326E-03  0.0000E+00  0.0000E+00  0.0000E+00  0.0000E+00  0.0000E+00  0.0000E+00  0.0000E+00
 24  0.0000E+00  3.1234E-03  0.0000E+00  0.0000E+00  0.0000E+00  0.0000E+00  0.0000E+00  0.0000E+00  0.0000E+00
 25  0.0000E+00  1.2829E-02  0.0000E+00  0.0000E+00  0.0000E+00  0.0000E+00  0.0000E+00  0.0000E+00  0.0000E+00
 26  0.0000E+00  3.8042E-02  0.0000E+00  0.0000E+00  0.0000E+00  1.0654E-01  0.0000E+00  1.3867E-02  0.0000E+00
 27  0.0000E+00  1.5298E-01  2.4199E-01  1.2120E-01  1.3496E-01  1.4238E-01  2.3728E-01  0.0000E+00  1.0794E-01
 28  0.0000E+00  1.9637E-01  1.4462E-01  0.0000E+00  0.0000E+00  0.0000E+00  1.0316E+00  0.0000E+00  5.1283E-02
 29  0.0000E+00  1.2791E+00  4.1575E-01  1.0282E-01  0.0000E+00  0.0000E+00  0.0000E+00  2.1139E-01  1.8788E+00
 30  0.0000E+00  1.4029E+00  7.1703E-01  0.0000E+00  1.6873E+00  0.0000E+00  3.3209E-01  8.5143E-01  2.0296E+00
 31  0.0000E+00  1.6068E-05  0.0000E+00  0.0000E+00  0.0000E+00  0.0000E+00  0.0000E+00  0.0000E+00  0.0000E+00
 32  0.0000E+00  2.2892E-05  0.0000E+00  0.0000E+00  0.0000E+00  0.0000E+00  0.0000E+00  0.0000E+00  0.0000E+00
 33  0.0000E+00  1.2057E-04  0.0000E+00  0.0000E+00  1.7177E-04  0.0000E+00  7.2135E-04  0.0000E+00  0.0000E+00
 34  0.0000E+00  8.9068E-05  0.0000E+00  0.0000E+00  2.9999E-05  0.0000E+00  0.0000E+00  0.0000E+00  0.0000E+00
 35  0.0000E+00  3.5745E-04  0.0000E+00  0.0000E+00  0.0000E+00  0.0000E+00  3.8126E-04  0.0000E+00  0.0000E+00
 36  0.0000E+00  1.1573E-03  0.0000E+00  0.0000E+00  4.6272E-03  3.1296E-04  0.0000E+00  0.0000E+00  0.0000E+00
 37  0.0000E+00  1.1109E-02  7.9006E-04  1.4351E-02  2.0377E-03  1.3592E-02  6.4430E-03  4.1802E-03  8.0615E-03
 38  0.0000E+00  3.1347E-03  0.0000E+00  0.0000E+00  0.0000E+00  0.0000E+00  0.0000E+00  0.0000E+00  0.0000E+00
 39  0.0000E+00  1.7023E-02  0.0000E+00  0.0000E+00  4.6833E-03  0.0000E+00  0.0000E+00  0.0000E+00  1.1281E-02
 40  0.0000E+00  4.6919E-02  0.0000E+00  0.0000E+00  0.0000E+00  4.0823E-02  0.0000E+00  0.0000E+00  1.0860E-01
 41  0.0000E+00  6.2847E-02  0.0000E+00  1.4603E-02  9.8242E-02  0.0000E+00  4.0446E-02  0.0000E+00  0.0000E+00
 42  0.0000E+00  7.4005E-02  0.0000E+00  2.8991E-01  0.0000E+00  1.2954E-01  0.0000E+00  0.0000E+00  0.0000E+00
 43  5.4771E-01  2.9016E+00  2.6845E+00  2.9917E+00  2.6933E+00  2.9431E+00  2.7465E+00  3.0358E+00  2.5017E+00
 44  2.8494E+00  6.3527E+00  7.3327E+00  6.5902E+00  6.3817E+00  7.0221E+00  6.5208E+00  6.6498E+00  4.6389E+00
 45  9.0170E+00  9.6508E+00  1.0334E+01  1.0453E+01  1.0668E+01  9.5963E+00  1.0126E+01  1.0288E+01  1.0967E+01

# AV, chi2 & Mass for <> & i_chain = 1 ...  7 solutions
AV       0.9113      0.8838      0.8888      0.8862      0.8865      0.8837      0.8928      0.8859      0.8906
chi2 1.9010E+00  1.9407E+00  1.9267E+00  1.9283E+00  1.9309E+00  1.9313E+00  1.9276E+00  1.9274E+00  1.9292E+00
Mass 3.2903E-10  3.3077E-10  3.3397E-10  3.3171E-10  3.3321E-10  3.2870E-10  3.2859E-10  3.3271E-10  3.3132E-10
 -11.17                                  [v0_min (km/s) before EX0s...]
 100.26                                  [vd_min (km/s) before EX0s...]


## Synthetic spectrum (Best Model) ##l_obs f_obs f_syn wei
 3070    [Nl_obs]
 3359.00    0.04133   0.45664   -1.000
 3360.00    0.22867   0.43849   -1.000
 3361.00    0.21710   0.43804   -1.000
 3362.00    0.23638   0.45557   -1.000
 3363.00    0.25824   0.48037   -1.000
 3364.00    0.27963   0.49835   -1.000
 3365.00    0.27362   0.50118   -1.000
 3366.00    0.27202   0.48980   -1.000
 3367.00    0.28052   0.47218   -1.000
 3368.00    0.26133   0.45702   -1.000
 3369.00    0.26463   0.44812   -1.000
 3370.00    0.26280   0.44378   -1.000
 3371.00    0.26485   0.44170   -1.000
 3372.00    0.26314   0.44430   -1.000
 3373.00    0.26900   0.45614   -1.000
 3374.00    0.28169   0.47765   -1.000
 3375.00    0.29962   0.50127   -1.000
 3376.00    0.32034   0.51459   -1.000
 3377.00    0.32627   0.51064   -1.000
 3378.00    0.32654   0.49362   -1.000
 3379.00    0.33072   0.47561   -1.000
 3380.00    0.32674   0.46762   -1.000
 3381.00    0.31382   0.47320   -1.000
 3382.00    0.31966   0.48727   -1.000
 3383.00    0.32356   0.50196   -1.000
 3384.00    0.32099   0.51353   -1.000
 3385.00    0.32590   0.52162   -1.000
 3386.00    0.34411   0.52550   -1.000
 3387.00    0.35121   0.52514   -1.000
 3388.00    0.36160   0.52262   -1.000
 3389.00    0.36079   0.51952   -1.000
 3390.00    0.36532   0.51482   -1.000
 3391.00    0.38053   0.50711   -1.000
 3392.00    0.36309   0.49886   -1.000
 3393.00    0.36827   0.49645   -1.000
 3394.00    0.36879   0.50436   -1.000
 3395.00    0.37642   0.52081   -1.000
 3396.00    0.39344   0.53981   -1.000
 3397.00    0.40914   0.55526   -1.000
 3398.00    0.42233   0.56290   -1.000
 3399.00    0.43127   0.56131   -1.000
 3400.00    0.44093   0.55237   -1.000
 3401.00    0.44243   0.53941   -1.000
 3402.00    0.44420   0.52621   -1.000
 3403.00    0.42755   0.51638   -1.000
 3404.00    0.41640   0.51079   -1.000
 3405.00    0.41124   0.50662   -1.000
 3406.00    0.41740   0.50119   -1.000
 3407.00    0.41081   0.49595   -1.000
 3408.00    0.40697   0.49498   -1.000
 3409.00    0.40484   0.49974   -1.000
 3410.00    0.40761   0.50638   -1.000
 3411.00    0.41482   0.50910   -1.000
 3412.00    0.42611   0.50593   -1.000
 3413.00    0.42275   0.50049   -1.000
 3414.00    0.41537   0.49815   -1.000
 3415.00    0.40836   0.50212   -1.000
 3416.00    0.41116   0.51220   -1.000
 3417.00    0.42847   0.52612   -1.000
 3418.00    0.43927   0.54064   -1.000
 3419.00    0.44595   0.55174   -1.000
 3420.00    0.45815   0.55574   -1.000
 3421.00    0.46765   0.55243   -1.000
 3422.00    0.45032   0.54529   -1.000
 3423.00    0.45645   0.53871   -1.000
 3424.00    0.45982   0.53536   -1.000
 3425.00    0.47229   0.53605   -1.000
 3426.00    0.47095   0.54129   -1.000
 3427.00    0.46095   0.55185   -1.000
 3428.00    0.48725   0.56528   -1.000
 3429.00    0.49869   0.57463   -1.000
 3430.00    0.50093   0.57382   -1.000
 3431.00    0.49954   0.56362   -1.000
 3432.00    0.47425   0.55118   -1.000
 3433.00    0.46830   0.54378   -1.000
 3434.00    0.48354   0.54356   -1.000
 3435.00    0.49099   0.54657   -1.000
 3436.00    0.50491   0.54673   -1.000
 3437.00    0.49747   0.53954   -1.000
 3438.00    0.46562   0.52376   -1.000
 3439.00    0.46246   0.50143   -1.000
 3440.00    0.44938   0.47829   -1.000
 3441.00    0.43689   0.46205   -1.000
 3442.00    0.43735   0.45730  171.615
 3443.00    0.43941   0.46267  169.709
 3444.00    0.44712   0.47422   -1.000
 3445.00    0.46159   0.48985   -1.000
 3446.00    0.47847   0.50932   -1.000
 3447.00    0.48201   0.53087   -1.000
 3448.00    0.49700   0.54953   -1.000
 3449.00    0.51770   0.55889   -1.000
 3450.00    0.52048   0.55567   -1.000
 3451.00    0.51101   0.54271   -1.000
 3452.00    0.49186   0.52825   -1.000
 3453.00    0.49289   0.52051   -1.000
 3454.00    0.49772   0.52156   -1.000
 3455.00    0.50229   0.52637   -1.000
 3456.00    0.51286   0.52742   -1.000
 3457.00    0.50318   0.52125   -1.000
 3458.00    0.50127   0.51031  513.512
 3459.00    0.49773   0.49924  138.263
 3460.00    0.48791   0.49267  139.628
 3461.00    0.49831   0.49475  166.190
 3462.00    0.51143   0.50504   -1.000
 3463.00    0.51730   0.51692   -1.000
 3464.00    0.52307   0.52405   -1.000
 3465.00    0.52429   0.52624  936.779
 3466.00    0.52128   0.52811   -1.000
 3467.00    0.51850   0.53319   -1.000
 3468.00    0.52092   0.54070   -1.000
 3469.00    0.53039   0.54716   -1.000
 3470.00    0.54593   0.54920  936.779
 3471.00    0.54541   0.54453   -1.000
 3472.00    0.52254   0.53267   -1.000
 3473.00    0.51687   0.51534   -1.000
 3474.00    0.50218   0.49731   -1.000
 3475.00    0.48950   0.48591  140.014
 3476.00    0.48403   0.48662  143.741
 3477.00    0.48377   0.49840  168.896
 3478.00    0.50633   0.51471   -1.000
 3479.00    0.52898   0.52847   -1.000
 3480.00    0.53899   0.53554   -1.000
 3481.00    0.53656   0.53547   -1.000
 3482.00    0.54196   0.53084   -1.000
 3483.00    0.54179   0.52668   -1.000
 3484.00    0.54506   0.52839   -1.000
 3485.00    0.53495   0.53747  936.779
 3486.00    0.54949   0.54788   -1.000
 3487.00    0.56386   0.55014   -1.000
 3488.00    0.55349   0.54056   -1.000
 3489.00    0.53374   0.52498   -1.000
 3490.00    0.52267   0.51333   -1.000
 3491.00    0.51322   0.51054   -1.000
 3492.00    0.51496   0.51341   -1.000
 3493.00    0.51542   0.51502   -1.000
 3494.00    0.51849   0.51147   -1.000
 3495.00    0.51700   0.50544   -1.000
 3496.00    0.50587   0.50421   -1.000
 3497.00    0.51180   0.51289   -1.000
 3498.00    0.53094   0.52797   -1.000
 3499.00    0.53770   0.54071  936.779
 3500.00    0.55217   0.54715   -1.000
 3501.00    0.56609   0.55030   -1.000
 3502.00    0.55708   0.55329   -1.000
 3503.00    0.55780   0.55460   -1.000
 3504.00    0.55937   0.55147   -1.000
 3505.00    0.55432   0.54541   -1.000
 3506.00    0.53744   0.54076  936.779
 3507.00    0.53483   0.53921  936.779
 3508.00    0.54564   0.53819   -1.000
 3509.00    0.55106   0.53461   -1.000
 3510.00    0.53907   0.52834   -1.000
 3511.00    0.52352   0.52109   -1.000
 3512.00    0.53048   0.51394   -1.000
 3513.00    0.52746   0.50929   -1.000
 3514.00    0.52149   0.51199   -1.000
 3515.00    0.51925   0.52456   -1.000
 3516.00    0.55042   0.54290   -1.000
 3517.00    0.57040   0.55803   -1.000
 3518.00    0.56871   0.56243   -1.000
 3519.00    0.56252   0.55480   -1.000
 3520.00    0.55053   0.53991   -1.000
 3521.00    0.53467   0.52377   -1.000
 3522.00    0.52958   0.50889   -1.000
 3523.00    0.51842   0.49540   -1.000
 3524.00    0.49852   0.48544  138.771
 3525.00    0.48356   0.48368  142.682
 3526.00    0.48741   0.49340  170.319
 3527.00    0.50931   0.51228  936.779
 3528.00    0.53606   0.53273   -1.000
 3529.00    0.55502   0.54712   -1.000
 3530.00    0.56751   0.55303   -1.000
 3531.00    0.56387   0.55387   -1.000
 3532.00    0.55587   0.55493  936.779
 3533.00    0.54747   0.55864   -1.000
 3534.00    0.55432   0.56365   -1.000
 3535.00    0.56048   0.56791   -1.000
 3536.00    0.56613   0.57164   -1.000
 3537.00    0.56174   0.57646   -1.000
 3538.00    0.57126   0.58211   -1.000
 3539.00    0.57820   0.58555   -1.000
 3540.00    0.57117   0.58500   -1.000
 3541.00    0.56711   0.58310   -1.000
 3542.00    0.56659   0.58375   -1.000
 3543.00    0.57222   0.58740   -1.000
 3544.00    0.57137   0.59104   -1.000
 3545.00    0.56716   0.59181   -1.000
 3546.00    0.56873   0.59002   -1.000
 3547.00    0.57480   0.58827   -1.000
 3548.00    0.57544   0.58847   -1.000
 3549.00    0.57750   0.59002   -1.000
 3550.00    0.57085   0.59051   -1.000
 3551.00    0.55471   0.58770   -1.000
 3552.00    0.54369   0.58166   -1.000
 3553.00    0.53446   0.57522   -1.000
 3554.00    0.55058   0.57156   -1.000
 3555.00    0.55601   0.57143   -1.000
 3556.00    0.54767   0.57248   -1.000
 3557.00    0.55284   0.57180   -1.000
 3558.00    0.55431   0.56939   -1.000
 3559.00    0.55296   0.56868   -1.000
 3560.00    0.55414   0.57287   -1.000
 3561.00    0.55395   0.58006   -1.000
 3562.00    0.55257   0.58212   -1.000
 3563.00    0.55483   0.57069   -1.000
 3564.00    0.54511   0.54712  502.207
 3565.00    0.51788   0.52349  140.318
 3566.00    0.49330   0.50981  144.670
 3567.00    0.50139   0.50465  143.097
 3568.00    0.50158   0.50007  143.373
 3569.00    0.49324   0.49259  147.916
 3570.00    0.49344   0.48685  149.167
 3571.00    0.49577   0.48808  144.018
 3572.00    0.50204   0.49514  167.149
 3573.00    0.51033   0.50299   -1.000
 3574.00    0.52100   0.50846   -1.000
 3575.00    0.52707   0.51184   -1.000
 3576.00    0.52828   0.51378   -1.000
 3577.00    0.52980   0.51213   -1.000
 3578.00    0.53823   0.50364   -1.000
 3579.00    0.52556   0.48860   -1.000
 3580.00    0.49830   0.47260   -1.000
 3581.00    0.47283   0.46212  164.162
 3582.00    0.46690   0.45867  165.076
 3583.00    0.47562   0.45755   -1.000
 3584.00    0.47561   0.45341   -1.000
 3585.00    0.46097   0.44693   -1.000
 3586.00    0.44679   0.44391  176.126
 3587.00    0.46114   0.44921  167.007
 3588.00    0.47313   0.46370  158.260
 3589.00    0.48854   0.48473  149.261
 3590.00    0.50130   0.50732  166.675
 3591.00    0.52669   0.52573   -1.000
 3592.00    0.54154   0.53678   -1.000
 3593.00    0.55204   0.54245   -1.000
 3594.00    0.55305   0.54821   -1.000
 3595.00    0.56647   0.55759   -1.000
 3596.00    0.56988   0.56958  936.779
 3597.00    0.57010   0.58107   -1.000
 3598.00    0.59046   0.58926  936.779
 3599.00    0.60065   0.59124   -1.000
 3600.00    0.59498   0.58455   -1.000
 3601.00    0.58349   0.56956   -1.000
 3602.00    0.56720   0.55081   -1.000
 3603.00    0.55632   0.53520   -1.000
 3604.00    0.55353   0.52742   -1.000
 3605.00    0.55368   0.52642   -1.000
 3606.00    0.55035   0.52629   -1.000
 3607.00    0.53943   0.52220   -1.000
 3608.00    0.53426   0.51549   -1.000
 3609.00    0.52924   0.51242   -1.000
 3610.00    0.53022   0.51661   -1.000
 3611.00    0.52921   0.52526   -1.000
 3612.00    0.54067   0.53436   -1.000
 3613.00    0.54451   0.54331  936.779
 3614.00    0.55403   0.55210   -1.000
 3615.00    0.55955   0.55632   -1.000
 3616.00    0.56934   0.54929   -1.000
 3617.00    0.55222   0.53206   -1.000
 3618.00    0.51151   0.51674  500.156
 3619.00    0.50056   0.51509  165.558
 3620.00    0.52403   0.52779  936.779
 3621.00    0.55450   0.54649   -1.000
 3622.00    0.57635   0.56318   -1.000
 3623.00    0.58825   0.57647   -1.000
 3624.00    0.58626   0.59025   -1.000
 3625.00    0.58537   0.60709   -1.000
 3626.00    0.59643   0.62354   -1.000
 3627.00    0.60376   0.63120   -1.000
 3628.00    0.60362   0.62194   -1.000
 3629.00    0.58467   0.59549   -1.000
 3630.00    0.56240   0.56276  936.779
 3631.00    0.53605   0.53895   -1.000
 3632.00    0.52581   0.53230   -1.000
 3633.00    0.53191   0.53951   -1.000
 3634.00    0.53857   0.55118   -1.000
 3635.00    0.54892   0.56094   -1.000
 3636.00    0.55524   0.56948   -1.000
 3637.00    0.57421   0.58069   -1.000
 3638.00    0.57812   0.59498   -1.000
 3639.00    0.58711   0.60724   -1.000
 3640.00    0.57744   0.61082   -1.000
 3641.00    0.58235   0.60313   -1.000
 3642.00    0.58231   0.58771   -1.000
 3643.00    0.57493   0.57137  936.779
 3644.00    0.56404   0.55915   -1.000
 3645.00    0.55412   0.55148   -1.000
 3646.00    0.54436   0.54648  936.779
 3647.00    0.54743   0.54397   -1.000
 3648.00    0.55078   0.54559   -1.000
 3649.00    0.55434   0.55278  936.779
 3650.00    0.55694   0.56556   -1.000
 3651.00    0.57166   0.58188   -1.000
 3652.00    0.58895   0.59813   -1.000
 3653.00    0.59942   0.61112   -1.000
 3654.00    0.61180   0.62011   -1.000
 3655.00    0.60713   0.62716   -1.000
 3656.00    0.61895   0.63429   -1.000
 3657.00    0.61786   0.64087   -1.000
 3658.00    0.61294   0.64477   -1.000
 3659.00    0.61219   0.64473   -1.000
 3660.00    0.61607   0.64073   -1.000
 3661.00    0.61921   0.63381   -1.000
 3662.00    0.61520   0.62593   -1.000
 3663.00    0.61078   0.61963   -1.000
 3664.00    0.61448   0.61657   -1.000
 3665.00    0.60822   0.61576   -1.000
 3666.00    0.61057   0.61398   -1.000
 3667.00    0.61206   0.60895  936.779
 3668.00    0.59925   0.60283   -1.000
 3669.00    0.59204   0.60129   -1.000
 3670.00    0.59455   0.60749   -1.000
 3671.00    0.59409   0.61835   -1.000
 3672.00    0.61131   0.62732   -1.000
 3673.00    0.62286   0.62975   -1.000
 3674.00    0.61759   0.62492   -1.000
 3675.00    0.61852   0.61445  936.779
 3676.00    0.61299   0.60095   -1.000
 3677.00    0.60179   0.58753   -1.000
 3678.00    0.59289   0.57719   -1.000
 3679.00    0.58517   0.57213   -1.000
 3680.00    0.58365   0.57297   -1.000
 3681.00    0.59493   0.57826   -1.000
 3682.00    0.60559   0.58441   -1.000
 3683.00    0.60652   0.58644   -1.000
 3684.00    0.58952   0.58066   -1.000
 3685.00    0.58120   0.56854   -1.000
 3686.00    0.57093   0.55762   -1.000
 3687.00    0.56446   0.55636   -1.000
 3688.00    0.57454   0.56783   -1.000
 3689.00    0.59215   0.58768   -1.000
 3690.00    0.61568   0.60712   -1.000
 3691.00    0.62572   0.61883   -1.000
 3692.00    0.63146   0.62176   -1.000
 3693.00    0.62790   0.61968   -1.000
 3694.00    0.62424   0.61611   -1.000
 3695.00    0.61727   0.61325  936.779
 3696.00    0.61843   0.61429  936.779
 3697.00    0.62418   0.62279  936.779
 3698.00    0.63708   0.63831   -1.000
 3699.00    0.64867   0.65370   -1.000
 3700.00    0.66047   0.65831  902.996
 3701.00    0.65648   0.64466   -1.000
 3702.00    0.63101   0.61402   -1.000
 3703.00    0.59626   0.57677   -1.000
 3704.00    0.56455   0.54663   -1.000
 3705.00    0.54782   0.53283   -1.000
 3706.00    0.55269   0.53491   -1.000
 3707.00    0.56550   0.54489   -1.000
 3708.00    0.57241   0.55448   -1.000
 3709.00    0.58323   0.56065   -1.000
 3710.00    0.59837   0.56675   -1.000
 3711.00    0.60302   0.57919   -1.000
 3712.00    0.61124   0.60095   -1.000
 3713.00    0.63659   0.62821   -1.000
 3714.00    0.66302   0.65296   -1.000
 3715.00    0.67528   0.66739   -1.000
 3716.00    0.68563   0.66614   -1.000
 3717.00    0.67843   0.64626   -1.000
 3718.00    0.63816   0.60785   -1.000
 3719.00    0.58943   0.55873   -1.000
 3720.00    0.53945   0.51572   -1.000
 3721.00    0.51596   0.49592  169.870
 3722.00    0.51979   0.50655   -1.000
 3723.00    0.55322   0.54150   -1.000
 3724.00    0.60545   0.58427   -1.000
 3725.00    0.64665   0.61782   -1.000
 3726.00    0.65507   0.63638   -1.000
 3727.00    0.65540   0.64539   -1.000
 3728.00    0.65139   0.64982   -1.000
 3729.00    0.64954   0.64660   -1.000
 3730.00    0.64893   0.62779   -1.000
 3731.00    0.63151   0.58952   -1.000
 3732.00    0.58181   0.53823   -1.000
 3733.00    0.51582   0.48833   -1.000
 3734.00    0.47729   0.45548   -1.000
 3735.00    0.46621   0.45030  158.092
 3736.00    0.47719   0.47439  148.559
 3737.00    0.52184   0.52075  166.556
 3738.00    0.58062   0.57690   -1.000
 3739.00    0.62683   0.62797   -1.000
 3740.00    0.66047   0.66170   -1.000
 3741.00    0.67854   0.67321   -1.000
 3742.00    0.67387   0.66482   -1.000
 3743.00    0.65274   0.64286   -1.000
 3744.00    0.62686   0.61406   -1.000
 3745.00    0.59792   0.58205   -1.000
 3746.00    0.57800   0.54682   -1.000
 3747.00    0.54688   0.50895   -1.000
 3748.00    0.50749   0.47574   -1.000
 3749.00    0.47678   0.46115  182.156
 3750.00    0.48627   0.47553   -1.000
 3751.00    0.53487   0.51687   -1.000
 3752.00    0.58979   0.57312   -1.000
 3753.00    0.64666   0.62930   -1.000
 3754.00    0.69224   0.67208   -1.000
 3755.00    0.72081   0.69220   -1.000
 3756.00    0.71254   0.68824   -1.000
 3757.00    0.67868   0.66937   -1.000
 3758.00    0.64927   0.65097  936.779
 3759.00    0.64481   0.64411  936.779
 3760.00    0.66070   0.64905   -1.000
 3761.00    0.68538   0.65886   -1.000
 3762.00    0.69607   0.66689   -1.000
 3763.00    0.69567   0.66922   -1.000
 3764.00    0.69082   0.66317   -1.000
 3765.00    0.67937   0.64769   -1.000
 3766.00    0.65968   0.62450   -1.000
 3767.00    0.63334   0.59699   -1.000
 3768.00    0.61276   0.56929   -1.000
 3769.00    0.59114   0.54739   -1.000
 3770.00    0.57823   0.53946   -1.000
 3771.00    0.58806   0.55150   -1.000
 3772.00    0.62297   0.58089   -1.000
 3773.00    0.65877   0.61684   -1.000
 3774.00    0.67877   0.64987   -1.000
 3775.00    0.69983   0.67776   -1.000
 3776.00    0.72353   0.70311   -1.000
 3777.00    0.73608   0.72865   -1.000
 3778.00    0.75251   0.75443  926.509
 3779.00    0.77459   0.77803   -1.000
 3780.00    0.79103   0.79667   -1.000
 3781.00    0.80205   0.80892   -1.000
 3782.00    0.80017   0.81443   -1.000
 3783.00    0.79929   0.81185   -1.000
 3784.00    0.79962   0.79907  900.061
 3785.00    0.78832   0.77681   -1.000
 3786.00    0.76115   0.75075   -1.000
 3787.00    0.73835   0.72830   -1.000
 3788.00    0.72308   0.71357   -1.000
 3789.00    0.72000   0.70553   -1.000
 3790.00    0.71026   0.69932   -1.000
 3791.00    0.70123   0.68850   -1.000
 3792.00    0.69548   0.66829   -1.000
 3793.00    0.67310   0.63799   -1.000
 3794.00    0.63517   0.60035   -1.000
 3795.00    0.60395   0.55955   -1.000
 3796.00    0.57116   0.52102   -1.000
 3797.00    0.53007   0.49407   -1.000
 3798.00    0.51158   0.49097   -1.000
 3799.00    0.53440   0.51772   -1.000
 3800.00    0.58734   0.56755   -1.000
 3801.00    0.64954   0.62550   -1.000
 3802.00    0.69298   0.67702   -1.000
 3803.00    0.72379   0.71355   -1.000
 3804.00    0.74358   0.73337   -1.000
 3805.00    0.75113   0.74062   -1.000
 3806.00    0.74691   0.74450  936.779
 3807.00    0.74346   0.75467   -1.000
 3808.00    0.76170   0.77349   -1.000
 3809.00    0.78144   0.79372   -1.000
 3810.00    0.79292   0.80416   -1.000
 3811.00    0.79274   0.79772   -1.000
 3812.00    0.78063   0.77613   -1.000
 3813.00    0.75215   0.74869  936.779
 3814.00    0.72917   0.72722  936.779
 3815.00    0.72474   0.71901   -1.000
 3816.00    0.71937   0.72147  936.779
 3817.00    0.73060   0.72407   -1.000
 3818.00    0.74164   0.71792   -1.000
 3819.00    0.72128   0.70388   -1.000
 3820.00    0.69092   0.69120  936.779
 3821.00    0.69039   0.68628   -1.000
 3822.00    0.70653   0.68446   -1.000
 3823.00    0.71592   0.67624   -1.000
 3824.00    0.68588   0.65874   -1.000
 3825.00    0.65542   0.63784  144.677
 3826.00    0.64562   0.62075   -1.000
 3827.00    0.63812   0.60928   -1.000
 3828.00    0.63170   0.59961   -1.000
 3829.00    0.62037   0.58595   -1.000
 3830.00    0.61009   0.56386   -1.000
 3831.00    0.57804   0.53230   -1.000
 3832.00    0.54065   0.49464   -1.000
 3833.00    0.50605   0.45867   -1.000
 3834.00    0.47368   0.43393   -1.000
 3835.00    0.47004   0.42620   -1.000
 3836.00    0.48335   0.43442   -1.000
 3837.00    0.49635   0.45362   -1.000
 3838.00    0.51826   0.48037   -1.000
 3839.00    0.54115   0.51496   -1.000
 3840.00    0.57811   0.55817   -1.000
 3841.00    0.63029   0.60686   -1.000
 3842.00    0.67771   0.65426   -1.000
 3843.00    0.70558   0.69367   -1.000
 3844.00    0.72881   0.72253   -1.000
 3845.00    0.73930   0.74314   -1.000
 3846.00    0.74408   0.75862   -1.000
 3847.00    0.75791   0.76917   -1.000
 3848.00    0.76212   0.77412   -1.000
 3849.00    0.75300   0.77591   -1.000
 3850.00    0.74454   0.77904   -1.000
 3851.00    0.74542   0.78530   -1.000
 3852.00    0.75971   0.79138   -1.000
 3853.00    0.77658   0.79205   -1.000
 3854.00    0.76899   0.78557   -1.000
 3855.00    0.75473   0.77433   -1.000
 3856.00    0.74773   0.76101   -1.000
 3857.00    0.73152   0.74734   -1.000
 3858.00    0.71876   0.73661  138.116
 3859.00    0.70460   0.73443   -1.000
 3860.00    0.70370   0.74458   -1.000
 3861.00    0.73136   0.76397   -1.000
 3862.00    0.76755   0.78361   -1.000
 3863.00    0.78842   0.79559   -1.000
 3864.00    0.80411   0.79887  936.779
 3865.00    0.80202   0.79770  936.779
 3866.00    0.78559   0.79603   -1.000
 3867.00    0.78907   0.79435   -1.000
 3868.00    0.78136   0.78966   -1.000
 3869.00    0.76061   0.77826   -1.000
 3870.00    0.73969   0.76020   -1.000
 3871.00    0.71340   0.74166   -1.000
 3872.00    0.70837   0.73197   -1.000
 3873.00    0.73194   0.73631   -1.000
 3874.00    0.75727   0.74955   -1.000
 3875.00    0.76968   0.75856   -1.000
 3876.00    0.75893   0.75396   -1.000
 3877.00    0.73095   0.73849   -1.000
 3878.00    0.70086   0.72227   -1.000
 3879.00    0.69691   0.71172   -1.000
 3880.00    0.69616   0.70507   -1.000
 3881.00    0.68141   0.69717   -1.000
 3882.00    0.66709   0.68479   -1.000
 3883.00    0.67409   0.66618   -1.000
 3884.00    0.67459   0.63869   -1.000
 3885.00    0.64792   0.60081   -1.000
 3886.00    0.61401   0.55734   -1.000
 3887.00    0.58086   0.52017   -1.000
 3888.00    0.55019   0.50228   -1.000
 3889.00    0.54973   0.51088   -1.000
 3890.00    0.59155   0.54337   -1.000
 3891.00    0.64672   0.58775   -1.000
 3892.00    0.68729   0.62936   -1.000
 3893.00    0.70742   0.66058   -1.000
 3894.00    0.71954   0.68375   -1.000
 3895.00    0.73078   0.70461   -1.000
 3896.00    0.76383   0.72486   -1.000
 3897.00    0.77590   0.74190   -1.000
 3898.00    0.77981   0.75446   -1.000
 3899.00    0.78937   0.76504   -1.000
 3900.00    0.79051   0.77588   -1.000
 3901.00    0.80331   0.78517   -1.000
 3902.00    0.81957   0.78875   -1.000
 3903.00    0.80945   0.78537   -1.000
 3904.00    0.80247   0.77965   -1.000
 3905.00    0.78781   0.77944   -1.000
 3906.00    0.78776   0.79038   -1.000
 3907.00    0.80374   0.81213   -1.000
 3908.00    0.83193   0.83832   -1.000
 3909.00    0.85569   0.86080   -1.000
 3910.00    0.87481   0.87509   -1.000
 3911.00    0.88514   0.88085  835.597
 3912.00    0.88065   0.87944   -1.000
 3913.00    0.87763   0.87308  845.666
 3914.00    0.85777   0.86466   -1.000
 3915.00    0.84869   0.85642   -1.000
 3916.00    0.83993   0.84865   -1.000
 3917.00    0.84878   0.83983   -1.000
 3918.00    0.83741   0.82878   -1.000
 3919.00    0.81332   0.81689   -1.000
 3920.00    0.80207   0.80789   -1.000
 3921.00    0.79908   0.80492   -1.000
 3922.00    0.79429   0.80697   -1.000
 3923.00    0.79793   0.80820   -1.000
 3924.00    0.79926   0.80143   -1.000
 3925.00    0.78342   0.78232  936.779
 3926.00    0.74789   0.75051  936.779
 3927.00    0.70731   0.70833  508.816
 3928.00    0.65275   0.65891  157.353
 3929.00    0.60209   0.60450  184.447
 3930.00    0.54627   0.54702  216.239
 3931.00    0.47748   0.49095  255.436
 3932.00    0.40888   0.44536   -1.000
 3933.00    0.36815   0.42225   -1.000
 3934.00    0.38047   0.42997   -1.000
 3935.00    0.43014   0.46718   -1.000
 3936.00    0.49236   0.52399   -1.000
 3937.00    0.55802   0.58776  170.913
 3938.00    0.61420   0.64786   -1.000
 3939.00    0.66487   0.69744   -1.000
 3940.00    0.70606   0.73302   -1.000
 3941.00    0.73237   0.75442   -1.000
 3942.00    0.74291   0.76528  116.967
 3943.00    0.75313   0.77206  115.625
 3944.00    0.76053   0.78065  108.592
 3945.00    0.78956   0.79269   99.369
 3946.00    0.81944   0.80512   94.673
 3947.00    0.82363   0.81474   93.795
 3948.00    0.81801   0.82178   92.507
 3949.00    0.82156   0.82760   89.131
 3950.00    0.83929   0.83192   86.930
 3951.00    0.84779   0.83449   87.580
 3952.00    0.84701   0.83662   88.275
 3953.00    0.85610   0.83866   86.513
 3954.00    0.86453   0.83792   84.990
 3955.00    0.85402   0.83201   86.441
 3956.00    0.82249   0.82288   89.298
 3957.00    0.80975   0.81376   90.053
 3958.00    0.81838   0.80252   89.176
 3959.00    0.81823   0.78227   -1.000
 3960.00    0.78698   0.74922   -1.000
 3961.00    0.72796   0.70734  116.406
 3962.00    0.68110   0.66355  127.383
 3963.00    0.64430   0.61922   48.490
 3964.00    0.59784   0.56876   14.812
 3965.00    0.53092   0.50690   17.559
 3966.00    0.44596   0.43749   21.653
 3967.00    0.36161   0.37513   25.980
 3968.00    0.30515   0.33677   27.625
 3969.00    0.29901   0.33226   24.886
 3970.00    0.34187   0.36093   20.470
 3971.00    0.40862   0.41403   16.890
 3972.00    0.48079   0.47990   18.082
 3973.00    0.56224   0.54896  123.546
 3974.00    0.63529   0.61490  109.622
 3975.00    0.69118   0.67427   99.302
 3976.00    0.74105   0.72614   91.980
 3977.00    0.77889   0.77109   86.725
 3978.00    0.81187   0.80906   82.155
 3979.00    0.84351   0.83780   78.472
 3980.00    0.86407   0.85510   77.920
 3981.00    0.87167   0.86290   78.704
 3982.00    0.87351   0.86742   79.801
 3983.00    0.87599   0.87452   78.938
 3984.00    0.88749   0.88555   77.285
 3985.00    0.90249   0.89848   75.822
 3986.00    0.91309   0.91139   74.551
 3987.00    0.92419   0.92354   73.269
 3988.00    0.93071   0.93452   72.792
 3989.00    0.93442   0.94426   72.924
 3990.00    0.93883   0.95346   72.170
 3991.00    0.95162   0.96247   70.444
 3992.00    0.96417   0.96935   69.281
 3993.00    0.96921   0.97058   70.360
 3994.00    0.95692   0.96457   72.070
 3995.00    0.94483   0.95392   73.670
 3996.00    0.93563   0.94456   74.905
 3997.00    0.92294   0.94240   75.001
 3998.00    0.91879   0.94961   -1.000
 3999.00    0.94018   0.96361   69.649
 4000.00    0.95931   0.97855   67.584
 4001.00    0.98243   0.98766   66.557
 4002.00    0.99744   0.98568   66.096
 4003.00    0.99695   0.97182   68.132
 4004.00    0.97000   0.95200   72.652
 4005.00    0.93008   0.93768   75.434
 4006.00    0.92745   0.93860   73.875
 4007.00    0.95656   0.95452   69.802
 4008.00    0.98083   0.97611   67.478
 4009.00    0.98589   0.99382   66.667
 4010.00    0.99666   1.00407   66.058
 4011.00    1.00058   1.00873   66.002
 4012.00    0.99275   1.01130   66.471
 4013.00    0.99248   1.01386   66.640
 4014.00    1.01034   1.01633   66.019
 4015.00    1.00986   1.01807   65.394
 4016.00    0.99994   1.01965   66.054
 4017.00    0.99860   1.02264   66.631
 4018.00    0.99995   1.02762   66.122
 4019.00    1.00294   1.03281   65.334
 4020.00    1.00511   1.03529   65.697
 4021.00    0.99460   1.03339   -1.000
 4022.00    0.99427   1.02787   -1.000
 4023.00    0.99682   1.02159   67.406
 4024.00    0.99046   1.01859   -1.000
 4025.00    0.98862   1.02194   -1.000
 4026.00    1.00301   1.02997   63.405
 4027.00    1.02181   1.03509   62.552
 4028.00    1.02572   1.02905   63.600
 4029.00    1.01708   1.01037   66.663
 4030.00    0.97555   0.98600   70.932
 4031.00    0.94781   0.96613   73.409
 4032.00    0.94391   0.95808   73.833
 4033.00    0.94804   0.96395   72.514
 4034.00    0.96854   0.98207   69.821
 4035.00    0.98227   1.00876   66.330
 4036.00    1.01911   1.03810   63.267
 4037.00    1.04254   1.06176   61.501
 4038.00    1.05262   1.07282   61.653
 4039.00    1.03915   1.07103   63.047
 4040.00    1.02586   1.06193   -1.000
 4041.00    1.02531   1.04918   64.977
 4042.00    1.02050   1.03022   65.886
 4043.00    0.99790   1.00217   69.840
 4044.00    0.95312   0.97152   76.518
 4045.00    0.91271   0.95362   -1.000
 4046.00    0.91752   0.95946   -1.000
 4047.00    0.96338   0.98578   68.899
 4048.00    1.00805   1.01871   65.272
 4049.00    1.02952   1.04443   63.703
 4050.00    1.03092   1.05624   63.252
 4051.00    1.02968   1.05457   64.004
 4052.00    1.02170   1.04399   65.787
 4053.00    1.01597   1.03076   67.342
 4054.00    1.00071   1.01996   68.258
 4055.00    0.99730   1.01307   68.771
 4056.00    1.00000   1.00979   69.291
 4057.00    0.99786   1.01116   69.680
 4058.00    0.99738   1.01801   68.424
 4059.00    1.01880   1.02634   66.142
 4060.00    1.03292   1.02719   65.395
 4061.00    1.01863   1.01416   67.367
 4062.00    0.98733   0.99075   72.391
 4063.00    0.94995   0.96832   76.034
 4064.00    0.94644   0.95693   74.097
 4065.00    0.96677   0.95885   70.784
 4066.00    0.98386   0.96998   69.061
 4067.00    0.99230   0.98431   67.100
 4068.00    1.01239   0.99510   65.214
 4069.00    1.02562   0.99631   65.154
 4070.00    1.01457   0.98752   67.927
 4071.00    0.99301   0.97619   70.259
 4072.00    0.97944   0.97058   69.180
 4073.00    0.98954   0.97022   67.054
 4074.00    0.99976   0.96643   67.529
 4075.00    0.97890   0.95328   71.455
 4076.00    0.95003   0.93573   76.810
 4077.00    0.92126   0.92592   77.913
 4078.00    0.91892   0.93278   74.557
 4079.00    0.95113   0.95468   69.349
 4080.00    0.98680   0.98011   65.173
 4081.00    1.01226   0.99593   63.936
 4082.00    1.00834   0.99697   65.347
 4083.00    0.99386   0.98894   67.358
 4084.00    0.97505   0.98280   67.895
 4085.00    0.96695   0.98632   66.532
 4086.00    0.98632   0.99934   64.171
 4087.00    1.01808   1.01489   61.782
 4088.00    1.04148   1.02444   60.307
 4089.00    1.03734   1.02345   60.858
 4090.00    1.01728   1.01348   62.125
 4091.00    0.99707   0.99932   63.183
 4092.00    0.98740   0.98385   63.736
 4093.00    0.98355   0.96587   64.023
 4094.00    0.96797   0.94262   65.625
 4095.00    0.94385   0.91329   68.532
 4096.00    0.91972   0.87914   70.403
 4097.00    0.89803   0.84032   -1.000
 4098.00    0.86196   0.79488   -1.000
 4099.00    0.81279   0.74337   -1.000
 4100.00    0.73443   0.69495   84.430
 4101.00    0.67248   0.66626   88.526
 4102.00    0.67412   0.67062   85.136
 4103.00    0.72834   0.70760   77.934
 4104.00    0.80703   0.76279   72.307
 4105.00    0.85837   0.81773   68.845
 4106.00    0.89884   0.86089   67.180
 4107.00    0.92531   0.89035   67.113
 4108.00    0.92799   0.90965   67.934
 4109.00    0.93277   0.92378   69.217
 4110.00    0.93913   0.93717   69.804
 4111.00    0.94705   0.95231   68.717
 4112.00    0.96231   0.96960   67.224
 4113.00    0.98085   0.98801   66.107
 4114.00    0.99309   1.00493   65.177
 4115.00    1.00610   1.01647   64.767
 4116.00    1.01037   1.01982   65.352
 4117.00    1.00096   1.01580   66.966
 4118.00    0.98957   1.00882   68.937
 4119.00    0.98652   1.00383   69.319
 4120.00    0.99814   1.00326   68.437
 4121.00    0.99571   1.00663   67.908
 4122.00    0.99899   1.01247   67.818
 4123.00    1.00127   1.01961   66.954
 4124.00    1.01276   1.02606   65.966
 4125.00    1.02347   1.02858   66.021
 4126.00    1.01709   1.02534   67.069
 4127.00    1.00436   1.01830   68.339
 4128.00    0.98950   1.01092   68.828
 4129.00    0.98707   1.00389   69.287
 4130.00    0.97841   0.99517   70.472
 4131.00    0.97185   0.98492   72.749
 4132.00    0.95049   0.97837   -1.000
 4133.00    0.94833   0.98221   -1.000
 4134.00    0.96343   0.99857   -1.000
 4135.00    0.99134   1.02314   67.915
 4136.00    1.02703   1.04875   65.993
 4137.00    1.04171   1.06959   64.965
 4138.00    1.04202   1.08215   -1.000
 4139.00    1.05582   1.08314   64.243
 4140.00    1.04874   1.06994   66.068
 4141.00    1.02617   1.04477   70.089
 4142.00    0.98245   1.01722   -1.000
 4143.00    0.95733   1.00013   -1.000
 4144.00    0.95308   1.00117   -1.000
 4145.00    0.97972   1.01668   -1.000
 4146.00    1.00990   1.03504   68.203
 4147.00    1.00988   1.04658   -1.000
 4148.00    1.00424   1.05012   -1.000
 4149.00    0.99385   1.05021   -1.000
 4150.00    0.98590   1.05012   -1.000
 4151.00    0.99713   1.04878   -1.000
 4152.00    1.00211   1.04379   -1.000
 4153.00    0.98728   1.03588   -1.000
 4154.00    0.98420   1.02948   -1.000
 4155.00    0.98943   1.02926   -1.000
 4156.00    0.99276   1.03651   -1.000
 4157.00    1.08440   1.04889   70.554
 4158.00    1.20709   1.06254   -1.000
 4159.00    1.02903   1.07439   -1.000
 4160.00    0.84994   1.08342   -1.000
 4161.00    0.98732   1.09045   -1.000
 4162.00    1.05434   1.09632   -1.000
 4163.00    1.03575   1.10008   -1.000
 4164.00    1.03060   1.09956   -1.000
 4165.00    1.03293   1.09382   -1.000
 4166.00    1.02147   1.08484   -1.000
 4167.00    1.01018   1.07587   -1.000
 4168.00    1.00506   1.06742   -1.000
 4169.00    1.00810   1.05566   -1.000
 4170.00    0.99894   1.03666   -1.000
 4171.00    0.97518   1.01279   -1.000
 4172.00    0.94088   0.99336   -1.000
 4173.00    0.93280   0.98761   -1.000
 4174.00    0.94403   0.99622   -1.000
 4175.00    0.95770   1.01113   -1.000
 4176.00    0.96042   1.02390   -1.000
 4177.00    0.96658   1.03277   -1.000
 4178.00    0.97241   1.04045   -1.000
 4179.00    0.98881   1.04766   -1.000
 4180.00    1.00003   1.05204   -1.000
 4181.00    0.99401   1.05266   -1.000
 4182.00    0.99180   1.05255   -1.000
 4183.00    0.99437   1.05466   -1.000
 4184.00    1.01233   1.05743   -1.000
 4185.00    1.01590   1.05662   -1.000
 4186.00    0.99650   1.05129   -1.000
 4187.00    0.97458   1.04557   -1.000
 4188.00    0.97581   1.04436   -1.000
 4189.00    0.99490   1.04897   -1.000
 4190.00    1.00029   1.05754   -1.000
 4191.00    1.00610   1.06743   -1.000
 4192.00    1.01786   1.07544   -1.000
 4193.00    1.02448   1.07711   -1.000
 4194.00    1.02355   1.06896   -1.000
 4195.00    1.00927   1.05170   -1.000
 4196.00    0.98336   1.03037   -1.000
 4197.00    0.96263   1.01122   -1.000
 4198.00    0.95574   0.99846   -1.000
 4199.00    0.94728   0.99318   -1.000
 4200.00    0.95507   0.99416   -1.000
 4201.00    0.96899   0.99942   -1.000
 4202.00    0.97744   1.00793   -1.000
 4203.00    0.97646   1.02002   -1.000
 4204.00    0.97647   1.03584   -1.000
 4205.00    0.98667   1.05372   -1.000
 4206.00    1.00115   1.07050   -1.000
 4207.00    1.01588   1.08298   -1.000
 4208.00    1.02889   1.08974   -1.000
 4209.00    1.02789   1.09232   -1.000
 4210.00    1.02113   1.09372   -1.000
 4211.00    1.02237   1.09473   -1.000
 4212.00    1.02289   1.09212   -1.000
 4213.00    1.02120   1.08229   -1.000
 4214.00    1.00461   1.06687   -1.000
 4215.00    0.97063   1.05366   -1.000
 4216.00    0.96710   1.05105   -1.000
 4217.00    0.99685   1.06142   -1.000
 4218.00    1.03421   1.07928   -1.000
 4219.00    1.04793   1.09496   -1.000
 4220.00    1.05529   1.09999   -1.000
 4221.00    1.05091   1.08950   -1.000
 4222.00    1.03387   1.06196   65.617
 4223.00    1.00002   1.02007   70.732
 4224.00    0.96672   0.97265   78.384
 4225.00    0.90347   0.93441   -1.000
 4226.00    0.86062   0.92057   -1.000
 4227.00    0.86863   0.93781   -1.000
 4228.00    0.92224   0.97769   -1.000
 4229.00    0.98783   1.02080   66.766
 4230.00    1.02860   1.04968   64.088
 4231.00    1.03415   1.05888   64.137
 4232.00    1.02933   1.05359   65.718
 4233.00    1.01356   1.04264   67.207
 4234.00    1.01104   1.03269   68.042
 4235.00    0.99493   1.02667   -1.000
 4236.00    0.98686   1.02556   -1.000
 4237.00    0.98363   1.03003   -1.000
 4238.00    0.99379   1.03976   -1.000
 4239.00    1.00154   1.05257   -1.000
 4240.00    1.01314   1.06530   -1.000
 4241.00    1.02509   1.07606   -1.000
 4242.00    1.03582   1.08452   -1.000
 4243.00    1.04186   1.09023   -1.000
 4244.00    1.04711   1.09083   -1.000
 4245.00    1.04926   1.08339   63.774
 4246.00    1.02564   1.06811   -1.000
 4247.00    0.99796   1.05022   -1.000
 4248.00    0.98715   1.03713   -1.000
 4249.00    0.98199   1.03334   -1.000
 4250.00    0.97348   1.03786   -1.000
 4251.00    0.98618   1.04541   -1.000
 4252.00    1.00653   1.04990   -1.000
 4253.00    1.00882   1.04940   -1.000
 4254.00    0.99676   1.04759   -1.000
 4255.00    1.00094   1.04927   -1.000
 4256.00    1.02131   1.05310   65.275
 4257.00    1.03557   1.05188   65.529
 4258.00    1.01787   1.04186   68.444
 4259.00    0.99252   1.02917   -1.000
 4260.00    0.97222   1.02558   -1.000
 4261.00    0.98001   1.03808   -1.000
 4262.00    1.01142   1.06267   -1.000
 4263.00    1.03918   1.08846   -1.000
 4264.00    1.05922   1.10568   -1.000
 4265.00    1.06150   1.11068   -1.000
 4266.00    1.05812   1.10433   -1.000
 4267.00    1.04592   1.08878   -1.000
 4268.00    1.02973   1.06547   -1.000
 4269.00    1.00625   1.03655   69.957
 4270.00    0.97265   1.00675   -1.000
 4271.00    0.93633   0.98318   -1.000
 4272.00    0.92491   0.97198   -1.000
 4273.00    0.93490   0.97553   -1.000
 4274.00    0.94209   0.99215   -1.000
 4275.00    0.96479   1.01784   -1.000
 4276.00    1.00216   1.04619   -1.000
 4277.00    1.03610   1.06848   63.754
 4278.00    1.04013   1.07777   -1.000
 4279.00    1.02231   1.07460   -1.000
 4280.00    0.99894   1.06613   -1.000
 4281.00    0.99503   1.05957   -1.000
 4282.00    1.00446   1.05623   -1.000
 4283.00    1.00680   1.05276   -1.000
 4284.00    1.00142   1.04569   -1.000
 4285.00    0.98749   1.03419   -1.000
 4286.00    0.96773   1.01871   -1.000
 4287.00    0.95423   0.99973   -1.000
 4288.00    0.93373   0.98001   -1.000
 4289.00    0.90649   0.96579   -1.000
 4290.00    0.90544   0.96384   -1.000
 4291.00    0.92948   0.97490   -1.000
 4292.00    0.95882   0.99112   70.755
 4293.00    0.98026   1.00175   70.016
 4294.00    0.98157   1.00095   70.868
 4295.00    0.97361   0.98864   72.169
 4296.00    0.95866   0.96720   74.310
 4297.00    0.93040   0.93884   78.792
 4298.00    0.89018   0.90763   85.577
 4299.00    0.84989   0.88028   -1.000
 4300.00    0.83584   0.86352   -1.000
 4301.00    0.83779   0.85937   88.094
 4302.00    0.84808   0.86516   86.813
 4303.00    0.86448   0.87543   85.556
 4304.00    0.87665   0.88377   84.869
 4305.00    0.87915   0.88445   85.903
 4306.00    0.86299   0.87606   89.404
 4307.00    0.84236   0.86410   93.716
 4308.00    0.82707   0.85818   -1.000
 4309.00    0.82991   0.86479   -1.000
 4310.00    0.84964   0.88347   -1.000
 4311.00    0.87518   0.90933   -1.000
 4312.00    0.90061   0.93951   -1.000
 4313.00    0.91761   0.97548   -1.000
 4314.00    0.94365   1.01889   -1.000
 4315.00    0.99435   1.06606   -1.000
 4316.00    1.04989   1.10831   -1.000
 4317.00    1.08453   1.13610   -1.000
 4318.00    1.08752   1.14548   -1.000
 4319.00    1.07658   1.13828   -1.000
 4320.00    1.06497   1.11827   -1.000
 4321.00    1.04021   1.08744   -1.000
 4322.00    1.01247   1.04792   66.267
 4323.00    0.98030   1.00640   71.510
 4324.00    0.93675   0.97515   -1.000
 4325.00    0.91070   0.96615   -1.000
 4326.00    0.92460   0.98273   -1.000
 4327.00    0.97689   1.01559   -1.000
 4328.00    1.02945   1.04873   61.017
 4329.00    1.04611   1.06976   60.333
 4330.00    1.03902   1.07754   60.510
 4331.00    1.02977   1.07732   -1.000
 4332.00    1.02987   1.07301   58.981
 4333.00    1.02964   1.06272   58.517
 4334.00    1.02436   1.04018   58.686
 4335.00    1.00648   0.99959   60.402
 4336.00    0.96072   0.93994   64.911
 4337.00    0.89290   0.86888   71.293
 4338.00    0.81445   0.80204   77.738
 4339.00    0.74744   0.75824   83.050
 4340.00    0.71180   0.74995   -1.000
 4341.00    0.72976   0.77793   -1.000
 4342.00    0.79943   0.83006   68.902
 4343.00    0.88090   0.88920   65.297
 4344.00    0.93322   0.94273   63.393
 4345.00    0.96623   0.98735   61.839
 4346.00    0.98891   1.02358   60.919
 4347.00    1.00422   1.05041   -1.000
 4348.00    1.02118   1.06415   59.477
 4349.00    1.03490   1.06189   60.444
 4350.00    1.01551   1.04727   64.264
 4351.00    0.96725   1.03176   -1.000
 4352.00    0.95800   1.02821   -1.000
 4353.00    0.98644   1.04156   -1.000
 4354.00    1.02224   1.06558   -1.000
 4355.00    1.04338   1.08984   -1.000
 4356.00    1.05508   1.10694   -1.000
 4357.00    1.05856   1.11624   -1.000
 4358.00    1.06528   1.12146   -1.000
 4359.00    1.05880   1.12747   -1.000
 4360.00    1.06156   1.13722   -1.000
 4361.00    1.07833   1.15013   -1.000
 4362.00    1.08893   1.16302   -1.000
 4363.00    1.09170   1.17242   -1.000
 4364.00    1.10006   1.17585   -1.000
 4365.00    1.10123   1.17152   -1.000
 4366.00    1.08325   1.15983   -1.000
 4367.00    1.06649   1.14464   -1.000
 4368.00    1.05815   1.13092   -1.000
 4369.00    1.05874   1.12055   -1.000
 4370.00    1.06916   1.11176   -1.000
 4371.00    1.07754   1.10120   60.863
 4372.00    1.05964   1.08700   61.962
 4373.00    1.03565   1.07163   -1.000
 4374.00    1.00767   1.06185   -1.000
 4375.00    1.00956   1.06434   -1.000
 4376.00    1.03619   1.07953   -1.000
 4377.00    1.06876   1.10009   60.058
 4378.00    1.07914   1.11451   59.447
 4379.00    1.08355   1.11375   60.046
 4380.00    1.08642   1.09315   61.584
 4381.00    1.06499   1.05473   65.512
 4382.00    1.00524   1.00920   73.090
 4383.00    0.94718   0.97451   -1.000
 4384.00    0.92196   0.96539   -1.000
 4385.00    0.94904   0.98330   -1.000
 4386.00    0.99995   1.01459   64.690
 4387.00    1.02898   1.04246   63.315
 4388.00    1.04653   1.05958   63.617
 4389.00    1.05306   1.06862   64.222
 4390.00    1.05382   1.07569   64.032
 4391.00    1.05882   1.08338   62.663
 4392.00    1.06823   1.09023   61.696
 4393.00    1.07106   1.09465   62.450
 4394.00    1.05757   1.09829   -1.000
 4395.00    1.04748   1.10489   -1.000
 4396.00    1.06937   1.11421   -1.000
 4397.00    1.09461   1.12065   58.693
 4398.00    1.09053   1.11928   59.986
 4399.00    1.06786   1.11160   -1.000
 4400.00    1.04179   1.10356   -1.000
 4401.00    1.04654   1.09759   -1.000
 4402.00    1.06661   1.09093   62.035
 4403.00    1.05871   1.08071   64.766
 4404.00    1.03662   1.06925   -1.000
 4405.00    1.02396   1.06309   -1.000
 4406.00    1.02948   1.06631   -1.000
 4407.00    1.03919   1.07830   -1.000
 4408.00    1.03927   1.09722   -1.000
 4409.00    1.05027   1.12094   -1.000
 4410.00    1.08422   1.14504   -1.000
 4411.00    1.11072   1.16115   -1.000
 4412.00    1.11913   1.16136   56.772
 4413.00    1.10878   1.14531   58.858
 4414.00    1.08116   1.12155   -1.000
 4415.00    1.05107   1.10339   -1.000
 4416.00    1.04383   1.10183   -1.000
 4417.00    1.05735   1.11860   -1.000
 4418.00    1.07801   1.14510   -1.000
 4419.00    1.10130   1.16824   -1.000
 4420.00    1.11252   1.17955   -1.000
 4421.00    1.10179   1.17833   -1.000
 4422.00    1.08779   1.17120   -1.000
 4423.00    1.08512   1.16487   -1.000
 4424.00    1.07788   1.16137   -1.000
 4425.00    1.07743   1.15966   -1.000
 4426.00    1.07633   1.15889   -1.000
 4427.00    1.06708   1.15970   -1.000
 4428.00    1.06949   1.16254   -1.000
 4429.00    1.07677   1.16584   -1.000
 4430.00    1.07669   1.16749   -1.000
 4431.00    1.08011   1.16519   -1.000
 4432.00    1.09313   1.15708   -1.000
 4433.00    1.08372   1.14445   -1.000
 4434.00    1.05919   1.13357   -1.000
 4435.00    1.04758   1.13318   -1.000
 4436.00    1.05826   1.14773   -1.000
 4437.00    1.09709   1.17157   -1.000
 4438.00    1.12999   1.19200   -1.000
 4439.00    1.14066   1.19785   -1.000
 4440.00    1.12743   1.18675   -1.000
 4441.00    1.09651   1.16651   -1.000
 4442.00    1.06649   1.15017   -1.000
 4443.00    1.05162   1.14853   -1.000
 4444.00    1.06932   1.16243   -1.000
 4445.00    1.10183   1.18393   -1.000
 4446.00    1.12055   1.20240   -1.000
 4447.00    1.12477   1.21237   -1.000
 4448.00    1.12950   1.21456   -1.000
 4449.00    1.12524   1.21221   -1.000
 4450.00    1.11905   1.20682   -1.000
 4451.00    1.11576   1.19685   -1.000
 4452.00    1.11729   1.18007   -1.000
 4453.00    1.10546   1.15725   -1.000
 4454.00    1.07637   1.13395   -1.000
 4455.00    1.05676   1.11828   -1.000
 4456.00    1.06363   1.11401   -1.000
 4457.00    1.08416   1.11835   61.731
 4458.00    1.08990   1.12524   61.903
 4459.00    1.08322   1.13111   -1.000
 4460.00    1.07689   1.13656   -1.000
 4461.00    1.07252   1.14417   -1.000
 4462.00    1.08634   1.15522   -1.000
 4463.00    1.10855   1.16832   -1.000
 4464.00    1.11645   1.17962   -1.000
 4465.00    1.12104   1.18483   -1.000
 4466.00    1.11910   1.18284   -1.000
 4467.00    1.11016   1.17633   -1.000
 4468.00    1.09595   1.17091   -1.000
 4469.00    1.08909   1.17211   -1.000
 4470.00    1.09058   1.18268   -1.000
 4471.00    1.11319   1.20100   -1.000
 4472.00    1.14130   1.22196   -1.000
 4473.00    1.17233   1.24014   -1.000
 4474.00    1.18191   1.25235   -1.000
 4475.00    1.18376   1.25817   -1.000
 4476.00    1.18070   1.25848   -1.000
 4477.00    1.18860   1.25284   -1.000
 4478.00    1.18472   1.23947   -1.000
 4479.00    1.16844   1.21873   -1.000
 4480.00    1.14057   1.19678   -1.000
 4481.00    1.11325   1.18310   -1.000
 4482.00    1.11303   1.18538   -1.000
 4483.00    1.13030   1.20289   -1.000
 4484.00    1.16170   1.22695   -1.000
 4485.00    1.18337   1.24672   -1.000
 4486.00    1.18781   1.25422   -1.000
 4487.00    1.18251   1.24870   -1.000
 4488.00    1.16032   1.23613   -1.000
 4489.00    1.13934   1.22546   -1.000
 4490.00    1.13968   1.22234   -1.000
 4491.00    1.15511   1.22669   -1.000
 4492.00    1.16480   1.23281   -1.000
 4493.00    1.16587   1.23548   -1.000
 4494.00    1.15286   1.23430   -1.000
 4495.00    1.13188   1.23307   -1.000
 4496.00    1.13109   1.23594   -1.000
 4497.00    1.15076   1.24242   -1.000
 4498.00    1.17448   1.24911   -1.000
 4499.00    1.17829   1.25361   -1.000
 4500.00    1.16148   1.25726   -1.000
 4501.00    1.14654   1.26379   -1.000
 4502.00    1.16502   1.27595   -1.000
 4503.00    1.20054   1.29209   -1.000
 4504.00    1.22412   1.30639   -1.000
 4505.00    1.22511   1.31413   -1.000
 4506.00    1.21535   1.31416   -1.000
 4507.00    1.20897   1.30993   -1.000
 4508.00    1.20538   1.30579   -1.000
 4509.00    1.20594   1.30389   -1.000
 4510.00    1.21604   1.30266   -1.000
 4511.00    1.22064   1.29902   -1.000
 4512.00    1.20591   1.29168   -1.000
 4513.00    1.18941   1.28205   -1.000
 4514.00    1.18156   1.27313   -1.000
 4515.00    1.17902   1.26681   -1.000
 4516.00    1.17742   1.26293   -1.000
 4517.00    1.17501   1.26060   -1.000
 4518.00    1.17431   1.25911   -1.000
 4519.00    1.17658   1.25879   -1.000
 4520.00    1.18857   1.25954   -1.000
 4521.00    1.19109   1.25895   -1.000
 4522.00    1.17476   1.25455   -1.000
 4523.00    1.16043   1.24568   -1.000
 4524.00    1.15177   1.23317   -1.000
 4525.00    1.14992   1.21786   -1.000
 4526.00    1.13608   1.20009   -1.000
 4527.00    1.11778   1.18216   -1.000
 4528.00    1.09838   1.16860   -1.000
 4529.00    1.10346   1.16319   -1.000
 4530.00    1.11440   1.16531   -1.000
 4531.00    1.12632   1.16928   -1.000
 4532.00    1.12497   1.16991   -1.000
 4533.00    1.11327   1.16677   -1.000
 4534.00    1.09828   1.16622   -1.000
 4535.00    1.09655   1.17618   -1.000
 4536.00    1.12718   1.19898   -1.000
 4537.00    1.16987   1.22870   -1.000
 4538.00    1.20045   1.25463   -1.000
 4539.00    1.20221   1.26941   -1.000
 4540.00    1.18993   1.27280   -1.000
 4541.00    1.18896   1.27052   -1.000
 4542.00    1.18884   1.26739   -1.000
 4543.00    1.18260   1.26413   -1.000
 4544.00    1.17441   1.25917   -1.000
 4545.00    1.15538   1.25135   -1.000
 4546.00    0.82670   1.24106   -1.000
 4547.00    0.07520   1.22923   -1.000
 4548.00   -0.00143   1.21758    0.000
 4549.00    0.30872   1.20970   -1.000
 4550.00    0.74392   1.20863   -1.000
 4551.00    0.40808   1.21302   -1.000
 4552.00    1.01977   1.21764   -1.000
 4553.00    1.16547   1.21854   -1.000
 4554.00    1.12372   1.21779   -1.000
 4555.00    1.12656   1.22179   -1.000
 4556.00    1.15064   1.23430   -1.000
 4557.00    1.18398   1.25383   -1.000
 4558.00    1.20840   1.27477   -1.000
 4559.00    1.20913   1.29117   -1.000
 4560.00    1.21435   1.30009   -1.000
 4561.00    1.21656   1.30055   -1.000
 4562.00    1.20223   1.29332   -1.000
 4563.00    1.18259   1.28166   -1.000
 4564.00    1.16658   1.27119   -1.000
 4565.00    1.17051   1.26786   -1.000
 4566.00    1.18896   1.27349   -1.000
 4567.00    1.21320   1.28411   -1.000
 4568.00    1.22436   1.29248   -1.000
 4569.00    1.21513   1.29265   -1.000
 4570.00    1.19692   1.28505   -1.000
 4571.00    1.17563   1.27568   -1.000
 4572.00    1.17075   1.27195   -1.000
 4573.00    1.19255   1.27667   -1.000
 4574.00    1.21146   1.28650   -1.000
 4575.00    1.21487   1.29484   -1.000
 4576.00    1.21064   1.29685   -1.000
 4577.00    1.20822   1.29132   -1.000
 4578.00    1.19624   1.27907   -1.000
 4579.00    1.17278   1.26239   -1.000
 4580.00    1.16280   1.24521   -1.000
 4581.00    1.16396   1.23220   -1.000
 4582.00    1.16302   1.22596   -1.000
 4583.00    1.16193   1.22616   -1.000
 4584.00    1.17012   1.23051   -1.000
 4585.00    1.17486   1.23734   -1.000
 4586.00    1.18154   1.24619   -1.000
 4587.00    1.19526   1.25700   -1.000
 4588.00    1.20251   1.26768   -1.000
 4589.00    1.20996   1.27476   -1.000
 4590.00    1.20158   1.27571   -1.000
 4591.00    1.19087   1.27130   -1.000
 4592.00    1.18705   1.26549   -1.000
 4593.00    1.18394   1.26246   -1.000
 4594.00    1.18774   1.26403   -1.000
 4595.00    1.19310   1.26904   -1.000
 4596.00    1.20203   1.27489   -1.000
 4597.00    1.21149   1.27919   -1.000
 4598.00    1.21759   1.28035   -1.000
 4599.00    1.21372   1.27797   -1.000
 4600.00    1.19539   1.27332   -1.000
 4601.00    1.18695   1.26896   -1.000
 4602.00    1.18845   1.26706   -1.000
 4603.00    1.20172   1.26856   -1.000
 4604.00    1.20717   1.27295   -1.000
 4605.00    1.21201   1.27953   -1.000
 4606.00    1.21861   1.28804   -1.000
 4607.00    1.22843   1.29811   -1.000
 4608.00    1.24205   1.30854   -1.000
 4609.00    1.24710   1.31636   -1.000
 4610.00    1.24355   1.31929   -1.000
 4611.00    1.24212   1.31706   -1.000
 4612.00    1.23021   1.31203   -1.000
 4613.00    1.22550   1.30770   -1.000
 4614.00    1.22859   1.30503   -1.000
 4615.00    1.23026   1.30328   -1.000
 4616.00    1.22670   1.30101   -1.000
 4617.00    1.22959   1.29804   -1.000
 4618.00    1.22431   1.29607   -1.000
 4619.00    1.22297   1.29750   -1.000
 4620.00    1.23387   1.30336   -1.000
 4621.00    1.24016   1.31170   -1.000
 4622.00    1.25548   1.31902   -1.000
 4623.00    1.25629   1.32269   -1.000
 4624.00    1.24458   1.32220   -1.000
 4625.00    1.23470   1.31943   -1.000
 4626.00    1.23778   1.31599   -1.000
 4627.00    1.23835   1.31277   -1.000
 4628.00    1.23637   1.31076   -1.000
 4629.00    1.23095   1.31055   -1.000
 4630.00    1.22892   1.31238   -1.000
 4631.00    1.23219   1.31479   -1.000
 4632.00    1.23786   1.31554   -1.000
 4633.00    1.22986   1.31285   -1.000
 4634.00    1.22571   1.30725   -1.000
 4635.00    1.22621   1.30103   -1.000
 4636.00    1.22670   1.29618   -1.000
 4637.00    1.21421   1.29355   -1.000
 4638.00    1.20922   1.29379   -1.000
 4639.00    1.21759   1.29780   -1.000
 4640.00    1.23275   1.30535   -1.000
 4641.00    1.24843   1.31418   -1.000
 4642.00    1.25453   1.32014   -1.000
 4643.00    1.25434   1.31962   -1.000
 4644.00    1.23784   1.31102   -1.000
 4645.00    1.22298   1.29641   -1.000
 4646.00    1.20799   1.28122   -1.000
 4647.00    1.20094   1.27133   -1.000
 4648.00    1.21199   1.27088   -1.000
 4649.00    1.21736   1.27935   -1.000
 4650.00    1.23061   1.29122   -1.000
 4651.00    1.23750   1.30048   -1.000
 4652.00    1.22908   1.30354   -1.000
 4653.00    1.22843   1.30076   -1.000
 4654.00    1.22292   1.29537   -1.000
 4655.00    1.20837   1.29203   -1.000
 4656.00    1.20450   1.29537   -1.000
 4657.00    1.22122   1.30757   -1.000
 4658.00    1.24783   1.32571   -1.000
 4659.00    1.27158   1.34306   -1.000
 4660.00    1.27881   1.35280   -1.000
 4661.00    1.27050   1.35168   -1.000
 4662.00    1.25286   1.34144   -1.000
 4663.00    1.24284   1.32547   -1.000
 4664.00    1.24006   1.30610   -1.000
 4665.00    1.23402   1.28440   -1.000
 4666.00    1.21298   1.26255   -1.000
 4667.00    1.18356   1.24555   -1.000
 4668.00    1.17607   1.23926   -1.000
 4669.00    1.18140   1.24642   -1.000
 4670.00    1.20922   1.26362   -1.000
 4671.00    1.23391   1.28363   51.855
 4672.00    1.24976   1.30052   51.689
 4673.00    1.24574   1.31229   -1.000
 4674.00    1.24679   1.32047   -1.000
 4675.00    1.25170   1.32570   -1.000
 4676.00    1.26636   1.32677   -1.000
 4677.00    1.26425   1.32148   -1.000
 4678.00    1.25049   1.31010   -1.000
 4679.00    1.23124   1.29666   -1.000
 4680.00    1.21815   1.28589   -1.000
 4681.00    1.21665   1.28113   -1.000
 4682.00    1.22440   1.28267   -1.000
 4683.00    1.23583   1.28860   -1.000
 4684.00    1.25603   1.29621   51.308
 4685.00    1.26479   1.30279   51.482
 4686.00    1.26130   1.30707   51.566
 4687.00    1.24942   1.30908   -1.000
 4688.00    1.25099   1.30967   -1.000
 4689.00    1.25272   1.30924   -1.000
 4690.00    1.24764   1.30840   -1.000
 4691.00    1.24379   1.30833   -1.000
 4692.00    1.25338   1.31004   -1.000
 4693.00    1.26654   1.31386   50.540
 4694.00    1.28128   1.31848   49.523
 4695.00    1.28303   1.32128   49.146
 4696.00    1.28337   1.31961   49.737
 4697.00    1.27298   1.31268   51.253
 4698.00    1.25217   1.30120   52.556
 4699.00    1.24310   1.28776   52.845
 4700.00    1.24024   1.27492   52.588
 4701.00    1.23566   1.26432   53.166
 4702.00    1.22686   1.25767   53.960
 4703.00    1.22373   1.25625   53.856
 4704.00    1.23126   1.25964   52.833
 4705.00    1.23624   1.26448   52.465
 4706.00    1.23478   1.26666   53.357
 4707.00    1.22353   1.26530   54.298
 4708.00    1.21340   1.26389   -1.000
 4709.00    1.21483   1.26651   -1.000
 4710.00    1.23044   1.27460   52.275
 4711.00    1.25655   1.28505   51.093
 4712.00    1.26563   1.29351   50.892
 4713.00    1.25553   1.29802   51.554
 4714.00    1.24820   1.29984   -1.000
 4715.00    1.25157   1.30326   -1.000
 4716.00    1.25667   1.31075   -1.000
 4717.00    1.26893   1.32125   50.097
 4718.00    1.28055   1.33120   49.854
 4719.00    1.28511   1.33764   49.684
 4720.00    1.27841   1.34045   -1.000
 4721.00    1.26649   1.34108   -1.000
 4722.00    1.26397   1.34140   -1.000
 4723.00    1.26747   1.34178   -1.000
 4724.00    1.26639   1.34097   -1.000
 4725.00    1.27419   1.33634   -1.000
 4726.00    1.26658   1.32621   -1.000
 4727.00    1.24318   1.31196   -1.000
 4728.00    1.23177   1.29762   -1.000
 4729.00    1.22684   1.28756   -1.000
 4730.00    1.23366   1.28393   -1.000
 4731.00    1.24215   1.28597   52.560
 4732.00    1.24650   1.29118   51.962
 4733.00    1.24840   1.29700   51.562
 4734.00    1.25422   1.30123   51.277
 4735.00    1.25950   1.30301   51.214
 4736.00    1.25426   1.30349   51.678
 4737.00    1.25288   1.30470   -1.000
 4738.00    1.27000   1.30774   51.001
 4739.00    1.27413   1.31210   51.132
 4740.00    1.25819   1.31659   -1.000
 4741.00    1.25202   1.32041   -1.000
 4742.00    1.26049   1.32389   -1.000
 4743.00    1.26759   1.32766   -1.000
 4744.00    1.27356   1.33134   -1.000
 4745.00    1.27881   1.33471   -1.000
 4746.00    1.28053   1.33843   -1.000
 4747.00    1.27847   1.34322   -1.000
 4748.00    1.28102   1.34920   -1.000
 4749.00    1.27886   1.35498   -1.000
 4750.00    1.28469   1.35827   -1.000
 4751.00    1.28861   1.35728   -1.000
 4752.00    1.27646   1.35124   -1.000
 4753.00    1.26981   1.34197   -1.000
 4754.00    1.26764   1.33293   -1.000
 4755.00    1.25947   1.32758   -1.000
 4756.00    1.25613   1.32728   -1.000
 4757.00    1.26026   1.33104   -1.000
 4758.00    1.26135   1.33624   -1.000
 4759.00    1.26353   1.33936   -1.000
 4760.00    1.26084   1.33718   -1.000
 4761.00    1.24671   1.32774   -1.000
 4762.00    1.23193   1.31303   -1.000
 4763.00    1.22374   1.29767   -1.000
 4764.00    1.22047   1.28685   -1.000
 4765.00    1.22435   1.28376   -1.000
 4766.00    1.23797   1.28856   -1.000
 4767.00    1.24871   1.29980   -1.000
 4768.00    1.25984   1.31432   -1.000
 4769.00    1.26693   1.32773   -1.000
 4770.00    1.26970   1.33651   -1.000
 4771.00    1.26750   1.34039   -1.000
 4772.00    1.25990   1.34252   -1.000
 4773.00    1.26831   1.34646   -1.000
 4774.00    1.28043   1.35280   -1.000
 4775.00    1.28544   1.35954   -1.000
 4776.00    1.29048   1.36341   -1.000
 4777.00    1.28907   1.36314   -1.000
 4778.00    1.27802   1.35949   -1.000
 4779.00    1.26420   1.35440   -1.000
 4780.00    1.25949   1.34934   -1.000
 4781.00    1.25554   1.34452   -1.000
 4782.00    1.25602   1.33967   -1.000
 4783.00    1.25985   1.33438   -1.000
 4784.00    1.25759   1.32914   -1.000
 4785.00    1.25605   1.32457   -1.000
 4786.00    1.25291   1.32142   -1.000
 4787.00    1.24449   1.32045   -1.000
 4788.00    1.24381   1.32227   -1.000
 4789.00    1.24439   1.32730   -1.000
 4790.00    1.25144   1.33544   -1.000
 4791.00    1.25992   1.34653   -1.000
 4792.00    1.27532   1.35965   -1.000
 4793.00    1.29058   1.37313   -1.000
 4794.00    1.30313   1.38435   -1.000
 4795.00    1.31082   1.39044   -1.000
 4796.00    1.30702   1.39001   -1.000
 4797.00    1.29054   1.38366   -1.000
 4798.00    1.28347   1.37484   -1.000
 4799.00    1.26755   1.36804   -1.000
 4800.00    1.27038   1.36641   -1.000
 4801.00    1.28435   1.36988   -1.000
 4802.00    1.29706   1.37524   -1.000
 4803.00    1.29863   1.37832   -1.000
 4804.00    1.28673   1.37713   -1.000
 4805.00    1.27340   1.37292   -1.000
 4806.00    1.27010   1.36822   -1.000
 4807.00    1.27797   1.36552   -1.000
 4808.00    1.28054   1.36565   -1.000
 4809.00    1.27681   1.36814   -1.000
 4810.00    1.28295   1.37185   -1.000
 4811.00    1.28691   1.37579   -1.000
 4812.00    1.28715   1.37967   -1.000
 4813.00    1.29398   1.38410   -1.000
 4814.00    1.29204   1.38949   -1.000
 4815.00    1.29331   1.39543   -1.000
 4816.00    1.30319   1.40102   -1.000
 4817.00    1.30716   1.40509   -1.000
 4818.00    1.31441   1.40695   -1.000
 4819.00    1.31840   1.40599   -1.000
 4820.00    1.31102   1.40111   -1.000
 4821.00    1.29945   1.39113   -1.000
 4822.00    1.28469   1.37657   -1.000
 4823.00    1.27135   1.36173   -1.000
 4824.00    1.27031   1.35248   -1.000
 4825.00    1.27559   1.35188   -1.000
 4826.00    1.29170   1.35788   -1.000
 4827.00    1.29306   1.36464   -1.000
 4828.00    1.28451   1.36789   -1.000
 4829.00    1.28662   1.36665   -1.000
 4830.00    1.28410   1.36219   -1.000
 4831.00    1.27336   1.35679   -1.000
 4832.00    1.27416   1.35244   -1.000
 4833.00    1.28253   1.35123   -1.000
 4834.00    1.29741   1.35354   -1.000
 4835.00    1.30000   1.35739   -1.000
 4836.00    1.28949   1.35982   -1.000
 4837.00    1.29259   1.35836   -1.000
 4838.00    1.28324   1.35259   -1.000
 4839.00    1.27183   1.34414   -1.000
 4840.00    1.26244   1.33588   -1.000
 4841.00    1.26554   1.33058   -1.000
 4842.00    1.26625   1.32920   -1.000
 4843.00    1.27311   1.33127   -1.000
 4844.00    1.28104   1.33536   50.411
 4845.00    1.28604   1.33939   49.751
 4846.00    1.28632   1.34104   49.857
 4847.00    1.27529   1.33892   -1.000
 4848.00    1.26492   1.33392   -1.000
 4849.00    1.26116   1.32890   -1.000
 4850.00    1.26584   1.32493   -1.000
 4851.00    1.26795   1.31993   50.593
 4852.00    1.25739   1.30996   50.937
 4853.00    1.23666   1.29209   -1.000
 4854.00    1.21406   1.26713   -1.000
 4855.00    1.19133   1.23811   54.307
 4856.00    1.17915   1.20766   54.002
 4857.00    1.17558   1.17325   53.977
 4858.00    1.14301   1.12880   56.357
 4859.00    1.05568   1.07301   61.824
 4860.00    0.94930   1.01574   -1.000
 4861.00    0.88241   0.97730   -1.000
 4862.00    0.90709   0.97370   -1.000
 4863.00    0.99969   1.00626   58.831
 4864.00    1.08251   1.06161   55.805
 4865.00    1.13725   1.12134   54.093
 4866.00    1.17441   1.17295   53.152
 4867.00    1.19995   1.21057   52.759
 4868.00    1.21271   1.23297   52.726
 4869.00    1.21073   1.24078   53.486
 4870.00    1.20107   1.23764   54.988
 4871.00    1.18260   1.23134   -1.000
 4872.00    1.18099   1.23089   -1.000
 4873.00    1.20277   1.24121   53.540
 4874.00    1.22058   1.25962   52.773
 4875.00    1.23059   1.27867   52.414
 4876.00    1.23436   1.29375   -1.000
 4877.00    1.23543   1.30549   -1.000
 4878.00    1.23886   1.31717   -1.000
 4879.00    1.25299   1.32952   -1.000
 4880.00    1.26032   1.33952   -1.000
 4881.00    1.24945   1.34409   -1.000
 4882.00    1.24416   1.34275   -1.000
 4883.00    1.24533   1.33726   -1.000
 4884.00    1.24392   1.33008   -1.000
 4885.00    1.23892   1.32238   -1.000
 4886.00    1.23803   1.31521   -1.000
 4887.00    1.24273   1.30874   -1.000
 4888.00    1.24036   1.30176   -1.000
 4889.00    1.23953   1.29369   -1.000
 4890.00    1.22053   1.28727   -1.000
 4891.00    1.21828   1.28912   -1.000
 4892.00    1.24216   1.30534   -1.000
 4893.00    1.27791   1.33487   -1.000
 4894.00    1.31524   1.36970   48.386
 4895.00    1.33439   1.39938   -1.000
 4896.00    1.34694   1.41745   -1.000
 4897.00    1.33770   1.42346   -1.000
 4898.00    1.32358   1.42008   -1.000
 4899.00    1.30448   1.41159   -1.000
 4900.00    1.29838   1.40170   -1.000
 4901.00    1.29988   1.39295   -1.000
 4902.00    1.30009   1.38628   -1.000
 4903.00    1.29077   1.38301   -1.000
 4904.00    1.29079   1.38458   -1.000
 4905.00    1.30709   1.39065   -1.000
 4906.00    1.32302   1.39738   -1.000
 4907.00    1.32322   1.39866   -1.000
 4908.00    1.30805   1.39118   -1.000
 4909.00    1.29152   1.37727   -1.000
 4910.00    1.27692   1.36345   -1.000
 4911.00    1.28000   1.35680   -1.000
 4912.00    1.29054   1.36010   -1.000
 4913.00    1.29987   1.37108   -1.000
 4914.00    1.31208   1.38328   -1.000
 4915.00    1.31875   1.38916   -1.000
 4916.00    1.32009   1.38218   -1.000
 4917.00    1.29716   1.35968   -1.000
 4918.00    1.26237   1.32536   -1.000
 4919.00    1.22124   1.28970   -1.000
 4920.00    1.20438   1.26456   -1.000
 4921.00    1.22060   1.25704   54.720
 4922.00    1.24720   1.26565   53.045
 4923.00    1.25997   1.28354   52.489
 4924.00    1.26068   1.30462   52.289
 4925.00    1.27136   1.32647   -1.000
 4926.00    1.28964   1.34939   -1.000
 4927.00    1.30884   1.37223   -1.000
 4928.00    1.32626   1.39216   -1.000
 4929.00    1.33734   1.40564   -1.000
 4930.00    1.34529   1.40965   -1.000
 4931.00    1.33814   1.40309   -1.000
 4932.00    1.31283   1.38789   -1.000
 4933.00    1.27898   1.36955   -1.000
 4934.00    1.26880   1.35451   -1.000
 4935.00    1.28185   1.34567   -1.000
 4936.00    1.28651   1.33998   51.660
 4937.00    1.27324   1.33377   -1.000
 4938.00    1.25502   1.32764   -1.000
 4939.00    1.25186   1.32754   -1.000
 4940.00    1.27112   1.33861   -1.000
 4941.00    1.30267   1.35903   49.963
 4942.00    1.32467   1.38166   49.185
 4943.00    1.33543   1.39876   -1.000
 4944.00    1.33483   1.40723   -1.000
 4945.00    1.32955   1.40925   -1.000
 4946.00    1.32141   1.40952   -1.000
 4947.00    1.32343   1.41214   -1.000
 4948.00    1.33652   1.41781   -1.000
 4949.00    1.34041   1.42414   -1.000
 4950.00    1.34561   1.42771   -1.000
 4951.00    1.34731   1.42695   -1.000
 4952.00    1.34154   1.42208   -1.000
 4953.00    1.33852   1.41318   -1.000
 4954.00    1.33077   1.39823   -1.000
 4955.00    1.31346   1.37506   -1.000
 4956.00    1.27878   1.34639   -1.000
 4957.00    1.23682   1.32173   -1.000
 4958.00    1.23576   1.31308   -1.000
 4959.00    1.27452   1.32518   -1.000
 4960.00    1.31023   1.35104   49.717
 4961.00    1.33305   1.37800   49.532
 4962.00    1.33516   1.39570   -1.000
 4963.00    1.32676   1.40127   -1.000
 4964.00    1.32308   1.39686   -1.000
 4965.00    1.31222   1.38676   -1.000
 4966.00    1.30175   1.37545   -1.000
 4967.00    1.29622   1.36651   -1.000
 4968.00    1.29619   1.36216   -1.000
 4969.00    1.29892   1.36317   -1.000
 4970.00    1.30512   1.36912   -1.000
 4971.00    1.31042   1.37859   -1.000
 4972.00    1.32435   1.38941   -1.000
 4973.00    1.33139   1.39921   -1.000
 4974.00    1.33727   1.40581   -1.000
 4975.00    1.33801   1.40782   -1.000
 4976.00    1.32501   1.40465   -1.000
 4977.00    1.32034   1.39677   -1.000
 4978.00    1.31288   1.38460   -1.000
 4979.00    1.29941   1.36798   -1.000
 4980.00    1.27534   1.34615   -1.000
 4981.00    1.25084   1.31979   -1.000
 4982.00    1.22937   1.29347   -1.000
 4983.00    1.21986   1.27529   -1.000
 4984.00    1.23382   1.27252   55.346
 4985.00    1.25547   1.28611   53.720
 4986.00    1.27815   1.30993   52.111
 4987.00    1.29834   1.33411   51.191
 4988.00    1.30639   1.35070   51.459
 4989.00    1.30002   1.35698   -1.000
 4990.00    1.28952   1.35547   -1.000
 4991.00    1.29411   1.35172   -1.000
 4992.00    1.29474   1.35028   -1.000
 4993.00    1.29509   1.35273   -1.000
 4994.00    1.30147   1.35791   -1.000
 4995.00    1.30869   1.36350   51.512
 4996.00    1.31519   1.36673   51.411
 4997.00    1.31658   1.36483   51.839
 4998.00    1.30674   1.35609   52.640
 4999.00    1.28111   1.34169   -1.000
 5000.00    1.27014   1.32594   -1.000
 5001.00    1.27993   1.31401   53.968
 5002.00    1.28566   1.30800   53.485
 5003.00    1.28186   1.30540   53.439
 5004.00    1.27629   1.30165   54.396
 5005.00    1.26147   1.29534   55.509
 5006.00    1.25005   1.29060   55.329
 5007.00    1.26635   1.29299   53.841
 5008.00    1.29304   1.30351   52.483
 5009.00    1.31160   1.31584   52.285
 5010.00    1.30592   1.32094   53.239
 5011.00    1.28101   1.31393   54.973
 5012.00    1.25483   1.29728   56.841
 5013.00    1.23762   1.27901   57.710
 5014.00    1.22668   1.26642   57.115
 5015.00    1.24413   1.26239   55.845
 5016.00    1.26359   1.26483   54.933
 5017.00    1.26949   1.27057   54.790
 5018.00    1.26785   1.27804   54.631
 5019.00    1.27054   1.28691   54.042
 5020.00    1.28014   1.29633   53.790
 5021.00    1.28658   1.30474   54.013
 5022.00    1.28720   1.31174   54.011
 5023.00    1.29114   1.31874   53.618
 5024.00    1.29839   1.32642   53.101
 5025.00    1.30417   1.33328   52.917
 5026.00    1.30134   1.33723   53.185
 5027.00    1.29502   1.33863   53.235
 5028.00    1.30162   1.34063   52.585
 5029.00    1.31652   1.34628   51.647
 5030.00    1.32791   1.35614   50.888
 5031.00    1.33381   1.36792   50.124
 5032.00    1.33951   1.37723   49.733
 5033.00    1.33943   1.37938   50.240
 5034.00    1.32215   1.37186   52.000
 5035.00    1.29904   1.35631   -1.000
 5036.00    1.27757   1.33717   -1.000
 5037.00    1.27352   1.31799   54.730
 5038.00    1.26782   1.29837   55.818
 5039.00    1.24132   1.27755   58.082
 5040.00    1.21027   1.25927   -1.000
 5041.00    1.19885   1.25218   -1.000
 5042.00    1.23099   1.26358   55.788
 5043.00    1.27561   1.29222   52.649
 5044.00    1.30920   1.32853   50.821
 5045.00    1.33690   1.36035   49.524
 5046.00    1.36588   1.37873   48.529
 5047.00    1.23824   1.38083   -1.000
 5048.00    0.53601   1.36921   -1.000
 5049.00   -0.00810   1.35089    0.000
 5050.00    0.09705   1.33452   -1.000
 5051.00    0.57890   1.32738   -1.000
 5052.00    1.20335   1.33210   -1.000
 5053.00    1.33490   1.34613   50.856
 5054.00    1.35141   1.36346   50.062
 5055.00    1.36296   1.37902   49.685
 5056.00    1.36216   1.39073   49.602
 5057.00    1.35901   1.39939   49.701
 5058.00    1.35890   1.40603   49.762
 5059.00    1.35938   1.41085   49.649
 5060.00    1.36274   1.41299   49.404
 5061.00    1.36330   1.41083   49.618
 5062.00    1.35999   1.40251   50.520
 5063.00    1.34221   1.38773   52.111
 5064.00    1.31436   1.36963   -1.000
 5065.00    1.29547   1.35368   -1.000
 5066.00    1.29802   1.34446   53.125
 5067.00    1.31272   1.34224   52.492
 5068.00    1.31419   1.34434   52.320
 5069.00    1.31840   1.34731   52.041
 5070.00    1.33027   1.34900   51.908
 5071.00    1.33169   1.34859   52.349
 5072.00    1.32031   1.34688   52.464
 5073.00    1.32638   1.34586   51.852
 5074.00    1.33258   1.34683   51.548
 5075.00    1.33110   1.34852   51.497
 5076.00    1.33316   1.34710   51.608
 5077.00    1.32873   1.33907   52.485
 5078.00    1.30277   1.32412   54.547
 5079.00    1.26400   1.30666   56.628
 5080.00    1.24746   1.29335   56.695
 5081.00    1.26204   1.28905   55.441
 5082.00    1.27806   1.29435   54.381
 5083.00    1.28901   1.30651   53.578
 5084.00    1.30793   1.32240   52.581
 5085.00    1.33365   1.33927   51.831
 5086.00    1.34611   1.35468   51.561
 5087.00    1.34418   1.36676   51.445
 5088.00    1.34386   1.37522   51.147
 5089.00    1.34859   1.38130   50.799
 5090.00    1.35255   1.38675   50.526
 5091.00    1.35790   1.39256   50.173
 5092.00    1.36881   1.39817   49.619
 5093.00    1.37080   1.40112   49.429
 5094.00    1.36882   1.39797   50.072
 5095.00    1.38819   1.38646   51.151
 5096.00    1.37411   1.36785   52.296
 5097.00    1.32060   1.34715   53.522
 5098.00    1.30281   1.33112   54.371
 5099.00    1.29820   1.32482   54.080
 5100.00    1.31089   1.32935   52.634
 5101.00    1.33477   1.34100   51.401
 5102.00    1.34536   1.35329   51.197
 5103.00    1.34925   1.36048   51.627
 5104.00    1.33805   1.35998   52.314
 5105.00    1.32665   1.35272   52.970
 5106.00    1.31225   1.34171   53.622
 5107.00    1.29868   1.33097   54.083
 5108.00    1.28836   1.32426   53.900
 5109.00    1.29311   1.32408   53.534
 5110.00    1.29779   1.33083   53.037
 5111.00    1.30752   1.34295   52.293
 5112.00    1.32436   1.35753   51.657
 5113.00    1.34283   1.37193   51.074
 5114.00    1.35363   1.38452   50.672
 5115.00    1.35603   1.39487   50.331
 5116.00    1.36626   1.40270   49.821
 5117.00    1.37182   1.40719   49.568
 5118.00    1.37634   1.40715   49.876
 5119.00    1.37058   1.40158   50.576
 5120.00    1.35624   1.39066   51.362
 5121.00    1.34403   1.37557   52.347
 5122.00    1.32043   1.35841   53.781
 5123.00    1.29800   1.34150   55.061
 5124.00    1.28811   1.32750   55.149
 5125.00    1.28688   1.31820   54.692
 5126.00    1.29794   1.31394   54.416
 5127.00    1.30274   1.31336   54.204
 5128.00    1.29994   1.31505   54.260
 5129.00    1.30028   1.31861   54.016
 5130.00    1.30529   1.32449   53.225
 5131.00    1.31936   1.33265   52.445
 5132.00    1.33435   1.34193   52.014
 5133.00    1.34218   1.35054   51.526
 5134.00    1.34424   1.35651   51.165
 5135.00    1.34887   1.35810   51.343
 5136.00    1.34475   1.35403   52.401
 5137.00    1.32542   1.34487   53.567
 5138.00    1.30466   1.33318   54.182
 5139.00    1.29349   1.32280   54.066
 5140.00    1.29819   1.31642   53.813
 5141.00    1.29920   1.31446   54.384
 5142.00    1.28869   1.31578   54.943
 5143.00    1.28771   1.31888   54.401
 5144.00    1.30501   1.32233   53.672
 5145.00    1.31656   1.32466   53.710
 5146.00    1.31205   1.32510   54.133
 5147.00    1.31291   1.32454   54.020
 5148.00    1.32109   1.32451   53.430
 5149.00    1.31532   1.32479   53.418
 5150.00    1.30421   1.32368   54.208
 5151.00    1.29161   1.32027   55.031
 5152.00    1.28516   1.31615   55.184
 5153.00    1.29605   1.31500   54.653
 5154.00    1.31375   1.31998   53.478
 5155.00    1.33204   1.33224   52.105
 5156.00    1.35968   1.34958   50.882
 5157.00    1.37371   1.36794   50.109
 5158.00    1.37811   1.38296   49.865
 5159.00    1.38564   1.39191   49.921
 5160.00    1.37753   1.39374   50.129
 5161.00    1.36793   1.38821   50.502
 5162.00    1.36551   1.37459   51.145
 5163.00    1.35592   1.35097   52.275
 5164.00    1.33423   1.31496   54.961
 5165.00    1.28133   1.26657   59.947
 5166.00    1.20437   1.21320   65.670
 5167.00    1.13826   1.16751   68.307
 5168.00    1.12788   1.14096   65.936
 5169.00    1.17317   1.13359   62.891
 5170.00    1.21126   1.13438   -1.000
 5171.00    1.18188   1.13448   67.901
 5172.00    1.13184   1.13571   70.330
 5173.00    1.14349   1.15013   65.665
 5174.00    1.21259   1.18505   58.901
 5175.00    1.28436   1.23454   54.885
 5176.00    1.33526   1.28422   53.336
 5177.00    1.36050   1.32049   52.923
 5178.00    1.36275   1.33684   53.016
 5179.00    1.35531   1.33169   53.947
 5180.00    1.33642   1.30487   56.456
 5181.00    1.28979   1.26059   61.316
 5182.00    1.20940   1.20965   67.950
 5183.00    1.13532   1.17047   -1.000
 5184.00    1.13403   1.15946   65.549
 5185.00    1.20859   1.18058   58.563
 5186.00    1.29545   1.22304   -1.000
 5187.00    1.33856   1.26802   -1.000
 5188.00    1.34093   1.30171   52.936
 5189.00    1.33807   1.31919   52.954
 5190.00    1.33590   1.32256   53.878
 5191.00    1.30510   1.31665   55.581
 5192.00    1.27573   1.30784   56.533
 5193.00    1.27053   1.30175   55.859
 5194.00    1.28604   1.30212   54.915
 5195.00    1.31076   1.30904   54.113
 5196.00    1.32654   1.32098   53.234
 5197.00    1.33264   1.33628   52.197
 5198.00    1.34701   1.35282   51.453
 5199.00    1.36635   1.36731   51.160
 5200.00    1.36890   1.37563   51.260
 5201.00    1.36437   1.37404   51.845
 5202.00    1.34760   1.36115   52.881
 5203.00    1.32833   1.33851   54.235
 5204.00    1.30438   1.31069   55.957
 5205.00    1.28113   1.28378   57.233
 5206.00    1.27582   1.26334   57.401
 5207.00    1.27516   1.25276   57.727
 5208.00    1.26782   1.25323   57.725
 5209.00    1.27871   1.26527   56.515
 5210.00    1.30497   1.28796   54.496
 5211.00    1.34238   1.31820   52.302
 5212.00    1.37547   1.34879   50.545
 5213.00    1.39047   1.37149   50.008
 5214.00    1.38465   1.38116   50.819
 5215.00    1.36180   1.37963   51.882
 5216.00    1.34291   1.37511   52.171
 5217.00    1.34966   1.37597   51.482
 5218.00    1.37430   1.38622   50.437
 5219.00    1.39215   1.40269   49.800
 5220.00    1.40192   1.41880   49.488
 5221.00    1.40757   1.42754   49.542
 5222.00    1.40460   1.42410   50.477
 5223.00    1.38714   1.40647   52.221
 5224.00    1.34850   1.37637   54.493
 5225.00    1.30232   1.34047   56.763
 5226.00    1.26907   1.31077   57.450
 5227.00    1.26754   1.29799   55.494
 5228.00    1.31189   1.30620   52.567
 5229.00    1.36066   1.32819   50.819
 5230.00    1.38303   1.35117   50.211
 5231.00    1.39060   1.36501   50.490
 5232.00    1.37636   1.36764   51.532
 5233.00    1.36066   1.36515   52.137
 5234.00    1.34519   1.36611   51.647
 5235.00    1.36079   1.37594   50.398
 5236.00    1.39490   1.39345   49.383
 5237.00    1.41112   1.41328   49.009
 5238.00    1.41121   1.42943   49.048
 5239.00    1.40540   1.43911   49.140
 5240.00    1.41243   1.44291   48.980
 5241.00    1.41543   1.44335   48.788
 5242.00    1.41101   1.44303   48.830
 5243.00    1.41681   1.44292   48.726
 5244.00    1.41737   1.44167   48.961
 5245.00    1.40642   1.43636   50.163
 5246.00    1.37917   1.42578   51.647
 5247.00    1.35347   1.41158   52.509
 5248.00    1.35423   1.39787   52.579
 5249.00    1.35412   1.38810   52.749
 5250.00    1.34223   1.38355   52.925
 5251.00    1.34717   1.38363   52.497
 5252.00    1.36381   1.38676   51.808
 5253.00    1.36917   1.39153   51.462
 5254.00    1.36364   1.39757   51.382
 5255.00    1.37188   1.40624   50.739
 5256.00    1.39000   1.41790   49.455
 5257.00    1.41560   1.43053   48.381
 5258.00    1.43282   1.43860   48.260
 5259.00    1.42629   1.43597   49.011
 5260.00    1.40037   1.41910   50.618
 5261.00    1.36603   1.38889   52.885
 5262.00    1.32544   1.35075   55.219
 5263.00    1.29280   1.31266   56.865
 5264.00    1.27779   1.28220   57.696
 5265.00    1.27255   1.26366   57.451
 5266.00    1.28098   1.25589   56.387
 5267.00    1.30039   1.25282   56.042
 5268.00    1.29669   1.24973   57.687
 5269.00    1.25982   1.24665   59.074
 5270.00    1.25076   1.24988   57.128
 5271.00    1.29896   1.26460   53.887
 5272.00    1.34838   1.28851   -1.000
 5273.00    1.36048   1.31513   51.877
 5274.00    1.35995   1.33859   51.884
 5275.00    1.36182   1.35887   51.487
 5276.00    1.38112   1.37904   50.215
 5277.00    1.41007   1.39952   48.697
 5278.00    1.43452   1.41667   48.189
 5279.00    1.44243   1.42423   48.800
 5280.00    1.42822   1.41982   50.051
 5281.00    1.40302   1.40661   51.244
 5282.00    1.37759   1.39250   51.955
 5283.00    1.36715   1.38567   51.778
 5284.00    1.38298   1.39148   50.499
 5285.00    1.41599   1.40918   48.915
 5286.00    1.41761   1.43309   47.726
 5287.00    1.39575   1.45570   47.609
 5288.00    1.44494   1.47184   47.813
 5289.00    1.45356   1.48089   47.708
 5290.00    1.45480   1.48454   47.468
 5291.00    1.45130   1.48457   47.492
 5292.00    1.44657   1.48176   47.843
 5293.00    1.44580   1.47513   48.359
 5294.00    1.44409   1.46279   49.211
 5295.00    1.42339   1.44401   50.752
 5296.00    1.37813   1.42072   52.562
 5297.00    1.34748   1.39888   53.410
 5298.00    1.34510   1.38551   52.672
 5299.00    1.36903   1.38364   51.395
 5300.00    1.39158   1.39188   50.650
 5301.00    1.39951   1.40571   50.267
 5302.00    1.40279   1.42149   49.402
 5303.00    1.42215   1.43765   48.161
 5304.00    1.44813   1.45191   47.530
 5305.00    1.45291   1.46225   47.623
 5306.00    1.44714   1.46794   48.103
 5307.00    1.44408   1.47051   48.294
 5308.00    1.44724   1.47352   47.881
 5309.00    1.45806   1.47854   47.429
 5310.00    1.46987   1.48445   47.243
 5311.00    1.46905   1.48823   47.375
 5312.00    1.45638   1.48717   47.634
 5313.00    1.44991   1.48053   47.879
 5314.00    1.44593   1.46973   48.273
 5315.00    1.44005   1.45755   48.744
 5316.00    1.42602   1.44819   49.047
 5317.00    1.42129   1.44476   48.923
 5318.00    1.42858   1.44757   48.588
 5319.00    1.44123   1.45300   48.508
 5320.00    1.44223   1.45522   48.757
 5321.00    1.43495   1.45059   49.178
 5322.00    1.42560   1.43823   49.856
 5323.00    1.40844   1.42052   50.623
 5324.00    1.40355   1.39990   50.919
 5325.00    1.39808   1.37715   51.297
 5326.00    1.37763   1.35296   53.353
 5327.00    1.32891   1.32946   56.398
 5328.00    1.29363   1.31492   56.844
 5329.00    1.31486   1.31632   54.059
 5330.00    1.36403   1.33540   51.236
 5331.00    1.40694   1.36520   50.007
 5332.00    1.42687   1.39490   49.549
 5333.00    1.43292   1.41821   49.042
 5334.00    1.43954   1.43346   48.575
 5335.00    1.44316   1.44148   48.545
 5336.00    1.43815   1.44300   48.887
 5337.00    1.42816   1.43779   49.268
 5338.00    1.42086   1.42683   50.035
 5339.00    1.40713   1.41290   51.228
 5340.00    1.38562   1.40162   51.695
 5341.00    1.38974   1.39779   50.893
 5342.00    1.41428   1.40319   49.609
 5343.00    1.43487   1.41372   49.019
 5344.00    1.44640   1.42268   49.163
 5345.00    1.44203   1.42591   49.499
 5346.00    1.43637   1.42324   49.793
 5347.00    1.42813   1.41856   50.096
 5348.00    1.41803   1.41593   50.460
 5349.00    1.41810   1.41822   50.280
 5350.00    1.42707   1.42613   49.330
 5351.00    1.44465   1.43832   48.328
 5352.00    1.45609   1.45222   47.895
 5353.00    1.45876   1.46534   47.696
 5354.00    1.46444   1.47716   47.232
 5355.00    1.47930   1.48739   46.692
 5356.00    1.48645   1.49584   46.477
 5357.00    1.48066   1.50148   46.550
 5358.00    1.48421   1.50307   46.652
 5359.00    1.48692   1.50009   46.944
 5360.00    1.47376   1.49222   47.591
 5361.00    1.45565   1.47998   48.373
 5362.00    1.43922   1.46516   48.962
 5363.00    1.42858   1.45018   49.267
 5364.00    1.42221   1.43778   49.554
 5365.00    1.41976   1.42899   49.714
 5366.00    1.42739   1.42285   49.580
 5367.00    1.43032   1.41614   49.745
 5368.00    1.42212   1.40571   50.506
 5369.00    1.40075   1.39105   51.897
 5370.00    1.36759   1.37595   53.054
 5371.00    1.36688   1.36830   52.462
 5372.00    1.38795   1.37391   50.266
 5373.00    1.42277   1.39399   48.266
 5374.00    1.46245   1.42175   47.404
 5375.00    1.48151   1.44830   47.249
 5376.00    1.49129   1.46691   47.379
 5377.00    1.49086   1.47549   47.411
 5378.00    1.48129   1.47606   47.566
 5379.00    1.47142   1.47143   47.914
 5380.00    1.45826   1.46425   48.400
 5381.00    1.44779   1.45666   48.802
 5382.00    1.44322   1.45080   48.941
 5383.00    1.44566   1.44897   48.831
 5384.00    1.45387   1.45217   48.496
 5385.00    1.46655   1.45940   48.089
 5386.00    1.47194   1.46696   48.119
 5387.00    1.47045   1.47094   48.432
 5388.00    1.45886   1.46902   49.002
 5389.00    1.44573   1.46137   49.708
 5390.00    1.44134   1.45027   50.147
 5391.00    1.43861   1.43853   50.288
 5392.00    1.43427   1.42768   50.342
 5393.00    1.42812   1.41821   50.574
 5394.00    1.41926   1.40911   51.055
 5395.00    1.40925   1.39905   51.861
 5396.00    1.39380   1.38981   52.620
 5397.00    1.38353   1.38428   52.077
 5398.00    1.40675   1.38641   50.451
 5399.00    1.43630   1.39613   49.370
 5400.00    1.44354   1.40823   49.267
 5401.00    1.44039   1.41590   49.472
 5402.00    1.43917   1.41365   50.227
 5403.00    1.41841   1.40075   51.867
 5404.00    1.38490   1.38211   53.278
 5405.00    1.36512   1.36601   53.585
 5406.00    1.37258   1.35804   52.744
 5407.00    1.39673   1.35981   51.805
 5408.00    1.41127   1.36720   51.685
 5409.00    1.40222   1.37597   51.973
 5410.00    1.40345   1.38585   51.311
 5411.00    1.42154   1.39733   49.934
 5412.00    1.44458   1.41099   48.992
 5413.00    1.45752   1.42477   48.691
 5414.00    1.45834   1.43619   48.751
 5415.00    1.45857   1.44574   48.647
 5416.00    1.46137   1.45392   48.273
 5417.00    1.46778   1.46100   48.131
 5418.00    1.46365   1.46613   48.452
 5419.00    1.45471   1.46787   48.891
 5420.00    1.45955   1.46619   49.014
 5421.00    1.45742   1.46180   48.784
 5422.00    1.45327   1.45536   48.868
 5423.00    1.44877   1.44925   49.540
 5424.00    1.44005   1.44562   49.659
 5425.00    1.44536   1.44563   48.965
 5426.00    1.45904   1.44772   48.429
 5427.00    1.45883   1.44595   49.022
 5428.00    1.43339   1.43807   50.529
 5429.00    1.40574   1.42565   51.677
 5430.00    1.40805   1.41388   51.335
 5431.00    1.42346   1.40724   50.637
 5432.00    1.42967   1.40415   50.916
 5433.00    1.41976   1.40284   51.648
 5434.00    1.40342   1.40332   51.981
 5435.00    1.40169   1.40831   51.466
 5436.00    1.41600   1.42136   50.260
 5437.00    1.44232   1.44098   48.957
 5438.00    1.47285   1.46320   48.065
 5439.00    1.49321   1.48231   47.501
 5440.00    1.49863   1.49526   47.223
 5441.00    1.49811   1.50094   47.188
 5442.00    1.49643   1.49805   47.348
 5443.00    1.48777   1.48631   48.124
 5444.00    1.46209   1.46582   49.684
 5445.00    1.42218   1.44121   51.664
 5446.00    1.39604   1.42031   52.669
 5447.00    1.39683   1.41050   51.715
 5448.00    1.42183   1.41552   50.041
 5449.00    1.46138   1.43092   48.959
 5450.00    1.48249   1.44876   48.704
 5451.00    1.48639   1.46055   48.869
 5452.00    1.47772   1.46123   49.543
 5453.00    1.45669   1.45110   50.837
 5454.00    1.42819   1.43576   52.207
 5455.00    1.40451   1.42298   52.703
 5456.00    1.41409   1.42074   51.463
 5457.00    1.44573   1.43010   49.737
 5458.00    1.47906   1.44576   48.755
 5459.00    1.48455   1.45936   48.822
 5460.00    1.47722   1.46424   49.562
 5461.00    1.46695   1.45998   50.436
 5462.00    1.45404   1.45091   50.967
 5463.00    1.44800   1.44370   50.924
 5464.00    1.45065   1.44252   50.241
 5465.00    1.45881   1.44801   49.775
 5466.00    1.47261   1.45725   49.461
 5467.00    1.48424   1.46661   48.994
 5468.00    1.48338   1.47357   49.030
 5469.00    1.48197   1.47654   49.555
 5470.00    1.47282   1.47533   49.963
 5471.00    1.46052   1.47040   50.140
 5472.00    1.46120   1.46183   50.488
 5473.00    1.45767   1.44982   51.088
 5474.00    1.44296   1.43508   51.947
 5475.00    1.42136   1.41940   52.992
 5476.00    1.40398   1.40750   53.371
 5477.00    1.41006   1.40345   52.414
 5478.00    1.43440   1.40843   50.933
 5479.00    1.45550   1.41958   50.448
 5480.00    1.46268   1.43084   51.007
 5481.00    1.45331   1.43999   51.415
 5482.00    1.44268   1.44733   51.000
 5483.00    1.45196   1.45480   50.004
 5484.00    1.47018   1.46307   49.163
 5485.00    1.47810   1.46935   49.069
 5486.00    1.46848   1.47174   49.684
 5487.00    1.45486   1.47018   50.276
 5488.00    1.45175   1.46734   50.444
 5489.00    1.45235   1.46631   50.316
 5490.00    1.45630   1.46777   49.932
 5491.00    1.47086   1.47101   49.627
 5492.00    1.47659   1.47404   49.552
 5493.00    1.47365   1.47548   49.654
 5494.00    1.47533   1.47482   49.655
 5495.00    1.47422   1.47182   49.766
 5496.00    1.46652   1.46737   50.156
 5497.00    1.45649   1.46285   50.302
 5498.00    1.45519   1.45904   49.887
 5499.00    1.46747   1.45602   49.613
 5500.00    1.46823   1.45249   50.216
 5501.00    1.45532   1.44789   50.818
 5502.00    1.45557   1.44402   50.682
 5503.00    1.46201   1.44100   50.332
 5504.00    1.46247   1.43850   50.508
 5505.00    1.45512   1.43602   51.194
 5506.00    1.44319   1.43329   51.363
 5507.00    1.44132   1.43302   50.703
 5508.00    1.45820   1.43573   50.059
 5509.00    1.47569   1.43964   50.068
 5510.00    1.46907   1.44156   50.648
 5511.00    1.45407   1.43889   51.643
 5512.00    1.44277   1.43317   52.352
 5513.00    1.43256   1.42829   52.432
 5514.00    1.43714   1.42860   51.633
 5515.00    1.46046   1.43547   50.752
 5516.00    1.48465   1.44762   49.933
 5517.00    1.49989   1.46189   49.015
 5518.00    1.50981   1.47512   48.436
 5519.00    1.51668   1.48508   48.430
 5520.00    1.51740   1.49105   48.521
 5521.00    1.51077   1.49327   48.643
 5522.00    1.50558   1.49215   48.790
 5523.00    1.50272   1.48757   48.934
 5524.00    1.49543   1.47824   49.366
 5525.00    1.48016   1.46418   50.217
 5526.00    1.45727   1.44693   51.460
 5527.00    1.43654   1.43158   52.463
 5528.00    1.42653   1.42359   52.206
 5529.00    1.43861   1.42626   50.893
 5530.00    1.46377   1.43785   49.758
 5531.00    1.47644   1.45171   49.408
 5532.00    1.47700   1.46218   49.679
 5533.00    1.47855   1.46640   50.098
 5534.00    1.47395   1.46615   50.187
 5535.00    1.46842   1.46528   49.907
 5536.00    1.47504   1.46668   49.574
 5537.00    1.48577   1.47081   49.444
 5538.00    1.49461   1.47631   49.131
 5539.00    1.50327   1.48194   48.660
 5540.00    1.50864   1.48635   48.416
 5541.00    1.50894   1.48804   48.626
 5542.00    1.49923   1.48689   49.161
 5543.00    1.48955   1.48396   49.534
 5544.00    1.48714   1.48135   49.546
 5545.00    1.49089   1.48128   49.398
 5546.00    1.49619   1.48420   49.225
 5547.00    1.50675   1.48965   48.839
 5548.00    1.51567   1.49638   48.367
 5549.00    1.52015   1.50218   48.065
 5550.00    1.51732   1.50552   48.096
 5551.00    1.51532   1.50573   48.434
 5552.00    1.51265   1.50285   48.912
 5553.00    1.50592   1.49858   49.378
 5554.00    1.49815   1.49483   49.487
 5555.00    1.50059   1.49303   49.364
 5556.00    1.50546   1.49330   49.227
 5557.00    1.50768   1.49480   49.157
 5558.00    1.50619   1.49644   49.099
 5559.00    1.50665   1.49673   49.098
 5560.00    1.50835   1.49470   49.265
 5561.00    1.50098   1.49009   49.611
 5562.00    1.49123   1.48366   50.085
 5563.00    1.48273   1.47697   50.353
 5564.00    1.47909   1.47116   50.467
 5565.00    1.48365   1.46676   50.552
 5566.00    1.48408   1.46359   50.548
 5567.00    1.47794   1.46111   50.429
 5568.00    1.47581   1.45884   50.408
 5569.00    1.47820   1.45661   50.514
 5570.00    1.47761   1.45423   50.474
 5571.00    1.47863   1.45203   50.532
 5572.00    1.47783   1.45059   50.571
 5573.00    1.46402   1.45099   50.216
 5574.00    1.43109   1.45413   49.693
 5575.00    1.38630   1.45908   -1.000
 5576.00    1.39546   1.46536   48.404
 5577.00    1.43355   1.47230   48.126
 5578.00    1.45192   1.47864   49.360
 5579.00    1.49431   1.48360   50.754
 5580.00    1.48062   1.48643   50.826
 5581.00    1.49409   1.48693   50.167
 5582.00    1.49650   1.48509   49.769
 5583.00    1.50048   1.48001   49.826
 5584.00    1.49746   1.47041   50.413
 5585.00    1.47611   1.45473   51.657
 5586.00    1.44245   1.43385   52.927
 5587.00    1.41398   1.41335   53.843
 5588.00    1.40520   1.39868   53.842
 5589.00    1.41682   1.39430   53.016
 5590.00    1.44222   1.40009   52.108
 5591.00    1.45657   1.41183   51.585
 5592.00    1.46485   1.42424   51.593
 5593.00    1.46311   1.43409   51.655
 5594.00    1.46205   1.44125   51.154
 5595.00    1.47196   1.44602   50.488
 5596.00    1.48536   1.44880   50.393
 5597.00    1.48317   1.44804   51.077
 5598.00    1.47046   1.44342   51.886
 5599.00    1.45881   1.43699   52.211
 5600.00    1.45060   1.43024   52.242
 5601.00    1.44339   1.42610   52.556
 5602.00    1.44042   1.42843   52.428
 5603.00    1.45346   1.43855   51.283
 5604.00    1.47718   1.45601   49.915
 5605.00    1.50453   1.47751   48.978
 5606.00    1.52402   1.49769   48.594
 5607.00    1.53059   1.51324   48.584
 5608.00    1.52618   1.52285   48.678
 5609.00    1.52162   1.52727   48.729
 5610.00    1.53079   1.52757   48.633
 5611.00    1.53559   1.52330   48.600
 5612.00    1.52566   1.51279   49.121
 5613.00    1.50513   1.49537   50.432
 5614.00    1.47600   1.47428   52.058
 5615.00    1.45336   1.45509   52.662
 5616.00    1.45203   1.44546   51.819
 5617.00    1.47652   1.44720   50.695
 5618.00    1.49809   1.45709   50.239
 5619.00    1.50166   1.47030   50.127
 5620.00    1.50863   1.48102   49.878
 5621.00    1.51907   1.48649   49.783
 5622.00    1.51141   1.48624   50.294
 5623.00    1.49119   1.48136   51.337
 5624.00    1.47637   1.47566   51.883
 5625.00    1.47817   1.47320   51.341
 5626.00    1.49059   1.47619   50.468
 5627.00    1.50341   1.48471   49.802
 5628.00    1.51157   1.49573   49.306
 5629.00    1.52459   1.50606   49.035
 5630.00    1.53359   1.51337   48.894
 5631.00    1.53549   1.51618   48.773
 5632.00    1.53032   1.51477   48.958
 5633.00    1.53051   1.51037   49.359
 5634.00    1.52361   1.50396   49.694
 5635.00    1.51660   1.49709   50.021
 5636.00    1.51369   1.49105   50.386
 5637.00    1.50335   1.48634   50.611
 5638.00    1.50170   1.48348   50.567
 5639.00    1.50675   1.48216   50.587
 5640.00    1.50161   1.48152   50.731
 5641.00    1.49747   1.48170   50.666
 5642.00    1.50024   1.48301   50.433
 5643.00    1.50430   1.48520   50.250
 5644.00    1.51349   1.48829   50.091
 5645.00    1.51431   1.49177   49.785
 5646.00    1.51791   1.49460   49.670
 5647.00    1.52446   1.49628   49.558
 5648.00    1.52858   1.49691   49.556
 5649.00    1.52863   1.49676   49.652
 5650.00    1.52685   1.49675   49.502
 5651.00    1.52608   1.49675   49.164
 5652.00    1.52300   1.49574   49.168
 5653.00    1.51949   1.49262   49.453
 5654.00    1.51497   1.48595   49.894
 5655.00    1.50150   1.47561   50.541
 5656.00    1.48552   1.46247   51.757
 5657.00    1.45694   1.44868   53.156
 5658.00    1.43231   1.43843   53.387
 5659.00    1.44273   1.43461   52.346
 5660.00    1.46885   1.43688   51.498
 5661.00    1.48508   1.44378   51.480
 5662.00    1.48595   1.45259   51.355
 5663.00    1.48933   1.46166   50.667
 5664.00    1.50319   1.47073   50.115
 5665.00    1.51304   1.47810   50.120
 5666.00    1.51250   1.48274   50.437
 5667.00    1.50345   1.48500   50.657
 5668.00    1.49282   1.48580   50.632
 5669.00    1.49167   1.48722   50.419
 5670.00    1.49797   1.49053   50.037
 5671.00    1.51551   1.49553   49.569
 5672.00    1.52402   1.50108   49.073
 5673.00    1.52890   1.50610   48.768
 5674.00    1.53162   1.50962   48.876
 5675.00    1.53187   1.51163   48.939
 5676.00    1.52619   1.51255   48.781
 5677.00    1.53387   1.51211   48.826
 5678.00    1.53464   1.50980   49.088
 5679.00    1.52100   1.50490   49.310
 5680.00    1.51446   1.49712   49.710
 5681.00    1.51510   1.48728   50.322
 5682.00    1.50868   1.47760   50.753
 5683.00    1.50162   1.47025   50.681
 5684.00    1.49933   1.46660   50.377
 5685.00    1.49398   1.46591   50.321
 5686.00    1.49357   1.46598   50.724
 5687.00    1.49010   1.46622   51.206
 5688.00    1.48710   1.46723   51.073
 5689.00    1.49623   1.47065   50.308
 5690.00    1.51659   1.47754   49.506
 5691.00    1.52952   1.48656   49.136
 5692.00    1.53434   1.49573   48.909
 5693.00    1.53325   1.50304   48.891
 5694.00    1.53285   1.50761   48.955
 5695.00    1.53794   1.50915   49.025
 5696.00    1.53360   1.50796   49.294
 5697.00    1.52355   1.50417   49.844
 5698.00    1.51165   1.49797   50.381
 5699.00    1.49582   1.49077   50.845
 5700.00    1.48596   1.48379   51.295
 5701.00    1.48420   1.47870   51.284
 5702.00    1.48404   1.47605   50.793
 5703.00    1.48708   1.47525   50.394
 5704.00    1.49404   1.47433   50.470
 5705.00    1.49235   1.47080   50.980
 5706.00    1.47845   1.46384   51.816
 5707.00    1.46197   1.45365   52.749
 5708.00    1.44781   1.44224   53.375
 5709.00    1.44129   1.43338   53.486
 5710.00    1.43930   1.43031   53.176
 5711.00    1.44673   1.43447   52.399
 5712.00    1.47257   1.44580   51.194
 5713.00    1.50058   1.46140   50.079
 5714.00    1.51693   1.47749   49.564
 5715.00    1.52550   1.49095   49.460
 5716.00    1.53319   1.50102   49.336
 5717.00    1.52897   1.50842   49.146
 5718.00    1.52972   1.51435   48.869
 5719.00    1.53783   1.52014   48.577
 5720.00    1.54133   1.52588   48.398
 5721.00    1.53579   1.53100   48.305
 5722.00    1.54381   1.53472   48.239
 5723.00    1.54888   1.53627   48.243
 5724.00    1.54349   1.53532   48.477
 5725.00    1.53447   1.53177   48.951
 5726.00    1.52966   1.52677   49.432
 5727.00    1.52519   1.52220   49.581
 5728.00    1.52429   1.51915   49.241
 5729.00    1.52503   1.51822   49.100
 5730.00    1.52375   1.51852   49.317
 5731.00    1.53025   1.51955   49.423
 5732.00    1.54023   1.52160   49.088
 5733.00    1.55156   1.52467   48.644
 5734.00    1.55328   1.52858   48.479
 5735.00    1.54815   1.53206   48.559
 5736.00    1.54073   1.53428   48.645
 5737.00    1.54160   1.53506   48.764
 5738.00    1.54527   1.53482   48.812
 5739.00    1.53931   1.53422   48.916
 5740.00    1.53655   1.53343   48.997
 5741.00    1.53232   1.53246   49.033
 5742.00    1.53064   1.53185   48.918
 5743.00    1.53434   1.53180   48.770
 5744.00    1.53596   1.53231   48.411
 5745.00    1.54002   1.53266   48.348
 5746.00    1.53789   1.53221   48.740
 5747.00    1.53192   1.53117   49.138
 5748.00    1.53232   1.52981   49.125
 5749.00    1.53718   1.52817   48.841
 5750.00    1.54152   1.52496   48.898
 5751.00    1.53688   1.51950   49.408
 5752.00    1.52183   1.51297   49.989
 5753.00    1.50963   1.50761   50.298
 5754.00    1.51188   1.50680   50.015
 5755.00    1.52331   1.51139   49.217
 5756.00    1.53972   1.51971   48.398
 5757.00    1.55288   1.52828   48.113
 5758.00    1.55272   1.53344   48.464
 5759.00    1.54379   1.53354   49.072
 5760.00    1.53500   1.52909   49.732
 5761.00    1.52609   1.52242   50.264
 5762.00    1.51715   1.51753   50.191
 5763.00    1.52300   1.51731   49.453
 5764.00    1.53481   1.52232   48.642
 5765.00    1.54715   1.53081   48.233
 5766.00    1.56048   1.53922   48.156
 5767.00    1.56172   1.54523   48.100
 5768.00    1.55215   1.54785   48.078
 5769.00    1.55031   1.54739   48.216
 5770.00    1.55376   1.54490   48.418
 5771.00    1.54875   1.54109   48.709
 5772.00    1.53544   1.53666   48.950
 5773.00    1.52376   1.53271   49.032
 5774.00    1.52675   1.52992   49.032
 5775.00    1.52999   1.52845   48.863
 5776.00    1.53025   1.52769   48.675
 5777.00    1.51730   1.52554   48.720
 5778.00    1.49425   1.52013   49.084
 5779.00    1.47146   1.51149   49.992
 5780.00    1.45497   1.50099   50.991
 5781.00    1.45698   1.49147   51.339
 5782.00    1.46994   1.48525   51.146
 5783.00    1.48658   1.48319   50.950
 5784.00    1.50369   1.48486   50.768
 5785.00    1.50686   1.48911   50.446
 5786.00    1.51446   1.49560   49.810
 5787.00    1.53129   1.50291   49.240
 5788.00    1.53571   1.50912   49.040
 5789.00    1.53449   1.51343   49.189
 5790.00    1.53298   1.51577   49.319
 5791.00    1.52863   1.51787   49.099
 5792.00    1.53288   1.52141   48.690
 5793.00    1.53972   1.52648   48.381
 5794.00    1.53872   1.53219   48.181
 5795.00    1.53113   1.53686   48.284
 5796.00    1.52552   1.53918   48.608
 5797.00    1.52283   1.53961   48.727
 5798.00    1.52875   1.54023   48.308
 5799.00    1.54792   1.54209   47.645
 5800.00    1.56466   1.54498   47.180
 5801.00    1.56942   1.54780   47.295
 5802.00    1.57008   1.54880   47.723
 5803.00    1.56461   1.54723   48.093
 5804.00    1.54980   1.54391   48.427
 5805.00    1.54018   1.54067   48.511
 5806.00    1.54192   1.53899   48.348
 5807.00    1.54309   1.53935   48.176
 5808.00    1.54699   1.54121   48.086
 5809.00    1.55182   1.54383   48.080
 5810.00    1.55659   1.54637   47.980
 5811.00    1.56197   1.54779   47.801
 5812.00    1.56537   1.54748   47.749
 5813.00    1.57326   1.54548   47.971
 5814.00    1.56796   1.54224   48.334
 5815.00    1.56214   1.53908   48.371
 5816.00    1.56382   1.53794   48.054
 5817.00    1.56796   1.53980   47.744
 5818.00    1.57528   1.54377   47.499
 5819.00    1.57623   1.54832   47.293
 5820.00    1.57861   1.55209   47.224
 5821.00    1.58242   1.55444   47.353
 5822.00    1.57851   1.55565   47.438
 5823.00    1.57855   1.55622   47.334
 5824.00    1.58108   1.55650   47.263
 5825.00    1.58162   1.55692   47.187
 5826.00    1.58186   1.55761   47.167
 5827.00    1.58159   1.55857   47.213
 5828.00    1.58771   1.55944   47.249
 5829.00    1.58475   1.55993   47.174
 5830.00    1.57996   1.55988   47.172
 5831.00    1.58370   1.55910   47.154
 5832.00    1.58404   1.55772   47.344
 5833.00    1.58236   1.55602   47.595
 5834.00    1.58207   1.55461   47.564
 5835.00    1.57910   1.55417   47.411
 5836.00    1.58077   1.55493   47.413
 5837.00    1.58886   1.55636   47.573
 5838.00    1.58179   1.55789   47.582
 5839.00    1.57791   1.55921   47.336
 5840.00    1.57845   1.56024   47.007
 5841.00    1.57588   1.56078   46.864
 5842.00    1.58228   1.56047   46.948
 5843.00    1.58278   1.55913   47.125
 5844.00    1.57424   1.55661   47.356
 5845.00    1.57389   1.55306   47.658
 5846.00    1.57289   1.54924   47.885
 5847.00    1.56963   1.54599   48.020
 5848.00    1.57056   1.54346   47.986
 5849.00    1.56995   1.54073   48.150
 5850.00    1.56587   1.53684   48.451
 5851.00    1.55915   1.53098   48.818
 5852.00    1.55022   1.52349   49.230
 5853.00    1.54180   1.51508   49.385
 5854.00    1.53872   1.50627   49.449
 5855.00    1.53872   1.49748   49.661
 5856.00    1.53446   1.48843   -1.000
 5857.00    1.52634   1.48146   50.364
 5858.00    1.52655   1.47969   -1.000
 5859.00    1.53863   1.48332   -1.000
 5860.00    1.55430   1.49145   -1.000
 5861.00    1.56354   1.50139   -1.000
 5862.00    1.56097   1.51025   -1.000
 5863.00    1.56103   1.51700   48.671
 5864.00    1.56200   1.52054   48.835
 5865.00    1.55086   1.52126   49.032
 5866.00    1.54625   1.52099   49.176
 5867.00    1.55435   1.52136   48.948
 5868.00    1.56713   1.52411   48.466
 5869.00    1.57734   1.52911   -1.000
 5870.00    1.58183   1.53455   -1.000
 5871.00    1.58391   1.53846   -1.000
 5872.00    1.57979   1.53971   48.171
 5873.00    1.58076   1.53849   48.136
 5874.00    1.57735   1.53582   48.134
 5875.00    1.57752   1.53260   48.321
 5876.00    1.57360   1.52934   48.484
 5877.00    1.56871   1.52596   48.651
 5878.00    1.56610   1.52216   49.042
 5879.00    1.56033   1.51781   49.235
 5880.00    1.54875   1.51294   49.160
 5881.00    1.54431   1.50741   49.060
 5882.00    1.54711   1.50101   -1.000
 5883.00    1.54548   1.49325   -1.000
 5884.00    1.53653   1.48261   -1.000
 5885.00    1.52742   1.46652   -1.000
 5886.00    1.48617   1.44067   -1.000
 5887.00    1.38221   1.40302   53.258
 5888.00    1.23396   1.35758   -1.000
 5889.00    1.13510   1.31394   -1.000
 5890.00    1.15958   1.28634   -1.000
 5891.00    1.28060   1.27744   57.338
 5892.00    1.38306   1.28156   -1.000
 5893.00    1.37031   1.28931   -1.000
 5894.00    1.27856   1.29287   56.182
 5895.00    1.20970   1.29364   -1.000
 5896.00    1.24455   1.29861   56.311
 5897.00    1.36350   1.31547   54.429
 5898.00    1.45905   1.34317   -1.000
 5899.00    1.49959   1.37678   -1.000
 5900.00    1.51941   1.41140   -1.000
 5901.00    1.53761   1.44143   -1.000
 5902.00    1.55173   1.46436   -1.000
 5903.00    1.55734   1.48062   -1.000
 5904.00    1.55873   1.49116   -1.000
 5905.00    1.55434   1.49791   -1.000
 5906.00    1.55625   1.50261   -1.000
 5907.00    1.56173   1.50637   -1.000
 5908.00    1.56530   1.50954   -1.000
 5909.00    1.56201   1.51178   -1.000
 5910.00    1.55455   1.51235   49.522
 5911.00    1.55372   1.51076   49.623
 5912.00    1.54710   1.50651   50.018
 5913.00    1.53210   1.50066   50.673
 5914.00    1.52633   1.49535   50.833
 5915.00    1.52372   1.49231   50.620
 5916.00    1.51804   1.49271   50.349
 5917.00    1.51922   1.49633   50.172
 5918.00    1.53013   1.50183   49.988
 5919.00    1.53993   1.50708   49.856
 5920.00    1.54514   1.51106   49.734
 5921.00    1.54518   1.51341   49.787
 5922.00    1.53734   1.51476   49.742
 5923.00    1.54149   1.51600   49.531
 5924.00    1.55230   1.51759   49.409
 5925.00    1.55437   1.51915   49.344
 5926.00    1.55676   1.51953   49.360
 5927.00    1.55381   1.51775   49.564
 5928.00    1.55341   1.51415   49.963
 5929.00    1.55007   1.51034   50.192
 5930.00    1.54616   1.50797   49.933
 5931.00    1.54884   1.50825   49.497
 5932.00    1.54937   1.51006   49.520
 5933.00    1.55210   1.51215   49.938
 5934.00    1.55247   1.51460   50.174
 5935.00    1.54762   1.51723   50.078
 5936.00    1.55044   1.51990   49.682
 5937.00    1.55848   1.52212   49.341
 5938.00    1.55198   1.52280   49.317
 5939.00    1.54249   1.52156   49.654
 5940.00    1.53520   1.51888   50.112
 5941.00    1.53330   1.51642   50.241
 5942.00    1.53350   1.51518   50.082
 5943.00    1.54178   1.51550   49.764
 5944.00    1.55150   1.51662   49.512
 5945.00    1.54882   1.51730   49.451
 5946.00    1.54946   1.51656   49.738
 5947.00    1.54489   1.51445   50.244
 5948.00    1.53914   1.51210   50.625
 5949.00    1.53902   1.51037   50.553
 5950.00    1.54372   1.50972   50.289
 5951.00    1.54089   1.50923   50.233
 5952.00    1.53638   1.50844   50.331
 5953.00    1.53719   1.50807   50.245
 5954.00    1.53793   1.50770   50.189
 5955.00    1.53507   1.50705   50.284
 5956.00    1.53381   1.50723   50.462
 5957.00    1.53443   1.50871   50.416
 5958.00    1.54265   1.51202   50.049
 5959.00    1.55496   1.51713   49.470
 5960.00    1.57199   1.52269   -1.000
 5961.00    1.57704   1.52742   -1.000
 5962.00    1.57480   1.53031   -1.000
 5963.00    1.56863   1.53095   49.210
 5964.00    1.56223   1.52984   49.458
 5965.00    1.55341   1.52808   49.615
 5966.00    1.55141   1.52682   49.690
 5967.00    1.55026   1.52689   49.442
 5968.00    1.55107   1.52826   49.136
 5969.00    1.56078   1.53074   49.089
 5970.00    1.56692   1.53345   49.047
 5971.00    1.56634   1.53510   48.947
 5972.00    1.56450   1.53487   49.021
 5973.00    1.56436   1.53215   49.368
 5974.00    1.56089   1.52710   49.764
 5975.00    1.54660   1.52094   50.131
 5976.00    1.53137   1.51553   50.437
 5977.00    1.52888   1.51288   50.480
 5978.00    1.54063   1.51334   50.129
 5979.00    1.55212   1.51599   49.775
 5980.00    1.55422   1.51859   49.729
 5981.00    1.55349   1.51896   49.985
 5982.00    1.54955   1.51623   50.433
 5983.00    1.53845   1.51165   50.803
 5984.00    1.53033   1.50779   50.871
 5985.00    1.53417   1.50658   50.514
 5986.00    1.54147   1.50857   50.038
 5987.00    1.54540   1.51265   49.817
 5988.00    1.54441   1.51743   49.631
 5989.00    1.54644   1.52153   49.497
 5990.00    1.54859   1.52477   49.626
 5991.00    1.54823   1.52757   49.604
 5992.00    1.55191   1.53083   49.256
 5993.00    1.55890   1.53402   48.934
 5994.00    1.56726   1.53565   49.006
 5995.00    1.56919   1.53543   49.395
 5996.00    1.56441   1.53336   49.684
 5997.00    1.55441   1.53058   49.847
 5998.00    1.54785   1.52810   49.868
 5999.00    1.54817   1.52633   49.811
 6000.00    1.55246   1.52487   49.971
 6001.00    1.54940   1.52307   50.244
 6002.00    1.54967   1.52073   50.322
 6003.00    1.54900   1.51823   50.243
 6004.00    1.54163   1.51570   50.159
 6005.00    1.53904   1.51248   50.336
 6006.00    1.52958   1.50841   50.787
 6007.00    1.52318   1.50503   51.118
 6008.00    1.52235   1.50388   50.835
 6009.00    1.52813   1.50586   50.220
 6010.00    1.53850   1.50990   49.917
 6011.00    1.54408   1.51340   50.131
 6012.00    1.54399   1.51543   50.502
 6013.00    1.54635   1.51546   50.555
 6014.00    1.54641   1.51423   50.343
 6015.00    1.54565   1.51262   50.457
 6016.00    1.54354   1.51085   50.652
 6017.00    1.54661   1.50887   50.648
 6018.00    1.54134   1.50635   50.601
 6019.00    1.53146   1.50320   50.855
 6020.00    1.52952   1.50027   50.997
 6021.00    1.53325   1.49904   50.687
 6022.00    1.53434   1.49977   50.424
 6023.00    1.53349   1.50238   50.358
 6024.00    1.54583   1.50736   50.204
 6025.00    1.55297   1.51420   49.933
 6026.00    1.55294   1.52136   49.743
 6027.00    1.55316   1.52837   49.442
 6028.00    1.55685   1.53492   49.297
 6029.00    1.56181   1.54024   49.272
 6030.00    1.56276   1.54416   49.331
 6031.00    1.56441   1.54710   49.379
 6032.00    1.56646   1.54942   49.216
 6033.00    1.56917   1.55130   49.022
 6034.00    1.56718   1.55267   48.948
 6035.00    1.56697   1.55320   48.909
 6036.00    1.57059   1.55279   48.863
 6037.00    1.57075   1.55126   49.019
 6038.00    1.56529   1.54870   49.254
 6039.00    1.56345   1.54562   49.351
 6040.00    1.56001   1.54286   49.420
 6041.00    1.55409   1.54123   49.299
 6042.00    1.55780   1.54125   49.171
 6043.00    1.56339   1.54301   48.843
 6044.00    1.56532   1.54607   48.599
 6045.00    1.56802   1.54947   48.668
 6046.00    1.57456   1.55297   48.635
 6047.00    1.57536   1.55618   48.595
 6048.00    1.57156   1.55855   48.704
 6049.00    1.57051   1.55985   48.863
 6050.00    1.56919   1.55983   48.939
 6051.00    1.57109   1.55840   48.997
 6052.00    1.57229   1.55525   49.137
 6053.00    1.56732   1.55085   49.330
 6054.00    1.56337   1.54602   49.520
 6055.00    1.56108   1.54218   49.764
 6056.00    1.55587   1.54042   49.810
 6057.00    1.55623   1.54115   49.635
 6058.00    1.56173   1.54343   49.359
 6059.00    1.56480   1.54587   49.226
 6060.00    1.56427   1.54678   49.337
 6061.00    1.56137   1.54478   49.672
 6062.00    1.55177   1.53954   50.547
 6063.00    1.51642   1.53205   50.532
 6064.00    1.51668   1.52470   57.004
 6065.00    1.43788   1.52107   33.470
 6066.00    0.85236   1.52288   -1.000
 6067.00    0.46784   1.52903   -1.000
 6068.00    1.06335   1.53782   -1.000
 6069.00    1.45447   1.54665   -1.000
 6070.00    1.54806   1.55368   47.715
 6071.00    1.44773   1.55841   -1.000
 6072.00    0.92816   1.56123   -1.000
 6073.00    0.71653   1.56240   -1.000
 6074.00    1.55208   1.56186   48.919
 6075.00    1.58537   1.55946   49.132
 6076.00    1.56490   1.55530   49.405
 6077.00    1.56086   1.54962   49.727
 6078.00    1.55761   1.54373   50.094
 6079.00    1.55285   1.53889   50.286
 6080.00    1.53962   1.53500   50.294
 6081.00    1.53684   1.53190   50.383
 6082.00    1.53889   1.52978   50.482
 6083.00    1.53738   1.52849   50.449
 6084.00    1.54372   1.52824   50.405
 6085.00    1.54456   1.52941   50.315
 6086.00    1.54459   1.53171   50.138
 6087.00    1.55352   1.53394   50.044
 6088.00    1.55758   1.53510   50.250
 6089.00    1.54739   1.53505   50.538
 6090.00    1.54006   1.53428   50.650
 6091.00    1.53848   1.53395   50.490
 6092.00    1.54375   1.53488   50.167
 6093.00    1.54814   1.53737   49.915
 6094.00    1.55246   1.54093   49.652
 6095.00    1.55239   1.54467   49.531
 6096.00    1.55370   1.54754   49.610
 6097.00    1.55282   1.54815   49.707
 6098.00    1.55007   1.54519   49.718
 6099.00    1.54813   1.53743   49.940
 6100.00    1.53429   1.52505   50.830
 6101.00    1.51607   1.51055   51.977
 6102.00    1.50071   1.49871   52.307
 6103.00    1.50600   1.49447   51.588
 6104.00    1.52693   1.49831   50.637
 6105.00    1.54250   1.50795   50.118
 6106.00    1.54594   1.52008   50.132
 6107.00    1.53886   1.53143   50.326
 6108.00    1.53822   1.54030   50.385
 6109.00    1.54746   1.54623   50.319
 6110.00    1.54840   1.54972   50.161
 6111.00    1.54853   1.55179   50.009
 6112.00    1.54828   1.55321   49.924
 6113.00    1.54541   1.55435   49.685
 6114.00    1.54478   1.55507   49.700
 6115.00    1.54789   1.55480   49.971
 6116.00    1.54797   1.55303   50.214
 6117.00    1.54350   1.54887   50.322
 6118.00    1.53894   1.54109   50.769
 6119.00    1.52676   1.52938   51.522
 6120.00    1.50765   1.51473   52.111
 6121.00    1.49428   1.50063   52.423
 6122.00    1.49385   1.49141   52.088
 6123.00    1.50625   1.48937   51.232
 6124.00    1.52058   1.49440   50.840
 6125.00    1.52627   1.50364   50.996
 6126.00    1.52326   1.51405   51.181
 6127.00    1.51870   1.52328   51.061
 6128.00    1.52258   1.53118   50.835
 6129.00    1.53304   1.53818   50.366
 6130.00    1.54037   1.54411   50.027
 6131.00    1.54802   1.54789   50.033
 6132.00    1.54749   1.54742   50.284
 6133.00    1.53005   1.54025   51.041
 6134.00    1.50713   1.52558   52.392
 6135.00    1.47801   1.50576   53.889
 6136.00    1.45443   1.48624   54.771
 6137.00    1.45204   1.47319   54.240
 6138.00    1.46705   1.46840   52.690
 6139.00    1.49098   1.47064   51.540
 6140.00    1.50351   1.47904   51.298
 6141.00    1.50189   1.49132   51.436
 6142.00    1.50360   1.50504   51.285
 6143.00    1.51561   1.51802   50.674
 6144.00    1.52373   1.52814   50.264
 6145.00    1.53420   1.53414   50.353
 6146.00    1.53959   1.53574   50.641
 6147.00    1.52687   1.53386   50.986
 6148.00    1.51857   1.53021   51.332
 6149.00    1.51795   1.52653   51.513
 6150.00    1.51493   1.52422   51.418
 6151.00    1.52506   1.52394   51.149
 6152.00    1.53269   1.52449   50.888
 6153.00    1.53073   1.52428   51.042
 6154.00    1.53817   1.52280   51.455
 6155.00    1.53187   1.52000   51.611
 6156.00    1.52264   1.51548   51.697
 6157.00    1.51753   1.50814   52.058
 6158.00    1.51228   1.49635   52.807
 6159.00    1.49462   1.47866   54.078
 6160.00    1.46523   1.45638   55.751
 6161.00    1.43640   1.43415   56.949
 6162.00    1.42795   1.41834   56.866
 6163.00    1.43481   1.41273   55.627
 6164.00    1.45229   1.41661   54.298
 6165.00    1.46630   1.42636   -1.000
 6166.00    1.47637   1.43645   -1.000
 6167.00    1.47034   1.44286   54.100
 6168.00    1.45728   1.44516   54.800
 6169.00    1.44398   1.44737   54.966
 6170.00    1.45072   1.45237   54.220
 6171.00    1.47108   1.46088   53.229
 6172.00    1.48149   1.47201   52.822
 6173.00    1.48830   1.48367   52.941
 6174.00    1.50099   1.49367   52.905
 6175.00    1.50210   1.50107   52.771
 6176.00    1.49705   1.50651   52.659
 6177.00    1.50073   1.51069   52.466
 6178.00    1.50809   1.51418   52.222
 6179.00    1.50557   1.51747   52.050
 6180.00    1.50975   1.52095   51.856
 6181.00    1.51140   1.52433   51.648
 6182.00    1.51498   1.52674   51.619
 6183.00    1.51498   1.52726   51.775
 6184.00    1.51602   1.52553   52.050
 6185.00    1.51127   1.52132   52.549
 6186.00    1.50608   1.51492   53.126
 6187.00    1.50010   1.50692   53.652
 6188.00    1.48949   1.49771   54.112
 6189.00    1.47990   1.48780   54.613
 6190.00    1.46889   1.47921   55.227
 6191.00    1.45597   1.47545   55.162
 6192.00    1.46247   1.47783   54.162
 6193.00    1.48459   1.48504   52.932
 6194.00    1.50126   1.49500   52.332
 6195.00    1.50595   1.50482   52.148
 6196.00    1.50810   1.51191   52.248
 6197.00    1.50486   1.51500   52.733
 6198.00    1.49687   1.51487   53.300
 6199.00    1.48676   1.51347   53.524
 6200.00    1.47523   1.51320   53.237
 6201.00    1.47477   1.51516   52.603
 6202.00    1.49032   1.51946   52.133
 6203.00    1.50458   1.52518   52.100
 6204.00    1.51055   1.53100   52.075
 6205.00    1.51613   1.53564   52.008
 6206.00    1.52052   1.53864   52.097
 6207.00    1.52416   1.53959   52.239
 6208.00    1.52148   1.53809   52.299
 6209.00    1.51152   1.53371   52.657
 6210.00    1.50341   1.52625   53.135
 6211.00    1.49573   1.51616   53.579
 6212.00    1.48717   1.50488   54.232
 6213.00    1.47784   1.49447   54.982
 6214.00    1.47107   1.48651   55.342
 6215.00    1.47054   1.48138   55.112
 6216.00    1.47353   1.47858   54.482
 6217.00    1.48076   1.47702   54.543
 6218.00    1.48393   1.47647   54.780
 6219.00    1.47311   1.47728   54.423
 6220.00    1.47235   1.47995   54.297
 6221.00    1.48577   1.48396   56.094
 6222.00    1.49916   1.48828   58.312
 6223.00    1.44833   1.49213   55.405
 6224.00    1.32070   1.49441   -1.000
 6225.00    1.40283   1.49434   -1.000
 6226.00    1.51972   1.49116   54.072
 6227.00    1.49698   1.48443   54.577
 6228.00    1.48775   1.47460   55.427
 6229.00    1.46812   1.46395   56.278
 6230.00    1.45272   1.45585   56.601
 6231.00    1.45015   1.45312   56.045
 6232.00    1.46163   1.45647   55.097
 6233.00    1.48026   1.46424   54.091
 6234.00    1.49801   1.47307   53.472
 6235.00    1.50544   1.47990   53.517
 6236.00    1.49650   1.48287   53.999
 6237.00    1.48532   1.48223   54.558
 6238.00    1.47822   1.47913   55.122
 6239.00    1.47006   1.47494   55.576
 6240.00    1.46852   1.47026   55.672
 6241.00    1.46434   1.46510   55.797
 6242.00    1.45608   1.45926   56.238
 6243.00    1.45093   1.45329   56.440
 6244.00    1.44856   1.44856   56.241
 6245.00    1.45742   1.44688   55.779
 6246.00    1.47319   1.44967   55.149
 6247.00    1.48040   1.45636   54.482
 6248.00    1.48593   1.46434   54.125
 6249.00    1.49389   1.46989   54.331
 6250.00    1.48343   1.47056   55.075
 6251.00    1.46122   1.46590   56.011
 6252.00    1.45033   1.45805   56.542
 6253.00    1.44378   1.44990   56.818
 6254.00    1.44180   1.44363   56.888
 6255.00    1.43626   1.44006   57.057
 6256.00    1.42619   1.43899   57.628
 6257.00    1.42201   1.44041   57.840
 6258.00    1.42865   1.44433   57.282
 6259.00    1.44160   1.45093   56.371
 6260.00    1.46516   1.45974   55.564
 6261.00    1.47842   1.46973   54.775
 6262.00    1.48253   1.47914   54.135
 6263.00    1.48020   1.48662   54.187
 6264.00    1.48189   1.49201   54.649
 6265.00    1.48395   1.49585   54.764
 6266.00    1.47527   1.49862   54.406
 6267.00    1.47798   1.50026   54.227
 6268.00    1.48322   1.50071   54.506
 6269.00    1.47771   1.50036   54.649
 6270.00    1.48081   1.49967   54.501
 6271.00    1.48941   1.49849   54.330
 6272.00    1.48656   1.49601   54.312
 6273.00    1.48317   1.49091   54.575
 6274.00    1.47386   1.48282   55.009
 6275.00    1.45430   1.47226   55.621
 6276.00    1.43301   1.46101   56.753
 6277.00    1.40906   1.45111   58.082
 6278.00    1.39541   1.44433   58.827
 6279.00    1.38308   1.44215   58.913
 6280.00    1.37632   1.44518   58.371
 6281.00    1.38262   1.45278   57.362
 6282.00    1.39207   1.46349   56.412
 6283.00    1.39932   1.47523   -1.000
 6284.00    1.41277   1.48608   55.051
 6285.00    1.43416   1.49464   54.594
 6286.00    1.45595   1.50037   54.134
 6287.00    1.46979   1.50313   53.871
 6288.00    1.48254   1.50312   53.936
 6289.00    1.48526   1.50118   54.321
 6290.00    1.48303   1.49841   54.773
 6291.00    1.47526   1.49561   55.060
 6292.00    1.46689   1.49311   55.123
 6293.00    1.46614   1.49073   55.197
 6294.00    1.46511   1.48776   55.424
 6295.00    1.45370   1.48351   55.859
 6296.00    1.43724   1.47823   56.110
 6297.00    1.42523   1.47283   56.107
 6298.00    1.41474   1.46803   55.953
 6299.00    1.40621   1.46424   55.700
 6300.00    1.41106   1.46211   55.726
 6301.00    1.41723   1.46297   56.326
 6302.00    1.43565   1.46774   56.550
 6303.00    1.46319   1.47581   55.819
 6304.00    1.47973   1.48555   54.987
 6305.00    1.47795   1.49513   54.410
 6306.00    1.48386   1.50295   53.949
 6307.00    1.49455   1.50806   53.606
 6308.00    1.49631   1.51058   53.677
 6309.00    1.48574   1.51107   53.986
 6310.00    1.48600   1.50987   54.302
 6311.00    1.48416   1.50718   54.501
 6312.00    1.48328   1.50295   54.663
 6313.00    1.47285   1.49746   54.871
 6314.00    1.46866   1.49145   55.303
 6315.00    1.46289   1.48583   55.380
 6316.00    1.45522   1.48163   55.321
 6317.00    1.45418   1.47995   55.318
 6318.00    1.46170   1.48171   55.299
 6319.00    1.47089   1.48668   54.893
 6320.00    1.47303   1.49359   54.241
 6321.00    1.47757   1.50125   53.848
 6322.00    1.48356   1.50911   53.675
 6323.00    1.49325   1.51635   53.452
 6324.00    1.49865   1.52212   53.200
 6325.00    1.49848   1.52616   53.096
 6326.00    1.49929   1.52852   52.986
 6327.00    1.50286   1.52964   52.819
 6328.00    1.50397   1.52998   52.893
 6329.00    1.49469   1.52994   52.926
 6330.00    1.49368   1.52949   52.876
 6331.00    1.50173   1.52794   52.704
 6332.00    1.50940   1.52417   52.715
 6333.00    1.50064   1.51779   52.872
 6334.00    1.48301   1.50987   53.416
 6335.00    1.45461   1.50276   54.334
 6336.00    1.43266   1.49887   54.135
 6337.00    1.46664   1.49922   53.609
 6338.00    1.49091   1.50346   53.042
 6339.00    1.49475   1.51012   52.577
 6340.00    1.49998   1.51679   52.346
 6341.00    1.50557   1.52137   52.198
 6342.00    1.49947   1.52319   52.427
 6343.00    1.49379   1.52294   52.783
 6344.00    1.49435   1.52213   52.739
 6345.00    1.50020   1.52239   52.527
 6346.00    1.50228   1.52492   52.201
 6347.00    1.50400   1.52973   51.892
 6348.00    1.50824   1.53558   51.788
 6349.00    1.51262   1.54081   51.766
 6350.00    1.51546   1.54403   51.702
 6351.00    1.51316   1.54442   51.831
 6352.00    1.50272   1.54198   52.072
 6353.00    1.49365   1.53752   52.447
 6354.00    1.49054   1.53225   53.025
 6355.00    1.48810   1.52701   53.304
 6356.00    1.47907   1.52191   53.346
 6357.00    1.47590   1.51706   53.687
 6358.00    1.47040   1.51267   54.190
 6359.00    1.46547   1.50871   54.218
 6360.00    1.47159   1.50519   53.987
 6361.00    1.47406   1.50262   53.866
 6362.00    1.46747   1.50168   53.773
 6363.00    1.46211   1.50271   53.511
 6364.00    1.47454   1.50560   53.150
 6365.00    1.48899   1.50990   52.834
 6366.00    1.49208   1.51475   52.534
 6367.00    1.49691   1.51907   52.188
 6368.00    1.50418   1.52223   51.920
 6369.00    1.50281   1.52450   51.867
 6370.00    1.50009   1.52667   51.834
 6371.00    1.49992   1.52926   51.631
 6372.00    1.50092   1.53216   51.554
 6373.00    1.50254   1.53472   51.680
 6374.00    1.49931   1.53612   51.738
 6375.00    1.49180   1.53589   51.886
 6376.00    1.49004   1.53401   52.111
 6377.00    1.48859   1.53107   52.416
 6378.00    1.48173   1.52766   52.721
 6379.00    1.48333   1.52432   52.847
 6380.00    1.48247   1.52149   52.897
 6381.00    1.47293   1.51952   52.962
 6382.00    1.47015   1.51872   52.890
 6383.00    1.47487   1.51930   52.886
 6384.00    1.47395   1.52114   53.115
 6385.00    1.46618   1.52365   53.162
 6386.00    1.46003   1.52588   53.184
 6387.00    1.45508   1.52709   53.365
 6388.00    1.45366   1.52671   53.638
 6389.00    1.45002   1.52431   54.094
 6390.00    1.43964   1.51968   54.588
 6391.00    1.42427   1.51373   -1.000
 6392.00    1.41020   1.50838   -1.000
 6393.00    1.39851   1.50555   -1.000
 6394.00    1.39562   1.50590   -1.000
 6395.00    1.40550   1.50814   -1.000
 6396.00    1.40762   1.50993   -1.000
 6397.00    1.40381   1.50933   -1.000
 6398.00    1.38689   1.50652   -1.000
 6399.00    1.36244   1.50382   -1.000
 6400.00    1.35092   1.50379   -1.000
 6401.00    1.35954   1.50757   -1.000
 6402.00    1.37638   1.51417   -1.000
 6403.00    1.38056   1.52116   -1.000
 6404.00    1.37650   1.52587   -1.000
 6405.00    1.36552   1.52696   -1.000
 6406.00    1.35079   1.52507   -1.000
 6407.00    1.33659   1.52202   -1.000
 6408.00    1.33354   1.51921   -1.000
 6409.00    1.32773   1.51711   -1.000
 6410.00    1.31217   1.51609   -1.000
 6411.00    1.29397   1.51645   -1.000
 6412.00    1.28142   1.51802   -1.000
 6413.00    1.28028   1.52022   -1.000
 6414.00    1.28287   1.52244   -1.000
 6415.00    1.28138   1.52402   -1.000
 6416.00    1.27731   1.52409   -1.000
 6417.00    1.26740   1.52204   -1.000
 6418.00    1.25030   1.51826   -1.000
 6419.00    1.22947   1.51433   -1.000
 6420.00    1.21130   1.51254   -1.000
 6421.00    1.20243   1.51472   -1.000
 6422.00    1.19646   1.52076   -1.000
 6423.00    1.19851   1.52914   -1.000
 6424.00    1.20542   1.53782   -1.000
 6425.00    1.19762   1.54455   -1.000
 6426.00    1.18106   1.54755   -1.000
 6427.00    1.16761   1.54584   -1.000
 6428.00    1.15770   1.53995   -1.000
