###################################################################
## OUTPUT of StarlightChains_v04.for    [Cid@UFSC - 01/Apr/2007] ##
###################################################################

## Some input info
NGC6544_a_1.cxt                          [arq_obs]
Base.BC03.N                              [arq_base]
NGC6544_a_1.msk                          [arq_masks]
StCv04.C99.config                        [arq_config]
   45                                    [N_base]
    0                                    [N_YAV_components = # of components with extra extinction!]
    0                                    [i_FitPowerLaw (1/0 = Yes/No)]
-9.99                                    [alpha_PowerLaw]
CCM                                      [red_law_option]
 1.458241                                [q_norm = A(l_norm)/A(V)]

## (Re)Sampling Parameters
 3359.00                                 [l_ini (A)]
 6428.00                                 [l_fin (A)]
    1.00                                 [dl    (A)]     (OBS: dl_cushion =    50.00 A)

## Normalization info
 4020.00                                 [l_norm (A) - for base]
 4010.00                                 [llow_norm (A) - window for f_obs]
 4060.00                                 [lupp_norm (A) - window for f_obs]
2.994762E-15                             [fobs_norm (in input units)]

## S/N
 4730.00                                 [llow_SN (A) - window for S/N]
 4780.00                                 [lupp_SN (A) - window for S/N]
  55.157                                 [S/N in S/N window]
  29.824                                 [S/N in norm. window]
 209.596                                 [S/N_err in S/N window]
 113.332                                 [S/N_err in norm. window]
  1.0000                                 [fscale_chi2]

## etc...
  2147483600                             [idum_orig]
  3067                                   [NOl_eff]
  1468                                   [Nl_eff]
  1599    NSIGMA                         [Ntot_cliped & clip_method]
  2206680                                [Nglobal_steps]
   7                                     [N_chains]
  12                                     [NEX0s_base = N_base in EX0s-fits]
 0   1   1       75   2.0   2.769E+02    [Clip-Bug, RC-Crash & Burn-In warning-flags, n_censored_weights, wei_nsig_threshold & wei_limit]
    46     46.060     46.044      0.016  [idt_all, wdt_TotTime, wdt_UsrTime & wdt_SysTime (sec)]

## Synthesis Results - Best model ##

 3.03908E+00                             [chi2/Nl_eff]
     2.46466                             [adev (%)]

    95.67015                             [sum-of-x (%)]
 4.51856E-13                             [Flux_tot (units of input spectrum!)]
 6.87833E-09                             [Mini_tot (???)]
 3.49273E-09                             [Mcor_tot (???)]

 -26.32                                  [v0_min  (km/s)]
  43.18                                  [vd_min  (km/s)]
 3.7680                                  [AV_min  (mag)]
 0.0000                                  [YAV_min (mag)]

# j     x_j(%)      Mini_j(%)     Mcor_j(%)     age_j(yr)     Z_j      (L/M)_j    YAV?  Mstars   component_j        a/Fe...       SSP_chi2r SSP_adev(%)   SSP_AV   SSP_x(%)
  1     10.4695     6.4533E-02    1.2709E-01    1.000000E+06  0.00400  1.114E-02    0   1.0000   age020_m42            0.0000     2.5507E+03    42.6893   4.0000   112.7551
  2     21.4861     3.6223E-02    7.1328E-02    3.160000E+06  0.00400  4.073E-02    0   0.9999   age045_m42            0.0000     6.8735E+02    23.7225   4.0000   117.9064
  3      7.1427     1.9355E-02    3.6165E-02    5.010000E+06  0.00400  2.534E-02    0   0.9488   age055_m42            0.0000     1.3201E+03    32.0124   4.0000   117.3001
  4     14.8189     8.0059E-02    1.3972E-01    1.000000E+07  0.00400  1.271E-02    0   0.8862   age070_m42            0.0000     3.3410E+02    16.3693   4.0000   109.7920
  5      0.0000     0.0000E+00    0.0000E+00    2.512000E+07  0.00400  5.070E-03    0   0.8174   age090_m42            0.0000     2.2326E+02    13.6216   4.0000   108.9268
  6      0.0000     0.0000E+00    0.0000E+00    4.000000E+07  0.00400  3.505E-03    0   0.7851   age104_m42            0.0000     7.9532E+01     8.4908   4.0000   104.5325
  7      0.0000     0.0000E+00    0.0000E+00    1.015200E+08  0.00400  2.268E-03    0   0.7207   age116_m42            0.0000     3.6175E+02    16.1569   4.0000   111.3057
  8      0.0000     0.0000E+00    0.0000E+00    2.861200E+08  0.00400  1.079E-03    0   0.6613   age125_m42            0.0000     3.7138E+02    14.5769   3.7657   106.2877
  9      0.0000     0.0000E+00    0.0000E+00    6.405400E+08  0.00400  5.077E-04    0   0.6197   age132_m42            0.0000     3.8584E+02    14.6673   3.4043   110.8331
 10      0.0000     0.0000E+00    0.0000E+00    9.047900E+08  0.00400  3.535E-04    0   0.6024   age135_m42            0.0000     3.0997E+02    13.9168   3.1504   110.5015
 11      0.0000     0.0000E+00    0.0000E+00    1.434000E+09  0.00400  1.910E-04    0   0.5716   age139_m42            0.0000     2.6607E+02    14.0290   2.6009   109.0165
 12      0.0000     0.0000E+00    0.0000E+00    2.500000E+09  0.00400  9.818E-05    0   0.5463   age150_m42            0.0000     2.1342E+02    13.6172   2.2861   105.0611
 13     14.8876     2.1667E+01    2.2308E+01    5.000000E+09  0.00400  4.718E-05    0   0.5228   age161_m42            0.0000     2.0155E+02    13.2776   2.1012   102.1301
 14      3.2956     1.0263E+01    1.0065E+01    1.100000E+10  0.00400  2.205E-05    0   0.4980   age185_m42            0.0000     2.7082E+02    14.6918   1.8197    99.6836
 15      2.4002     8.7524E+00    8.4924E+00    1.300000E+10  0.00400  1.883E-05    0   0.4927   age193_m42            0.0000     2.8099E+02    14.8135   1.8005    99.5308
 16      0.9580     3.3074E-03    6.5133E-03    1.000000E+06  0.02000  1.989E-02    0   1.0000   age020_m62            0.0000     2.4837E+03    42.0028   4.0000   113.5924
 17      0.0000     0.0000E+00    0.0000E+00    3.160000E+06  0.02000  3.772E-02    0   0.9858   age045_m62            0.0000     2.1779E+03    39.6394   4.0000   115.5617
 18      1.1461     2.4388E-03    4.4868E-03    5.010000E+06  0.02000  3.227E-02    0   0.9342   age055_m62            0.0000     1.0764E+03    29.0893   4.0000   118.8428
 19     14.0386     9.5348E-02    1.6432E-01    1.000000E+07  0.02000  1.011E-02    0   0.8751   age070_m62            0.0000     4.0638E+02    16.7340   4.0000   108.0774
 20      0.0000     0.0000E+00    0.0000E+00    2.512000E+07  0.02000  4.206E-03    0   0.8099   age090_m62            0.0000     2.9109E+02    15.2971   4.0000   106.9022
 21      0.0000     0.0000E+00    0.0000E+00    4.000000E+07  0.02000  3.373E-03    0   0.7799   age104_m62            0.0000     1.9703E+02    12.2292   4.0000   110.7912
 22      0.0000     0.0000E+00    0.0000E+00    1.015200E+08  0.02000  1.878E-03    0   0.7221   age116_m62            0.0000     3.2934E+02    15.3332   4.0000   113.2050
 23      0.0000     0.0000E+00    0.0000E+00    2.861200E+08  0.02000  8.869E-04    0   0.6700   age125_m62            0.0000     5.1421E+02    15.9849   3.8049   110.5392
 24      0.0000     0.0000E+00    0.0000E+00    6.405400E+08  0.02000  3.657E-04    0   0.6322   age132_m62            0.0000     4.6065E+02    16.7379   3.0912   113.8707
 25      0.0000     0.0000E+00    0.0000E+00    9.047900E+08  0.02000  2.312E-04    0   0.6152   age135_m62            0.0000     3.6926E+02    15.8808   2.7036   113.2068
 26      0.0000     0.0000E+00    0.0000E+00    1.434000E+09  0.02000  1.168E-04    0   0.5865   age139_m62            0.0000     2.6770E+02    14.8700   2.2350   108.4389
 27      0.0000     0.0000E+00    0.0000E+00    2.500000E+09  0.02000  5.505E-05    0   0.5610   age150_m62            0.0000     2.9204E+02    15.5851   1.8285   105.9020
 28      0.0000     0.0000E+00    0.0000E+00    5.000000E+09  0.02000  2.596E-05    0   0.5353   age161_m62            0.0000     4.2010E+02    17.6619   1.4758   105.3892
 29      0.0000     0.0000E+00    0.0000E+00    1.100000E+10  0.02000  1.169E-05    0   0.5103   age185_m62            0.0000     5.8397E+02    19.7746   1.1044   105.9030
 30      0.0000     0.0000E+00    0.0000E+00    1.300000E+10  0.02000  9.691E-06    0   0.5047   age193_m62            0.0000     6.1684E+02    20.1138   1.0592   105.9211
 31      0.0000     0.0000E+00    0.0000E+00    1.000000E+06  0.05000  2.651E-02    0   0.9998   age020_m72            0.0000     2.4508E+03    41.9486   4.0000   114.8713
 32      0.0000     0.0000E+00    0.0000E+00    3.160000E+06  0.05000  4.817E-02    0   0.9577   age045_m72            0.0000     1.7808E+03    36.6321   4.0000   118.4548
 33      0.0000     0.0000E+00    0.0000E+00    5.010000E+06  0.05000  3.101E-02    0   0.9147   age055_m72            0.0000     1.1196E+03    29.6640   4.0000   117.6254
 34      0.0000     0.0000E+00    0.0000E+00    1.000000E+07  0.05000  8.954E-03    0   0.8524   age070_m72            0.0000     1.4954E+03    34.0093   4.0000   118.9878
 35      0.0000     0.0000E+00    0.0000E+00    2.512000E+07  0.05000  4.207E-03    0   0.7902   age090_m72            0.0000     7.6079E+02    25.0486   4.0000   119.1418
 36      0.0000     0.0000E+00    0.0000E+00    4.000000E+07  0.05000  3.198E-03    0   0.7618   age104_m72            0.0000     3.9752E+02    17.7292   4.0000   117.3275
 37      0.0000     0.0000E+00    0.0000E+00    1.015200E+08  0.05000  1.716E-03    0   0.7092   age116_m72            0.0000     3.9127E+02    16.9775   4.0000   115.1019
 38      0.0000     0.0000E+00    0.0000E+00    2.861200E+08  0.05000  7.047E-04    0   0.6618   age125_m72            0.0000     5.1826E+02    16.5451   3.5912   110.5863
 39      0.0000     0.0000E+00    0.0000E+00    6.405400E+08  0.05000  2.633E-04    0   0.6253   age132_m72            0.0000     4.2659E+02    16.7068   2.7096   112.7665
 40      0.0000     0.0000E+00    0.0000E+00    9.047900E+08  0.05000  1.484E-04    0   0.6088   age135_m72            0.0000     3.4437E+02    16.4728   2.1765   108.4693
 41      0.0000     0.0000E+00    0.0000E+00    1.434000E+09  0.05000  7.827E-05    0   0.5847   age139_m72            0.0000     3.6507E+02    17.2535   1.7348   105.5918
 42      0.0000     0.0000E+00    0.0000E+00    2.500000E+09  0.05000  3.759E-05    0   0.5583   age150_m72            0.0000     4.4134E+02    18.2011   1.3835   105.1173
 43      0.0000     0.0000E+00    0.0000E+00    5.000000E+09  0.05000  1.548E-05    0   0.5320   age161_m72            0.0000     5.9427E+02    19.9522   0.9629   103.8192
 44      2.4592     2.5852E+01    2.5812E+01    1.100000E+10  0.05000  6.532E-06    0   0.5070   age185_m72            0.0000     8.1304E+02    22.6062   0.6001   101.6877
 45      2.5675     3.3164E+01    3.2773E+01    1.300000E+10  0.05000  5.316E-06    0   0.5018   age193_m72            0.0000     9.0131E+02    23.5915   0.4914   100.9852


## Synthesis Results - Average & Chains ##

# j      x_j: min, <> & last-chain-values for 1 ...  7 chains
  1     10.4695     10.9174     10.8447     10.9596     10.7637     10.6984     10.3603     10.9889     11.1010
  2     21.4861     21.6184     21.4053     21.4093     21.6807     21.3403     20.7395     21.4182     21.6833
  3      7.1427      7.1116      7.0125      7.1398      6.7047      7.1035      7.0425      7.1284      7.3056
  4     14.8189     13.8789     13.8265     13.8727     13.8680     13.9676     13.8639     14.5978     14.0637
  5      0.0000      0.2854      0.0643      0.2274      0.3767      0.1955      0.7837      0.4273      0.2610
  6      0.0000      0.0690      0.0000      0.0000      0.0000      0.1334      0.1813      0.0000      0.0000
  7      0.0000      0.0550      0.0000      0.2003      0.2764      0.0000      0.0000      0.0219      0.1230
  8      0.0000      0.0288      0.0000      0.1139      0.0000      0.0000      0.1304      0.0000      0.0000
  9      0.0000      0.0339      0.0429      0.0000      0.0000      0.0746      0.0382      0.0125      0.0000
 10      0.0000      0.0340      0.0100      0.0000      0.0000      0.0332      0.0000      0.0305      0.0000
 11      0.0000      0.0210      0.0000      0.0725      0.0455      0.0000      0.0000      0.0000      0.0000
 12      0.0000      0.0154      0.0000      0.0000      0.0000      0.0000      0.0399      0.0000      0.0000
 13     14.8876     15.0013     14.9194     14.9967     14.8808     14.8467     14.7216     15.0323     14.9152
 14      3.2956      3.3735      3.4778      3.2484      3.2407      3.4026      3.3352      3.3439      3.3691
 15      2.4002      2.2653      2.1665      2.1474      2.2051      2.2656      2.4078      2.3112      2.2392
 16      0.9580      1.7401      1.6083      1.5238      1.5661      1.5056      1.7865      1.4921      1.5971
 17      0.0000      0.0992      0.0915      0.0000      0.1324      0.0000      0.0000      0.0000      0.0000
 18      1.1461      1.1670      1.3367      1.0423      1.0607      1.0825      1.1967      1.1427      1.0994
 19     14.0386     12.1029     12.9033     13.0841     13.2599     13.2373     13.4912     12.3197     12.1714
 20      0.0000      0.0850      0.0000      0.0000      0.0728      0.0000      0.0000      0.0000      0.0390
 21      0.0000      0.1235      0.2048      0.0000      0.0603      0.2852      0.0384      0.0135      0.0000
 22      0.0000      0.0925      0.3009      0.4097      0.1188      0.0000      0.2893      0.1467      0.0673
 23      0.0000      0.0293      0.0273      0.0000      0.0000      0.0000      0.0000      0.0000      0.0000
 24      0.0000      0.0084      0.0000      0.0000      0.0000      0.0000      0.0000      0.0000      0.0058
 25      0.0000      0.0083      0.0000      0.0000      0.0000      0.0000      0.0000      0.0000      0.0000
 26      0.0000      0.0073      0.0000      0.0000      0.0000      0.0000      0.0000      0.0000      0.0000
 27      0.0000      0.0081      0.0303      0.0000      0.0000      0.0000      0.0000      0.0000      0.0000
 28      0.0000      0.0061      0.0000      0.0000      0.0000      0.0000      0.0000      0.0000      0.0000
 29      0.0000      0.0103      0.0000      0.0000      0.0471      0.0000      0.0000      0.0000      0.0000
 30      0.0000      0.1222      0.0000      0.0783      0.0890      0.1310      0.0567      0.0000      0.1419
 31      0.0000      0.0388      0.0000      0.0007      0.0000      0.0400      0.0294      0.0035      0.0436
 32      0.0000      0.0389      0.0020      0.0000      0.0406      0.0000      0.0000      0.0256      0.0000
 33      0.0000      0.0325      0.0000      0.0000      0.0000      0.0000      0.0000      0.0000      0.0000
 34      0.0000      0.0193      0.0000      0.0000      0.0000      0.0000      0.0071      0.0000      0.0000
 35      0.0000      0.0281      0.0000      0.0185      0.0000      0.0000      0.0000      0.0442      0.0000
 36      0.0000      0.0449      0.0000      0.0000      0.0148      0.0921      0.0525      0.0175      0.0000
 37      0.0000      0.0779      0.2234      0.0000      0.0520      0.2318      0.0000      0.0339      0.2651
 38      0.0000      0.0142      0.0000      0.0000      0.0000      0.0000      0.0000      0.0122      0.0000
 39      0.0000      0.0065      0.0089      0.0000      0.0000      0.0000      0.0000      0.0000      0.0000
 40      0.0000      0.0057      0.0000      0.0000      0.0000      0.0232      0.0000      0.0000      0.0000
 41      0.0000      0.0039      0.0000      0.0000      0.0000      0.0000      0.0000      0.0000      0.0000
 42      0.0000      0.0047      0.0000      0.0036      0.0000      0.0000      0.0000      0.0000      0.0000
 43      0.0000      0.2490      0.3071      0.2451      0.2274      0.2201      0.2603      0.2261      0.2829
 44      2.4592      2.4167      2.4387      2.4249      2.4074      2.3974      2.4726      2.4253      2.3966
 45      2.5675      2.3876      2.4398      2.4994      2.5144      2.4191      2.3548      2.4677      2.4890

# j      m_j: min, <> & last-chain-values for 1 ...  7 chains
  1  1.2709E-01  1.3336E-01  1.3238E-01  1.3349E-01  1.3077E-01  1.3085E-01  1.2702E-01  1.3408E-01  1.3426E-01
  2  7.1328E-02  7.2221E-02  7.1461E-02  7.1317E-02  7.2037E-02  7.1382E-02  6.9540E-02  7.1467E-02  7.1719E-02
  3  3.6165E-02  3.6235E-02  3.5706E-02  3.6275E-02  3.3977E-02  3.6240E-02  3.6015E-02  3.6278E-02  3.6855E-02
  4  1.3972E-01  1.3169E-01  1.3110E-01  1.3125E-01  1.3087E-01  1.3269E-01  1.3203E-01  1.3834E-01  1.3212E-01
  5  0.0000E+00  6.2612E-03  1.4100E-03  4.9756E-03  8.2201E-03  4.2936E-03  1.7258E-02  9.3626E-03  5.6692E-03
  6  0.0000E+00  2.1026E-03  0.0000E+00  0.0000E+00  0.0000E+00  4.0705E-03  5.5465E-03  0.0000E+00  0.0000E+00
  7  0.0000E+00  2.3803E-03  0.0000E+00  8.6385E-03  1.1886E-02  0.0000E+00  0.0000E+00  9.4705E-04  5.2651E-03
  8  0.0000E+00  2.4039E-03  0.0000E+00  9.4717E-03  0.0000E+00  0.0000E+00  1.0914E-02  0.0000E+00  0.0000E+00
  9  0.0000E+00  5.6245E-03  7.1218E-03  0.0000E+00  0.0000E+00  1.2401E-02  6.3728E-03  2.0692E-03  0.0000E+00
 10  0.0000E+00  7.8740E-03  2.3082E-03  0.0000E+00  0.0000E+00  7.7019E-03  0.0000E+00  7.0697E-03  0.0000E+00
 11  0.0000E+00  8.5604E-03  0.0000E+00  2.9450E-02  1.8415E-02  0.0000E+00  0.0000E+00  0.0000E+00  0.0000E+00
 12  0.0000E+00  1.1624E-02  0.0000E+00  0.0000E+00  0.0000E+00  0.0000E+00  3.0285E-02  0.0000E+00  0.0000E+00
 13  2.2308E+01  2.2621E+01  2.2482E+01  2.2549E+01  2.2317E+01  2.2416E+01  2.2281E+01  2.2640E+01  2.2268E+01
 14  1.0065E+01  1.0368E+01  1.0681E+01  9.9549E+00  9.9060E+00  1.0471E+01  1.0288E+01  1.0265E+01  1.0252E+01
 15  8.4924E+00  8.0658E+00  7.7090E+00  7.6244E+00  7.8090E+00  8.0773E+00  8.6048E+00  8.2196E+00  7.8939E+00
 16  6.5133E-03  1.1905E-02  1.0996E-02  1.0395E-02  1.0657E-02  1.0314E-02  1.2268E-02  1.0196E-02  1.0819E-02
 17  0.0000E+00  3.5269E-04  3.2526E-04  0.0000E+00  4.6848E-04  0.0000E+00  0.0000E+00  0.0000E+00  0.0000E+00
 18  4.4868E-03  4.5975E-03  5.2623E-03  4.0944E-03  4.1558E-03  4.2700E-03  4.7315E-03  4.4963E-03  4.2880E-03
 19  1.6432E-01  1.4256E-01  1.5188E-01  1.5368E-01  1.5534E-01  1.5612E-01  1.5950E-01  1.4494E-01  1.4194E-01
 20  0.0000E+00  2.2283E-03  0.0000E+00  0.0000E+00  1.8980E-03  0.0000E+00  0.0000E+00  0.0000E+00  1.0107E-03
 21  0.0000E+00  3.8853E-03  6.4409E-03  0.0000E+00  1.8873E-03  8.9852E-03  1.2141E-03  4.2270E-04  0.0000E+00
 22  0.0000E+00  4.8424E-03  1.5731E-02  2.1375E-02  6.1843E-03  0.0000E+00  1.5192E-02  7.6690E-03  3.4864E-03
 23  0.0000E+00  3.0128E-03  2.8074E-03  0.0000E+00  0.0000E+00  0.0000E+00  0.0000E+00  0.0000E+00  0.0000E+00
 24  0.0000E+00  1.9656E-03  0.0000E+00  0.0000E+00  0.0000E+00  0.0000E+00  0.0000E+00  0.0000E+00  1.3526E-03
 25  0.0000E+00  3.0142E-03  0.0000E+00  0.0000E+00  0.0000E+00  0.0000E+00  0.0000E+00  0.0000E+00  0.0000E+00
 26  0.0000E+00  4.9593E-03  0.0000E+00  0.0000E+00  0.0000E+00  0.0000E+00  0.0000E+00  0.0000E+00  0.0000E+00
 27  0.0000E+00  1.1180E-02  4.1976E-02  0.0000E+00  0.0000E+00  0.0000E+00  0.0000E+00  0.0000E+00  0.0000E+00
 28  0.0000E+00  1.7009E-02  0.0000E+00  0.0000E+00  0.0000E+00  0.0000E+00  0.0000E+00  0.0000E+00  0.0000E+00
 29  0.0000E+00  6.1221E-02  0.0000E+00  0.0000E+00  2.7846E-01  0.0000E+00  0.0000E+00  0.0000E+00  0.0000E+00
 30  0.0000E+00  8.6584E-01  0.0000E+00  5.5360E-01  6.2767E-01  9.2985E-01  4.0335E-01  0.0000E+00  9.9536E-01
 31  0.0000E+00  1.9925E-04  0.0000E+00  3.3850E-06  0.0000E+00  2.0577E-04  1.5167E-04  1.8048E-05  2.2148E-04
 32  0.0000E+00  1.0530E-04  5.3862E-06  0.0000E+00  1.0917E-04  0.0000E+00  0.0000E+00  6.9069E-05  0.0000E+00
 33  0.0000E+00  1.3063E-04  0.0000E+00  0.0000E+00  0.0000E+00  0.0000E+00  0.0000E+00  0.0000E+00  0.0000E+00
 34  0.0000E+00  2.4959E-04  0.0000E+00  0.0000E+00  0.0000E+00  0.0000E+00  9.2951E-05  0.0000E+00  0.0000E+00
 35  0.0000E+00  7.1918E-04  0.0000E+00  4.7127E-04  0.0000E+00  0.0000E+00  0.0000E+00  1.1274E-03  0.0000E+00
 36  0.0000E+00  1.4553E-03  0.0000E+00  0.0000E+00  4.7704E-04  2.9892E-03  1.7084E-03  5.6697E-04  0.0000E+00
 37  0.0000E+00  4.3832E-03  1.2557E-02  0.0000E+00  2.9060E-03  1.3053E-02  0.0000E+00  1.9060E-03  1.4761E-02
 38  0.0000E+00  1.8180E-03  0.0000E+00  0.0000E+00  0.0000E+00  0.0000E+00  0.0000E+00  1.5614E-03  0.0000E+00
 39  0.0000E+00  2.0935E-03  2.8791E-03  0.0000E+00  0.0000E+00  0.0000E+00  0.0000E+00  0.0000E+00  0.0000E+00
 40  0.0000E+00  3.1980E-03  0.0000E+00  0.0000E+00  0.0000E+00  1.2964E-02  0.0000E+00  0.0000E+00  0.0000E+00
 41  0.0000E+00  3.9754E-03  0.0000E+00  0.0000E+00  0.0000E+00  0.0000E+00  0.0000E+00  0.0000E+00  0.0000E+00
 42  0.0000E+00  9.4905E-03  0.0000E+00  7.2013E-03  0.0000E+00  0.0000E+00  0.0000E+00  0.0000E+00  0.0000E+00
 43  0.0000E+00  1.1644E+00  1.4353E+00  1.1432E+00  1.0576E+00  1.0306E+00  1.2221E+00  1.0563E+00  1.3100E+00
 44  2.5812E+01  2.5526E+01  2.5741E+01  2.5539E+01  2.5290E+01  2.5354E+01  2.6212E+01  2.5586E+01  2.5062E+01
 45  3.2773E+01  3.0669E+01  3.1319E+01  3.2014E+01  3.2123E+01  3.1114E+01  3.0359E+01  3.1660E+01  3.1655E+01

# AV, chi2 & Mass for <> & i_chain = 1 ...  7 solutions
AV       3.7680      3.7669      3.7667      3.7677      3.7673      3.7668      3.7668      3.7678      3.7668
chi2 3.0391E+00  3.0737E+00  3.0578E+00  3.0575E+00  3.0522E+00  3.0587E+00  3.0510E+00  3.0636E+00  3.0646E+00
Mass 3.4927E-09  3.4657E-09  3.4672E-09  3.4794E-09  3.4866E-09  3.4608E-09  3.4526E-09  3.4741E-09  3.4999E-09
 -26.16                                  [v0_min (km/s) before EX0s...]
  41.98                                  [vd_min (km/s) before EX0s...]


## Synthetic spectrum (Best Model) ##l_obs f_obs f_syn wei
 3070    [Nl_obs]
 3359.00    0.00000   0.52743   -2.000
 3360.00    0.00000   0.52434   -2.000
 3361.00    0.24325   0.52551   -1.000
 3362.00    0.28337   0.53223   -1.000
 3363.00    0.33291   0.53847   -1.000
 3364.00    0.32776   0.54027   -1.000
 3365.00    0.33336   0.53537   -1.000
 3366.00    0.32183   0.52670   -1.000
 3367.00    0.31068   0.51894   -1.000
 3368.00    0.32576   0.51589   -1.000
 3369.00    0.32536   0.51946   -1.000
 3370.00    0.32581   0.52432   -1.000
 3371.00    0.32303   0.52282   -1.000
 3372.00    0.34788   0.51936   -1.000
 3373.00    0.33411   0.52144   -1.000
 3374.00    0.36330   0.53110   -1.000
 3375.00    0.31767   0.54347   -1.000
 3376.00    0.33895   0.54633   -1.000
 3377.00    0.34968   0.53949   -1.000
 3378.00    0.35972   0.53251   -1.000
 3379.00    0.36946   0.52982   -1.000
 3380.00    0.36668   0.53396   -1.000
 3381.00    0.40248   0.54165   -1.000
 3382.00    0.39185   0.54945   -1.000
 3383.00    0.36995   0.55389   -1.000
 3384.00    0.39787   0.55655   -1.000
 3385.00    0.39031   0.55988   -1.000
 3386.00    0.40536   0.56123   -1.000
 3387.00    0.38655   0.56012   -1.000
 3388.00    0.39824   0.55829   -1.000
 3389.00    0.42781   0.55714   -1.000
 3390.00    0.39805   0.55735   -1.000
 3391.00    0.43080   0.55721   -1.000
 3392.00    0.40479   0.55679   -1.000
 3393.00    0.39245   0.55877   -1.000
 3394.00    0.37453   0.56459   -1.000
 3395.00    0.42142   0.56976   -1.000
 3396.00    0.43236   0.57126   -1.000
 3397.00    0.46356   0.56906   -1.000
 3398.00    0.41081   0.56343   -1.000
 3399.00    0.45365   0.55605   -1.000
 3400.00    0.47905   0.55347   31.764
 3401.00    0.48588   0.55293   31.320
 3402.00    0.47905   0.54876   31.582
 3403.00    0.40813   0.54541   -1.000
 3404.00    0.42170   0.54460   -1.000
 3405.00    0.45127   0.54378   -1.000
 3406.00    0.46482   0.54216   34.513
 3407.00    0.47833   0.54278   35.077
 3408.00    0.44572   0.54567   -1.000
 3409.00    0.42512   0.54977   -1.000
 3410.00    0.46534   0.55072   -1.000
 3411.00    0.48753   0.54765   35.802
 3412.00    0.49513   0.54695   34.740
 3413.00    0.48484   0.54876   34.443
 3414.00    0.47284   0.55263   35.882
 3415.00    0.52313   0.55686   36.574
 3416.00    0.50247   0.56157   36.516
 3417.00    0.46038   0.56692   -1.000
 3418.00    0.49440   0.57218   34.120
 3419.00    0.51948   0.57606   32.510
 3420.00    0.53927   0.57688   30.870
 3421.00    0.47817   0.57512   30.691
 3422.00    0.53280   0.57248   30.482
 3423.00    0.55229   0.57099   30.655
 3424.00    0.51200   0.57089   31.530
 3425.00    0.53004   0.57184   32.253
 3426.00    0.53061   0.57458   31.391
 3427.00    0.51371   0.57874   30.559
 3428.00    0.51502   0.58429   30.369
 3429.00    0.50093   0.58650   -1.000
 3430.00    0.53677   0.58422   -1.000
 3431.00    0.54102   0.58101   -1.000
 3432.00    0.53959   0.57759   -1.000
 3433.00    0.52113   0.57661   -1.000
 3434.00    0.52874   0.57790   32.225
 3435.00    0.55513   0.58017   30.287
 3436.00    0.55087   0.58055   -1.000
 3437.00    0.52171   0.57785   -1.000
 3438.00    0.50021   0.57195   32.036
 3439.00    0.51449   0.56181   31.611
 3440.00    0.52773   0.55044   33.495
 3441.00    0.51278   0.54468   36.134
 3442.00    0.49580   0.54656   37.666
 3443.00    0.52292   0.55292   37.802
 3444.00    0.51683   0.55688   37.651
 3445.00    0.51957   0.55828   36.220
 3446.00    0.55963   0.56216   34.262
 3447.00    0.53323   0.56992   32.366
 3448.00    0.55671   0.57953   31.207
 3449.00    0.56253   0.58181   -1.000
 3450.00    0.53904   0.57379   -1.000
 3451.00    0.51217   0.56388   -1.000
 3452.00    0.52974   0.55652   -1.000
 3453.00    0.56650   0.55477   -1.000
 3454.00    0.60224   0.55720   -1.000
 3455.00    0.55638   0.56079  276.924
 3456.00    0.53271   0.56301   -1.000
 3457.00    0.57995   0.56033   -1.000
 3458.00    0.57547   0.55514   -1.000
 3459.00    0.58892   0.55091   -1.000
 3460.00    0.53677   0.54815   32.330
 3461.00    0.53071   0.54998   30.744
 3462.00    0.56715   0.55875   30.575
 3463.00    0.56562   0.56689  184.602
 3464.00    0.55837   0.56802  276.924
 3465.00    0.56888   0.56939  276.924
 3466.00    0.60248   0.57085   -1.000
 3467.00    0.60875   0.57231   -1.000
 3468.00    0.62595   0.57363   -1.000
 3469.00    0.59608   0.57556   -1.000
 3470.00    0.56346   0.57636   -1.000
 3471.00    0.60074   0.57324   -1.000
 3472.00    0.55558   0.56939   -1.000
 3473.00    0.57575   0.56528   -1.000
 3474.00    0.58123   0.55971   -1.000
 3475.00    0.55187   0.55536  276.924
 3476.00    0.53709   0.55371   32.757
 3477.00    0.55021   0.55249   31.686
 3478.00    0.55346   0.55224   31.107
 3479.00    0.55561   0.55425  178.364
 3480.00    0.55724   0.55869  269.985
 3481.00    0.58101   0.56036   -1.000
 3482.00    0.58028   0.55605   -1.000
 3483.00    0.57937   0.55266   -1.000
 3484.00    0.60730   0.55696   -1.000
 3485.00    0.61988   0.56791   -1.000
 3486.00    0.59936   0.57854   -1.000
 3487.00    0.55967   0.58418   -1.000
 3488.00    0.60226   0.58355   -1.000
 3489.00    0.59251   0.57703   -1.000
 3490.00    0.58201   0.57163   -1.000
 3491.00    0.56629   0.57323  276.924
 3492.00    0.59475   0.57896   -1.000
 3493.00    0.62876   0.58125   -1.000
 3494.00    0.59657   0.57834   -1.000
 3495.00    0.56158   0.57337  276.924
 3496.00    0.60552   0.57127   -1.000
 3497.00    0.61939   0.57530   -1.000
 3498.00    0.57919   0.58117  276.924
 3499.00    0.57564   0.58090  275.906
 3500.00    0.58940   0.57641   -1.000
 3501.00    0.57917   0.57581  243.567
 3502.00    0.61020   0.57964   -1.000
 3503.00    0.63505   0.58154   -1.000
 3504.00    0.59265   0.57707   -1.000
 3505.00    0.57790   0.57097  241.404
 3506.00    0.61093   0.56891   -1.000
 3507.00    0.59168   0.57123   -1.000
 3508.00    0.59182   0.57412   -1.000
 3509.00    0.59202   0.57356   -1.000
 3510.00    0.59521   0.57081   -1.000
 3511.00    0.60296   0.56764   -1.000
 3512.00    0.60079   0.56409   -1.000
 3513.00    0.59555   0.56160   -1.000
 3514.00    0.60934   0.56465   -1.000
 3515.00    0.60520   0.57204   -1.000
 3516.00    0.60027   0.58010   -1.000
 3517.00    0.62708   0.58582   -1.000
 3518.00    0.60203   0.58739   -1.000
 3519.00    0.59628   0.58451   -1.000
 3520.00    0.60235   0.57840   -1.000
 3521.00    0.58168   0.57211   -1.000
 3522.00    0.59532   0.56808   -1.000
 3523.00    0.57350   0.56589  276.924
 3524.00    0.56772   0.56491  276.924
 3525.00    0.56381   0.56497   32.956
 3526.00    0.56701   0.56803   31.347
 3527.00    0.59698   0.57453   31.246
 3528.00    0.57707   0.58216  167.365
 3529.00    0.59330   0.58799  272.283
 3530.00    0.61184   0.59106   -1.000
 3531.00    0.61558   0.59276   -1.000
 3532.00    0.60303   0.59416  256.974
 3533.00    0.57789   0.59448   -1.000
 3534.00    0.59313   0.59494  256.410
 3535.00    0.59463   0.59574  252.221
 3536.00    0.60174   0.59530  246.937
 3537.00    0.62432   0.59525   -1.000
 3538.00    0.60757   0.59738  244.008
 3539.00    0.62395   0.59930   -1.000
 3540.00    0.60291   0.59958  238.588
 3541.00    0.60638   0.59927  240.253
 3542.00    0.60163   0.60114  244.650
 3543.00    0.56903   0.60486   -1.000
 3544.00    0.58250   0.60768   -1.000
 3545.00    0.59321   0.60729  242.109
 3546.00    0.59367   0.60624  241.135
 3547.00    0.58166   0.60680   -1.000
 3548.00    0.57415   0.60749   -1.000
 3549.00    0.59459   0.60768  252.143
 3550.00    0.60844   0.60766  251.723
 3551.00    0.58605   0.60753   -1.000
 3552.00    0.58841   0.60633   -1.000
 3553.00    0.54917   0.60352   -1.000
 3554.00    0.57642   0.60092   -1.000
 3555.00    0.61825   0.60007   -1.000
 3556.00    0.58848   0.60057  270.932
 3557.00    0.59420   0.60125  264.979
 3558.00    0.60321   0.60081  265.575
 3559.00    0.59218   0.60004  269.221
 3560.00    0.59639   0.60176  272.711
 3561.00    0.58882   0.60661   -1.000
 3562.00    0.61253   0.60937  265.549
 3563.00    0.62046   0.60432   -1.000
 3564.00    0.59912   0.59238  264.591
 3565.00    0.58038   0.58323  276.924
 3566.00    0.56545   0.58091   33.689
 3567.00    0.56177   0.58186   31.785
 3568.00    0.55576   0.58146   31.569
 3569.00    0.54418   0.57534   31.375
 3570.00    0.54843   0.56697   32.333
 3571.00    0.54857   0.56214   32.977
 3572.00    0.54332   0.56307   32.088
 3573.00    0.56795   0.56553   30.687
 3574.00    0.58865   0.56745   -1.000
 3575.00    0.61267   0.56980   -1.000
 3576.00    0.61106   0.57183   -1.000
 3577.00    0.58809   0.57017   -1.000
 3578.00    0.57561   0.56524   -1.000
 3579.00    0.56826   0.55899   -1.000
 3580.00    0.51658   0.55471   34.973
 3581.00    0.51422   0.55334   33.939
 3582.00    0.52492   0.55401   35.886
 3583.00    0.54016   0.55503   36.284
 3584.00    0.56701   0.55325   36.440
 3585.00    0.53781   0.54984   37.288
 3586.00    0.53390   0.54895   38.494
 3587.00    0.53331   0.55070   39.108
 3588.00    0.55530   0.55557   37.361
 3589.00    0.59820   0.56454   35.375
 3590.00    0.56985   0.57374   33.650
 3591.00    0.57190   0.57820   30.758
 3592.00    0.57595   0.57878  148.288
 3593.00    0.56855   0.57954  271.874
 3594.00    0.57634   0.58287  270.393
 3595.00    0.58996   0.58821  266.296
 3596.00    0.58716   0.59336  258.159
 3597.00    0.57114   0.59882   -1.000
 3598.00    0.60796   0.60436  238.332
 3599.00    0.63784   0.60769   -1.000
 3600.00    0.60726   0.60651  227.998
 3601.00    0.57846   0.60072   -1.000
 3602.00    0.60751   0.59329   -1.000
 3603.00    0.60127   0.58662   -1.000
 3604.00    0.60053   0.58411   -1.000
 3605.00    0.60390   0.58498   -1.000
 3606.00    0.58661   0.58572  272.979
 3607.00    0.58800   0.58409  270.547
 3608.00    0.58841   0.58152  272.982
 3609.00    0.58660   0.58202  276.924
 3610.00    0.54711   0.58598   -1.000
 3611.00    0.55624   0.58953   -1.000
 3612.00    0.58707   0.59170  276.924
 3613.00    0.58909   0.59302  268.777
 3614.00    0.59988   0.59491  262.075
 3615.00    0.60746   0.59755   -1.000
 3616.00    0.58701   0.59612  248.245
 3617.00    0.59631   0.58891  247.807
 3618.00    0.57682   0.58488  267.047
 3619.00    0.57296   0.58778   -1.000
 3620.00    0.56636   0.59493   33.761
 3621.00    0.62575   0.60533   -1.000
 3622.00    0.63879   0.61411   -1.000
 3623.00    0.62782   0.61777   -1.000
 3624.00    0.62838   0.62081  238.765
 3625.00    0.61770   0.62775  235.549
 3626.00    0.60776   0.63623   -1.000
 3627.00    0.63248   0.64068  217.934
 3628.00    0.65507   0.63541   -1.000
 3629.00    0.62959   0.62137  217.302
 3630.00    0.59494   0.60694  229.681
 3631.00    0.56853   0.59897   -1.000
 3632.00    0.54765   0.59954   -1.000
 3633.00    0.55983   0.60589   -1.000
 3634.00    0.56991   0.61185   -1.000
 3635.00    0.58666   0.61088   -1.000
 3636.00    0.59613   0.60782  259.915
 3637.00    0.63330   0.61119   -1.000
 3638.00    0.64227   0.61805   -1.000
 3639.00    0.61043   0.62337  228.137
 3640.00    0.61165   0.62429  220.207
 3641.00    0.62558   0.62153  219.179
 3642.00    0.64630   0.61630   -1.000
 3643.00    0.63892   0.60956   -1.000
 3644.00    0.60955   0.60429  243.559
 3645.00    0.60005   0.60062  251.388
 3646.00    0.60561   0.59709  256.018
 3647.00    0.61622   0.59590   -1.000
 3648.00    0.62459   0.59750   -1.000
 3649.00    0.62082   0.60165   -1.000
 3650.00    0.59712   0.60777  258.969
 3651.00    0.62501   0.61438   -1.000
 3652.00    0.62200   0.61995  236.963
 3653.00    0.63432   0.62360  226.843
 3654.00    0.63221   0.62598  220.835
 3655.00    0.63351   0.62915  217.511
 3656.00    0.66040   0.63371   -1.000
 3657.00    0.66435   0.63666   -1.000
 3658.00    0.66236   0.63698   -1.000
 3659.00    0.66555   0.63564   -1.000
 3660.00    0.64117   0.63363  208.296
 3661.00    0.64091   0.63132  208.310
 3662.00    0.63699   0.62859  210.366
 3663.00    0.63241   0.62719  212.637
 3664.00    0.66232   0.62680   -1.000
 3665.00    0.66574   0.62747   -1.000
 3666.00    0.65035   0.62770   -1.000
 3667.00    0.64077   0.62496   -1.000
 3668.00    0.64769   0.62184   -1.000
 3669.00    0.62293   0.62299  222.415
 3670.00    0.60726   0.62819   -1.000
 3671.00    0.63594   0.63371  226.946
 3672.00    0.64718   0.63574   -1.000
 3673.00    0.65204   0.63374   -1.000
 3674.00    0.65431   0.62995   -1.000
 3675.00    0.66356   0.62514   -1.000
 3676.00    0.66738   0.62013   -1.000
 3677.00    0.64295   0.61436   -1.000
 3678.00    0.61997   0.60983  226.217
 3679.00    0.60256   0.60876  233.101
 3680.00    0.63012   0.61203   -1.000
 3681.00    0.66348   0.61772   -1.000
 3682.00    0.63910   0.62144   -1.000
 3683.00    0.63796   0.62265   -1.000
 3684.00    0.63633   0.61924   -1.000
 3685.00    0.63002   0.61004   -1.000
 3686.00    0.60801   0.60225  237.883
 3687.00    0.60654   0.60500  247.693
 3688.00    0.60359   0.61840   -1.000
 3689.00    0.61939   0.63225  247.078
 3690.00    0.63988   0.63736  231.724
 3691.00    0.66795   0.63578   -1.000
 3692.00    0.67722   0.63602   -1.000
 3693.00    0.66950   0.63881   -1.000
 3694.00    0.63200   0.63901  214.852
 3695.00    0.64684   0.63412   -1.000
 3696.00    0.65145   0.62851   -1.000
 3697.00    0.64228   0.63033  215.856
 3698.00    0.66711   0.64237   -1.000
 3699.00    0.69031   0.65933   -1.000
 3700.00    0.70103   0.66789   -1.000
 3701.00    0.70347   0.65809   -1.000
 3702.00    0.67602   0.63130   -1.000
 3703.00    0.64516   0.59970   -1.000
 3704.00    0.62156   0.57961   -1.000
 3705.00    0.62096   0.57909   -1.000
 3706.00    0.61394   0.59439   -1.000
 3707.00    0.63683   0.61206   -1.000
 3708.00    0.62601   0.62107  258.521
 3709.00    0.62775   0.61674   -1.000
 3710.00    0.61481   0.60582  247.746
 3711.00    0.64189   0.59922   -1.000
 3712.00    0.64372   0.60499   -1.000
 3713.00    0.66330   0.62325   -1.000
 3714.00    0.68977   0.64741   -1.000
 3715.00    0.67105   0.66752  197.528
 3716.00    0.67471   0.67576  196.371
 3717.00    0.66362   0.67160  200.834
 3718.00    0.65406   0.65111  209.431
 3719.00    0.62713   0.61397   -1.000
 3720.00    0.60450   0.57752   -1.000
 3721.00    0.57002   0.55905   -1.000
 3722.00    0.56283   0.56240   35.554
 3723.00    0.59417   0.58834  128.012
 3724.00    0.62124   0.62509  258.619
 3725.00    0.65823   0.65162  231.725
 3726.00    0.69257   0.66273   -1.000
 3727.00    0.67883   0.67083  220.519
 3728.00    0.68897   0.67827  227.071
 3729.00    0.70683   0.68047   -1.000
 3730.00    0.71573   0.66851   -1.000
 3731.00    0.67347   0.63791   -1.000
 3732.00    0.60329   0.59660  237.520
 3733.00    0.57769   0.55738   -1.000
 3734.00    0.56761   0.53369   34.979
 3735.00    0.55819   0.53688   33.302
 3736.00    0.54770   0.56382   34.971
 3737.00    0.55291   0.60372   33.641
 3738.00    0.60869   0.64660   30.663
 3739.00    0.64099   0.68229   -1.000
 3740.00    0.67758   0.70048   -1.000
 3741.00    0.71528   0.70323   -1.000
 3742.00    0.70176   0.69494  225.443
 3743.00    0.69035   0.68213  232.922
 3744.00    0.65483   0.66844  246.981
 3745.00    0.66085   0.65129   -1.000
 3746.00    0.65312   0.62696   -1.000
 3747.00    0.60280   0.59446   -1.000
 3748.00    0.57147   0.55753   35.696
 3749.00    0.56127   0.53374   32.342
 3750.00    0.59577   0.54029   32.956
 3751.00    0.61569   0.57195   -1.000
 3752.00    0.65558   0.61343   -1.000
 3753.00    0.69635   0.65232   -1.000
 3754.00    0.68978   0.68084  219.095
 3755.00    0.72867   0.69391   -1.000
 3756.00    0.74507   0.68996   -1.000
 3757.00    0.68362   0.67192  211.063
 3758.00    0.68123   0.65454   -1.000
 3759.00    0.68702   0.64825   -1.000
 3760.00    0.66238   0.65261   -1.000
 3761.00    0.67894   0.66426   -1.000
 3762.00    0.70986   0.67805   -1.000
 3763.00    0.70709   0.68516   -1.000
 3764.00    0.69038   0.68285  232.340
 3765.00    0.68979   0.67135   -1.000
 3766.00    0.67321   0.65328   -1.000
 3767.00    0.66127   0.63024   -1.000
 3768.00    0.65093   0.60151   -1.000
 3769.00    0.61974   0.57213   -1.000
 3770.00    0.61047   0.55588   -1.000
 3771.00    0.62365   0.56661   -1.000
 3772.00    0.64150   0.60006   -1.000
 3773.00    0.65727   0.63596   -1.000
 3774.00    0.68407   0.66307   -1.000
 3775.00    0.70680   0.68369   -1.000
 3776.00    0.71316   0.70121  209.510
 3777.00    0.70000   0.71800   -1.000
 3778.00    0.72225   0.73238  208.450
 3779.00    0.75639   0.74371  205.872
 3780.00    0.77977   0.75249   -1.000
 3781.00    0.77909   0.75763   -1.000
 3782.00    0.75431   0.75925  192.754
 3783.00    0.75710   0.75710  191.574
 3784.00    0.75864   0.75164  191.495
 3785.00    0.75768   0.74143   -1.000
 3786.00    0.73614   0.72791  204.837
 3787.00    0.71791   0.71701  219.648
 3788.00    0.72422   0.71135   -1.000
 3789.00    0.70863   0.70891  236.906
 3790.00    0.71799   0.70696  237.400
 3791.00    0.72125   0.70180   -1.000
 3792.00    0.68552   0.69017  231.058
 3793.00    0.66800   0.67112  233.727
 3794.00    0.65896   0.64272   -1.000
 3795.00    0.64278   0.60613   -1.000
 3796.00    0.61813   0.56603   -1.000
 3797.00    0.56938   0.53296   -1.000
 3798.00    0.58013   0.52864   -1.000
 3799.00    0.60093   0.56069   -1.000
 3800.00    0.63281   0.61214   -1.000
 3801.00    0.66364   0.66110  252.542
 3802.00    0.70072   0.69705  231.920
 3803.00    0.70385   0.71906   -1.000
 3804.00    0.72652   0.73072  214.916
 3805.00    0.71997   0.73295  213.165
 3806.00    0.69612   0.73143   -1.000
 3807.00    0.67794   0.73576   -1.000
 3808.00    0.71232   0.74729   -1.000
 3809.00    0.73829   0.76038   -1.000
 3810.00    0.73037   0.76692   -1.000
 3811.00    0.74934   0.76040  212.196
 3812.00    0.73200   0.74214  215.354
 3813.00    0.71482   0.72156  225.869
 3814.00    0.72658   0.70869   -1.000
 3815.00    0.72459   0.70833   -1.000
 3816.00    0.71494   0.71537  266.355
 3817.00    0.69338   0.71815   -1.000
 3818.00    0.69778   0.70955  254.981
 3819.00    0.69440   0.69378  257.034
 3820.00    0.68528   0.68504  272.988
 3821.00    0.65795   0.69258   -1.000
 3822.00    0.66971   0.70517   -1.000
 3823.00    0.70286   0.70542  272.786
 3824.00    0.66340   0.69430   -1.000
 3825.00    0.63322   0.68251   -1.000
 3826.00    0.62971   0.67639   37.836
 3827.00    0.63456   0.67469   32.259
 3828.00    0.64163   0.67130   32.137
 3829.00    0.65523   0.66354   31.651
 3830.00    0.66665   0.64912   31.131
 3831.00    0.62769   0.62444   31.372
 3832.00    0.59856   0.58917   32.638
 3833.00    0.58613   0.54718   35.078
 3834.00    0.55452   0.51225   36.452
 3835.00    0.55302   0.50134   36.020
 3836.00    0.56968   0.51693   34.668
 3837.00    0.58500   0.54856   33.802
 3838.00    0.60779   0.58376   34.285
 3839.00    0.61988   0.61730   35.108
 3840.00    0.62845   0.64960   34.723
 3841.00    0.66886   0.68049   32.941
 3842.00    0.70507   0.70809  118.134
 3843.00    0.70824   0.72954   -1.000
 3844.00    0.73289   0.74262  253.133
 3845.00    0.75366   0.75022  246.585
 3846.00    0.75458   0.75470  245.857
 3847.00    0.75063   0.75628  245.755
 3848.00    0.76416   0.75346  246.121
 3849.00    0.76776   0.75034   -1.000
 3850.00    0.74199   0.75226  260.507
 3851.00    0.73420   0.76036   -1.000
 3852.00    0.73943   0.76698   -1.000
 3853.00    0.75876   0.76487  254.259
 3854.00    0.76259   0.75599  254.564
 3855.00    0.75718   0.74608   -1.000
 3856.00    0.74049   0.73880  267.916
 3857.00    0.73643   0.73445  272.545
 3858.00    0.72512   0.73143  276.924
 3859.00    0.69864   0.73242   36.222
 3860.00    0.68843   0.74047   31.562
 3861.00    0.73986   0.75115   31.322
 3862.00    0.77259   0.75623  110.331
 3863.00    0.78586   0.75411   -1.000
 3864.00    0.79107   0.75168   -1.000
 3865.00    0.78407   0.75094   -1.000
 3866.00    0.77693   0.75284   -1.000
 3867.00    0.76738   0.75851  249.449
 3868.00    0.77003   0.76285  254.135
 3869.00    0.76400   0.76094  263.411
 3870.00    0.73131   0.75204   -1.000
 3871.00    0.74214   0.73970  276.924
 3872.00    0.71894   0.73322   36.884
 3873.00    0.72947   0.74068  109.098
 3874.00    0.74881   0.75739  271.801
 3875.00    0.74761   0.76634   -1.000
 3876.00    0.75207   0.75894  235.479
 3877.00    0.75173   0.74416  240.003
 3878.00    0.70265   0.73555   -1.000
 3879.00    0.70468   0.73663   -1.000
 3880.00    0.71172   0.73849   -1.000
 3881.00    0.69652   0.73268   -1.000
 3882.00    0.68589   0.72266   -1.000
 3883.00    0.69845   0.71226   -1.000
 3884.00    0.71342   0.69431   -1.000
 3885.00    0.68761   0.65972   -1.000
 3886.00    0.63741   0.61151   -1.000
 3887.00    0.61851   0.56408   -1.000
 3888.00    0.60387   0.53587   -1.000
 3889.00    0.60768   0.54184   -1.000
 3890.00    0.63609   0.58255   -1.000
 3891.00    0.68780   0.63902   -1.000
 3892.00    0.71825   0.68679   -1.000
 3893.00    0.73974   0.71575   -1.000
 3894.00    0.74053   0.73192  204.867
 3895.00    0.73445   0.74477  207.942
 3896.00    0.74164   0.75777   -1.000
 3897.00    0.75406   0.76649  203.534
 3898.00    0.77495   0.76805  197.912
 3899.00    0.77652   0.76787  199.876
 3900.00    0.77122   0.77304  202.954
 3901.00    0.78774   0.78246  201.089
 3902.00    0.78134   0.78864  199.018
 3903.00    0.77111   0.78788   -1.000
 3904.00    0.78479   0.78296  207.676
 3905.00    0.76651   0.77860  213.483
 3906.00    0.75589   0.78222   -1.000
 3907.00    0.78839   0.79878  219.452
 3908.00    0.80784   0.81880  208.447
 3909.00    0.80988   0.83071   -1.000
 3910.00    0.81755   0.83545   -1.000
 3911.00    0.82313   0.83544  186.265
 3912.00    0.81879   0.82867  184.516
 3913.00    0.82981   0.81873  183.299
 3914.00    0.82530   0.81292  184.866
 3915.00    0.83095   0.81343   -1.000
 3916.00    0.82192   0.81577  192.784
 3917.00    0.81510   0.81439  195.628
 3918.00    0.82809   0.80741   -1.000
 3919.00    0.81950   0.79740   -1.000
 3920.00    0.78352   0.78999  211.887
 3921.00    0.76547   0.78715   -1.000
 3922.00    0.78306   0.78623  227.668
 3923.00    0.79156   0.78582  226.838
 3924.00    0.78758   0.78579  222.995
 3925.00    0.76978   0.78193  223.623
 3926.00    0.74786   0.77121   -1.000
 3927.00    0.72188   0.75506   -1.000
 3928.00    0.68240   0.73632   -1.000
 3929.00    0.62880   0.71592   -1.000
 3930.00    0.57419   0.68962   -1.000
 3931.00    0.51712   0.65202   -1.000
 3932.00    0.47018   0.60479   -1.000
 3933.00    0.42681   0.57671   -1.000
 3934.00    0.42064   0.59411   -1.000
 3935.00    0.45064   0.63981   -1.000
 3936.00    0.50757   0.68577   -1.000
 3937.00    0.57283   0.72225   -1.000
 3938.00    0.63655   0.74955   -1.000
 3939.00    0.69006   0.77207   34.054
 3940.00    0.72245   0.78932   -1.000
 3941.00    0.75094   0.79719   -1.000
 3942.00    0.76351   0.79664   -1.000
 3943.00    0.75853   0.79180   -1.000
 3944.00    0.76195   0.79019   -1.000
 3945.00    0.80256   0.79579  246.905
 3946.00    0.81703   0.80436   -1.000
 3947.00    0.81019   0.81036  211.469
 3948.00    0.81544   0.81417  207.213
 3949.00    0.83197   0.81752   -1.000
 3950.00    0.81771   0.81869  199.217
 3951.00    0.81702   0.81773  192.505
 3952.00    0.79541   0.81939   -1.000
 3953.00    0.82510   0.82542  194.428
 3954.00    0.84331   0.82858  192.249
 3955.00    0.83203   0.82257  187.666
 3956.00    0.79599   0.81357   -1.000
 3957.00    0.79901   0.81026  194.297
 3958.00    0.82542   0.81023   -1.000
 3959.00    0.80868   0.80309  196.115
 3960.00    0.77707   0.78379  198.990
 3961.00    0.77933   0.75937   -1.000
 3962.00    0.74177   0.73870  243.936
 3963.00    0.71805   0.71909  271.248
 3964.00    0.66747   0.69287   -1.000
 3965.00    0.60946   0.65245   39.469
 3966.00    0.52523   0.59136   35.700
 3967.00    0.44320   0.52105   43.530
 3968.00    0.39262   0.46775   -1.000
 3969.00    0.38124   0.45235   -1.000
 3970.00    0.42530   0.47838   58.230
 3971.00    0.49548   0.53425   49.083
 3972.00    0.57990   0.60043   40.333
 3973.00    0.64496   0.66178   33.630
 3974.00    0.68936   0.71210  102.290
 3975.00    0.73395   0.75108   -1.000
 3976.00    0.76548   0.78050   -1.000
 3977.00    0.77079   0.80277   -1.000
 3978.00    0.81787   0.82241  195.726
 3979.00    0.86406   0.83811   -1.000
 3980.00    0.85487   0.84557  175.294
 3981.00    0.85585   0.84591  171.670
 3982.00    0.83371   0.84512  172.229
 3983.00    0.86736   0.85050   -1.000
 3984.00    0.88606   0.85986   -1.000
 3985.00    0.89925   0.86650   -1.000
 3986.00    0.90084   0.86893   -1.000
 3987.00    0.89552   0.87408   -1.000
 3988.00    0.91846   0.88315   -1.000
 3989.00    0.91714   0.88830   -1.000
 3990.00    0.92662   0.89192   -1.000
 3991.00    0.94235   0.89691   -1.000
 3992.00    0.93741   0.90275   -1.000
 3993.00    0.95456   0.90538   -1.000
 3994.00    0.95114   0.90219   -1.000
 3995.00    0.92549   0.89435   -1.000
 3996.00    0.91270   0.88602   -1.000
 3997.00    0.88440   0.88385  163.864
 3998.00    0.90008   0.88908  165.613
 3999.00    0.92520   0.89723   -1.000
 4000.00    0.94644   0.90406   -1.000
 4001.00    0.95485   0.90709   -1.000
 4002.00    0.94546   0.90483   -1.000
 4003.00    0.95198   0.89733   -1.000
 4004.00    0.97308   0.88579   -1.000
 4005.00    0.96912   0.87857   -1.000
 4006.00    0.93580   0.88538   -1.000
 4007.00    0.93673   0.90037   -1.000
 4008.00    0.95573   0.91231   -1.000
 4009.00    0.97783   0.91795   -1.000
 4010.00    0.97563   0.92085   -1.000
 4011.00    0.96404   0.92330   -1.000
 4012.00    0.96132   0.92522   -1.000
 4013.00    0.96170   0.92862   -1.000
 4014.00    0.96912   0.93314   -1.000
 4015.00    0.98882   0.93718   -1.000
 4016.00    0.98187   0.94160   -1.000
 4017.00    0.98194   0.94616   -1.000
 4018.00    0.98564   0.95104   -1.000
 4019.00    0.99614   0.95470   -1.000
 4020.00    1.00398   0.95420   -1.000
 4021.00    1.00146   0.94911   -1.000
 4022.00    0.98964   0.93898   -1.000
 4023.00    0.98018   0.92154   -1.000
 4024.00    0.97937   0.90375   -1.000
 4025.00    0.99563   0.89914   -1.000
 4026.00    1.00990   0.91189   -1.000
 4027.00    1.02045   0.92971   -1.000
 4028.00    1.02193   0.93787   -1.000
 4029.00    1.00456   0.93345   -1.000
 4030.00    0.97333   0.92241   -1.000
 4031.00    0.93700   0.91297   -1.000
 4032.00    0.95072   0.91021   -1.000
 4033.00    0.97812   0.91461   -1.000
 4034.00    0.97015   0.92659   -1.000
 4035.00    0.98636   0.94484   -1.000
 4036.00    1.02678   0.96568   -1.000
 4037.00    1.04624   0.98233   -1.000
 4038.00    1.04053   0.98784   -1.000
 4039.00    1.02610   0.98372   -1.000
 4040.00    1.00587   0.97962   -1.000
 4041.00    1.00000   0.97685   -1.000
 4042.00    1.02852   0.96873   -1.000
 4043.00    1.01552   0.94922   -1.000
 4044.00    0.98228   0.92261   -1.000
 4045.00    0.95558   0.90799   -1.000
 4046.00    0.94415   0.91647   -1.000
 4047.00    0.96763   0.94104   -1.000
 4048.00    0.98482   0.96556  157.628
 4049.00    1.02558   0.98074   -1.000
 4050.00    1.04351   0.98667   -1.000
 4051.00    1.03068   0.98516   -1.000
 4052.00    1.04248   0.97740   -1.000
 4053.00    1.04045   0.96876   -1.000
 4054.00    1.01241   0.96632   -1.000
 4055.00    1.00345   0.96748   -1.000
 4056.00    1.02126   0.96750   -1.000
 4057.00    1.01825   0.96882   -1.000
 4058.00    1.01289   0.97520   -1.000
 4059.00    1.01558   0.98271   -1.000
 4060.00    1.03565   0.97963   -1.000
 4061.00    1.05248   0.96412   -1.000
 4062.00    1.00086   0.94515   -1.000
 4063.00    0.95249   0.92784   -1.000
 4064.00    0.96494   0.91651   -1.000
 4065.00    0.98474   0.91719   -1.000
 4066.00    0.99240   0.92964   -1.000
 4067.00    0.99477   0.94259   -1.000
 4068.00    1.02016   0.95130   -1.000
 4069.00    1.03851   0.94973   -1.000
 4070.00    1.02826   0.93706   -1.000
 4071.00    1.00214   0.92605   -1.000
 4072.00    1.00223   0.92786   -1.000
 4073.00    1.00369   0.93837   -1.000
 4074.00    0.99702   0.94206   -1.000
 4075.00    0.95661   0.93083   -1.000
 4076.00    0.93247   0.91348   -1.000
 4077.00    0.93896   0.90622   -1.000
 4078.00    0.95116   0.91907   -1.000
 4079.00    0.96636   0.94611   -1.000
 4080.00    1.00368   0.97098   -1.000
 4081.00    1.02358   0.98135   -1.000
 4082.00    1.02631   0.97750   -1.000
 4083.00    1.01641   0.96720   -1.000
 4084.00    0.97791   0.96064  146.456
 4085.00    0.96514   0.96309  149.396
 4086.00    0.99942   0.97294   -1.000
 4087.00    1.03889   0.98488   -1.000
 4088.00    1.06997   0.99121   -1.000
 4089.00    1.06727   0.98922   -1.000
 4090.00    1.03849   0.98297   -1.000
 4091.00    1.03363   0.97987   -1.000
 4092.00    1.03756   0.97680   -1.000
 4093.00    1.02804   0.96728   -1.000
 4094.00    1.02458   0.94817   -1.000
 4095.00    0.99319   0.91994   -1.000
 4096.00    0.94852   0.88930   -1.000
 4097.00    0.93827   0.85674   -1.000
 4098.00    0.94849   0.81537   -1.000
 4099.00    0.89882   0.76021   -1.000
 4100.00    0.83785   0.69945   -1.000
 4101.00    0.79689   0.66115   -1.000
 4102.00    0.78365   0.67242   -1.000
 4103.00    0.82989   0.73133   -1.000
 4104.00    0.89082   0.80681   -1.000
 4105.00    0.94905   0.86768   -1.000
 4106.00    0.96918   0.90647   -1.000
 4107.00    0.99107   0.92936   -1.000
 4108.00    1.00441   0.94072   -1.000
 4109.00    0.98854   0.94653   -1.000
 4110.00    0.97652   0.95367   -1.000
 4111.00    0.99528   0.96417   -1.000
 4112.00    1.01480   0.97613   -1.000
 4113.00    1.02462   0.98866   -1.000
 4114.00    1.03079   1.00126   -1.000
 4115.00    1.04113   1.00893   -1.000
 4116.00    1.04456   1.00853   -1.000
 4117.00    1.03973   1.00063   -1.000
 4118.00    1.01879   0.99154   -1.000
 4119.00    1.00586   0.98749  149.974
 4120.00    1.02086   0.98868   -1.000
 4121.00    1.03452   0.99169   -1.000
 4122.00    1.04302   0.99527   -1.000
 4123.00    1.04705   1.00219   -1.000
 4124.00    1.04951   1.01229   -1.000
 4125.00    1.07497   1.01757   -1.000
 4126.00    1.07928   1.01137   -1.000
 4127.00    1.04825   0.99833   -1.000
 4128.00    1.04786   0.98856   -1.000
 4129.00    1.04490   0.98591   -1.000
 4130.00    1.03496   0.98388   -1.000
 4131.00    1.02562   0.97804   -1.000
 4132.00    1.01982   0.97455   -1.000
 4133.00    0.99521   0.98277  162.666
 4134.00    1.00781   1.00119  164.283
 4135.00    1.05783   1.02144   -1.000
 4136.00    1.08591   1.03741   -1.000
 4137.00    1.09109   1.04728   -1.000
 4138.00    1.10625   1.05410   -1.000
 4139.00    1.12231   1.05619   -1.000
 4140.00    1.10399   1.04792   -1.000
 4141.00    1.06706   1.02698   -1.000
 4142.00    1.03713   0.99988   -1.000
 4143.00    1.01237   0.98182   -1.000
 4144.00    1.00626   0.98737  170.739
 4145.00    1.03668   1.01029   -1.000
 4146.00    1.07742   1.03078   -1.000
 4147.00    1.08944   1.03893   -1.000
 4148.00    1.07213   1.03762   -1.000
 4149.00    1.06432   1.03631   -1.000
 4150.00    1.06184   1.03900   -1.000
 4151.00    1.06917   1.04170   -1.000
 4152.00    1.07255   1.04045   -1.000
 4153.00    1.05861   1.03547   -1.000
 4154.00    1.05855   1.03148   -1.000
 4155.00    1.04453   1.03289  159.520
 4156.00    1.04947   1.03924  157.191
 4157.00    1.06520   1.04927  155.129
 4158.00    1.23146   1.06023   -1.000
 4159.00    1.40240   1.06667   -1.000
 4160.00    1.10495   1.06787   -1.000
 4161.00    0.86301   1.06879   -1.000
 4162.00    1.03473   1.07203   -1.000
 4163.00    1.14416   1.07552   -1.000
 4164.00    1.12784   1.07782   -1.000
 4165.00    1.10885   1.07634   -1.000
 4166.00    1.09679   1.06916   -1.000
 4167.00    1.10763   1.06238   -1.000
 4168.00    1.10855   1.06179   -1.000
 4169.00    1.10199   1.05997   -1.000
 4170.00    1.08902   1.04658   -1.000
 4171.00    1.05718   1.02367   -1.000
 4172.00    1.02047   1.00444  159.909
 4173.00    1.01707   1.00268  169.748
 4174.00    1.03354   1.01728  172.832
 4175.00    1.04947   1.03261  168.199
 4176.00    1.05475   1.03661  162.042
 4177.00    1.06320   1.03328   -1.000
 4178.00    1.06902   1.03538   -1.000
 4179.00    1.07374   1.04531   -1.000
 4180.00    1.08941   1.05420   -1.000
 4181.00    1.09034   1.05732   -1.000
 4182.00    1.09363   1.05819   -1.000
 4183.00    1.10734   1.06271   -1.000
 4184.00    1.10922   1.06825   -1.000
 4185.00    1.10989   1.06728   -1.000
 4186.00    1.09494   1.05953   -1.000
 4187.00    1.08771   1.05288   -1.000
 4188.00    1.08736   1.05410   -1.000
 4189.00    1.07202   1.05867  158.022
 4190.00    1.06990   1.06151  154.922
 4191.00    1.09117   1.06614   -1.000
 4192.00    1.11909   1.07414   -1.000
 4193.00    1.12848   1.07857   -1.000
 4194.00    1.12751   1.07198   -1.000
 4195.00    1.11230   1.05537   -1.000
 4196.00    1.06859   1.03589   -1.000
 4197.00    1.05395   1.01748   -1.000
 4198.00    1.05569   1.00189   -1.000
 4199.00    1.05269   0.99463   -1.000
 4200.00    1.05826   0.99742   -1.000
 4201.00    1.05851   1.00677   -1.000
 4202.00    1.06278   1.02140   -1.000
 4203.00    1.07898   1.03934   -1.000
 4204.00    1.07408   1.05647  158.638
 4205.00    1.06639   1.07217  157.122
 4206.00    1.08812   1.08659  154.583
 4207.00    1.11046   1.09594  150.903
 4208.00    1.13425   1.09730   -1.000
 4209.00    1.14238   1.09439   -1.000
 4210.00    1.12542   1.09403   -1.000
 4211.00    1.12544   1.09764   -1.000
 4212.00    1.14468   1.09859   -1.000
 4213.00    1.14337   1.08966   -1.000
 4214.00    1.11359   1.07242   -1.000
 4215.00    1.08423   1.05930   -1.000
 4216.00    1.08955   1.06290   -1.000
 4217.00    1.10631   1.08374   -1.000
 4218.00    1.12158   1.10684  149.538
 4219.00    1.15347   1.11966   -1.000
 4220.00    1.16628   1.12201   -1.000
 4221.00    1.15426   1.11372   -1.000
 4222.00    1.13853   1.09271   -1.000
 4223.00    1.11209   1.06049   -1.000
 4224.00    1.07240   1.02363   -1.000
 4225.00    1.00982   0.99233  162.869
 4226.00    0.96312   0.98026  183.226
 4227.00    0.99316   0.99976  201.123
 4228.00    1.05115   1.04286  195.987
 4229.00    1.09802   1.08224  172.684
 4230.00    1.13552   1.10036   -1.000
 4231.00    1.14603   1.09548   -1.000
 4232.00    1.13988   1.07888   -1.000
 4233.00    1.12641   1.06755   -1.000
 4234.00    1.11333   1.06735   -1.000
 4235.00    1.11031   1.07303   -1.000
 4236.00    1.09065   1.08017  151.462
 4237.00    1.07741   1.08861  154.476
 4238.00    1.10674   1.09880  154.393
 4239.00    1.13034   1.10917   -1.000
 4240.00    1.13399   1.11759  148.813
 4241.00    1.13100   1.12340  146.163
 4242.00    1.14428   1.13101  143.949
 4243.00    1.16073   1.14181  142.977
 4244.00    1.15902   1.14821  141.030
 4245.00    1.16118   1.14191  138.165
 4246.00    1.15026   1.12462   -1.000
 4247.00    1.12011   1.10776  143.477
 4248.00    1.09502   1.09860  149.375
 4249.00    1.06962   1.09552   -1.000
 4250.00    1.07081   1.09700   -1.000
 4251.00    1.10928   1.10324  156.002
 4252.00    1.13901   1.10868   -1.000
 4253.00    1.13779   1.10566   -1.000
 4254.00    1.13300   1.10308   -1.000
 4255.00    1.11909   1.11140  150.922
 4256.00    1.12496   1.12243  150.703
 4257.00    1.14414   1.12299  145.755
 4258.00    1.13647   1.10993   -1.000
 4259.00    1.11850   1.09445   -1.000
 4260.00    1.09396   1.09118  154.494
 4261.00    1.09576   1.10733  159.899
 4262.00    1.13392   1.13678  156.611
 4263.00    1.15966   1.16334  147.705
 4264.00    1.17721   1.17780  140.039
 4265.00    1.18742   1.17931  135.866
 4266.00    1.18022   1.17251  134.784
 4267.00    1.17776   1.16012  136.318
 4268.00    1.17212   1.14046   -1.000
 4269.00    1.15603   1.11472   -1.000
 4270.00    1.11701   1.08772   -1.000
 4271.00    1.06422   1.06688  158.643
 4272.00    1.05343   1.06135  168.750
 4273.00    1.07123   1.06933  172.992
 4274.00    1.06750   1.08442   -1.000
 4275.00    1.07731   1.10849   -1.000
 4276.00    1.12689   1.13864  159.745
 4277.00    1.16444   1.16107  150.159
 4278.00    1.19485   1.16758   -1.000
 4279.00    1.15836   1.16243  140.442
 4280.00    1.10884   1.15560   -1.000
 4281.00    1.09455   1.15261   -1.000
 4282.00    1.13143   1.15280   -1.000
 4283.00    1.15913   1.15205  150.828
 4284.00    1.13410   1.14978  149.198
 4285.00    1.11601   1.14459   -1.000
 4286.00    1.11246   1.13483   -1.000
 4287.00    1.09026   1.12054   -1.000
 4288.00    1.07103   1.10046   -1.000
 4289.00    1.04980   1.08148   -1.000
 4290.00    1.04224   1.07953   -1.000
 4291.00    1.05025   1.09798   -1.000
 4292.00    1.08866   1.11762   -1.000
 4293.00    1.11292   1.12213  159.696
 4294.00    1.10488   1.11534  154.578
 4295.00    1.10057   1.10746  154.853
 4296.00    1.09964   1.09896  157.161
 4297.00    1.06558   1.08357  160.487
 4298.00    1.02902   1.05898   -1.000
 4299.00    0.98787   1.03520   -1.000
 4300.00    0.96570   1.02270   -1.000
 4301.00    0.97903   1.02253   -1.000
 4302.00    0.99190   1.03021   -1.000
 4303.00    0.99517   1.04543   -1.000
 4304.00    1.00700   1.06188   -1.000
 4305.00    1.02195   1.06603   -1.000
 4306.00    0.99967   1.05421   -1.000
 4307.00    0.96439   1.03765   -1.000
 4308.00    0.95672   1.03288   -1.000
 4309.00    0.95963   1.04693   -1.000
 4310.00    0.97750   1.07028   -1.000
 4311.00    0.99981   1.08864   -1.000
 4312.00    1.03214   1.09978   -1.000
 4313.00    1.05502   1.11345   -1.000
 4314.00    1.08792   1.14270   -1.000
 4315.00    1.15166   1.18714   -1.000
 4316.00    1.22651   1.22725  145.942
 4317.00    1.26590   1.24980  134.384
 4318.00    1.24232   1.25278  128.118
 4319.00    1.24574   1.24312  126.863
 4320.00    1.23265   1.22872  128.338
 4321.00    1.21643   1.21078  131.024
 4322.00    1.19097   1.18614  135.055
 4323.00    1.13622   1.15199  141.123
 4324.00    1.08528   1.11855   -1.000
 4325.00    1.07768   1.10927   -1.000
 4326.00    1.10388   1.13799   -1.000
 4327.00    1.16518   1.18574   -1.000
 4328.00    1.22596   1.21832  150.427
 4329.00    1.24758   1.22699  138.063
 4330.00    1.23615   1.22249  133.357
 4331.00    1.24522   1.22105   -1.000
 4332.00    1.24221   1.22382  132.829
 4333.00    1.22704   1.22134  130.930
 4334.00    1.22630   1.20550  129.278
 4335.00    1.20900   1.16524   -1.000
 4336.00    1.16647   1.09292   -1.000
 4337.00    1.10234   0.99838   -1.000
 4338.00    1.03579   0.90799   -1.000
 4339.00    0.94507   0.84722   -1.000
 4340.00    0.88834   0.83964   -1.000
 4341.00    0.95084   0.89264   -1.000
 4342.00    1.07641   0.97960   -1.000
 4343.00    1.14024   1.06040   -1.000
 4344.00    1.16803   1.11913   -1.000
 4345.00    1.19844   1.16254   -1.000
 4346.00    1.21074   1.19934  137.909
 4347.00    1.22669   1.22907  135.160
 4348.00    1.24386   1.24306  133.509
 4349.00    1.26159   1.23231   -1.000
 4350.00    1.24081   1.20349   -1.000
 4351.00    1.18287   1.18146  136.344
 4352.00    1.15458   1.18458   -1.000
 4353.00    1.18876   1.20986   -1.000
 4354.00    1.24907   1.24115  146.860
 4355.00    1.27190   1.26407  140.229
 4356.00    1.26749   1.27534  135.295
 4357.00    1.27992   1.27683  132.117
 4358.00    1.28055   1.27380  131.352
 4359.00    1.26740   1.27497  133.430
 4360.00    1.25696   1.28453   -1.000
 4361.00    1.25794   1.29703   -1.000
 4362.00    1.29815   1.30738  130.410
 4363.00    1.34082   1.31732  128.171
 4364.00    1.34255   1.32457  127.435
 4365.00    1.32505   1.32030  126.286
 4366.00    1.29589   1.30220  125.756
 4367.00    1.27402   1.28106  128.449
 4368.00    1.27388   1.26830  133.042
 4369.00    1.28085   1.26436  135.580
 4370.00    1.28075   1.26232  135.024
 4371.00    1.28891   1.25722   -1.000
 4372.00    1.27923   1.24427   -1.000
 4373.00    1.24008   1.22338  134.566
 4374.00    1.22482   1.20716  138.816
 4375.00    1.21859   1.21186  144.509
 4376.00    1.22791   1.23641  146.332
 4377.00    1.28015   1.26231  141.988
 4378.00    1.30926   1.27525   -1.000
 4379.00    1.31703   1.27175   -1.000
 4380.00    1.32809   1.25181   -1.000
 4381.00    1.31121   1.21279   -1.000
 4382.00    1.25390   1.16030   -1.000
 4383.00    1.17000   1.11744   -1.000
 4384.00    1.13350   1.11274   -1.000
 4385.00    1.17292   1.14410   -1.000
 4386.00    1.23700   1.18316   -1.000
 4387.00    1.27022   1.20957   -1.000
 4388.00    1.26973   1.22231   -1.000
 4389.00    1.27016   1.22879   -1.000
 4390.00    1.27196   1.23412   -1.000
 4391.00    1.27912   1.24425   -1.000
 4392.00    1.29838   1.25290   -1.000
 4393.00    1.30225   1.24896   -1.000
 4394.00    1.28558   1.24331   -1.000
 4395.00    1.27892   1.25356   -1.000
 4396.00    1.29714   1.27689  139.427
 4397.00    1.30477   1.29141  134.710
 4398.00    1.31456   1.28375   -1.000
 4399.00    1.30244   1.26708   -1.000
 4400.00    1.28364   1.26097   -1.000
 4401.00    1.29256   1.26606   -1.000
 4402.00    1.31963   1.26422   -1.000
 4403.00    1.32043   1.24583   -1.000
 4404.00    1.27928   1.22703   -1.000
 4405.00    1.25322   1.22568   -1.000
 4406.00    1.26138   1.23852  149.610
 4407.00    1.25420   1.25362  146.318
 4408.00    1.25194   1.26869  143.186
 4409.00    1.27836   1.29079  141.728
 4410.00    1.32796   1.31715  137.584
 4411.00    1.35956   1.33322   -1.000
 4412.00    1.35273   1.32968  126.930
 4413.00    1.36374   1.30524   -1.000
 4414.00    1.34773   1.26908   -1.000
 4415.00    1.30335   1.24352   -1.000
 4416.00    1.27897   1.24591   -1.000
 4417.00    1.29168   1.27311  139.441
 4418.00    1.32897   1.31022  135.692
 4419.00    1.36329   1.34029  130.232
 4420.00    1.35705   1.34684  125.993
 4421.00    1.33151   1.33453  125.396
 4422.00    1.32272   1.32232  127.993
 4423.00    1.31476   1.32017  130.724
 4424.00    1.30850   1.32379  130.945
 4425.00    1.31392   1.32399  130.198
 4426.00    1.29844   1.32143   -1.000
 4427.00    1.27337   1.32209   -1.000
 4428.00    1.27691   1.32544   -1.000
 4429.00    1.28973   1.32964   -1.000
 4430.00    1.29618   1.33408   -1.000
 4431.00    1.31934   1.33782  131.331
 4432.00    1.33205   1.33643  130.391
 4433.00    1.31508   1.32437  129.154
 4434.00    1.29344   1.30857  131.719
 4435.00    1.28311   1.30877   -1.000
 4436.00    1.30407   1.33297   -1.000
 4437.00    1.35983   1.36844  137.456
 4438.00    1.40605   1.39425  129.736
 4439.00    1.42469   1.39664   -1.000
 4440.00    1.40855   1.37558   -1.000
 4441.00    1.35547   1.34401  124.136
 4442.00    1.32135   1.32229  129.560
 4443.00    1.30871   1.32581  135.353
 4444.00    1.32492   1.35619   -1.000
 4445.00    1.37211   1.39312  134.020
 4446.00    1.38994   1.41543   -1.000
 4447.00    1.41097   1.42095  124.964
 4448.00    1.42259   1.41829  124.294
 4449.00    1.40420   1.41367  124.527
 4450.00    1.40066   1.40987  125.538
 4451.00    1.40916   1.40776  126.863
 4452.00    1.41030   1.39870  126.618
 4453.00    1.40245   1.37542   -1.000
 4454.00    1.36068   1.34881  130.279
 4455.00    1.32236   1.33620  136.015
 4456.00    1.34526   1.34265  140.031
 4457.00    1.37585   1.35559  139.294
 4458.00    1.37413   1.36294  136.728
 4459.00    1.36844   1.36354  135.981
 4460.00    1.36472   1.36241  136.545
 4461.00    1.35707   1.36641  137.753
 4462.00    1.37659   1.37857  139.073
 4463.00    1.40831   1.39428  137.626
 4464.00    1.42832   1.40630  132.969
 4465.00    1.43307   1.41008  129.083
 4466.00    1.42811   1.40287   -1.000
 4467.00    1.42059   1.38710   -1.000
 4468.00    1.39296   1.36979   -1.000
 4469.00    1.37880   1.36055  131.259
 4470.00    1.40054   1.36678   -1.000
 4471.00    1.43180   1.38806   -1.000
 4472.00    1.45425   1.41845   -1.000
 4473.00    1.48616   1.44917   -1.000
 4474.00    1.53132   1.47099   -1.000
 4475.00    1.53628   1.48148   -1.000
 4476.00    1.51808   1.48709   -1.000
 4477.00    1.51699   1.48790   -1.000
 4478.00    1.51957   1.47357   -1.000
 4479.00    1.51349   1.43955   -1.000
 4480.00    1.49224   1.40099   -1.000
 4481.00    1.45711   1.38750   -1.000
 4482.00    1.44525   1.40832   -1.000
 4483.00    1.48119   1.44805   -1.000
 4484.00    1.50983   1.48769  126.078
 4485.00    1.52294   1.51105  121.029
 4486.00    1.54483   1.50968   -1.000
 4487.00    1.54162   1.48680   -1.000
 4488.00    1.50806   1.45886   -1.000
 4489.00    1.48011   1.44373   -1.000
 4490.00    1.47872   1.44853   -1.000
 4491.00    1.50901   1.46426   -1.000
 4492.00    1.52107   1.47654   -1.000
 4493.00    1.51130   1.47518   -1.000
 4494.00    1.49319   1.46604   -1.000
 4495.00    1.45988   1.46517  124.992
 4496.00    1.46354   1.47621  128.142
 4497.00    1.48628   1.49100  128.140
 4498.00    1.49458   1.49974  124.628
 4499.00    1.50720   1.49698  120.775
 4500.00    1.52979   1.48829   -1.000
 4501.00    1.50967   1.49106  119.378
 4502.00    1.49373   1.51391  120.361
 4503.00    1.52674   1.54554  118.510
 4504.00    1.56193   1.56861  114.675
 4505.00    1.58990   1.57452  111.963
 4506.00    1.58063   1.56517  111.814
 4507.00    1.56059   1.55063  113.643
 4508.00    1.56446   1.54449  115.228
 4509.00    1.57471   1.55022  115.648
 4510.00    1.58688   1.55827   -1.000
 4511.00    1.60444   1.55848   -1.000
 4512.00    1.59055   1.54934   -1.000
 4513.00    1.57078   1.53539   -1.000
 4514.00    1.55885   1.52266   -1.000
 4515.00    1.54830   1.51833   -1.000
 4516.00    1.54927   1.52228   -1.000
 4517.00    1.54398   1.52491  119.395
 4518.00    1.53344   1.52341  120.324
 4519.00    1.54934   1.52394   -1.000
 4520.00    1.55258   1.52779   -1.000
 4521.00    1.55312   1.52889   -1.000
 4522.00    1.54403   1.52306  117.291
 4523.00    1.53027   1.51444  119.279
 4524.00    1.51016   1.50799  121.915
 4525.00    1.50040   1.49957  123.455
 4526.00    1.50767   1.48346  125.129
 4527.00    1.50333   1.46143   -1.000
 4528.00    1.48361   1.44286   -1.000
 4529.00    1.47351   1.44018   -1.000
 4530.00    1.48399   1.45454   -1.000
 4531.00    1.49107   1.46970  132.462
 4532.00    1.49532   1.46807   -1.000
 4533.00    1.48257   1.45276   -1.000
 4534.00    1.46258   1.44387  130.892
 4535.00    1.46697   1.45781  135.184
 4536.00    1.49657   1.49360  135.710
 4537.00    1.55285   1.53301  129.877
 4538.00    1.59847   1.55438   -1.000
 4539.00    1.60041   1.54839   -1.000
 4540.00    1.57738   1.52648   -1.000
 4541.00    1.56990   1.51092   -1.000
 4542.00    1.58341   1.51262   -1.000
 4543.00    1.58161   1.52348   -1.000
 4544.00    1.55185   1.53240  119.177
 4545.00    1.51074   1.53768   -1.000
 4546.00    1.57434   1.54097   74.545
 4547.00    1.12659   1.53665   -1.000
 4548.00    0.28176   1.52005   -1.000
 4549.00   -0.05487   1.50372    0.000
 4550.00    0.46065   1.50788   -1.000
 4551.00    0.81222   1.52800   -1.000
 4552.00    0.69036   1.53831   -1.000
 4553.00    1.19781   1.52870   -1.000
 4554.00    1.53141   1.51346  126.045
 4555.00    1.50231   1.51318  127.540
 4556.00    1.55504   1.53646  126.728
 4557.00    1.59872   1.57091   -1.000
 4558.00    1.62399   1.59827   -1.000
 4559.00    1.64378   1.61627   -1.000
 4560.00    1.64000   1.62915  114.792
 4561.00    1.61725   1.63126  115.047
 4562.00    1.59754   1.61621  115.030
 4563.00    1.58268   1.59157  116.725
 4564.00    1.56641   1.57567  119.641
 4565.00    1.56705   1.57890  122.047
 4566.00    1.59158   1.59767  121.948
 4567.00    1.62856   1.62081  119.411
 4568.00    1.65276   1.63550  116.255
 4569.00    1.65304   1.63410  114.377
 4570.00    1.61735   1.61682  114.777
 4571.00    1.56830   1.59473  117.132
 4572.00    1.54945   1.58959   -1.000
 4573.00    1.58780   1.60750  120.860
 4574.00    1.62964   1.62758  118.125
 4575.00    1.62986   1.63460  115.672
 4576.00    1.63214   1.63398  115.140
 4577.00    1.63850   1.63136  115.537
 4578.00    1.61610   1.62107  116.166
 4579.00    1.58579   1.60062  117.660
 4580.00    1.57226   1.57994  120.651
 4581.00    1.56325   1.56652  123.619
 4582.00    1.57320   1.55818  124.340
 4583.00    1.57942   1.55679   -1.000
 4584.00    1.58230   1.56631  121.788
 4585.00    1.59450   1.58222  121.693
 4586.00    1.61677   1.59821  122.338
 4587.00    1.63662   1.61188   -1.000
 4588.00    1.64642   1.62280   -1.000
 4589.00    1.63731   1.62799  116.107
 4590.00    1.62668   1.62592  115.074
 4591.00    1.62034   1.61847  116.101
 4592.00    1.62116   1.61202  118.138
 4593.00    1.61486   1.61353  120.276
 4594.00    1.61546   1.62115  121.151
 4595.00    1.62288   1.63024  120.507
 4596.00    1.62429   1.63972  119.503
 4597.00    1.63193   1.64818  118.949
 4598.00    1.64379   1.65171  118.688
 4599.00    1.63912   1.64852  118.429
 4600.00    1.63115   1.64200  118.967
 4601.00    1.61390   1.63767  120.062
 4602.00    1.60849   1.63808   -1.000
 4603.00    1.62719   1.64018  120.007
 4604.00    1.64752   1.64167  118.648
 4605.00    1.66101   1.64606  118.252
 4606.00    1.66483   1.65752  118.244
 4607.00    1.67414   1.67508  117.364
 4608.00    1.69548   1.69536  115.414
 4609.00    1.71511   1.71137  112.987
 4610.00    1.71473   1.71504  111.231
 4611.00    1.70083   1.70864  111.051
 4612.00    1.68083   1.70078  112.224
 4613.00    1.67028   1.69831  113.615
 4614.00    1.67916   1.70096  114.548
 4615.00    1.69035   1.70193  114.477
 4616.00    1.70208   1.69823  113.599
 4617.00    1.69852   1.69211  112.917
 4618.00    1.67643   1.68712  113.215
 4619.00    1.68762   1.68691  114.056
 4620.00    1.71407   1.69515  114.322
 4621.00    1.71479   1.71168  113.587
 4622.00    1.72266   1.72775  112.033
 4623.00    1.72569   1.73458  111.296
 4624.00    1.71968   1.73364  111.498
 4625.00    1.71556   1.72858  111.748
 4626.00    1.70840   1.72125  112.458
 4627.00    1.70125   1.71334  113.054
 4628.00    1.70323   1.70482  113.106
 4629.00    1.71244   1.70042  113.519
 4630.00    1.71830   1.70708  113.978
 4631.00    1.72330   1.72164  113.713
 4632.00    1.71613   1.73007  112.667
 4633.00    1.68063   1.72368   -1.000
 4634.00    1.69130   1.71162  113.677
 4635.00    1.70350   1.70739  115.126
 4636.00    1.70567   1.70911  115.553
 4637.00    1.71143   1.70968  116.042
 4638.00    1.71739   1.70875  117.376
 4639.00    1.72134   1.71113  118.301
 4640.00    1.71981   1.72147  118.364
 4641.00    1.72652   1.73725  117.061
 4642.00    1.74845   1.74988  114.489
 4643.00    1.75637   1.74915  112.407
 4644.00    1.74531   1.73424  112.098
 4645.00    1.72863   1.71092  113.586
 4646.00    1.70103   1.68524  116.400
 4647.00    1.68738   1.67077  119.683
 4648.00    1.69429   1.67616  121.315
 4649.00    1.70162   1.69693  120.147
 4650.00    1.71942   1.72245  117.535
 4651.00    1.73551   1.74123  115.455
 4652.00    1.72234   1.74856   -1.000
 4653.00    1.69516   1.74568   -1.000
 4654.00    1.69096   1.73564   -1.000
 4655.00    1.68292   1.72559   -1.000
 4656.00    1.68595   1.72695   -1.000
 4657.00    1.71870   1.74815   -1.000
 4658.00    1.75694   1.78394   -1.000
 4659.00    1.78259   1.81580   -1.000
 4660.00    1.80391   1.82690  109.035
 4661.00    1.79138   1.81654  108.028
 4662.00    1.75705   1.79651   -1.000
 4663.00    1.74535   1.77649   -1.000
 4664.00    1.75233   1.75802  113.472
 4665.00    1.74927   1.73418  114.518
 4666.00    1.72396   1.70252  115.690
 4667.00    1.68859   1.67723  119.450
 4668.00    1.65572   1.67284  124.594
 4669.00    1.65304   1.69013   -1.000
 4670.00    1.70158   1.72038  124.351
 4671.00    1.75349   1.75151  119.589
 4672.00    1.76854   1.77160  115.606
 4673.00    1.76353   1.77911  113.975
 4674.00    1.76228   1.78422  113.815
 4675.00    1.78495   1.79378  113.799
 4676.00    1.80992   1.80152  112.860
 4677.00    1.79330   1.79725  111.215
 4678.00    1.76815   1.78081  110.853
 4679.00    1.75782   1.76220  112.565
 4680.00    1.73461   1.74979  114.937
 4681.00    1.72184   1.74374  116.984
 4682.00    1.72553   1.74316  118.437
 4683.00    1.76012   1.74664  118.006
 4684.00    1.81206   1.74875   -1.000
 4685.00    1.80826   1.74793   -1.000
 4686.00    1.79451   1.74880   -1.000
 4687.00    1.80373   1.75645   -1.000
 4688.00    1.80761   1.77026   -1.000
 4689.00    1.78979   1.78401  114.002
 4690.00    1.77815   1.79151  113.992
 4691.00    1.78730   1.79260  114.481
 4692.00    1.79568   1.79552  114.986
 4693.00    1.80079   1.80433  114.261
 4694.00    1.82423   1.81418  112.655
 4695.00    1.85195   1.82148   -1.000
 4696.00    1.84414   1.82185  108.606
 4697.00    1.82066   1.80956  108.373
 4698.00    1.79717   1.78967  110.468
 4699.00    1.77444   1.77389  113.826
 4700.00    1.77886   1.76574  116.042
 4701.00    1.79413   1.75904   -1.000
 4702.00    1.77615   1.75165  116.048
 4703.00    1.76816   1.75204  117.664
 4704.00    1.77133   1.76433  118.928
 4705.00    1.77489   1.77850  117.812
 4706.00    1.76997   1.78004  115.790
 4707.00    1.75602   1.76778  116.023
 4708.00    1.74234   1.75750  118.154
 4709.00    1.74677   1.76226  119.834
 4710.00    1.77725   1.77785  119.915
 4711.00    1.79499   1.79293  117.527
 4712.00    1.80685   1.79864  114.127
 4713.00    1.81920   1.79392  112.169
 4714.00    1.80515   1.78973  112.377
 4715.00    1.78442   1.79815  114.124
 4716.00    1.80554   1.81969  115.068
 4717.00    1.84080   1.84328  113.671
 4718.00    1.84708   1.85869  111.394
 4719.00    1.84728   1.86605  110.098
 4720.00    1.84050   1.86920  109.626
 4721.00    1.82256   1.86979   -1.000
 4722.00    1.81203   1.86953   -1.000
 4723.00    1.81084   1.87190   -1.000
 4724.00    1.82459   1.87552   -1.000
 4725.00    1.83430   1.87246   -1.000
 4726.00    1.82293   1.85582   -1.000
 4727.00    1.79912   1.82763   -1.000
 4728.00    1.77258   1.80182   -1.000
 4729.00    1.76676   1.78856  117.683
 4730.00    1.78735   1.78650  118.498
 4731.00    1.80768   1.79492  117.529
 4732.00    1.82532   1.81284  116.467
 4733.00    1.83479   1.83189  115.276
 4734.00    1.81950   1.84235  114.097
 4735.00    1.81398   1.84294   -1.000
 4736.00    1.81812   1.84036  112.687
 4737.00    1.80804   1.84164   -1.000
 4738.00    1.82432   1.84885  113.769
 4739.00    1.85375   1.85834  112.948
 4740.00    1.84912   1.86333  112.303
 4741.00    1.83908   1.86407  112.744
 4742.00    1.85377   1.86690  113.128
 4743.00    1.86794   1.87257  112.656
 4744.00    1.85750   1.87884  111.534
 4745.00    1.86145   1.88420  111.128
 4746.00    1.87507   1.88933  111.324
 4747.00    1.87264   1.89795  110.885
 4748.00    1.87809   1.90948   -1.000
 4749.00    1.87274   1.92030   -1.000
 4750.00    1.87355   1.92586   -1.000
 4751.00    1.88761   1.92199   -1.000
 4752.00    1.87460   1.91065   -1.000
 4753.00    1.85279   1.89619   -1.000
 4754.00    1.85409   1.88449   -1.000
 4755.00    1.85457   1.88061  112.863
 4756.00    1.83938   1.88455   -1.000
 4757.00    1.82851   1.89249   -1.000
 4758.00    1.83025   1.90029   -1.000
 4759.00    1.83318   1.90598   -1.000
 4760.00    1.83435   1.90348   -1.000
 4761.00    1.82133   1.88698   -1.000
 4762.00    1.80396   1.85879   -1.000
 4763.00    1.78863   1.83220   -1.000
 4764.00    1.77894   1.82066   -1.000
 4765.00    1.79663   1.82362   -1.000
 4766.00    1.81553   1.83498  119.455
 4767.00    1.84146   1.85358  118.862
 4768.00    1.87606   1.87908  117.551
 4769.00    1.89504   1.90195  115.306
 4770.00    1.89439   1.91075  113.231
 4771.00    1.88426   1.90713  112.676
 4772.00    1.86401   1.90339   -1.000
 4773.00    1.86100   1.91107   -1.000
 4774.00    1.89537   1.92815   -1.000
 4775.00    1.92936   1.94352  112.031
 4776.00    1.91879   1.95103   -1.000
 4777.00    1.88244   1.94898   -1.000
 4778.00    1.86972   1.93870   -1.000
 4779.00    1.86409   1.92548   -1.000
 4780.00    1.85514   1.91777   -1.000
 4781.00    1.86091   1.91668   -1.000
 4782.00    1.87248   1.91426   -1.000
 4783.00    1.87654   1.90888   -1.000
 4784.00    1.88002   1.90416  114.676
 4785.00    1.88487   1.90136  115.072
 4786.00    1.88027   1.90127  115.237
 4787.00    1.87048   1.90469   -1.000
 4788.00    1.85664   1.91072   -1.000
 4789.00    1.85260   1.91873   -1.000
 4790.00    1.87591   1.93022   -1.000
 4791.00    1.89827   1.94553   -1.000
 4792.00    1.91346   1.96497   -1.000
 4793.00    1.93384   1.98693   -1.000
 4794.00    1.94550   2.00753   -1.000
 4795.00    1.95350   2.02023   -1.000
 4796.00    1.94766   2.01777   -1.000
 4797.00    1.92114   2.00112   -1.000
 4798.00    1.89866   1.98023   -1.000
 4799.00    1.88086   1.96785   -1.000
 4800.00    1.88219   1.97185   -1.000
 4801.00    1.91677   1.98941   -1.000
 4802.00    1.95195   2.00721   -1.000
 4803.00    1.94303   2.01096   -1.000
 4804.00    1.92328   1.99898   -1.000
 4805.00    1.92607   1.98454   -1.000
 4806.00    1.92450   1.97851   -1.000
 4807.00    1.91581   1.98027   -1.000
 4808.00    1.92275   1.98647   -1.000
 4809.00    1.94014   1.99538   -1.000
 4810.00    1.93871   2.00233   -1.000
 4811.00    1.94665   2.00508   -1.000
 4812.00    1.96143   2.00819   -1.000
 4813.00    1.95815   2.01479   -1.000
 4814.00    1.95530   2.02479   -1.000
 4815.00    1.95086   2.03732   -1.000
 4816.00    1.95157   2.04966   -1.000
 4817.00    1.96659   2.05872   -1.000
 4818.00    1.97711   2.06365   -1.000
 4819.00    1.96534   2.06623   -1.000
 4820.00    1.96629   2.06446   -1.000
 4821.00    1.99010   2.05015   -1.000
 4822.00    1.98010   2.02045   -1.000
 4823.00    1.93261   1.98661   -1.000
 4824.00    1.89960   1.97121   -1.000
 4825.00    1.91192   1.98428   -1.000
 4826.00    1.94164   2.01012   -1.000
 4827.00    1.94195   2.02692   -1.000
 4828.00    1.93025   2.02787   -1.000
 4829.00    1.93622   2.02297   -1.000
 4830.00    1.93927   2.01769   -1.000
 4831.00    1.93548   2.00838   -1.000
 4832.00    1.93726   2.00041   -1.000
 4833.00    1.93965   2.00232   -1.000
 4834.00    1.95159   2.01252   -1.000
 4835.00    1.97250   2.02408   -1.000
 4836.00    1.98080   2.03194   -1.000
 4837.00    1.98463   2.03482   -1.000
 4838.00    1.98636   2.03086   -1.000
 4839.00    1.95910   2.02088   -1.000
 4840.00    1.92723   2.01163   -1.000
 4841.00    1.92415   2.00851   -1.000
 4842.00    1.93244   2.01025   -1.000
 4843.00    1.95484   2.01292   -1.000
 4844.00    1.97944   2.01884   -1.000
 4845.00    1.97970   2.02992   -1.000
 4846.00    1.98159   2.03460   -1.000
 4847.00    1.97707   2.02374   -1.000
 4848.00    1.94415   2.00755   -1.000
 4849.00    1.92680   2.00244   -1.000
 4850.00    1.94037   2.00996   -1.000
 4851.00    1.95181   2.01583   -1.000
 4852.00    1.96307   2.00835   -1.000
 4853.00    1.95798   1.98101  111.528
 4854.00    1.92301   1.93565  112.353
 4855.00    1.88467   1.88807  114.577
 4856.00    1.87260   1.85203   -1.000
 4857.00    1.87355   1.81917   -1.000
 4858.00    1.82411   1.75705   -1.000
 4859.00    1.66781   1.64663   -1.000
 4860.00    1.47841   1.51569   -1.000
 4861.00    1.39737   1.43039  139.804
 4862.00    1.48224   1.44192   -1.000
 4863.00    1.66678   1.53380   -1.000
 4864.00    1.79569   1.65252   -1.000
 4865.00    1.84443   1.76222   -1.000
 4866.00    1.86803   1.84811  121.807
 4867.00    1.88372   1.90823  118.476
 4868.00    1.90938   1.94407   -1.000
 4869.00    1.92466   1.95373   -1.000
 4870.00    1.89047   1.93783   -1.000
 4871.00    1.84817   1.91121   -1.000
 4872.00    1.83974   1.90467   -1.000
 4873.00    1.87231   1.93092   -1.000
 4874.00    1.91547   1.97110   -1.000
 4875.00    1.92976   1.99993   -1.000
 4876.00    1.93351   2.01278   -1.000
 4877.00    1.92993   2.02591   -1.000
 4878.00    1.93269   2.04852   -1.000
 4879.00    1.95473   2.07288   -1.000
 4880.00    1.95785   2.08556   -1.000
 4881.00    1.93019   2.08069   -1.000
 4882.00    1.93151   2.06685   -1.000
 4883.00    1.95824   2.05480   -1.000
 4884.00    1.95429   2.04630   -1.000
 4885.00    1.92118   2.03960   -1.000
 4886.00    1.89363   2.03563   -1.000
 4887.00    1.90137   2.03730   -1.000
 4888.00    1.92417   2.03832   -1.000
 4889.00    1.91501   2.02514   -1.000
 4890.00    1.88400   2.00026   -1.000
 4891.00    1.88472   1.98902   -1.000
 4892.00    1.92525   2.01730   -1.000
 4893.00    1.98173   2.08173   -1.000
 4894.00    2.04340   2.14972   -1.000
 4895.00    2.08321   2.19509   -1.000
 4896.00    2.08098   2.21608   -1.000
 4897.00    2.06985   2.21955   -1.000
 4898.00    2.06471   2.20723   -1.000
 4899.00    2.04219   2.18455   -1.000
 4900.00    2.02577   2.16549   -1.000
 4901.00    2.03560   2.15795   -1.000
 4902.00    2.02978   2.15467   -1.000
 4903.00    2.00825   2.15044   -1.000
 4904.00    2.02467   2.15802   -1.000
 4905.00    2.06992   2.18347   -1.000
 4906.00    2.08409   2.20903   -1.000
 4907.00    2.06578   2.21470   -1.000
 4908.00    2.06447   2.19402   -1.000
 4909.00    2.05974   2.15738   -1.000
 4910.00    2.02565   2.12553   -1.000
 4911.00    2.01044   2.11847   -1.000
 4912.00    2.03389   2.13793   -1.000
 4913.00    2.06068   2.16752   -1.000
 4914.00    2.07887   2.19454   -1.000
 4915.00    2.09346   2.21181   -1.000
 4916.00    2.10318   2.20672   -1.000
 4917.00    2.08459   2.16745   -1.000
 4918.00    2.03732   2.09659   -1.000
 4919.00    1.97887   2.01968   -1.000
 4920.00    1.93085   1.97215   -1.000
 4921.00    1.95234   1.97101  125.279
 4922.00    2.00965   2.00142  123.838
 4923.00    2.02396   2.03462  119.464
 4924.00    2.00562   2.06495   -1.000
 4925.00    2.01949   2.10596   -1.000
 4926.00    2.07190   2.15606   -1.000
 4927.00    2.11359   2.20264   -1.000
 4928.00    2.13332   2.23864   -1.000
 4929.00    2.14566   2.26073   -1.000
 4930.00    2.15107   2.26806   -1.000
 4931.00    2.14590   2.25670   -1.000
 4932.00    2.11592   2.22338   -1.000
 4933.00    2.05907   2.18210   -1.000
 4934.00    2.03175   2.16011   -1.000
 4935.00    2.06337   2.16731   -1.000
 4936.00    2.09048   2.17709   -1.000
 4937.00    2.07130   2.16056   -1.000
 4938.00    2.04079   2.13137   -1.000
 4939.00    2.03747   2.12385   -1.000
 4940.00    2.06543   2.15316   -1.000
 4941.00    2.10441   2.20280   -1.000
 4942.00    2.12447   2.24524   -1.000
 4943.00    2.13001   2.26843   -1.000
 4944.00    2.13573   2.27315   -1.000
 4945.00    2.14178   2.26732   -1.000
 4946.00    2.13723   2.26390   -1.000
 4947.00    2.13880   2.27291   -1.000
 4948.00    2.16413   2.29180   -1.000
 4949.00    2.16924   2.30922   -1.000
 4950.00    2.16632   2.31696   -1.000
 4951.00    2.17938   2.31444   -1.000
 4952.00    2.17697   2.30571   -1.000
 4953.00    2.17495   2.29363   -1.000
 4954.00    2.18508   2.27304   -1.000
 4955.00    2.17006   2.22894   -1.000
 4956.00    2.11692   2.15799   -1.000
 4957.00    2.04219   2.09422   -1.000
 4958.00    2.01376   2.08469   -1.000
 4959.00    2.07762   2.13670   -1.000
 4960.00    2.16333   2.20825   -1.000
 4961.00    2.19217   2.25715   -1.000
 4962.00    2.19164   2.27527   -1.000
 4963.00    2.19147   2.27158   -1.000
 4964.00    2.17953   2.25374   -1.000
 4965.00    2.14692   2.22968   -1.000
 4966.00    2.13302   2.21037   -1.000
 4967.00    2.13369   2.20211   -1.000
 4968.00    2.14913   2.20417   -1.000
 4969.00    2.16419   2.21583   -1.000
 4970.00    2.14953   2.23438   -1.000
 4971.00    2.15618   2.25624   -1.000
 4972.00    2.18732   2.27833   -1.000
 4973.00    2.20313   2.29651   -1.000
 4974.00    2.20849   2.30643   -1.000
 4975.00    2.22431   2.30714   -1.000
 4976.00    2.21481   2.30028   -1.000
 4977.00    2.18363   2.28646   -1.000
 4978.00    2.17593   2.26860   -1.000
 4979.00    2.17473   2.24838   -1.000
 4980.00    2.13968   2.21962   -1.000
 4981.00    2.09394   2.17394   -1.000
 4982.00    2.06114   2.12249   -1.000
 4983.00    2.04687   2.09222   -1.000
 4984.00    2.06131   2.10119   -1.000
 4985.00    2.08925   2.14343   -1.000
 4986.00    2.11816   2.19701   -1.000
 4987.00    2.14311   2.24263   -1.000
 4988.00    2.15400   2.26650   -1.000
 4989.00    2.15432   2.26467   -1.000
 4990.00    2.15001   2.24948   -1.000
 4991.00    2.14715   2.23942   -1.000
 4992.00    2.16165   2.24174   -1.000
 4993.00    2.17702   2.25213   -1.000
 4994.00    2.16167   2.26458   -1.000
 4995.00    2.15121   2.27700   -1.000
 4996.00    2.16766   2.28797   -1.000
 4997.00    2.17417   2.28970   -1.000
 4998.00    2.15357   2.27122   -1.000
 4999.00    2.13643   2.23449   -1.000
 5000.00    2.12552   2.19763   -1.000
 5001.00    2.10649   2.18023   -1.000
 5002.00    2.13146   2.18529   -1.000
 5003.00    2.16307   2.19633   -1.000
 5004.00    2.16011   2.19405   -1.000
 5005.00    2.14201   2.17359   -1.000
 5006.00    2.11166   2.15565   -1.000
 5007.00    2.11600   2.16577   -1.000
 5008.00    2.17054   2.20231   -1.000
 5009.00    2.21213   2.23888   -1.000
 5010.00    2.19870   2.24937   -1.000
 5011.00    2.16152   2.22705   -1.000
 5012.00    2.11249   2.18322   -1.000
 5013.00    2.06527   2.14105   -1.000
 5014.00    2.05431   2.12134   -1.000
 5015.00    2.08592   2.12553   -1.000
 5016.00    2.11843   2.13719  125.183
 5017.00    2.13298   2.14150  122.440
 5018.00    2.15237   2.14625  120.833
 5019.00    2.16264   2.16691  120.607
 5020.00    2.17730   2.19701  119.988
 5021.00    2.19071   2.21840   -1.000
 5022.00    2.18169   2.22689   -1.000
 5023.00    2.17825   2.23768   -1.000
 5024.00    2.18923   2.26197   -1.000
 5025.00    2.20259   2.28487   -1.000
 5026.00    2.22054   2.28870   -1.000
 5027.00    2.22943   2.27998   -1.000
 5028.00    2.21709   2.27613   -1.000
 5029.00    2.23702   2.28469   -1.000
 5030.00    2.28578   2.30506  115.341
 5031.00    2.28665   2.33346   -1.000
 5032.00    2.27994   2.36135   -1.000
 5033.00    2.30444   2.37378   -1.000
 5034.00    2.27969   2.35737   -1.000
 5035.00    2.20590   2.31960   -1.000
 5036.00    2.16587   2.28413   -1.000
 5037.00    2.16022   2.26563   -1.000
 5038.00    2.15097   2.24984   -1.000
 5039.00    2.11089   2.21092   -1.000
 5040.00    2.07016   2.15996   -1.000
 5041.00    2.07380   2.13891   -1.000
 5042.00    2.11333   2.17406   -1.000
 5043.00    2.17886   2.25100   -1.000
 5044.00    2.25688   2.33158   -1.000
 5045.00    2.31389   2.38753   -1.000
 5046.00    2.33106   2.40944   -1.000
 5047.00    2.34795   2.39798   -1.000
 5048.00    2.25493   2.36063   -1.000
 5049.00    1.36128   2.31456   -1.000
 5050.00    0.23978   2.27787   -1.000
 5051.00    0.05468   2.25996   -1.000
 5052.00    0.65353   2.27306   -1.000
 5053.00    1.77930   2.31935   -1.000
 5054.00    2.31503   2.36629   -1.000
 5055.00    2.38061   2.38992  111.592
 5056.00    2.38620   2.40130  110.019
 5057.00    2.37602   2.41418   -1.000
 5058.00    2.35969   2.43028   -1.000
 5059.00    2.35403   2.44525   -1.000
 5060.00    2.35399   2.45548   -1.000
 5061.00    2.35476   2.45954   -1.000
 5062.00    2.35836   2.44908   -1.000
 5063.00    2.33591   2.41533   -1.000
 5064.00    2.28000   2.37124   -1.000
 5065.00    2.23683   2.34004   -1.000
 5066.00    2.25878   2.33260   -1.000
 5067.00    2.30477   2.34019   -1.000
 5068.00    2.31757   2.34863   -1.000
 5069.00    2.32711   2.35656   -1.000
 5070.00    2.33750   2.36400  115.071
 5071.00    2.33085   2.36339   -1.000
 5072.00    2.31734   2.35587   -1.000
 5073.00    2.31087   2.35525   -1.000
 5074.00    2.31490   2.36615   -1.000
 5075.00    2.32107   2.37939   -1.000
 5076.00    2.32534   2.38431   -1.000
 5077.00    2.32586   2.37401   -1.000
 5078.00    2.29940   2.34350   -1.000
 5079.00    2.23998   2.30274   -1.000
 5080.00    2.20639   2.27666   -1.000
 5081.00    2.23485   2.27649   -1.000
 5082.00    2.28650   2.29373  124.336
 5083.00    2.30484   2.31726  121.606
 5084.00    2.31537   2.34462   -1.000
 5085.00    2.35138   2.37526  117.565
 5086.00    2.37463   2.40037  115.419
 5087.00    2.37978   2.41480   -1.000
 5088.00    2.38057   2.42424   -1.000
 5089.00    2.37774   2.43390   -1.000
 5090.00    2.38983   2.44520   -1.000
 5091.00    2.40208   2.45938   -1.000
 5092.00    2.41215   2.47651   -1.000
 5093.00    2.42653   2.49049   -1.000
 5094.00    2.44512   2.48904   -1.000
 5095.00    2.42718   2.46230   -1.000
 5096.00    2.46729   2.41941   -1.000
 5097.00    2.48345   2.37890   -1.000
 5098.00    2.35292   2.35212  115.540
 5099.00    2.30611   2.34510   -1.000
 5100.00    2.35793   2.36086  119.722
 5101.00    2.39359   2.39228  118.555
 5102.00    2.40232   2.42023  115.322
 5103.00    2.41004   2.43207  113.003
 5104.00    2.40068   2.42820  112.802
 5105.00    2.38033   2.41389   -1.000
 5106.00    2.34132   2.39395   -1.000
 5107.00    2.30238   2.37468   -1.000
 5108.00    2.27959   2.36443   -1.000
 5109.00    2.28791   2.36696   -1.000
 5110.00    2.31485   2.38161   -1.000
 5111.00    2.34244   2.40579   -1.000
 5112.00    2.37710   2.43220   -1.000
 5113.00    2.40896   2.45664   -1.000
 5114.00    2.43067   2.47971   -1.000
 5115.00    2.43584   2.50086   -1.000
 5116.00    2.43676   2.51856   -1.000
 5117.00    2.46459   2.52979   -1.000
 5118.00    2.47327   2.53103   -1.000
 5119.00    2.44667   2.51930   -1.000
 5120.00    2.43738   2.49706   -1.000
 5121.00    2.42839   2.46894   -1.000
 5122.00    2.38765   2.43723   -1.000
 5123.00    2.34645   2.40555   -1.000
 5124.00    2.33653   2.38182   -1.000
 5125.00    2.34384   2.37268   -1.000
 5126.00    2.35283   2.37404  121.219
 5127.00    2.34627   2.37563   -1.000
 5128.00    2.35520   2.37472  119.672
 5129.00    2.37795   2.37922  119.340
 5130.00    2.38358   2.39618  119.416
 5131.00    2.40284   2.42315  118.661
 5132.00    2.43543   2.44952  116.861
 5133.00    2.43928   2.46982   -1.000
 5134.00    2.45057   2.48553   -1.000
 5135.00    2.47860   2.49478  113.272
 5136.00    2.46852   2.49015  112.584
 5137.00    2.40935   2.46915   -1.000
 5138.00    2.36636   2.44236   -1.000
 5139.00    2.36185   2.42622   -1.000
 5140.00    2.36919   2.42672   -1.000
 5141.00    2.37103   2.43455   -1.000
 5142.00    2.34724   2.43980   -1.000
 5143.00    2.33928   2.44139   -1.000
 5144.00    2.35753   2.44265   -1.000
 5145.00    2.37648   2.44057   -1.000
 5146.00    2.38246   2.43077   -1.000
 5147.00    2.38815   2.42407   -1.000
 5148.00    2.41313   2.43293  119.188
 5149.00    2.43439   2.44537  118.690
 5150.00    2.40996   2.44260   -1.000
 5151.00    2.36884   2.42499   -1.000
 5152.00    2.35649   2.40377   -1.000
 5153.00    2.36512   2.39112  121.228
 5154.00    2.40124   2.40132  121.372
 5155.00    2.45153   2.44243  119.973
 5156.00    2.49191   2.50058  117.296
 5157.00    2.51125   2.55242   -1.000
 5158.00    2.52915   2.58497   -1.000
 5159.00    2.55724   2.59637   -1.000
 5160.00    2.56544   2.59145  109.762
 5161.00    2.54630   2.57493  109.933
 5162.00    2.51523   2.55107   -1.000
 5163.00    2.49954   2.51865  111.331
 5164.00    2.47679   2.45809  112.807
 5165.00    2.39169   2.34786   -1.000
 5166.00    2.25726   2.21017   -1.000
 5167.00    2.14913   2.10156   -1.000
 5168.00    2.14410   2.07389   -1.000
 5169.00    2.21416   2.11786   -1.000
 5170.00    2.28759   2.15653   -1.000
 5171.00    2.29036   2.14377   -1.000
 5172.00    2.22269   2.10828   -1.000
 5173.00    2.20000   2.12272   -1.000
 5174.00    2.30051   2.21772   -1.000
 5175.00    2.43391   2.34145   -1.000
 5176.00    2.51474   2.43443   -1.000
 5177.00    2.54551   2.48179   -1.000
 5178.00    2.55799   2.49577   -1.000
 5179.00    2.56633   2.48408   -1.000
 5180.00    2.55307   2.43532   -1.000
 5181.00    2.49284   2.34199   -1.000
 5182.00    2.36977   2.22244   -1.000
 5183.00    2.27573   2.13297   -1.000
 5184.00    2.28409   2.13335   -1.000
 5185.00    2.34733   2.22501   -1.000
 5186.00    2.45915   2.35005   -1.000
 5187.00    2.52672   2.44226   -1.000
 5188.00    2.53027   2.48638   -1.000
 5189.00    2.55409   2.50345   -1.000
 5190.00    2.53790   2.49921   -1.000
 5191.00    2.47617   2.47082  116.722
 5192.00    2.41541   2.43753  119.061
 5193.00    2.40270   2.42588  122.740
 5194.00    2.42283   2.44023  124.289
 5195.00    2.45004   2.46323  122.685
 5196.00    2.51101   2.48501   -1.000
 5197.00    2.55315   2.51388   -1.000
 5198.00    2.56131   2.55105  116.884
 5199.00    2.58078   2.58405  114.662
 5200.00    2.59407   2.60154  113.151
 5201.00    2.59159   2.59624  112.601
 5202.00    2.58021   2.56448  112.943
 5203.00    2.53775   2.50814   -1.000
 5204.00    2.48039   2.43726   -1.000
 5205.00    2.45380   2.37503   -1.000
 5206.00    2.45005   2.34042   -1.000
 5207.00    2.45049   2.33104   -1.000
 5208.00    2.44330   2.33684   -1.000
 5209.00    2.44312   2.36095   -1.000
 5210.00    2.49969   2.41356   -1.000
 5211.00    2.56798   2.49446   -1.000
 5212.00    2.61268   2.57998   -1.000
 5213.00    2.65845   2.63634  114.598
 5214.00    2.65277   2.64568  111.005
 5215.00    2.59426   2.61925  110.236
 5216.00    2.56872   2.59427  112.165
 5217.00    2.57865   2.60043  114.345
 5218.00    2.61902   2.63964  114.711
 5219.00    2.66251   2.68918  113.029
 5220.00    2.68204   2.72688   -1.000
 5221.00    2.71225   2.74092  109.528
 5222.00    2.70164   2.72247  108.882
 5223.00    2.66840   2.66853  109.217
 5224.00    2.62223   2.58312   -1.000
 5225.00    2.53223   2.49007   -1.000
 5226.00    2.44790   2.43082  120.550
 5227.00    2.42479   2.43378  125.294
 5228.00    2.48780   2.50253  126.116
 5229.00    2.59786   2.59785  121.355
 5230.00    2.66095   2.66228  115.197
 5231.00    2.68473   2.67182  111.660
 5232.00    2.67919   2.63799   -1.000
 5233.00    2.63299   2.59685   -1.000
 5234.00    2.60242   2.58838  113.639
 5235.00    2.63013   2.62551  114.717
 5236.00    2.68661   2.68511  113.385
 5237.00    2.73598   2.73674  110.649
 5238.00    2.74620   2.76468  108.579
 5239.00    2.73414   2.77266   -1.000
 5240.00    2.74522   2.77234  107.998
 5241.00    2.75876   2.77101  108.140
 5242.00    2.75654   2.77398  107.740
 5243.00    2.76790   2.78464  107.412
 5244.00    2.77098   2.79207  107.454
 5245.00    2.73111   2.77567   -1.000
 5246.00    2.67594   2.73486   -1.000
 5247.00    2.63484   2.69095   -1.000
 5248.00    2.61841   2.66537   -1.000
 5249.00    2.60864   2.65900   -1.000
 5250.00    2.58032   2.66020   -1.000
 5251.00    2.58638   2.66800   -1.000
 5252.00    2.64283   2.68278   -1.000
 5253.00    2.67743   2.69434  115.385
 5254.00    2.67879   2.69802  113.926
 5255.00    2.67312   2.70956   -1.000
 5256.00    2.68696   2.74406   -1.000
 5257.00    2.73765   2.79354   -1.000
 5258.00    2.79690   2.83043  108.562
 5259.00    2.81317   2.83106  106.413
 5260.00    2.77232   2.79046  106.334
 5261.00    2.71478   2.71863  108.177
 5262.00    2.62948   2.63164  111.871
 5263.00    2.56163   2.54744  116.927
 5264.00    2.52967   2.48547   -1.000
 5265.00    2.50974   2.46164   -1.000
 5266.00    2.52837   2.47359   -1.000
 5267.00    2.58187   2.48927   -1.000
 5268.00    2.56690   2.47389   -1.000
 5269.00    2.49291   2.43342   -1.000
 5270.00    2.46712   2.42429   -1.000
 5271.00    2.55234   2.48283   -1.000
 5272.00    2.65685   2.57435   -1.000
 5273.00    2.69432   2.63935   -1.000
 5274.00    2.69721   2.66071   -1.000
 5275.00    2.70563   2.67143   -1.000
 5276.00    2.73090   2.70686   -1.000
 5277.00    2.77711   2.76971  113.116
 5278.00    2.82985   2.82757  110.169
 5279.00    2.83466   2.84402  107.017
 5280.00    2.81435   2.81624  106.145
 5281.00    2.78351   2.76762  107.654
 5282.00    2.73332   2.72152  110.421
 5283.00    2.70291   2.70140  112.970
 5284.00    2.73866   2.72913  114.400
 5285.00    2.81103   2.79860  113.745
 5286.00    2.87615   2.87503  110.843
 5287.00    2.85959   2.92343   -1.000
 5288.00    2.74919   2.93706   -1.000
 5289.00    2.79814   2.93765   -1.000
 5290.00    2.91273   2.93896  105.237
 5291.00    2.88064   2.93807   -1.000
 5292.00    2.87938   2.93401   -1.000
 5293.00    2.89140   2.92762  104.593
 5294.00    2.88494   2.91161  105.393
 5295.00    2.84195   2.87343  106.565
 5296.00    2.76853   2.80876   -1.000
 5297.00    2.69064   2.74510   -1.000
 5298.00    2.70472   2.72049  115.941
 5299.00    2.77049   2.74023   -1.000
 5300.00    2.78077   2.77986  115.679
 5301.00    2.78606   2.81425  112.958
 5302.00    2.80626   2.84450  111.437
 5303.00    2.83940   2.88533   -1.000
 5304.00    2.89947   2.92924  108.488
 5305.00    2.92824   2.95353  105.855
 5306.00    2.91149   2.95109  104.608
 5307.00    2.89729   2.93837  104.913
 5308.00    2.91301   2.93936  105.953
 5309.00    2.95255   2.95843  106.236
 5310.00    2.96929   2.97989  105.302
 5311.00    2.96877   2.98805  104.347
 5312.00    2.95506   2.97982  104.001
 5313.00    2.95448   2.96068  104.326
 5314.00    2.95919   2.93456   -1.000
 5315.00    2.93222   2.90346   -1.000
 5316.00    2.90936   2.87848   -1.000
 5317.00    2.89892   2.87749   -1.000
 5318.00    2.91867   2.90346   -1.000
 5319.00    2.94434   2.93622  107.622
 5320.00    2.93964   2.95144  106.917
 5321.00    2.92096   2.94182  106.806
 5322.00    2.89947   2.90992  107.377
 5323.00    2.88458   2.86568   -1.000
 5324.00    2.86519   2.82610   -1.000
 5325.00    2.86377   2.79319   -1.000
 5326.00    2.83533   2.74473   -1.000
 5327.00    2.74055   2.66978   -1.000
 5328.00    2.67044   2.61131   -1.000
 5329.00    2.69544   2.62576   -1.000
 5330.00    2.79093   2.71532   -1.000
 5331.00    2.86235   2.81906   -1.000
 5332.00    2.86804   2.88246  112.533
 5333.00    2.88262   2.91250  110.001
 5334.00    2.92866   2.93288  108.989
 5335.00    2.96517   2.94705   -1.000
 5336.00    2.96989   2.94893   -1.000
 5337.00    2.94491   2.93676  106.907
 5338.00    2.93776   2.90976   -1.000
 5339.00    2.91865   2.86851   -1.000
 5340.00    2.85429   2.83084   -1.000
 5341.00    2.82831   2.82730  112.885
 5342.00    2.88746   2.86613   -1.000
 5343.00    2.96441   2.91422   -1.000
 5344.00    2.97423   2.93593   -1.000
 5345.00    2.95081   2.92957   -1.000
 5346.00    2.92381   2.91171  108.263
 5347.00    2.91982   2.89660   -1.000
 5348.00    2.93189   2.88942   -1.000
 5349.00    2.93502   2.89559   -1.000
 5350.00    2.97640   2.92315   -1.000
 5351.00    2.99982   2.96762   -1.000
 5352.00    3.00794   3.01027  108.413
 5353.00    3.00690   3.03804  106.298
 5354.00    3.03791   3.05909  105.406
 5355.00    3.08349   3.08236  104.929
 5356.00    3.09484   3.10264  103.877
 5357.00    3.07941   3.11343  102.730
 5358.00    3.07795   3.11386  102.312
 5359.00    3.06006   3.10469  102.471
 5360.00    3.03130   3.08186   -1.000
 5361.00    3.02982   3.04550  103.407
 5362.00    3.02164   3.00770   -1.000
 5363.00    2.99793   2.97979   -1.000
 5364.00    2.99303   2.96430   -1.000
 5365.00    2.97397   2.95957   -1.000
 5366.00    2.95834   2.96168  109.113
 5367.00    2.96602   2.96148  109.401
 5368.00    2.96513   2.94236   -1.000
 5369.00    2.92781   2.89220   -1.000
 5370.00    2.86124   2.82834   -1.000
 5371.00    2.81651   2.79366   -1.000
 5372.00    2.88024   2.82149   -1.000
 5373.00    3.01100   2.90650   -1.000
 5374.00    3.07841   3.00214   -1.000
 5375.00    3.08470   3.06424   -1.000
 5376.00    3.09198   3.08592  104.308
 5377.00    3.10352   3.08738   -1.000
 5378.00    3.09779   3.08522   -1.000
 5379.00    3.08803   3.07885   -1.000
 5380.00    3.07155   3.06411   -1.000
 5381.00    3.04237   3.04343  105.522
 5382.00    3.02254   3.02596  106.589
 5383.00    3.03560   3.02101   -1.000
 5384.00    3.05154   3.03367   -1.000
 5385.00    3.07011   3.06077  107.454
 5386.00    3.09225   3.08581  106.683
 5387.00    3.08383   3.09169  105.844
 5388.00    3.07884   3.07514  105.944
 5389.00    3.07200   3.04569   -1.000
 5390.00    3.05871   3.01644   -1.000
 5391.00    3.05161   2.99543   -1.000
 5392.00    3.04995   2.98345   -1.000
 5393.00    3.01748   2.97745   -1.000
 5394.00    2.98719   2.96642   -1.000
 5395.00    2.96505   2.93797   -1.000
 5396.00    2.92793   2.90009   -1.000
 5397.00    2.92483   2.87892   -1.000
 5398.00    2.97032   2.90044   -1.000
 5399.00    3.03064   2.95504   -1.000
 5400.00    3.05890   3.00508   -1.000
 5401.00    3.06230   3.02826   -1.000
 5402.00    3.07915   3.01761   -1.000
 5403.00    3.03892   2.96961   -1.000
 5404.00    2.95140   2.89802   -1.000
 5405.00    2.88666   2.83903   -1.000
 5406.00    2.89076   2.82579   -1.000
 5407.00    2.94727   2.85506   -1.000
 5408.00    2.98411   2.88359   -1.000
 5409.00    2.98084   2.88325   -1.000
 5410.00    2.99261   2.87567   -1.000
 5411.00    3.03311   2.89337   -1.000
 5412.00    3.07580   2.93783   -1.000
 5413.00    3.11848   2.98339   -1.000
 5414.00    3.12563   3.01688   -1.000
 5415.00    3.09268   3.05214   -1.000
 5416.00    3.11316   3.09244   -1.000
 5417.00    3.14898   3.12349   -1.000
 5418.00    3.13918   3.13511  106.229
 5419.00    3.12215   3.12951  105.965
 5420.00    3.10548   3.11952  106.692
 5421.00    3.12602   3.11378   -1.000
 5422.00    3.12833   3.10602   -1.000
 5423.00    3.10214   3.08947   -1.000
 5424.00    3.08972   3.07583   -1.000
 5425.00    3.09487   3.08849   -1.000
 5426.00    3.11485   3.12322  109.254
 5427.00    3.12884   3.13425  107.709
 5428.00    3.09811   3.09488  106.619
 5429.00    3.01730   3.03101  108.017
 5430.00    2.99290   2.99232  111.344
 5431.00    3.04049   2.99698   -1.000
 5432.00    3.06503   3.01052   -1.000
 5433.00    3.04074   3.00297   -1.000
 5434.00    3.01143   2.98485   -1.000
 5435.00    3.01088   2.98765   -1.000
 5436.00    3.06282   3.02968   -1.000
 5437.00    3.12168   3.09770   -1.000
 5438.00    3.17255   3.16436  110.523
 5439.00    3.21256   3.21139  107.690
 5440.00    3.23278   3.23836  105.753
 5441.00    3.23952   3.25341  104.530
 5442.00    3.23942   3.25549  103.941
 5443.00    3.20887   3.23330  103.867
 5444.00    3.16978   3.17426  104.256
 5445.00    3.08891   3.08740  106.017
 5446.00    3.02265   3.00743   -1.000
 5447.00    2.99993   2.97477   -1.000
 5448.00    3.06576   3.00584   -1.000
 5449.00    3.15815   3.07141   -1.000
 5450.00    3.19517   3.12771   -1.000
 5451.00    3.21506   3.15129   -1.000
 5452.00    3.22739   3.14034   -1.000
 5453.00    3.18994   3.09962   -1.000
 5454.00    3.12141   3.03951   -1.000
 5455.00    3.06180   2.99141   -1.000
 5456.00    3.06724   2.99656   -1.000
 5457.00    3.15286   3.05754   -1.000
 5458.00    3.22944   3.13247   -1.000
 5459.00    3.25188   3.17672   -1.000
 5460.00    3.24958   3.17521   -1.000
 5461.00    3.22485   3.14355   -1.000
 5462.00    3.19541   3.10774   -1.000
 5463.00    3.20766   3.09093   -1.000
 5464.00    3.22618   3.10086   -1.000
 5465.00    3.23238   3.12899   -1.000
 5466.00    3.25296   3.15898   -1.000
 5467.00    3.26528   3.18107   -1.000
 5468.00    3.28936   3.19480   -1.000
 5469.00    3.27968   3.19696   -1.000
 5470.00    3.25373   3.18697   -1.000
 5471.00    3.26199   3.17303   -1.000
 5472.00    3.25187   3.15930   -1.000
 5473.00    3.22415   3.14093   -1.000
 5474.00    3.21170   3.11101   -1.000
 5475.00    3.19073   3.06859   -1.000
 5476.00    3.13957   3.03157   -1.000
 5477.00    3.09328   3.02830   -1.000
 5478.00    3.16536   3.06706   -1.000
 5479.00    3.24645   3.11659   -1.000
 5480.00    3.24617   3.13676   -1.000
 5481.00    3.23283   3.13043   -1.000
 5482.00    3.22621   3.13081   -1.000
 5483.00    3.23701   3.15869   -1.000
 5484.00    3.27122   3.20121   -1.000
 5485.00    3.28025   3.22760   -1.000
 5486.00    3.27471   3.22339   -1.000
 5487.00    3.25301   3.19945   -1.000
 5488.00    3.23630   3.18081   -1.000
 5489.00    3.22968   3.18339   -1.000
 5490.00    3.23319   3.20128   -1.000
 5491.00    3.26219   3.21966   -1.000
 5492.00    3.29142   3.23011   -1.000
 5493.00    3.30641   3.23411   -1.000
 5494.00    3.30443   3.23481   -1.000
 5495.00    3.30494   3.22852   -1.000
 5496.00    3.28273   3.21355   -1.000
 5497.00    3.24383   3.19983   -1.000
 5498.00    3.23645   3.20014   -1.000
 5499.00    3.28231   3.21044   -1.000
 5500.00    3.31219   3.20773   -1.000
 5501.00    3.29804   3.18491   -1.000
 5502.00    3.29246   3.16619   -1.000
 5503.00    3.31515   3.16681   -1.000
 5504.00    3.34269   3.17195   -1.000
 5505.00    3.29669   3.16129   -1.000
 5506.00    3.21679   3.13931   -1.000
 5507.00    3.21358   3.13639   -1.000
 5508.00    3.25965   3.16317   -1.000
 5509.00    3.29975   3.19527   -1.000
 5510.00    3.31428   3.20374   -1.000
 5511.00    3.28698   3.18095   -1.000
 5512.00    3.25049   3.14561   -1.000
 5513.00    3.23584   3.12351   -1.000
 5514.00    3.24442   3.12865   -1.000
 5515.00    3.28695   3.15644   -1.000
 5516.00    3.34880   3.19713   -1.000
 5517.00    3.38789   3.24369   11.170
 5518.00    3.41553   3.28746   10.990
 5519.00    3.43693   3.31823   10.788
 5520.00    3.43889   3.33010   10.661
 5521.00    3.43337   3.32887   10.660
 5522.00    3.41532   3.32580   10.680
 5523.00    3.40521   3.32201   10.707
 5524.00    3.37249   3.30667   10.739
 5525.00    3.35991   3.27041   10.771
 5526.00    3.32950   3.21632   10.866
 5527.00    3.27621   3.16613   11.054
 5528.00    3.25402   3.14771   11.327
 5529.00    3.28922   3.17565   11.548
 5530.00    3.34955   3.23260   11.491
 5531.00    3.38095   3.27877   11.203
 5532.00    3.38381   3.29194   10.953
 5533.00    3.37322   3.27807   10.875
 5534.00    3.36306   3.25881   10.935
 5535.00    3.36405   3.25264   11.027
 5536.00    3.36617   3.26461   11.047
 5537.00    3.38993   3.28576   10.985
 5538.00    3.41051   3.30533   10.912
 5539.00    3.41423   3.32461   10.884
 5540.00    3.43641   3.34514   10.815
 5541.00    3.45684   3.35559   10.711
 5542.00    3.45015   3.34699   10.657
 5543.00    3.43036   3.32715   10.702
 5544.00    3.42864   3.31285   10.820
 5545.00    3.41784   3.31407   10.903
 5546.00    3.40559   3.32710   10.906
 5547.00    3.43788   3.34784   10.873
 5548.00    3.47054   3.37520   10.836
 5549.00    3.48980   3.39897   10.751
 5550.00    3.50696   3.40962   10.647
 5551.00    3.50743   3.40792   10.580
 5552.00    3.50232   3.39621   10.586
 5553.00    3.49625   3.37903   10.660
 5554.00    3.46345   3.36605   10.765
 5555.00    3.45911   3.36381   10.868
 5556.00    3.50166   3.36788   10.893
 5557.00    3.51863   3.37189   10.866
 5558.00    3.51566   3.37591   10.836
 5559.00    3.50006   3.37987   10.820
 5560.00    3.50137   3.37822   10.807
 5561.00    3.49390   3.36603   10.807
 5562.00    3.47935   3.34899   10.843
 5563.00    3.44165   3.33732   10.919
 5564.00    3.43427   3.33102   11.023
 5565.00    3.45499   3.32458   11.083
 5566.00    3.45898   3.31835   11.108
 5567.00    3.44292   3.31472   11.127
 5568.00    3.42181   3.31325   11.127
 5569.00    3.42923   3.31386   11.100
 5570.00    3.44923   3.31548   11.095
 5571.00    3.44972   3.31396   11.119
 5572.00    3.42957   3.30870   11.110
 5573.00    3.40474   3.30933   11.122
 5574.00    3.36031   3.32460   11.132
 5575.00    3.14308   3.34586   11.055
 5576.00    2.56615   3.36170   -1.000
 5577.00    2.14191   3.37621   -1.000
 5578.00    2.88501   3.39438   -1.000
 5579.00    3.78473   3.40920   -1.000
 5580.00    4.25710   3.41320   -1.000
 5581.00    3.65612   3.40861   -1.000
 5582.00    3.24638   3.40074   11.191
 5583.00    3.47544   3.39271   11.045
 5584.00    3.56106   3.37769   10.955
 5585.00    3.49889   3.33809   10.966
 5586.00    3.43265   3.27104   11.091
 5587.00    3.37859   3.20400   11.364
 5588.00    3.34298   3.16887   11.644
 5589.00    3.35541   3.17525   11.850
 5590.00    3.42104   3.21070   11.855
 5591.00    3.46693   3.25269   11.674
 5592.00    3.47458   3.28224   11.473
 5593.00    3.45610   3.29902   11.355
 5594.00    3.44371   3.31897   11.355
 5595.00    3.48004   3.34794   11.372
 5596.00    3.52070   3.37113   11.264
 5597.00    3.52540   3.36549   11.115
 5598.00    3.49232   3.33342   11.089
 5599.00    3.46994   3.30275   11.237
 5600.00    3.46202   3.28394   11.418
 5601.00    3.45249   3.27115   11.493
 5602.00    3.43626   3.27234   11.497
 5603.00    3.46031   3.30333   11.567
 5604.00    3.50633   3.36337   11.546
 5605.00    3.58012   3.43043   11.297
 5606.00    3.64312   3.48047   10.994
 5607.00    3.64014   3.50659   10.784
 5608.00    3.64006   3.51450   10.697
 5609.00    3.63182   3.51500   10.693
 5610.00    3.61091   3.51880   10.714
 5611.00    3.63750   3.52525   10.726
 5612.00    3.64068   3.51556   10.706
 5613.00    3.63380   3.46885   10.696
 5614.00    3.55968   3.38935   10.805
 5615.00    3.45822   3.31599   11.088
 5616.00    3.44158   3.29656   11.451
 5617.00    3.51805   3.33175   11.596
 5618.00    3.59845   3.37994   11.416
 5619.00    3.62314   3.41423   11.163
 5620.00    3.62176   3.43717   11.059
 5621.00    3.64083   3.45503   11.035
 5622.00    3.64020   3.45528   10.981
 5623.00    3.61197   3.42738   10.956
 5624.00    3.56031   3.39036   11.062
 5625.00    3.55641   3.37584   11.293
 5626.00    3.60648   3.39591   11.423
 5627.00    3.62320   3.43488   11.308
 5628.00    3.62599   3.46998   11.114
 5629.00    3.66037   3.49428   10.967
 5630.00    3.68274   3.50869   10.856
 5631.00    3.69391   3.51074   10.794
 5632.00    3.68714   3.49862   10.764
 5633.00    3.67233   3.48174   10.735
 5634.00    3.64806   3.47273   10.773
 5635.00    3.63505   3.46718   10.862
 5636.00    3.65453   3.45723   10.936
 5637.00    3.64935   3.44764   11.007
 5638.00    3.62480   3.44461   11.088
 5639.00    3.61859   3.44427   11.140
 5640.00    3.62245   3.43925   11.131
 5641.00    3.62889   3.43525   11.133
 5642.00    3.64013   3.44196   11.167
 5643.00    3.65626   3.45561   11.154
 5644.00    3.67579   3.46875   11.103
 5645.00    3.66508   3.48077   11.061
 5646.00    3.66387   3.49178   11.029
 5647.00    3.69664   3.49869   10.959
 5648.00    3.70821   3.49989   10.934
 5649.00    3.69502   3.49981   10.909
 5650.00    3.69254   3.50769   10.907
 5651.00    3.72206   3.52314   10.929
 5652.00    3.71826   3.53484   10.901
 5653.00    3.71327   3.53347   10.822
 5654.00    3.69914   3.51815   10.820
 5655.00    3.67740   3.49209   10.881
 5656.00    3.65157   3.45103   10.977
 5657.00    3.56423   3.39657   11.114
 5658.00    3.49672   3.35788   11.375
 5659.00    3.52276   3.36136   11.693
 5660.00    3.58047   3.39273   11.762
 5661.00    3.63756   3.41813   11.535
 5662.00    3.64933   3.42794   11.336
 5663.00    3.65029   3.44317   11.330
 5664.00    3.69502   3.47580   11.311
 5665.00    3.71464   3.50625   11.161
 5666.00    3.69980   3.51273   11.032
 5667.00    3.67947   3.50025   11.029
 5668.00    3.65643   3.48905   11.098
 5669.00    3.64880   3.49144   11.150
 5670.00    3.67028   3.50690   11.146
 5671.00    3.69746   3.53048   11.102
 5672.00    3.70511   3.55620   11.019
 5673.00    3.74224   3.57722   10.917
 5674.00    3.73957   3.58912   10.807
 5675.00    3.74254   3.59388   10.734
 5676.00    3.76637   3.59808   10.756
 5677.00    3.77389   3.60291   10.775
 5678.00    3.75421   3.60229   10.738
 5679.00    3.74262   3.59133   10.744
 5680.00    3.75342   3.57013   10.803
 5681.00    3.75981   3.54060   10.850
 5682.00    3.72215   3.51095   10.934
 5683.00    3.69653   3.49670   11.069
 5684.00    3.69874   3.50682   11.171
 5685.00    3.67986   3.52586   11.160
 5686.00    3.67925   3.52881   11.091
 5687.00    3.67111   3.51530   11.072
 5688.00    3.66458   3.50620   11.157
 5689.00    3.68931   3.51946   11.270
 5690.00    3.73589   3.55365   11.251
 5691.00    3.77276   3.59239   11.086
 5692.00    3.78533   3.62121   10.902
 5693.00    3.81992   3.63596   10.819
 5694.00    3.81600   3.64096   10.766
 5695.00    3.80043   3.63967   10.761
 5696.00    3.80079   3.63175   10.775
 5697.00    3.76855   3.61553   10.789
 5698.00    3.72435   3.59119   10.843
 5699.00    3.69871   3.56553   10.963
 5700.00    3.71008   3.54351   11.084
 5701.00    3.69143   3.52841   11.184
 5702.00    3.68839   3.52739   11.288
 5703.00    3.67636   3.54043   11.295
 5704.00    3.68196   3.55317   11.188
 5705.00    3.67065   3.54923   11.093
 5706.00    3.63061   3.52628   11.103
 5707.00    3.60132   3.49327   11.210
 5708.00    3.59783   3.45961   11.391
 5709.00    3.58618   3.43698   11.599
 5710.00    3.54907   3.43598   11.745
 5711.00    3.55991   3.45738   11.776
 5712.00    3.64861   3.49939   11.714
 5713.00    3.70557   3.55415   11.551
 5714.00    3.76190   3.60303   11.288
 5715.00    3.82072   3.63355   11.033
 5716.00    3.82942   3.64940   10.911
 5717.00    3.81497   3.65899   10.888
 5718.00    3.81743   3.66804   10.862
 5719.00    3.82318   3.68162   10.821
 5720.00    3.84449   3.70105   10.762
 5721.00    3.86837   3.72081   10.696
 5722.00    3.86269   3.73512   10.654
 5723.00    3.86085   3.74174   10.634
 5724.00    3.86947   3.73707   10.619
 5725.00    3.84739   3.71659   10.617
 5726.00    3.82384   3.68827   10.663
 5727.00    3.80190   3.67056   10.766
 5728.00    3.81183   3.67306   10.875
 5729.00    3.84293   3.68791   10.919
 5730.00    3.83367   3.69654   10.843
 5731.00    3.82547   3.69476   10.804
 5732.00    3.83684   3.69823   10.851
 5733.00    3.84755   3.71664   10.883
 5734.00    3.86312   3.73999   10.814
 5735.00    3.88503   3.75166   10.712
 5736.00    3.88224   3.74888   10.669
 5737.00    3.86989   3.74079   10.688
 5738.00    3.88776   3.73607   10.705
 5739.00    3.87506   3.73756   10.733
 5740.00    3.86986   3.74110   10.742
 5741.00    3.88488   3.74116   10.766
 5742.00    3.87150   3.73976   10.783
 5743.00    3.85528   3.74524   10.795
 5744.00    3.87894   3.76003   10.768
 5745.00    3.87974   3.77252   10.742
 5746.00    3.86115   3.76842   10.660
 5747.00    3.86694   3.75190   10.636
 5748.00    3.86700   3.74506   10.719
 5749.00    3.87178   3.75775   10.813
 5750.00    3.86433   3.77045   10.819
 5751.00    3.88428   3.75901   10.753
 5752.00    3.86718   3.72372   10.755
 5753.00    3.83614   3.69115   10.864
 5754.00    3.80729   3.69042   10.995
 5755.00    3.84592   3.72573   11.073
 5756.00    3.89937   3.77595   11.022
 5757.00    3.95061   3.81285   10.851
 5758.00    3.96923   3.81991   10.663
 5759.00    3.94591   3.79807   10.586
 5760.00    3.90342   3.75963   10.657
 5761.00    3.88621   3.71993   10.789
 5762.00    3.88324   3.69899   10.934
 5763.00    3.88585   3.71339   11.060
 5764.00    3.90845   3.75681   11.060
 5765.00    3.93226   3.80263   10.903
 5766.00    3.94857   3.82959   10.717
 5767.00    3.93138   3.83837   10.618
 5768.00    3.93890   3.83750   10.601
 5769.00    3.95072   3.83223   10.589
 5770.00    3.94248   3.82475   10.580
 5771.00    3.92924   3.81420   10.610
 5772.00    3.90602   3.80024   10.652
 5773.00    3.89609   3.78674   10.716
 5774.00    3.89232   3.77769   10.773
 5775.00    3.87521   3.77661   10.792
 5776.00    3.88074   3.78312   10.795
 5777.00    3.85972   3.78366   10.761
 5778.00    3.80760   3.76120   10.714
 5779.00    3.71339   3.71485   10.720
 5780.00    3.57719   3.66162   10.788
 5781.00    3.50214   3.62528   10.980
 5782.00    3.52901   3.61966   11.212
 5783.00    3.62959   3.63503   11.304
 5784.00    3.74410   3.65146   11.262
 5785.00    3.81774   3.66647   11.218
 5786.00    3.85775   3.69358   11.178
 5787.00    3.89688   3.73181   11.117
 5788.00    3.92805   3.76241   10.978
 5789.00    3.93788   3.77406   10.845
 5790.00    3.93473   3.77236   10.792
 5791.00    3.93327   3.77538   10.822
 5792.00    3.94129   3.79773   10.858
 5793.00    3.94207   3.83474   10.817
 5794.00    3.96441   3.86550   10.724
 5795.00    3.95626   3.87428   10.655
 5796.00    3.88879   3.86136   10.605
 5797.00    3.82856   3.84230   10.621
 5798.00    3.85273   3.84050   10.693
 5799.00    3.91095   3.86260   10.732
 5800.00    3.99706   3.89481   10.648
 5801.00    4.05315   3.91799   10.502
 5802.00    4.03733   3.92101   10.386
 5803.00    3.99603   3.90645   10.400
 5804.00    3.95967   3.88734   10.496
 5805.00    3.99156   3.87758   10.577
 5806.00    4.00791   3.88025   10.655
 5807.00    3.99777   3.88909   10.681
 5808.00    3.99867   3.89720   10.646
 5809.00    4.01552   3.90297   10.607
 5810.00    4.02250   3.90667   10.584
 5811.00    4.05178   3.90624   10.584
 5812.00    4.06409   3.90074   10.566
 5813.00    4.06758   3.89136   10.525
 5814.00    4.06155   3.87776   10.507
 5815.00    4.06646   3.86316   10.549
 5816.00    4.06041   3.86175   10.635
 5817.00    4.05496   3.88349   10.654
 5818.00    4.09643   3.91588   10.585
 5819.00    4.08939   3.93994   10.515
 5820.00    4.10587   3.94968   10.461
 5821.00    4.10489   3.94853   10.413
 5822.00    4.10814   3.94242   10.392
 5823.00    4.13240   3.93773   10.419
 5824.00    4.12742   3.93825   10.445
 5825.00    4.12733   3.94438   10.420
 5826.00    4.14737   3.95380   10.405
 5827.00    4.13214   3.96185   10.387
 5828.00    4.12730   3.96562   10.381
 5829.00    4.14248   3.96684   10.390
 5830.00    4.13057   3.96909   10.403
 5831.00    4.12383   3.97280   10.383
 5832.00    4.13391   3.97303   10.385
 5833.00    4.12925   3.96512   10.376
 5834.00    4.12935   3.95403   10.412
 5835.00    4.14024   3.95075   10.475
 5836.00    4.13635   3.95735   10.474
 5837.00    4.11405   3.96413   10.438
 5838.00    4.12087   3.96673   10.432
 5839.00    4.16426   3.97174   10.469
 5840.00    4.17336   3.98347   10.478
 5841.00    4.16003   3.99733   10.429
 5842.00    4.13871   4.00431   10.352
 5843.00    4.11572   4.00075   10.314
 5844.00    4.12117   3.98843   10.329
 5845.00    4.10531   3.96974   10.368
 5846.00    4.09428   3.94973   10.415
 5847.00    4.11001   3.93580   10.484
 5848.00    4.10075   3.93069   10.534
 5849.00    4.09370   3.92830   10.572
 5850.00    4.07931   3.91938   10.560
 5851.00    4.07391   3.89796   10.591
 5852.00    4.04598   3.87070   10.657
 5853.00    4.00542   3.85221   10.732
 5854.00    4.06189   3.84693   10.831
 5855.00    4.05551   3.83881   10.868
 5856.00    4.05023   3.80841   10.883
 5857.00    4.03060   3.77201   -1.000
 5858.00    4.04801   3.76695   -1.000
 5859.00    4.05925   3.79983   -1.000
 5860.00    4.09865   3.84455   -1.000
 5861.00    4.11222   3.87499   10.856
 5862.00    4.11576   3.88803   10.784
 5863.00    4.11771   3.89515   10.751
 5864.00    4.14664   3.89788   10.710
 5865.00    4.17395   3.88969   -1.000
 5866.00    4.13079   3.87624   -1.000
 5867.00    4.12967   3.87464   -1.000
 5868.00    4.16486   3.89505   -1.000
 5869.00    4.20042   3.92687   -1.000
 5870.00    4.19948   3.95003   10.679
 5871.00    4.20417   3.95250   10.601
 5872.00    4.19479   3.93478   -1.000
 5873.00    4.19952   3.90748   -1.000
 5874.00    4.19675   3.88236   -1.000
 5875.00    4.17976   3.86667   -1.000
 5876.00    4.17024   3.86268   -1.000
 5877.00    4.18522   3.86554   -1.000
 5878.00    4.19796   3.86643   -1.000
 5879.00    4.18170   3.86182   -1.000
 5880.00    4.17239   3.85549   -1.000
 5881.00    4.15452   3.85119   -1.000
 5882.00    4.13512   3.84359   -1.000
 5883.00    4.13820   3.82691   -1.000
 5884.00    4.14632   3.80769   -1.000
 5885.00    4.13799   3.78541   -1.000
 5886.00    4.12546   3.72272   -1.000
 5887.00    3.99900   3.56638   -1.000
 5888.00    3.67505   3.32438   -1.000
 5889.00    3.22475   3.10333   11.621
 5890.00    2.92598   3.03646   12.420
 5891.00    3.02395   3.13782   13.085
 5892.00    3.48624   3.28181   13.143
 5893.00    3.84256   3.33448   -1.000
 5894.00    3.72711   3.26725   -1.000
 5895.00    3.42910   3.17189   -1.000
 5896.00    3.18504   3.16933   12.317
 5897.00    3.25078   3.29333   12.610
 5898.00    3.64648   3.46260   12.449
 5899.00    3.98961   3.59797   -1.000
 5900.00    4.08217   3.69483   -1.000
 5901.00    4.10499   3.76887   -1.000
 5902.00    4.13076   3.82220   -1.000
 5903.00    4.14566   3.85310   -1.000
 5904.00    4.16577   3.86657   -1.000
 5905.00    4.18988   3.87301   -1.000
 5906.00    4.21687   3.88089   -1.000
 5907.00    4.20152   3.89326   -1.000
 5908.00    4.21397   3.90749   -1.000
 5909.00    4.22162   3.92000   -1.000
 5910.00    4.19688   3.92766   -1.000
 5911.00    4.18643   3.92473   -1.000
 5912.00    4.18323   3.90492   -1.000
 5913.00    4.17804   3.87291   -1.000
 5914.00    4.16298   3.84695   -1.000
 5915.00    4.13431   3.84036   -1.000
 5916.00    4.14186   3.85238   -1.000
 5917.00    4.17123   3.87661   -1.000
 5918.00    4.18434   3.90617   -1.000
 5919.00    4.17993   3.93065   -1.000
 5920.00    4.17087   3.94239   11.006
 5921.00    4.18182   3.94138   10.980
 5922.00    4.17274   3.93444   10.945
 5923.00    4.18457   3.93323   -1.000
 5924.00    4.21155   3.94409   -1.000
 5925.00    4.21097   3.96266   10.907
 5926.00    4.21668   3.97745   10.878
 5927.00    4.24580   3.97591   -1.000
 5928.00    4.23321   3.95694   -1.000
 5929.00    4.19993   3.93694   -1.000
 5930.00    4.20215   3.93425   -1.000
 5931.00    4.21940   3.95087   -1.000
 5932.00    4.25954   3.96708   -1.000
 5933.00    4.25720   3.96579   -1.000
 5934.00    4.21599   3.95659   -1.000
 5935.00    4.21600   3.95918   -1.000
 5936.00    4.25586   3.97786   -1.000
 5937.00    4.26747   3.99892   -1.000
 5938.00    4.27035   4.00640   -1.000
 5939.00    4.29201   3.99555   -1.000
 5940.00    4.27664   3.97390   -1.000
 5941.00    4.20718   3.95739   -1.000
 5942.00    4.18106   3.95921   11.023
 5943.00    4.20547   3.97845   11.061
 5944.00    4.23690   4.00112   11.035
 5945.00    4.24820   4.01460   10.963
 5946.00    4.22490   4.01357   10.904
 5947.00    4.21682   3.99776   10.878
 5948.00    4.20508   3.97841   10.932
 5949.00    4.18770   3.97123   11.041
 5950.00    4.20342   3.97681   11.142
 5951.00    4.23402   3.98116   -1.000
 5952.00    4.23868   3.97818   -1.000
 5953.00    4.22020   3.97774   11.051
 5954.00    4.22342   3.98164   11.081
 5955.00    4.23556   3.97694   -1.000
 5956.00    4.22977   3.96387   -1.000
 5957.00    4.21460   3.95954   -1.000
 5958.00    4.22770   3.97633   -1.000
 5959.00    4.23849   4.00925   11.105
 5960.00    4.27165   4.04224   11.039
 5961.00    4.32342   4.06347   -1.000
 5962.00    4.35605   4.07122   -1.000
 5963.00    4.36483   4.06823   -1.000
 5964.00    4.33559   4.05761   -1.000
 5965.00    4.30328   4.04619   -1.000
 5966.00    4.32371   4.04332   -1.000
 5967.00    4.31076   4.05206   -1.000
 5968.00    4.32533   4.06643   -1.000
 5969.00    4.31745   4.08221   10.897
 5970.00    4.32780   4.09750   10.818
 5971.00    4.32305   4.10679   10.805
 5972.00    4.34019   4.10675   10.800
 5973.00    4.34256   4.09696   -1.000
 5974.00    4.34259   4.07602   -1.000
 5975.00    4.29633   4.04695   -1.000
 5976.00    4.27484   4.02013   -1.000
 5977.00    4.25702   4.00737   -1.000
 5978.00    4.26945   4.01566   -1.000
 5979.00    4.30026   4.04080   -1.000
 5980.00    4.32591   4.06568   -1.000
 5981.00    4.36801   4.07077   -1.000
 5982.00    4.33792   4.04991   -1.000
 5983.00    4.31422   4.01822   -1.000
 5984.00    4.29021   4.00157   -1.000
 5985.00    4.29381   4.01380   -1.000
 5986.00    4.34974   4.04387   -1.000
 5987.00    4.34753   4.07118   -1.000
 5988.00    4.34699   4.08790   -1.000
 5989.00    4.35409   4.09491   -1.000
 5990.00    4.34421   4.09590   -1.000
 5991.00    4.31038   4.10131   10.890
 5992.00    4.35810   4.12234   10.919
 5993.00    4.38470   4.15296   10.930
 5994.00    4.36704   4.17069   10.858
 5995.00    4.36317   4.16341   10.774
 5996.00    4.38098   4.14065   10.771
 5997.00    4.37063   4.12153   -1.000
 5998.00    4.35362   4.11549   10.929
 5999.00    4.36615   4.11771   -1.000
 6000.00    4.39327   4.11958   -1.000
 6001.00    4.38038   4.11441   -1.000
 6002.00    4.37391   4.10432   -1.000
 6003.00    4.36004   4.10051   -1.000
 6004.00    4.34494   4.10563   -1.000
 6005.00    4.34314   4.10306   -1.000
 6006.00    4.34493   4.07976   -1.000
 6007.00    4.30088   4.05220   -1.000
 6008.00    4.28110   4.04860   11.159
 6009.00    4.31401   4.07633   -1.000
 6010.00    4.33205   4.11249   11.215
 6011.00    4.34570   4.12794   11.073
 6012.00    4.33356   4.12174   10.983
 6013.00    4.31709   4.11187   11.018
 6014.00    4.35840   4.10983   -1.000
 6015.00    4.37476   4.11206   -1.000
 6016.00    4.35589   4.10986   -1.000
 6017.00    4.36519   4.10590   -1.000
 6018.00    4.37839   4.10320   -1.000
 6019.00    4.38534   4.09766   -1.000
 6020.00    4.35924   4.09176   -1.000
 6021.00    4.34187   4.09494   -1.000
 6022.00    4.37507   4.10716   -1.000
 6023.00    4.38970   4.12149   -1.000
 6024.00    4.38418   4.13976   -1.000
 6025.00    4.40424   4.16528   -1.000
 6026.00    4.43301   4.19081   -1.000
 6027.00    4.46123   4.21166   -1.000
 6028.00    4.43999   4.23095   10.963
 6029.00    4.44726   4.24579   10.890
 6030.00    4.46360   4.25244   10.853
 6031.00    4.46672   4.25679   10.845
 6032.00    4.48561   4.26553   10.853
 6033.00    4.50697   4.27775   10.874
 6034.00    4.47171   4.28693   10.843
 6035.00    4.49755   4.28820   10.795
 6036.00    4.46534   4.28348   10.774
 6037.00    4.46847   4.27710   10.770
 6038.00    4.48057   4.27006   10.752
 6039.00    4.46133   4.26172   10.777
 6040.00    4.45682   4.25468   10.839
 6041.00    4.44829   4.25353   10.856
 6042.00    4.49555   4.26166   -1.000
 6043.00    4.50944   4.27944   -1.000
 6044.00    4.50574   4.30055   10.835
 6045.00    4.49262   4.31672   10.768
 6046.00    4.49568   4.32726   10.693
 6047.00    4.53564   4.33433   10.713
 6048.00    4.50456   4.33499   10.709
 6049.00    4.50627   4.33094   10.693
 6050.00    4.51156   4.33133   10.713
 6051.00    4.52406   4.33346   10.751
 6052.00    4.51551   4.32614   10.771
 6053.00    4.53943   4.30985   10.780
 6054.00    4.53896   4.29052   -1.000
 6055.00    4.51748   4.27260   -1.000
 6056.00    4.49692   4.26350   -1.000
 6057.00    4.52533   4.26928   -1.000
 6058.00    4.52891   4.28746   -1.000
 6059.00    4.51424   4.30850   10.938
 6060.00    4.51770   4.32067   10.875
 6061.00    4.49182   4.31485   10.831
 6062.00    4.48167   4.28873   10.855
 6063.00    4.46086   4.24902   10.899
 6064.00    4.38046   4.21208   11.083
 6065.00    4.28757   4.20396   11.217
 6066.00    4.41525   4.23685   11.433
 6067.00    4.41833   4.29010   11.704
 6068.00    2.91862   4.33728   -1.000
 6069.00    1.82135   4.36818   -1.000
 6070.00    2.65164   4.38456   -1.000
 6071.00    4.08856   4.39245   10.829
 6072.00    4.01910   4.39641   -1.000
 6073.00    4.05316   4.39846   -1.000
 6074.00    1.70986   4.39759   -1.000
 6075.00    2.94963   4.38956   -1.000
 6076.00    4.80840   4.37109   -1.000
 6077.00    4.53709   4.34466   10.803
 6078.00    4.52264   4.31999   10.862
 6079.00    4.51742   4.30461   10.928
 6080.00    4.51932   4.29339   11.014
 6081.00    4.49409   4.28062   11.069
 6082.00    4.48287   4.27297   11.068
 6083.00    4.48037   4.27549   11.083
 6084.00    4.46954   4.28518   11.113
 6085.00    4.48337   4.30102   11.106
 6086.00    4.52558   4.32042   11.097
 6087.00    4.55165   4.33281   11.082
 6088.00    4.55576   4.32941   -1.000
 6089.00    4.53527   4.31382   11.009
 6090.00    4.50584   4.29931   11.046
 6091.00    4.51157   4.29763   11.115
 6092.00    4.51825   4.31008   11.151
 6093.00    4.50202   4.33170   11.130
 6094.00    4.53608   4.35497   11.053
 6095.00    4.58560   4.37270   11.000
 6096.00    4.57231   4.38303   10.938
 6097.00    4.55267   4.39009   10.900
 6098.00    4.56228   4.39491   10.914
 6099.00    4.58031   4.38248   10.940
 6100.00    4.54394   4.33337   10.944
 6101.00    4.49047   4.25333   -1.000
 6102.00    4.43765   4.18702   -1.000
 6103.00    4.39953   4.18306   11.407
 6104.00    4.45522   4.23512   -1.000
 6105.00    4.55170   4.29776   -1.000
 6106.00    4.56662   4.34212   -1.000
 6107.00    4.53022   4.36790   11.036
 6108.00    4.51915   4.38609   11.024
 6109.00    4.52689   4.39835   11.072
 6110.00    4.55994   4.40040   11.092
 6111.00    4.57105   4.39913   11.081
 6112.00    4.56143   4.40591   11.052
 6113.00    4.58488   4.42055   11.006
 6114.00    4.57232   4.43176   11.004
 6115.00    4.56964   4.43094   10.941
 6116.00    4.55775   4.42404   10.928
 6117.00    4.57909   4.41465   10.983
 6118.00    4.54374   4.38998   11.051
 6119.00    4.47776   4.33840   11.064
 6120.00    4.44789   4.26578   11.137
 6121.00    4.39298   4.20480   11.311
 6122.00    4.37096   4.19230   11.448
 6123.00    4.41660   4.22841   11.540
 6124.00    4.51621   4.28341   -1.000
 6125.00    4.51441   4.32648   11.306
 6126.00    4.48593   4.34317   11.187
 6127.00    4.45112   4.33676   11.209
 6128.00    4.48172   4.33498   11.271
 6129.00    4.51356   4.37023   11.244
 6130.00    4.55999   4.42832   11.212
 6131.00    4.60366   4.46901   11.109
 6132.00    4.58217   4.47423   11.014
 6133.00    4.56249   4.43872   11.007
 6134.00    4.46837   4.35755   11.043
 6135.00    4.40829   4.24880   11.175
 6136.00    4.30684   4.16372   11.457
 6137.00    4.25644   4.15295   11.799
 6138.00    4.32415   4.20461   12.056
 6139.00    4.41485   4.25886   12.017
 6140.00    4.47206   4.28774   11.672
 6141.00    4.46068   4.31254   11.366
 6142.00    4.41605   4.35757   11.283
 6143.00    4.47398   4.41267   11.318
 6144.00    4.55278   4.44968   11.319
 6145.00    4.61907   4.45618   11.184
 6146.00    4.60571   4.43654   11.064
 6147.00    4.58873   4.40120   11.070
 6148.00    4.55846   4.36636   11.130
 6149.00    4.52808   4.34735   11.204
 6150.00    4.53554   4.35201   11.285
 6151.00    4.51102   4.37722   11.341
 6152.00    4.50964   4.40223   11.328
 6153.00    4.54973   4.40473   11.278
 6154.00    4.55381   4.38590   11.202
 6155.00    4.54367   4.36340   11.210
 6156.00    4.53762   4.34698   11.315
 6157.00    4.55010   4.33038   11.360
 6158.00    4.53616   4.29586   -1.000
 6159.00    4.50083   4.22242   -1.000
 6160.00    4.44224   4.11059   -1.000
 6161.00    4.35027   3.99802   -1.000
 6162.00    4.27911   3.94084   -1.000
 6163.00    4.27040   3.96309   -1.000
 6164.00    4.33500   4.03470   -1.000
 6165.00    4.37856   4.11100   -1.000
 6166.00    4.39312   4.16036   -1.000
 6167.00    4.40954   4.16438   -1.000
 6168.00    4.37057   4.13150   -1.000
 6169.00    4.31348   4.10655   11.868
 6170.00    4.32275   4.12578   12.036
 6171.00    4.37602   4.17760   12.127
 6172.00    4.41002   4.22875   11.994
 6173.00    4.42300   4.26257   11.752
 6174.00    4.43156   4.28158   11.618
 6175.00    4.44905   4.29233   11.652
 6176.00    4.45537   4.30323   11.653
 6177.00    4.45959   4.31948   11.620
 6178.00    4.48512   4.33714   11.599
 6179.00    4.46988   4.35193   11.563
 6180.00    4.45381   4.36706   11.504
 6181.00    4.48853   4.38438   11.466
 6182.00    4.53925   4.39677   11.427
 6183.00    4.56158   4.39572   11.374
 6184.00    4.54004   4.37924   11.355
 6185.00    4.54209   4.35044   11.386
 6186.00    4.52139   4.31696   11.433
 6187.00    4.49998   4.28716   11.536
 6188.00    4.49589   4.25824   -1.000
 6189.00    4.42651   4.21848   11.783
 6190.00    4.38946   4.17300   11.891
 6191.00    4.34845   4.15633   11.981
 6192.00    4.37941   4.18849   12.142
 6193.00    4.48683   4.24616   -1.000
 6194.00    4.53260   4.30018   -1.000
 6195.00    4.55276   4.34043   11.692
 6196.00    4.52666   4.36244   11.532
 6197.00    4.52568   4.36060   11.481
 6198.00    4.50188   4.33869   11.479
 6199.00    4.47469   4.31747   11.573
 6200.00    4.47845   4.31851   11.711
 6201.00    4.47761   4.34140   11.788
 6202.00    4.47008   4.37243   11.751
 6203.00    4.45920   4.40028   11.615
 6204.00    4.47344   4.42024   11.478
 6205.00    4.45078   4.43383   11.467
 6206.00    4.51139   4.44418   11.468
 6207.00    4.56207   4.45182   11.447
 6208.00    4.58705   4.45162   11.454
 6209.00    4.58128   4.43782   11.501
 6210.00    4.55105   4.40900   11.497
 6211.00    4.49568   4.36497   11.562
 6212.00    4.50277   4.30960   11.674
 6213.00    4.48021   4.25865   11.764
 6214.00    4.45370   4.22912   11.890
 6215.00    4.44508   4.22467   12.075
 6216.00    4.48702   4.23561   -1.000
 6217.00    4.53097   4.24532   -1.000
 6218.00    4.53907   4.24402   -1.000
 6219.00    4.47932   4.23933   -1.000
 6220.00    4.47056   4.24513   -1.000
 6221.00    4.52651   4.26038   -1.000
 6222.00    4.55085   4.27276   -1.000
 6223.00    4.58278   4.28026   -1.000
 6224.00    4.60649   4.28764   -1.000
 6225.00    4.47005   4.29499   12.342
 6226.00    4.01390   4.29645   -1.000
 6227.00    4.53552   4.27969   -1.000
 6228.00    4.57003   4.23598   -1.000
 6229.00    4.47517   4.17662   -1.000
 6230.00    4.39640   4.13439   -1.000
 6231.00    4.39441   4.13494   -1.000
 6232.00    4.43899   4.17666   -1.000
 6233.00    4.51271   4.23985   -1.000
 6234.00    4.53732   4.29767   -1.000
 6235.00    4.57652   4.32682   -1.000
 6236.00    4.61708   4.31970   -1.000
 6237.00    4.61034   4.28839   -1.000
 6238.00    4.61532   4.25399   -1.000
 6239.00    4.55995   4.23269   -1.000
 6240.00    4.51195   4.22790   -1.000
 6241.00    4.50893   4.22758   -1.000
 6242.00    4.45362   4.21713   -1.000
 6243.00    4.45853   4.19837   -1.000
 6244.00    4.47573   4.18397   -1.000
 6245.00    4.45881   4.18465   -1.000
 6246.00    4.47465   4.20977   -1.000
 6247.00    4.50548   4.25731   -1.000
 6248.00    4.52485   4.30931   12.181
 6249.00    4.55816   4.34070   12.024
 6250.00    4.54231   4.33418   11.912
 6251.00    4.48381   4.29540   11.926
 6252.00    4.41005   4.25188   12.061
 6253.00    4.34018   4.22775   12.293
 6254.00    4.35803   4.22154   12.426
 6255.00    4.38668   4.21602   12.499
 6256.00    4.34126   4.20102   12.524
 6257.00    4.33794   4.18816   12.524
 6258.00    4.42637   4.19616   -1.000
 6259.00    4.45104   4.23063   -1.000
 6260.00    4.45400   4.28408   12.664
 6261.00    4.51251   4.34245   12.458
 6262.00    4.51977   4.38864   12.274
 6263.00    4.53183   4.40933   12.108
 6264.00    4.52408   4.40868   11.926
 6265.00    4.49214   4.40527   11.897
 6266.00    4.52713   4.40971   12.009
 6267.00    4.57275   4.41421   12.074
 6268.00    4.54093   4.40892   12.000
 6269.00    4.52878   4.40027   11.920
 6270.00    4.49452   4.40234   11.981
 6271.00    4.49191   4.41678   12.036
 6272.00    4.52612   4.42956   12.008
 6273.00    4.56583   4.42317   11.966
 6274.00    4.54362   4.39266   11.944
 6275.00    4.49062   4.34675   11.987
 6276.00    4.48193   4.29993   12.082
 6277.00    4.44032   4.26386   12.186
 6278.00    4.32209   4.24102   12.404
 6279.00    4.16391   4.23303   12.727
 6280.00    4.07860   4.24451   12.932
 6281.00    4.05389   4.27478   12.986
 6282.00    4.02980   4.31685   -1.000
 6283.00    4.00737   4.36137   -1.000
 6284.00    3.99552   4.40348   -1.000
 6285.00    4.00853   4.44345   -1.000
 6286.00    4.09456   4.48011   -1.000
 6287.00    4.21853   4.50810   12.048
 6288.00    4.35579   4.51819   11.937
 6289.00    4.45477   4.50843   11.862
 6290.00    4.49133   4.48875   11.851
 6291.00    4.50199   4.47018   11.928
 6292.00    4.49891   4.45875   12.032
 6293.00    4.50469   4.45413   12.115
 6294.00    4.50688   4.44634   12.130
 6295.00    4.47329   4.42533   12.143
 6296.00    4.44785   4.40045   12.171
 6297.00    4.43137   4.39118   12.274
 6298.00    4.40508   4.39769   12.348
 6299.00    4.40435   4.40309   12.356
 6300.00    4.42503   4.39711   12.332
 6301.00    4.42325   4.39140   12.276
 6302.00    4.44828   4.40589   12.231
 6303.00    4.50971   4.43976   12.358
 6304.00    4.52441   4.47670   12.486
 6305.00    4.53086   4.50978   12.345
 6306.00    4.57810   4.54087   12.144
 6307.00    4.60260   4.56609   12.004
 6308.00    4.55883   4.57693   11.906
 6309.00    4.53489   4.57306   11.801
 6310.00    4.57985   4.56292   11.798
 6311.00    4.56895   4.55362   11.859
 6312.00    4.52702   4.54457   11.941
 6313.00    4.51710   4.53074   11.982
 6314.00    4.48037   4.51271   12.030
 6315.00    4.47337   4.49462   12.042
 6316.00    4.45596   4.47769   12.164
 6317.00    4.44475   4.46733   12.194
 6318.00    4.44940   4.47744   12.180
 6319.00    4.46976   4.51224   12.170
 6320.00    4.50378   4.55331   12.187
 6321.00    4.51659   4.58417   12.129
 6322.00    4.55918   4.60961   11.972
 6323.00    4.60920   4.63593   11.863
 6324.00    4.60486   4.65692   11.826
 6325.00    4.62648   4.66821   11.785
 6326.00    4.59162   4.67383   11.719
 6327.00    4.61939   4.67888   11.688
 6328.00    4.64982   4.68451   11.682
 6329.00    4.60366   4.69010   11.620
 6330.00    4.60305   4.70026   11.641
 6331.00    4.62916   4.71509   11.647
 6332.00    4.64170   4.71740   11.653
 6333.00    4.64841   4.69048   11.605
 6334.00    4.60387   4.64098   11.592
 6335.00    4.55216   4.59757   11.630
 6336.00    4.57980   4.58711   11.670
 6337.00    4.18585   4.60888   -1.000
 6338.00    3.92999   4.64602   -1.000
 6339.00    4.69056   4.68573   11.836
 6340.00    4.65022   4.71550   11.714
 6341.00    4.64988   4.72213   11.587
 6342.00    4.66224   4.70344   11.539
 6343.00    4.60993   4.67298   11.484
 6344.00    4.58495   4.65152   11.506
 6345.00    4.59268   4.64968   11.617
 6346.00    4.63964   4.66947   11.619
 6347.00    4.66902   4.70972   11.582
 6348.00    4.66884   4.75701   11.515
 6349.00    4.65521   4.79159   11.434
 6350.00    4.68187   4.80519   11.397
 6351.00    4.68249   4.80040   11.403
 6352.00    4.64162   4.78012   11.376
 6353.00    4.62296   4.74920   11.393
 6354.00    4.61433   4.72068   11.446
 6355.00    4.57382   4.70341   11.502
 6356.00    4.58149   4.68775   11.643
 6357.00    4.56095   4.66270   11.735
 6358.00    4.58025   4.63486   11.730
 6359.00    4.55855   4.61440   11.773
 6360.00    4.55586   4.60035   11.916
 6361.00    4.59449   4.59157   11.952
 6362.00    4.55476   4.59434   11.894
 6363.00    4.56098   4.61282   11.859
 6364.00    4.58886   4.64343   11.850
 6365.00    4.59293   4.67986   11.803
 6366.00    4.59659   4.71680   11.722
 6367.00    4.61692   4.74636   11.648
 6368.00    4.61500   4.75852   11.586
 6369.00    4.64313   4.75578   11.511
 6370.00    4.64004   4.75602   11.436
 6371.00    4.59541   4.77459   11.413
 6372.00    4.62825   4.80685   11.423
 6373.00    4.66221   4.83415   11.378
 6374.00    4.67301   4.84607   11.336
 6375.00    4.64127   4.84355   11.374
 6376.00    4.60557   4.82728   11.380
 6377.00    4.63431   4.80030   11.407
 6378.00    4.57163   4.77381   11.452
 6379.00    4.54914   4.75668   11.513
 6380.00    4.56702   4.75045   11.592
 6381.00    4.57342   4.75337   11.631
 6382.00    4.57679   4.76168   11.636
 6383.00    4.57880   4.77218   11.659
 6384.00    4.60743   4.78601   11.652
 6385.00    4.58345   4.80421   11.621
 6386.00    4.57257   4.82057   11.684
 6387.00    4.58682   4.82917   11.706
 6388.00    4.57461   4.83141   11.694
 6389.00    4.55603   4.82819   11.735
 6390.00    4.51384   4.81120   11.774
 6391.00    4.44406   4.77416   -1.000
 6392.00    4.39657   4.73251   -1.000
 6393.00    4.36494   4.71849   -1.000
 6394.00    4.33487   4.74899   -1.000
 6395.00    4.32631   4.80176   -1.000
 6396.00    4.37306   4.83758   -1.000
 6397.00    4.38284   4.83024   -1.000
 6398.00    4.32962   4.78410   -1.000
 6399.00    4.25524   4.73762   -1.000
 6400.00    4.18495   4.73325   -1.000
 6401.00    4.18896   4.77860   -1.000
 6402.00    4.26235   4.84277   -1.000
 6403.00    4.32688   4.89156   -1.000
 6404.00    4.31726   4.90749   -1.000
 6405.00    4.31580   4.89030   -1.000
 6406.00    4.28449   4.85858   -1.000
 6407.00    4.21503   4.83987   -1.000
 6408.00    4.18373   4.84240   -1.000
 6409.00    4.14679   4.84675   -1.000
 6410.00    4.10368   4.83832   -1.000
 6411.00    4.08650   4.82737   -1.000
 6412.00    4.03519   4.82931   -1.000
 6413.00    4.01904   4.84072   -1.000
 6414.00    4.02111   4.85141   -1.000
 6415.00    4.04439   4.86370   -1.000
 6416.00    4.01641   4.87494   -1.000
 6417.00    4.00249   4.86991   -1.000
 6418.00    3.97652   4.84253   -1.000
 6419.00    3.89517   4.80776   -1.000
 6420.00    3.81543   4.79196   -1.000
 6421.00    3.74166   4.81568   -1.000
 6422.00    3.77580   4.86978   -1.000
 6423.00    3.79137   4.92398   -1.000
 6424.00    3.78815   4.96293   -1.000
 6425.00    3.73548   4.98924   -1.000
 6426.00    3.72557   5.00292   -1.000
 6427.00    3.69736   4.99229   -1.000
 6428.00    3.66272   4.94770   -1.000
