###################################################################
## OUTPUT of StarlightChains_v04.for    [Cid@UFSC - 01/Apr/2007] ##
###################################################################

## Some input info
NGC6723_a_1.cxt                          [arq_obs]
Base.BC03.N                              [arq_base]
NGC6723_a_1.msk                          [arq_masks]
StCv04.C99.config                        [arq_config]
   45                                    [N_base]
    0                                    [N_YAV_components = # of components with extra extinction!]
    0                                    [i_FitPowerLaw (1/0 = Yes/No)]
-9.99                                    [alpha_PowerLaw]
CCM                                      [red_law_option]
 1.458241                                [q_norm = A(l_norm)/A(V)]

## (Re)Sampling Parameters
 3359.00                                 [l_ini (A)]
 6428.00                                 [l_fin (A)]
    1.00                                 [dl    (A)]     (OBS: dl_cushion =    50.00 A)

## Normalization info
 4020.00                                 [l_norm (A) - for base]
 4010.00                                 [llow_norm (A) - window for f_obs]
 4060.00                                 [lupp_norm (A) - window for f_obs]
2.195815E-14                             [fobs_norm (in input units)]

## S/N
 4730.00                                 [llow_SN (A) - window for S/N]
 4780.00                                 [lupp_SN (A) - window for S/N]
  66.760                                 [S/N in S/N window]
  58.282                                 [S/N in norm. window]
  95.225                                 [S/N_err in S/N window]
  83.132                                 [S/N_err in norm. window]
  1.0000                                 [fscale_chi2]

## etc...
  2147483590                             [idum_orig]
  3065                                   [NOl_eff]
  1735                                   [Nl_eff]
  1330    NSIGMA                         [Ntot_cliped & clip_method]
  1293180                                [Nglobal_steps]
   7                                     [N_chains]
   6                                     [NEX0s_base = N_base in EX0s-fits]
 0   0   1      119   2.0   1.985E+02    [Clip-Bug, RC-Crash & Burn-In warning-flags, n_censored_weights, wei_nsig_threshold & wei_limit]
    19     19.810     19.810      0.000  [idt_all, wdt_TotTime, wdt_UsrTime & wdt_SysTime (sec)]

## Synthesis Results - Best model ##

 2.67583E+00                             [chi2/Nl_eff]
     1.93840                             [adev (%)]

   102.67241                             [sum-of-x (%)]
 2.87315E-14                             [Flux_tot (units of input spectrum!)]
 3.13382E-10                             [Mini_tot (???)]
 1.68588E-10                             [Mcor_tot (???)]

   5.66                                  [v0_min  (km/s)]
  50.34                                  [vd_min  (km/s)]
 0.1805                                  [AV_min  (mag)]
 0.0000                                  [YAV_min (mag)]

# j     x_j(%)      Mini_j(%)     Mcor_j(%)     age_j(yr)     Z_j      (L/M)_j    YAV?  Mstars   component_j        a/Fe...       SSP_chi2r SSP_adev(%)   SSP_AV   SSP_x(%)
  1      0.0000     0.0000E+00    0.0000E+00    1.000000E+06  0.00400  1.114E-02    0   1.0000   age020_m42            0.0000     1.3624E+02    12.5887   3.6245    81.3707
  2      2.7495     6.0279E-03    1.1204E-02    3.160000E+06  0.00400  4.073E-02    0   0.9999   age045_m42            0.0000     4.5314E+01     7.1320   2.7022    94.2236
  3      0.0000     0.0000E+00    0.0000E+00    5.010000E+06  0.00400  2.534E-02    0   0.9488   age055_m42            0.0000     7.9783E+01     9.9721   3.0883    88.5186
  4      4.7926     3.3671E-02    5.5467E-02    1.000000E+07  0.00400  1.271E-02    0   0.8862   age070_m42            0.0000     7.7088E+01    10.0225   2.3067    91.9716
  5      0.0000     0.0000E+00    0.0000E+00    2.512000E+07  0.00400  5.070E-03    0   0.8174   age090_m42            0.0000     6.9657E+01     9.5023   2.1833    93.2810
  6      0.0000     0.0000E+00    0.0000E+00    4.000000E+07  0.00400  3.505E-03    0   0.7851   age104_m42            0.0000     4.8873E+01     7.7914   1.8782    95.8329
  7      5.1920     2.0442E-01    2.7386E-01    1.015200E+08  0.00400  2.268E-03    0   0.7207   age116_m42            0.0000     9.4953E+01     6.7335   1.9431   103.0660
  8      0.0000     0.0000E+00    0.0000E+00    2.861200E+08  0.00400  1.079E-03    0   0.6613   age125_m42            0.0000     9.7635E+01     6.9577   1.4612   104.7815
  9      0.0000     0.0000E+00    0.0000E+00    6.405400E+08  0.00400  5.077E-04    0   0.6197   age132_m42            0.0000     9.9165E+01     7.3641   1.0990   108.7632
 10      4.5745     1.1555E+00    1.2940E+00    9.047900E+08  0.00400  3.535E-04    0   0.6024   age135_m42            0.0000     6.0844E+01     5.9400   0.8469   108.3910
 11      0.0000     0.0000E+00    0.0000E+00    1.434000E+09  0.00400  1.910E-04    0   0.5716   age139_m42            0.0000     2.0794E+01     3.8187   0.2981   107.6298
 12     64.0437     5.8248E+01    5.9151E+01    2.500000E+09  0.00400  9.818E-05    0   0.5463   age150_m42            0.0000     4.7070E+00     2.4879  -0.0003   103.6793
 13     21.3201     4.0352E+01    3.9214E+01    5.000000E+09  0.00400  4.718E-05    0   0.5228   age161_m42            0.0000     1.0486E+01     3.1120  -0.1777   100.6266
 14      0.0000     0.0000E+00    0.0000E+00    1.100000E+10  0.00400  2.205E-05    0   0.4980   age185_m42            0.0000     3.2275E+01     4.7699  -0.4475    98.6236
 15      0.0000     0.0000E+00    0.0000E+00    1.300000E+10  0.00400  1.883E-05    0   0.4927   age193_m42            0.0000     3.6427E+01     5.0062  -0.4647    98.4492
 16      0.0000     0.0000E+00    0.0000E+00    1.000000E+06  0.02000  1.989E-02    0   1.0000   age020_m62            0.0000     1.3944E+02    12.5640   3.5935    81.9079
 17      0.0000     0.0000E+00    0.0000E+00    3.160000E+06  0.02000  3.772E-02    0   0.9858   age045_m62            0.0000     1.2870E+02    12.2659   3.4560    84.0369
 18      0.0000     0.0000E+00    0.0000E+00    5.010000E+06  0.02000  3.227E-02    0   0.9342   age055_m62            0.0000     6.2671E+01     8.6397   2.9594    91.0401
 19      0.0000     0.0000E+00    0.0000E+00    1.000000E+07  0.02000  1.011E-02    0   0.8751   age070_m62            0.0000     1.5761E+02    14.1521   2.3231    88.4840
 20      0.0000     0.0000E+00    0.0000E+00    2.512000E+07  0.02000  4.206E-03    0   0.8099   age090_m62            0.0000     1.1753E+02    12.2724   2.2632    89.2000
 21      0.0000     0.0000E+00    0.0000E+00    4.000000E+07  0.02000  3.373E-03    0   0.7799   age104_m62            0.0000     5.5912E+01     7.7442   2.1102    96.8052
 22      0.0000     0.0000E+00    0.0000E+00    1.015200E+08  0.02000  1.878E-03    0   0.7221   age116_m62            0.0000     8.9602E+01     6.8569   1.9691   103.3310
 23      0.0000     0.0000E+00    0.0000E+00    2.861200E+08  0.02000  8.869E-04    0   0.6700   age125_m62            0.0000     1.5794E+02     8.6674   1.4872   108.9408
 24      0.0000     0.0000E+00    0.0000E+00    6.405400E+08  0.02000  3.657E-04    0   0.6322   age132_m62            0.0000     9.3165E+01     7.0445   0.7847   112.9139
 25      0.0000     0.0000E+00    0.0000E+00    9.047900E+08  0.02000  2.312E-04    0   0.6152   age135_m62            0.0000     4.6212E+01     5.3543   0.3913   112.5105
 26      0.0000     0.0000E+00    0.0000E+00    1.434000E+09  0.02000  1.168E-04    0   0.5865   age139_m62            0.0000     1.2037E+01     3.4336  -0.0511   107.4771
 27      0.0000     0.0000E+00    0.0000E+00    2.500000E+09  0.02000  5.505E-05    0   0.5610   age150_m62            0.0000     2.3514E+01     4.5180  -0.4375   104.8669
 28      0.0000     0.0000E+00    0.0000E+00    5.000000E+09  0.02000  2.596E-05    0   0.5353   age161_m62            0.0000     6.2620E+01     6.5795  -0.7737   104.7771
 29      0.0000     0.0000E+00    0.0000E+00    1.100000E+10  0.02000  1.169E-05    0   0.5103   age185_m62            0.0000     1.1975E+02     8.1969  -1.0000   102.4671
 30      0.0000     0.0000E+00    0.0000E+00    1.300000E+10  0.02000  9.691E-06    0   0.5047   age193_m62            0.0000     1.3483E+02     8.6327  -1.0000   101.4523
 31      0.0000     0.0000E+00    0.0000E+00    1.000000E+06  0.05000  2.651E-02    0   0.9998   age020_m72            0.0000     1.3010E+02    12.0312   3.6017    82.6631
 32      0.0000     0.0000E+00    0.0000E+00    3.160000E+06  0.05000  4.817E-02    0   0.9577   age045_m72            0.0000     9.5704E+01    10.5699   3.3244    87.0753
 33      0.0000     0.0000E+00    0.0000E+00    5.010000E+06  0.05000  3.101E-02    0   0.9147   age055_m72            0.0000     9.0589E+01    10.5071   2.9727    89.4904
 34      0.0000     0.0000E+00    0.0000E+00    1.000000E+07  0.05000  8.954E-03    0   0.8524   age070_m72            0.0000     9.2694E+01    10.2713   3.2183    87.8940
 35      0.0000     0.0000E+00    0.0000E+00    2.512000E+07  0.05000  4.207E-03    0   0.7902   age090_m72            0.0000     5.7241E+01     7.9120   2.8019    92.8603
 36      0.0000     0.0000E+00    0.0000E+00    4.000000E+07  0.05000  3.198E-03    0   0.7618   age104_m72            0.0000     6.1217E+01     5.9033   2.3282    99.6370
 37      0.0000     0.0000E+00    0.0000E+00    1.015200E+08  0.05000  1.716E-03    0   0.7092   age116_m72            0.0000     1.0394E+02     7.1915   2.0664   103.2615
 38      0.0000     0.0000E+00    0.0000E+00    2.861200E+08  0.05000  7.047E-04    0   0.6618   age125_m72            0.0000     1.4530E+02     8.1419   1.2748   109.5935
 39      0.0000     0.0000E+00    0.0000E+00    6.405400E+08  0.05000  2.633E-04    0   0.6253   age132_m72            0.0000     6.3352E+01     6.1360   0.3904   112.7709
 40      0.0000     0.0000E+00    0.0000E+00    9.047900E+08  0.05000  1.484E-04    0   0.6088   age135_m72            0.0000     2.3157E+01     4.5997  -0.1199   108.4975
 41      0.0000     0.0000E+00    0.0000E+00    1.434000E+09  0.05000  7.827E-05    0   0.5847   age139_m72            0.0000     3.6087E+01     5.5460  -0.5255   105.3214
 42      0.0000     0.0000E+00    0.0000E+00    2.500000E+09  0.05000  3.759E-05    0   0.5583   age150_m72            0.0000     6.9249E+01     7.0062  -0.8541   104.5663
 43      0.0000     0.0000E+00    0.0000E+00    5.000000E+09  0.05000  1.548E-05    0   0.5320   age161_m72            0.0000     1.4035E+02     9.2376  -1.0000    97.2975
 44      0.0000     0.0000E+00    0.0000E+00    1.100000E+10  0.05000  6.532E-06    0   0.5070   age185_m72            0.0000     3.0436E+02    14.5164  -1.0000    86.9230
 45      0.0000     0.0000E+00    0.0000E+00    1.300000E+10  0.05000  5.316E-06    0   0.5018   age193_m72            0.0000     3.7509E+02    16.2470  -1.0000    83.7875


## Synthesis Results - Average & Chains ##

# j      x_j: min, <> & last-chain-values for 1 ...  7 chains
  1      0.0000      0.0052      0.0000      0.0000      0.0000      0.0000      0.0000      0.0000      0.0000
  2      2.7495      1.2718      1.2852      1.6734      1.7318      1.1277      1.7057      1.5445      1.9307
  3      0.0000      0.0429      0.0000      0.0000      0.0000      0.0000      0.0000      0.0000      0.0000
  4      4.7926      5.7852      6.0151      6.1627      5.4542      6.0067      5.9519      6.1893      5.9486
  5      0.0000      0.1325      0.0286      0.0000      0.1068      0.0000      0.0000      0.0000      0.0000
  6      0.0000      0.0414      0.0000      0.0306      0.1906      0.1171      0.0315      0.0000      0.0000
  7      5.1920      2.6543      3.3993      2.8490      2.7428      3.0619      3.1781      2.8288      3.0639
  8      0.0000      0.0773      0.0092      0.1633      0.0000      0.0000      0.0000      0.0000      0.0000
  9      0.0000      0.1054      0.0000      0.0000      0.0000      0.0000      0.0030      0.0000      0.0000
 10      4.5745      8.5513      8.2067      8.7054      8.5945      8.4280      7.9953      8.3098      8.6902
 11      0.0000      0.1963      0.0586      0.0000      0.0000      0.0790      0.1916      0.0000      0.0382
 12     64.0437     60.9225     61.7387     61.2837     61.9341     61.4421     61.1643     62.0280     61.2891
 13     21.3201     20.3898     20.2993     20.5253     20.3731     20.5968     20.6506     20.3297     20.1197
 14      0.0000      0.0756      0.1340      0.0727      0.0000      0.0000      0.0000      0.0413      0.0000
 15      0.0000      0.0687      0.0511      0.0000      0.0000      0.0000      0.0000      0.0000      0.0000
 16      0.0000      0.0042      0.0000      0.0000      0.0000      0.0000      0.0000      0.0000      0.0000
 17      0.0000      0.0057      0.0000      0.0000      0.0000      0.0000      0.0000      0.0000      0.0000
 18      0.0000      0.4547      0.4624      0.0000      0.5396      0.5387      0.3192      0.3312      0.0000
 19      0.0000      0.0122      0.0000      0.0000      0.0000      0.0000      0.0000      0.0000      0.0000
 20      0.0000      0.0107      0.0000      0.0000      0.0000      0.0000      0.0023      0.0000      0.0000
 21      0.0000      0.0201      0.0000      0.0000      0.0000      0.0000      0.0000      0.0000      0.0049
 22      0.0000      0.0482      0.0000      0.0000      0.0000      0.0000      0.0156      0.0000      0.0000
 23      0.0000      0.0215      0.0000      0.0159      0.0000      0.0000      0.0000      0.0000      0.0000
 24      0.0000      0.0115      0.0000      0.0000      0.0000      0.0000      0.0000      0.0408      0.0000
 25      0.0000      0.0234      0.0000      0.0000      0.0039      0.0000      0.0000      0.0000      0.0000
 26      0.0000      0.0677      0.0000      0.0000      0.0000      0.0000      0.0000      0.0000      0.0000
 27      0.0000      0.0868      0.0000      0.0000      0.0000      0.0000      0.0019      0.0000      0.0000
 28      0.0000      0.0403      0.0000      0.0179      0.0000      0.0333      0.0000      0.0000      0.0000
 29      0.0000      0.0143      0.0000      0.0087      0.0000      0.0000      0.0000      0.0000      0.0000
 30      0.0000      0.0143      0.0000      0.0000      0.0000      0.0000      0.1471      0.0000      0.0000
 31      0.0000      0.0032      0.0000      0.0000      0.0000      0.0000      0.0000      0.0000      0.0000
 32      0.0000      0.0129      0.0000      0.0218      0.0000      0.0018      0.0000      0.0000      0.0000
 33      0.0000      0.0298      0.0000      0.0000      0.0000      0.0000      0.0000      0.0000      0.0000
 34      0.0000      0.0071      0.0000      0.0000      0.0000      0.0000      0.0000      0.0000      0.0000
 35      0.0000      0.0121      0.0000      0.0000      0.0000      0.0000      0.0000      0.0000      0.0000
 36      0.0000      0.0283      0.0000      0.0000      0.0000      0.0000      0.0000      0.0000      0.0000
 37      0.0000      0.0563      0.0000      0.0400      0.0000      0.0368      0.0065      0.0000      0.0000
 38      0.0000      0.0315      0.0000      0.0000      0.0000      0.0000      0.0105      0.0388      0.0000
 39      0.0000      0.0373      0.0000      0.0000      0.0000      0.0000      0.0000      0.0000      0.0000
 40      0.0000      0.0829      0.0000      0.0000      0.0000      0.0000      0.0448      0.0000      0.0000
 41      0.0000      0.2264      0.3143      0.0000      0.0000      0.2407      0.3557      0.1350      0.5691
 42      0.0000      0.0707      0.0000      0.0018      0.0033      0.1379      0.0000      0.0000      0.0907
 43      0.0000      0.2497      0.0000      0.4601      0.4936      0.3248      0.1593      0.2250      0.3134
 44      0.0000      0.5267      0.5193      0.5533      0.4422      0.5481      0.5316      0.5510      0.4758
 45      0.0000      0.3281      0.3516      0.2838      0.1813      0.0685      0.3255      0.2500      0.3500

# j      m_j: min, <> & last-chain-values for 1 ...  7 chains
  1  0.0000E+00  6.8868E-05  0.0000E+00  0.0000E+00  0.0000E+00  0.0000E+00  0.0000E+00  0.0000E+00  0.0000E+00
  2  1.1204E-02  4.6438E-03  4.7489E-03  6.1066E-03  6.4922E-03  4.2531E-03  6.2235E-03  5.7269E-03  7.1098E-03
  3  0.0000E+00  2.3899E-04  0.0000E+00  0.0000E+00  0.0000E+00  0.0000E+00  0.0000E+00  0.0000E+00  0.0000E+00
  4  5.5467E-02  5.9996E-02  6.3126E-02  6.3871E-02  5.8074E-02  6.4344E-02  6.1677E-02  6.5179E-02  6.2214E-02
  5  0.0000E+00  3.1770E-03  6.9447E-04  0.0000E+00  2.6292E-03  0.0000E+00  0.0000E+00  0.0000E+00  0.0000E+00
  6  0.0000E+00  1.3791E-03  0.0000E+00  1.0189E-03  6.5188E-03  4.0312E-03  1.0478E-03  0.0000E+00  0.0000E+00
  7  2.7386E-01  1.2546E-01  1.6258E-01  1.3457E-01  1.3310E-01  1.4948E-01  1.5009E-01  1.3577E-01  1.4604E-01
  8  0.0000E+00  7.0431E-03  8.5053E-04  1.4880E-02  0.0000E+00  0.0000E+00  0.0000E+00  0.0000E+00  0.0000E+00
  9  0.0000E+00  1.9135E-02  0.0000E+00  0.0000E+00  0.0000E+00  0.0000E+00  5.3616E-04  0.0000E+00  0.0000E+00
 10  1.2940E+00  2.1674E+00  2.1049E+00  2.2051E+00  2.2365E+00  2.2065E+00  2.0249E+00  2.1388E+00  2.2213E+00
 11  0.0000E+00  8.7381E-02  2.6414E-02  0.0000E+00  0.0000E+00  3.6329E-02  8.5223E-02  0.0000E+00  1.7153E-02
 12  5.9151E+01  5.0421E+01  5.1706E+01  5.0687E+01  5.2626E+01  5.2525E+01  5.0581E+01  5.2128E+01  5.1154E+01
 13  3.9214E+01  3.3606E+01  3.3856E+01  3.3807E+01  3.4475E+01  3.5064E+01  3.4009E+01  3.4024E+01  3.3442E+01
 14  0.0000E+00  2.5400E-01  4.5550E-01  2.4404E-01  0.0000E+00  0.0000E+00  0.0000E+00  1.4078E-01  0.0000E+00
 15  0.0000E+00  2.6742E-01  2.0112E-01  0.0000E+00  0.0000E+00  0.0000E+00  0.0000E+00  0.0000E+00  0.0000E+00
 16  0.0000E+00  3.1747E-05  0.0000E+00  0.0000E+00  0.0000E+00  0.0000E+00  0.0000E+00  0.0000E+00  0.0000E+00
 17  0.0000E+00  2.1998E-05  0.0000E+00  0.0000E+00  0.0000E+00  0.0000E+00  0.0000E+00  0.0000E+00  0.0000E+00
 18  0.0000E+00  1.9578E-03  2.0149E-03  0.0000E+00  2.3856E-03  2.3958E-03  1.3735E-03  1.4481E-03  0.0000E+00
 19  0.0000E+00  1.5689E-04  0.0000E+00  0.0000E+00  0.0000E+00  0.0000E+00  0.0000E+00  0.0000E+00  0.0000E+00
 20  0.0000E+00  3.0530E-04  0.0000E+00  0.0000E+00  0.0000E+00  0.0000E+00  6.5640E-05  0.0000E+00  0.0000E+00
 21  0.0000E+00  6.9188E-04  0.0000E+00  0.0000E+00  0.0000E+00  0.0000E+00  0.0000E+00  0.0000E+00  1.6986E-04
 22  0.0000E+00  2.7565E-03  0.0000E+00  0.0000E+00  0.0000E+00  0.0000E+00  8.9095E-04  0.0000E+00  0.0000E+00
 23  0.0000E+00  2.4207E-03  0.0000E+00  1.7863E-03  0.0000E+00  0.0000E+00  0.0000E+00  0.0000E+00  0.0000E+00
 24  0.0000E+00  2.9563E-03  0.0000E+00  0.0000E+00  0.0000E+00  0.0000E+00  0.0000E+00  1.0642E-02  0.0000E+00
 25  0.0000E+00  9.2673E-03  0.0000E+00  0.0000E+00  1.5921E-03  0.0000E+00  0.0000E+00  0.0000E+00  0.0000E+00
 26  0.0000E+00  5.0583E-02  0.0000E+00  0.0000E+00  0.0000E+00  0.0000E+00  0.0000E+00  0.0000E+00  0.0000E+00
 27  0.0000E+00  1.3164E-01  0.0000E+00  0.0000E+00  0.0000E+00  0.0000E+00  2.9448E-03  0.0000E+00  0.0000E+00
 28  0.0000E+00  1.2346E-01  0.0000E+00  5.4794E-02  0.0000E+00  1.0565E-01  0.0000E+00  0.0000E+00  0.0000E+00
 29  0.0000E+00  9.3004E-02  0.0000E+00  5.6306E-02  0.0000E+00  0.0000E+00  0.0000E+00  0.0000E+00  0.0000E+00
 30  0.0000E+00  1.1099E-01  0.0000E+00  0.0000E+00  0.0000E+00  0.0000E+00  1.1384E+00  0.0000E+00  0.0000E+00
 31  0.0000E+00  1.7846E-05  0.0000E+00  0.0000E+00  0.0000E+00  0.0000E+00  0.0000E+00  0.0000E+00  0.0000E+00
 32  0.0000E+00  3.8237E-05  0.0000E+00  6.4548E-05  0.0000E+00  5.6107E-06  0.0000E+00  0.0000E+00  0.0000E+00
 33  0.0000E+00  1.3095E-04  0.0000E+00  0.0000E+00  0.0000E+00  0.0000E+00  0.0000E+00  0.0000E+00  0.0000E+00
 34  0.0000E+00  1.0043E-04  0.0000E+00  0.0000E+00  0.0000E+00  0.0000E+00  0.0000E+00  0.0000E+00  0.0000E+00
 35  0.0000E+00  3.3717E-04  0.0000E+00  0.0000E+00  0.0000E+00  0.0000E+00  0.0000E+00  0.0000E+00  0.0000E+00
 36  0.0000E+00  1.0035E-03  0.0000E+00  0.0000E+00  0.0000E+00  0.0000E+00  0.0000E+00  0.0000E+00  0.0000E+00
 37  0.0000E+00  3.4618E-03  0.0000E+00  2.4573E-03  0.0000E+00  2.3366E-03  3.9635E-04  0.0000E+00  0.0000E+00
 38  0.0000E+00  4.4022E-03  0.0000E+00  0.0000E+00  0.0000E+00  0.0000E+00  1.4663E-03  5.4975E-03  0.0000E+00
 39  0.0000E+00  1.3165E-02  0.0000E+00  0.0000E+00  0.0000E+00  0.0000E+00  0.0000E+00  0.0000E+00  0.0000E+00
 40  0.0000E+00  5.0561E-02  0.0000E+00  0.0000E+00  0.0000E+00  0.0000E+00  2.7290E-02  0.0000E+00  0.0000E+00
 41  0.0000E+00  2.5160E-01  3.5344E-01  0.0000E+00  0.0000E+00  2.7620E-01  3.9494E-01  1.5237E-01  6.3770E-01
 42  0.0000E+00  1.5625E-01  0.0000E+00  3.8941E-03  7.5496E-03  3.1464E-01  0.0000E+00  0.0000E+00  2.0207E-01
 43  0.0000E+00  1.2766E+00  0.0000E+00  2.3505E+00  2.5904E+00  1.7152E+00  8.1354E-01  1.1677E+00  1.6158E+00
 44  0.0000E+00  6.0812E+00  6.0664E+00  6.3837E+00  5.2409E+00  6.5358E+00  6.1321E+00  6.4591E+00  5.5392E+00
 45  0.0000E+00  4.6071E+00  4.9958E+00  3.9824E+00  2.6132E+00  9.9376E-01  4.5665E+00  3.5646E+00  4.9557E+00

# AV, chi2 & Mass for <> & i_chain = 1 ...  7 solutions
AV       0.1805      0.1550      0.1611      0.1555      0.1615      0.1607      0.1585      0.1598      0.1561
chi2 2.6758E+00  2.7036E+00  2.6935E+00  2.6952E+00  2.6940E+00  2.6950E+00  2.6937E+00  2.6952E+00  2.6923E+00
Mass 1.6859E-10  1.8180E-10  1.8114E-10  1.8204E-10  1.7861E-10  1.7735E-10  1.8279E-10  1.8020E-10  1.8053E-10
   6.19                                  [v0_min (km/s) before EX0s...]
  51.67                                  [vd_min (km/s) before EX0s...]


## Synthetic spectrum (Best Model) ##l_obs f_obs f_syn wei
 3070    [Nl_obs]
 3359.00    0.00000   0.48270   -2.000
 3360.00    0.00000   0.45018   -2.000
 3361.00    0.17466   0.44311   -1.000
 3362.00    0.27792   0.46778   -1.000
 3363.00    0.29886   0.50879   -1.000
 3364.00    0.31380   0.54143   -1.000
 3365.00    0.30912   0.54981   -1.000
 3366.00    0.31307   0.53369   -1.000
 3367.00    0.32348   0.50461   -1.000
 3368.00    0.32087   0.48100   -1.000
 3369.00    0.31352   0.46947   -1.000
 3370.00    0.29704   0.46605   -1.000
 3371.00    0.29629   0.46190   -1.000
 3372.00    0.30661   0.45836   -1.000
 3373.00    0.31900   0.46933   -1.000
 3374.00    0.33359   0.49723   -1.000
 3375.00    0.35461   0.53527   -1.000
 3376.00    0.37977   0.56215   -1.000
 3377.00    0.37667   0.55996   -1.000
 3378.00    0.36212   0.53424   -1.000
 3379.00    0.36792   0.50181   -1.000
 3380.00    0.38975   0.48489   -1.000
 3381.00    0.39461   0.49021   -1.000
 3382.00    0.39021   0.51135   -1.000
 3383.00    0.38014   0.53172   -1.000
 3384.00    0.41363   0.54546   -1.000
 3385.00    0.39555   0.55810   -1.000
 3386.00    0.39417   0.56699   -1.000
 3387.00    0.42470   0.56683   -1.000
 3388.00    0.44855   0.56218   -1.000
 3389.00    0.44738   0.55849   -1.000
 3390.00    0.44218   0.55373   -1.000
 3391.00    0.44121   0.54297   -1.000
 3392.00    0.43691   0.52673   -1.000
 3393.00    0.42455   0.51705   -1.000
 3394.00    0.40414   0.52521   -1.000
 3395.00    0.44948   0.54830   -1.000
 3396.00    0.47291   0.57599   27.620
 3397.00    0.46976   0.59921   -1.000
 3398.00    0.49561   0.61344   25.180
 3399.00    0.52511   0.61545   24.420
 3400.00    0.52164   0.60528   23.556
 3401.00    0.50082   0.58726   23.052
 3402.00    0.50724   0.56612   23.091
 3403.00    0.50837   0.54929   23.833
 3404.00    0.49032   0.54296   24.358
 3405.00    0.48533   0.54139   24.721
 3406.00    0.48738   0.53577   25.168
 3407.00    0.46490   0.52522   25.595
 3408.00    0.44748   0.51809   25.813
 3409.00    0.45464   0.52361   26.125
 3410.00    0.47096   0.53754   26.364
 3411.00    0.47410   0.54646   26.301
 3412.00    0.47996   0.54232   25.711
 3413.00    0.47412   0.52992   25.310
 3414.00    0.47449   0.52246   25.962
 3415.00    0.47875   0.52553   26.674
 3416.00    0.47869   0.53878   26.796
 3417.00    0.47628   0.55715   26.328
 3418.00    0.49165   0.57746   25.349
 3419.00    0.50332   0.59468   24.182
 3420.00    0.50617   0.60228   22.985
 3421.00    0.51726   0.59647   22.524
 3422.00    0.51947   0.58490   22.398
 3423.00    0.51415   0.57418   22.433
 3424.00    0.51950   0.56832   22.913
 3425.00    0.51593   0.56774   23.489
 3426.00    0.50687   0.57208   23.224
 3427.00    0.50733   0.58371   22.586
 3428.00    0.54407   0.60585   22.301
 3429.00    0.55718   0.62499   -1.000
 3430.00    0.56174   0.62776   -1.000
 3431.00    0.54350   0.61198   -1.000
 3432.00    0.52030   0.59002   -1.000
 3433.00    0.51317   0.57759   -1.000
 3434.00    0.51805   0.57830   33.103
 3435.00    0.51978   0.58707   22.254
 3436.00    0.55160   0.59079   51.865
 3437.00    0.54942   0.58423   -1.000
 3438.00    0.52023   0.56559   32.933
 3439.00    0.50196   0.53739   22.851
 3440.00    0.49121   0.50349   24.120
 3441.00    0.47871   0.47684   25.871
 3442.00    0.46266   0.46819   27.290
 3443.00    0.45011   0.47596   27.707
 3444.00    0.46337   0.49092   27.643
 3445.00    0.48404   0.50875   26.885
 3446.00    0.50108   0.53154   25.548
 3447.00    0.52358   0.56026   24.138
 3448.00    0.54883   0.58806   23.124
 3449.00    0.55305   0.60556   52.514
 3450.00    0.55931   0.60442   -1.000
 3451.00    0.56214   0.58674   -1.000
 3452.00    0.55153   0.56160  198.451
 3453.00    0.53636   0.54696  198.451
 3454.00    0.53304   0.54890  198.451
 3455.00    0.54316   0.56021  198.451
 3456.00    0.54094   0.56742   -1.000
 3457.00    0.55543   0.56001  198.451
 3458.00    0.56273   0.54416   -1.000
 3459.00    0.54746   0.52798   -1.000
 3460.00    0.53463   0.51491   33.384
 3461.00    0.54311   0.51268   22.449
 3462.00    0.55733   0.52810   22.465
 3463.00    0.56072   0.54895   51.107
 3464.00    0.55843   0.56022  198.451
 3465.00    0.57146   0.56120   -1.000
 3466.00    0.57317   0.55986   -1.000
 3467.00    0.56660   0.56594  198.451
 3468.00    0.58062   0.57695  198.451
 3469.00    0.59643   0.58650   -1.000
 3470.00    0.60501   0.59063   -1.000
 3471.00    0.60727   0.58709   -1.000
 3472.00    0.60159   0.57440   -1.000
 3473.00    0.56823   0.55383   -1.000
 3474.00    0.54767   0.52700   -1.000
 3475.00    0.51823   0.50498   -1.000
 3476.00    0.50603   0.50087   33.932
 3477.00    0.51654   0.51696   22.967
 3478.00    0.53319   0.54160   22.967
 3479.00    0.55281   0.56318   50.963
 3480.00    0.56669   0.57426  198.451
 3481.00    0.59573   0.57424   -1.000
 3482.00    0.61157   0.56644   -1.000
 3483.00    0.60001   0.55661   -1.000
 3484.00    0.59060   0.55395   -1.000
 3485.00    0.60477   0.56515   -1.000
 3486.00    0.61827   0.58627   -1.000
 3487.00    0.62103   0.59555   -1.000
 3488.00    0.61346   0.58309   -1.000
 3489.00    0.60068   0.55715   -1.000
 3490.00    0.57654   0.53647   -1.000
 3491.00    0.55551   0.53382   -1.000
 3492.00    0.54927   0.54160   -1.000
 3493.00    0.55492   0.54727   -1.000
 3494.00    0.56182   0.54192   -1.000
 3495.00    0.56275   0.52876   -1.000
 3496.00    0.54362   0.51983   -1.000
 3497.00    0.53675   0.52851   -1.000
 3498.00    0.55320   0.55514  198.451
 3499.00    0.57009   0.57730  198.451
 3500.00    0.60576   0.58461   -1.000
 3501.00    0.62191   0.58532   -1.000
 3502.00    0.61886   0.58857   -1.000
 3503.00    0.62763   0.59451   -1.000
 3504.00    0.62390   0.59178   -1.000
 3505.00    0.61538   0.58033   -1.000
 3506.00    0.60699   0.57231   -1.000
 3507.00    0.59220   0.57189   -1.000
 3508.00    0.60064   0.57403   -1.000
 3509.00    0.61701   0.57067   -1.000
 3510.00    0.60677   0.56106   -1.000
 3511.00    0.59506   0.55122   -1.000
 3512.00    0.57251   0.54293   -1.000
 3513.00    0.56726   0.53348   -1.000
 3514.00    0.57296   0.53242   -1.000
 3515.00    0.58150   0.54755   -1.000
 3516.00    0.60277   0.57404   -1.000
 3517.00    0.61826   0.59922   -1.000
 3518.00    0.62713   0.60773   -1.000
 3519.00    0.61453   0.59779   -1.000
 3520.00    0.59639   0.57549   -1.000
 3521.00    0.59016   0.55397   -1.000
 3522.00    0.57667   0.53781   -1.000
 3523.00    0.56492   0.52038   -1.000
 3524.00    0.54168   0.50312   -1.000
 3525.00    0.51685   0.49381   34.591
 3526.00    0.51510   0.50208   22.729
 3527.00    0.53320   0.52904   22.960
 3528.00    0.57207   0.56108   49.418
 3529.00    0.61138   0.58363   -1.000
 3530.00    0.61933   0.58992   -1.000
 3531.00    0.61899   0.58628   -1.000
 3532.00    0.61620   0.58337   -1.000
 3533.00    0.61575   0.58792   -1.000
 3534.00    0.62672   0.59684   -1.000
 3535.00    0.63744   0.60336   -1.000
 3536.00    0.62450   0.60665   -1.000
 3537.00    0.61714   0.61128  179.037
 3538.00    0.63125   0.61973  178.574
 3539.00    0.62852   0.62711  177.813
 3540.00    0.63211   0.62520  175.642
 3541.00    0.64831   0.61848   -1.000
 3542.00    0.63573   0.61849   -1.000
 3543.00    0.62381   0.62492  180.603
 3544.00    0.63362   0.63258  180.507
 3545.00    0.63696   0.63382  178.372
 3546.00    0.62852   0.62887  176.962
 3547.00    0.62304   0.62459  178.730
 3548.00    0.61644   0.62487  182.553
 3549.00    0.60210   0.62936   -1.000
 3550.00    0.60023   0.63222   -1.000
 3551.00    0.60420   0.62999   -1.000
 3552.00    0.60156   0.62086  184.724
 3553.00    0.58450   0.61050   -1.000
 3554.00    0.57113   0.60551   -1.000
 3555.00    0.59162   0.60640  198.451
 3556.00    0.60404   0.60991  198.451
 3557.00    0.59107   0.60949  195.716
 3558.00    0.59038   0.60385  194.418
 3559.00    0.59397   0.59899  196.495
 3560.00    0.60107   0.60275  198.451
 3561.00    0.60673   0.61634  198.451
 3562.00    0.61642   0.62807  195.891
 3563.00    0.60912   0.62106  193.899
 3564.00    0.58353   0.58489  193.861
 3565.00    0.55464   0.54496   -1.000
 3566.00    0.52139   0.52617   35.631
 3567.00    0.51272   0.52489   23.010
 3568.00    0.51920   0.52483   23.236
 3569.00    0.51490   0.51283   23.044
 3570.00    0.51004   0.49923   23.452
 3571.00    0.51569   0.50135   24.042
 3572.00    0.52175   0.51488   23.767
 3573.00    0.53809   0.52800   22.824
 3574.00    0.54563   0.53399   46.858
 3575.00    0.55262   0.53575   -1.000
 3576.00    0.55799   0.53923   -1.000
 3577.00    0.55474   0.54229   -1.000
 3578.00    0.55179   0.53678   -1.000
 3579.00    0.55237   0.51676   -1.000
 3580.00    0.53703   0.49128   37.194
 3581.00    0.50044   0.47477   24.277
 3582.00    0.48936   0.47169   25.871
 3583.00    0.49578   0.47586   26.555
 3584.00    0.49453   0.47176   26.684
 3585.00    0.47716   0.45767   27.122
 3586.00    0.45792   0.44831   27.933
 3587.00    0.46620   0.45150   28.550
 3588.00    0.48338   0.46882   27.847
 3589.00    0.49467   0.49598   26.384
 3590.00    0.52484   0.52765   25.056
 3591.00    0.55935   0.55469   23.220
 3592.00    0.58347   0.56961   45.867
 3593.00    0.58991   0.57305   -1.000
 3594.00    0.58897   0.57493   -1.000
 3595.00    0.59868   0.58544   -1.000
 3596.00    0.61349   0.60176  191.240
 3597.00    0.63015   0.61705  183.207
 3598.00    0.64366   0.62929  176.369
 3599.00    0.65058   0.63520  171.546
 3600.00    0.64653   0.63003  168.038
 3601.00    0.63415   0.61093   -1.000
 3602.00    0.60138   0.58309   -1.000
 3603.00    0.57214   0.55852   -1.000
 3604.00    0.56611   0.54700   -1.000
 3605.00    0.57175   0.55006   -1.000
 3606.00    0.57443   0.55561   -1.000
 3607.00    0.57259   0.55250   -1.000
 3608.00    0.55992   0.53912   -1.000
 3609.00    0.55308   0.52783   -1.000
 3610.00    0.54909   0.53322   -1.000
 3611.00    0.55545   0.54694  198.451
 3612.00    0.56566   0.55747  198.451
 3613.00    0.56699   0.56620  198.451
 3614.00    0.57164   0.57786  193.612
 3615.00    0.58704   0.59149  189.660
 3616.00    0.59628   0.59080  184.186
 3617.00    0.58242   0.56219   -1.000
 3618.00    0.56152   0.53044   -1.000
 3619.00    0.54662   0.52242   -1.000
 3620.00    0.54748   0.54132   36.361
 3621.00    0.56612   0.56958   44.627
 3622.00    0.58784   0.59061  197.156
 3623.00    0.61452   0.60200   -1.000
 3624.00    0.63095   0.61323   -1.000
 3625.00    0.63710   0.63459  173.380
 3626.00    0.65357   0.66070  168.759
 3627.00    0.66202   0.67960  161.982
 3628.00    0.64369   0.67691   -1.000
 3629.00    0.60989   0.64275   -1.000
 3630.00    0.57783   0.59250  165.137
 3631.00    0.56039   0.55205  180.602
 3632.00    0.55743   0.54078   -1.000
 3633.00    0.55911   0.55370  198.451
 3634.00    0.56405   0.57347  198.451
 3635.00    0.58047   0.58645  197.586
 3636.00    0.60556   0.59317   -1.000
 3637.00    0.61780   0.60460   -1.000
 3638.00    0.62684   0.62351  177.924
 3639.00    0.64530   0.64486  169.733
 3640.00    0.64854   0.65470  163.210
 3641.00    0.64789   0.64603  160.738
 3642.00    0.63311   0.62380  162.967
 3643.00    0.60439   0.59898  167.898
 3644.00    0.59345   0.58272  175.512
 3645.00    0.59067   0.57580   -1.000
 3646.00    0.58261   0.57065   -1.000
 3647.00    0.57249   0.56595  189.691
 3648.00    0.56868   0.56536  192.921
 3649.00    0.57432   0.57154  194.570
 3650.00    0.59841   0.58546   -1.000
 3651.00    0.62419   0.60661   -1.000
 3652.00    0.63729   0.62823  176.521
 3653.00    0.64629   0.64540  168.604
 3654.00    0.65339   0.65536  163.198
 3655.00    0.65886   0.66146  160.191
 3656.00    0.66537   0.67082  158.925
 3657.00    0.67346   0.68088  157.666
 3658.00    0.67575   0.68667  155.938
 3659.00    0.67688   0.68702  153.729
 3660.00    0.67457   0.68248  152.654
 3661.00    0.66591   0.67375  152.744
 3662.00    0.65553   0.66306  153.681
 3663.00    0.64454   0.65297  155.374
 3664.00    0.63265   0.64852  157.599
 3665.00    0.63711   0.64996  159.482
 3666.00    0.65691   0.65122  158.911
 3667.00    0.65803   0.64633  158.081
 3668.00    0.64481   0.63346  159.999
 3669.00    0.62923   0.62616  162.517
 3670.00    0.62761   0.63343  165.529
 3671.00    0.64616   0.65050  166.783
 3672.00    0.65944   0.66576  162.714
 3673.00    0.66163   0.66993  158.137
 3674.00    0.66309   0.66526  156.441
 3675.00    0.65861   0.65385  156.199
 3676.00    0.64132   0.63726  156.387
 3677.00    0.63461   0.61969  159.213
 3678.00    0.62529   0.60416   -1.000
 3679.00    0.61086   0.59550   -1.000
 3680.00    0.62020   0.59489   -1.000
 3681.00    0.62859   0.60142   -1.000
 3682.00    0.63036   0.61197   -1.000
 3683.00    0.63909   0.61901   -1.000
 3684.00    0.63493   0.61509   -1.000
 3685.00    0.61321   0.59683   -1.000
 3686.00    0.60230   0.57675   -1.000
 3687.00    0.60860   0.56933   -1.000
 3688.00    0.61751   0.58179   -1.000
 3689.00    0.62800   0.60877   -1.000
 3690.00    0.64429   0.63873  173.721
 3691.00    0.66619   0.65642  162.142
 3692.00    0.67458   0.65773  154.632
 3693.00    0.67011   0.65305  153.197
 3694.00    0.67049   0.64838   -1.000
 3695.00    0.67751   0.64331   -1.000
 3696.00    0.67743   0.63983   -1.000
 3697.00    0.68021   0.64595   -1.000
 3698.00    0.69582   0.66634   -1.000
 3699.00    0.71005   0.69274  153.298
 3700.00    0.72860   0.70710   -1.000
 3701.00    0.73050   0.69671   -1.000
 3702.00    0.69990   0.65779   -1.000
 3703.00    0.64894   0.60664   -1.000
 3704.00    0.60603   0.56175   -1.000
 3705.00    0.58403   0.54062   -1.000
 3706.00    0.57803   0.54457   -1.000
 3707.00    0.59520   0.55900   -1.000
 3708.00    0.60755   0.57232   -1.000
 3709.00    0.61267   0.57976   -1.000
 3710.00    0.62372   0.58357   -1.000
 3711.00    0.63534   0.59383   -1.000
 3712.00    0.64991   0.62095   -1.000
 3713.00    0.66935   0.65735  159.629
 3714.00    0.69815   0.69029  151.313
 3715.00    0.72405   0.70968  145.987
 3716.00    0.72908   0.71050  144.110
 3717.00    0.71521   0.69124   -1.000
 3718.00    0.67769   0.65016   -1.000
 3719.00    0.61965   0.58565   -1.000
 3720.00    0.55837   0.52283   -1.000
 3721.00    0.51840   0.48942   -1.000
 3722.00    0.53064   0.49863   39.413
 3723.00    0.57320   0.54446   42.401
 3724.00    0.62804   0.60489   -1.000
 3725.00    0.68345   0.64705   -1.000
 3726.00    0.69696   0.65830   -1.000
 3727.00    0.68857   0.65920   -1.000
 3728.00    0.69075   0.66499   -1.000
 3729.00    0.69373   0.67107   -1.000
 3730.00    0.68328   0.66251   -1.000
 3731.00    0.65847   0.62475   -1.000
 3732.00    0.61271   0.56362   -1.000
 3733.00    0.55063   0.49775   -1.000
 3734.00    0.49756   0.44951   38.644
 3735.00    0.47340   0.43477   23.496
 3736.00    0.49434   0.45808   25.338
 3737.00    0.54335   0.50900   25.089
 3738.00    0.59478   0.57542   23.216
 3739.00    0.64868   0.63823   40.918
 3740.00    0.69036   0.67953   -1.000
 3741.00    0.69914   0.69223  170.706
 3742.00    0.68719   0.68084  165.558
 3743.00    0.66718   0.65262   -1.000
 3744.00    0.64213   0.61903   -1.000
 3745.00    0.61806   0.58730   -1.000
 3746.00    0.59200   0.55596   -1.000
 3747.00    0.55778   0.51843   -1.000
 3748.00    0.51753   0.47396   39.836
 3749.00    0.49387   0.44689   23.219
 3750.00    0.51284   0.45952   24.083
 3751.00    0.57201   0.51031   -1.000
 3752.00    0.63752   0.57945   -1.000
 3753.00    0.68338   0.64759   -1.000
 3754.00    0.71825   0.70002   -1.000
 3755.00    0.75022   0.72535   -1.000
 3756.00    0.74664   0.71368   -1.000
 3757.00    0.69827   0.67600   -1.000
 3758.00    0.65997   0.63943   -1.000
 3759.00    0.65459   0.62570   -1.000
 3760.00    0.66388   0.63621   -1.000
 3761.00    0.69103   0.65296   -1.000
 3762.00    0.70942   0.66540   -1.000
 3763.00    0.70976   0.67302   -1.000
 3764.00    0.70874   0.67318   -1.000
 3765.00    0.69551   0.66153   -1.000
 3766.00    0.67204   0.64010   -1.000
 3767.00    0.65462   0.61361   -1.000
 3768.00    0.64764   0.58513   -1.000
 3769.00    0.63110   0.55859   -1.000
 3770.00    0.61885   0.54388   -1.000
 3771.00    0.63045   0.55414   -1.000
 3772.00    0.65866   0.59157   -1.000
 3773.00    0.69961   0.63516   -1.000
 3774.00    0.71666   0.66794   -1.000
 3775.00    0.72465   0.69023   -1.000
 3776.00    0.74421   0.70869   -1.000
 3777.00    0.75392   0.72962   -1.000
 3778.00    0.77278   0.75452   -1.000
 3779.00    0.79857   0.78011   -1.000
 3780.00    0.82185   0.80065   -1.000
 3781.00    0.83127   0.81330   -1.000
 3782.00    0.82389   0.81998  141.631
 3783.00    0.82879   0.82053  140.750
 3784.00    0.82970   0.80903   -1.000
 3785.00    0.80316   0.78081   -1.000
 3786.00    0.77435   0.74481   -1.000
 3787.00    0.74939   0.71497   -1.000
 3788.00    0.72825   0.69853   -1.000
 3789.00    0.72632   0.69368   -1.000
 3790.00    0.72937   0.69461   -1.000
 3791.00    0.73558   0.69274   -1.000
 3792.00    0.73292   0.67847   -1.000
 3793.00    0.70171   0.65100   -1.000
 3794.00    0.67004   0.61454   -1.000
 3795.00    0.64449   0.57428   -1.000
 3796.00    0.60792   0.53253   -1.000
 3797.00    0.56905   0.49393   -1.000
 3798.00    0.55211   0.47864   -1.000
 3799.00    0.57758   0.50638   -1.000
 3800.00    0.62891   0.56515   -1.000
 3801.00    0.67801   0.63414   -1.000
 3802.00    0.72663   0.69285   -1.000
 3803.00    0.75632   0.73098   -1.000
 3804.00    0.76972   0.74817   -1.000
 3805.00    0.78107   0.74666   -1.000
 3806.00    0.77112   0.73590   -1.000
 3807.00    0.76029   0.73729   -1.000
 3808.00    0.77070   0.75936  166.341
 3809.00    0.79064   0.79048  165.686
 3810.00    0.81395   0.81150  160.169
 3811.00    0.81963   0.80721  156.136
 3812.00    0.79275   0.77849  156.832
 3813.00    0.75949   0.73707   -1.000
 3814.00    0.73458   0.70167   -1.000
 3815.00    0.72058   0.68854   -1.000
 3816.00    0.72674   0.70036   -1.000
 3817.00    0.74511   0.71629   -1.000
 3818.00    0.75224   0.71556   -1.000
 3819.00    0.73142   0.69430   -1.000
 3820.00    0.70348   0.66951   -1.000
 3821.00    0.69484   0.66456   -1.000
 3822.00    0.70796   0.67153   -1.000
 3823.00    0.71485   0.66698   -1.000
 3824.00    0.69116   0.64372   -1.000
 3825.00    0.65807   0.61344   -1.000
 3826.00    0.63774   0.59303   43.261
 3827.00    0.63000   0.58525   23.486
 3828.00    0.63168   0.58343   23.637
 3829.00    0.63123   0.57801   23.336
 3830.00    0.62049   0.56245   22.953
 3831.00    0.59802   0.53368   22.901
 3832.00    0.55619   0.49453   23.563
 3833.00    0.51024   0.45252   25.041
 3834.00    0.48646   0.42242   26.467
 3835.00    0.48478   0.41446   26.599
 3836.00    0.49419   0.42550   25.780
 3837.00    0.51123   0.44577   24.965
 3838.00    0.52845   0.46798   24.949
 3839.00    0.55348   0.49545   25.533
 3840.00    0.58538   0.53617   25.623
 3841.00    0.62001   0.58762   24.643
 3842.00    0.66383   0.64080   41.447
 3843.00    0.71374   0.68464   -1.000
 3844.00    0.75013   0.71223   -1.000
 3845.00    0.76639   0.72918   -1.000
 3846.00    0.77205   0.74468   -1.000
 3847.00    0.77594   0.75917   -1.000
 3848.00    0.78327   0.76341   -1.000
 3849.00    0.76886   0.76005  182.640
 3850.00    0.74482   0.75987  188.477
 3851.00    0.74965   0.76813  193.800
 3852.00    0.77081   0.78164  193.061
 3853.00    0.78323   0.78698  188.142
 3854.00    0.78302   0.77794  186.160
 3855.00    0.76398   0.76359  189.211
 3856.00    0.74723   0.74823  194.489
 3857.00    0.74291   0.73018   -1.000
 3858.00    0.72653   0.71108   -1.000
 3859.00    0.70041   0.69981   41.862
 3860.00    0.69026   0.70984   22.656
 3861.00    0.71840   0.73890   23.157
 3862.00    0.76695   0.77337   39.140
 3863.00    0.79610   0.79279  194.353
 3864.00    0.80184   0.79337  179.915
 3865.00    0.79856   0.78806  176.362
 3866.00    0.80223   0.78407   -1.000
 3867.00    0.80122   0.78316   -1.000
 3868.00    0.78670   0.78197  185.099
 3869.00    0.76910   0.77134  190.521
 3870.00    0.74549   0.74773  198.451
 3871.00    0.71897   0.71692  198.451
 3872.00    0.70974   0.69740   42.968
 3873.00    0.72367   0.70056   38.186
 3874.00    0.74977   0.72647   -1.000
 3875.00    0.76876   0.75005   -1.000
 3876.00    0.76409   0.74768   -1.000
 3877.00    0.73307   0.72331  174.012
 3878.00    0.69611   0.69888  183.867
 3879.00    0.68840   0.68971  198.137
 3880.00    0.69894   0.69002   -1.000
 3881.00    0.69649   0.68773   -1.000
 3882.00    0.68448   0.67958  198.451
 3883.00    0.68178   0.66671   -1.000
 3884.00    0.69082   0.64719   -1.000
 3885.00    0.66963   0.61340   -1.000
 3886.00    0.62019   0.56388   -1.000
 3887.00    0.58360   0.51713   -1.000
 3888.00    0.55413   0.48958   -1.000
 3889.00    0.55026   0.49487   -1.000
 3890.00    0.57519   0.53248   -1.000
 3891.00    0.63086   0.58902   -1.000
 3892.00    0.69138   0.63784   -1.000
 3893.00    0.71813   0.66481   -1.000
 3894.00    0.72844   0.67793   -1.000
 3895.00    0.73515   0.69234   -1.000
 3896.00    0.75222   0.71372   -1.000
 3897.00    0.77654   0.73190   -1.000
 3898.00    0.78651   0.74059   -1.000
 3899.00    0.77932   0.74697   -1.000
 3900.00    0.77835   0.75856   -1.000
 3901.00    0.79249   0.77154   -1.000
 3902.00    0.80392   0.77718   -1.000
 3903.00    0.78655   0.76941  146.320
 3904.00    0.76427   0.75390  150.011
 3905.00    0.75378   0.74527  155.274
 3906.00    0.76605   0.75356  159.430
 3907.00    0.79003   0.77968  161.428
 3908.00    0.80921   0.81589  156.099
 3909.00    0.83412   0.84508  146.156
 3910.00    0.84983   0.86148  139.251
 3911.00    0.85893   0.86875  136.979
 3912.00    0.85821   0.86820  135.739
 3913.00    0.83951   0.86088   -1.000
 3914.00    0.81550   0.85054   -1.000
 3915.00    0.80295   0.84007   -1.000
 3916.00    0.80973   0.83182   -1.000
 3917.00    0.81863   0.82347  142.832
 3918.00    0.82096   0.81070  144.664
 3919.00    0.80314   0.79463  147.645
 3920.00    0.77438   0.77990  153.015
 3921.00    0.76831   0.77489  160.097
 3922.00    0.77799   0.78139  165.804
 3923.00    0.78221   0.79062  166.890
 3924.00    0.77877   0.78902  164.576
 3925.00    0.75671   0.76929  163.477
 3926.00    0.72033   0.73357  167.907
 3927.00    0.68228   0.68405  179.844
 3928.00    0.62707   0.62653  198.451
 3929.00    0.55517   0.56387   48.630
 3930.00    0.48596   0.49338   26.327
 3931.00    0.42354   0.42003   30.841
 3932.00    0.36334   0.35223   36.249
 3933.00    0.31046   0.31035   42.704
 3934.00    0.30514   0.31178   48.539
 3935.00    0.34695   0.35745   50.013
 3936.00    0.40898   0.42993   45.695
 3937.00    0.48250   0.51222   38.703
 3938.00    0.55735   0.58848   31.882
 3939.00    0.62624   0.65135   26.481
 3940.00    0.67468   0.69696   39.398
 3941.00    0.69680   0.72204   -1.000
 3942.00    0.71532   0.73146  194.501
 3943.00    0.72425   0.73483  189.703
 3944.00    0.73542   0.74243  188.761
 3945.00    0.76213   0.75986  184.369
 3946.00    0.79233   0.77902  171.386
 3947.00    0.81116   0.78921   -1.000
 3948.00    0.80358   0.79422  152.454
 3949.00    0.79979   0.80202  151.132
 3950.00    0.81812   0.80911  148.015
 3951.00    0.82878   0.81066  142.778
 3952.00    0.82006   0.81104  140.468
 3953.00    0.81796   0.81540  141.817
 3954.00    0.83610   0.81961  141.877
 3955.00    0.83358   0.81304   -1.000
 3956.00    0.80746   0.79820  137.523
 3957.00    0.80220   0.79008  140.641
 3958.00    0.81465   0.78885   -1.000
 3959.00    0.80396   0.77742   -1.000
 3960.00    0.75786   0.74393  144.681
 3961.00    0.70630   0.69289  153.188
 3962.00    0.67171   0.64391   -1.000
 3963.00    0.63446   0.60329   -1.000
 3964.00    0.57751   0.56012   -1.000
 3965.00    0.50922   0.50062   47.297
 3966.00    0.43587   0.41821   24.728
 3967.00    0.35581   0.33674   29.610
 3968.00    0.29026   0.28426   36.439
 3969.00    0.27724   0.27741   42.805
 3970.00    0.31867   0.31365   43.846
 3971.00    0.39519   0.37906   38.464
 3972.00    0.48293   0.45377   31.627
 3973.00    0.56021   0.52823   26.209
 3974.00    0.62961   0.59688   37.977
 3975.00    0.69343   0.65632   -1.000
 3976.00    0.73954   0.70780   -1.000
 3977.00    0.77289   0.75161   -1.000
 3978.00    0.81106   0.79332  146.547
 3979.00    0.84151   0.82793  138.373
 3980.00    0.86001   0.84692  131.035
 3981.00    0.86979   0.84916  126.355
 3982.00    0.86660   0.84547  125.952
 3983.00    0.86974   0.84893  127.542
 3984.00    0.88467   0.86080   -1.000
 3985.00    0.90242   0.87435   -1.000
 3986.00    0.90851   0.88737  124.214
 3987.00    0.91813   0.90098  121.958
 3988.00    0.93697   0.91436  119.831
 3989.00    0.94422   0.92506  118.019
 3990.00    0.94228   0.93354  117.578
 3991.00    0.95698   0.94416  117.532
 3992.00    0.96829   0.95594  115.899
 3993.00    0.96946   0.96030  113.115
 3994.00    0.95731   0.95287  112.112
 3995.00    0.94070   0.93637  114.116
 3996.00    0.93294   0.91886  116.851
 3997.00    0.91514   0.91139  119.351
 3998.00    0.91596   0.92008  121.087
 3999.00    0.93909   0.93972  120.461
 4000.00    0.96588   0.96331  116.435
 4001.00    0.98441   0.98082  111.634
 4002.00    0.99319   0.98338  108.733
 4003.00    0.98241   0.96708  107.107
 4004.00    0.95464   0.93625  107.112
 4005.00    0.92101   0.90570  111.435
 4006.00    0.91422   0.90114  118.414
 4007.00    0.94005   0.92581  121.513
 4008.00    0.98094   0.95927  117.768
 4009.00    0.99680   0.98387  111.766
 4010.00    0.99740   0.99438  108.635
 4011.00    1.00735   0.99641  107.365
 4012.00    1.00133   0.99666  106.547
 4013.00    0.98472   0.99921  106.678
 4014.00    0.97348   1.00294   -1.000
 4015.00    0.99273   1.00414  107.385
 4016.00    1.02604   1.00324  106.245
 4017.00    1.00096   1.00378  105.732
 4018.00    0.99528   1.00979  106.863
 4019.00    1.00206   1.01838  107.425
 4020.00    1.01105   1.02380  106.383
 4021.00    1.00502   1.02269  105.503
 4022.00    0.99453   1.01673   -1.000
 4023.00    0.99402   1.00896  107.538
 4024.00    0.98726   1.00329  108.180
 4025.00    0.99563   1.00684  108.949
 4026.00    1.01619   1.02146  108.302
 4027.00    1.02860   1.03736  105.040
 4028.00    1.02688   1.03480  101.943
 4029.00    1.00195   1.00752  101.142
 4030.00    0.96830   0.96933  103.445
 4031.00    0.94981   0.93686  108.942
 4032.00    0.94354   0.92313  115.341
 4033.00    0.94351   0.92822  118.719
 4034.00    0.94699   0.94821  118.858
 4035.00    0.98315   0.97883  116.289
 4036.00    1.02445   1.01690  111.602
 4037.00    1.04517   1.05173  106.043
 4038.00    1.05604   1.06765  101.439
 4039.00    1.04365   1.06018   99.206
 4040.00    1.02019   1.04535   -1.000
 4041.00    1.00961   1.03506   -1.000
 4042.00    1.01317   1.02381  104.105
 4043.00    0.99899   0.99546  104.955
 4044.00    0.95235   0.94542  107.272
 4045.00    0.89808   0.90860  114.649
 4046.00    0.90006   0.91236  125.134
 4047.00    0.95171   0.95016  128.597
 4048.00    1.00457   0.99869  119.919
 4049.00    1.02546   1.03334  109.961
 4050.00    1.02448   1.04664   -1.000
 4051.00    1.02973   1.04319  102.606
 4052.00    1.02412   1.02790  102.218
 4053.00    1.00567   1.00747  103.808
 4054.00    0.99291   0.99375  106.653
 4055.00    0.98568   0.98717  108.972
 4056.00    0.97836   0.98067  110.311
 4057.00    0.97336   0.97730  111.120
 4058.00    0.98083   0.98417  112.037
 4059.00    1.00000   1.00322  112.209
 4060.00    1.00811   1.01853  109.695
 4061.00    1.00042   1.00751  106.384
 4062.00    0.97158   0.97312  105.877
 4063.00    0.93438   0.93605  110.090
 4064.00    0.92784   0.91928  118.178
 4065.00    0.94988   0.92454  122.323
 4066.00    0.96946   0.93910   -1.000
 4067.00    0.98584   0.95693  113.771
 4068.00    1.00252   0.97606  110.930
 4069.00    1.01249   0.98313  107.680
 4070.00    1.00440   0.96903   -1.000
 4071.00    0.97123   0.94627  105.874
 4072.00    0.95702   0.93634  110.463
 4073.00    0.97747   0.94544   -1.000
 4074.00    0.98709   0.95142   -1.000
 4075.00    0.96185   0.93441  108.140
 4076.00    0.91539   0.90274  109.882
 4077.00    0.89296   0.87827  116.916
 4078.00    0.89581   0.88091  124.541
 4079.00    0.92714   0.91061  124.997
 4080.00    0.97579   0.95216  118.869
 4081.00    1.00248   0.97850  110.590
 4082.00    1.00466   0.97793  104.669
 4083.00    0.98505   0.95959  103.497
 4084.00    0.96626   0.94336  106.058
 4085.00    0.96706   0.94488  108.968
 4086.00    0.98732   0.96412  109.290
 4087.00    1.02218   0.99081  106.762
 4088.00    1.03577   1.00872  102.900
 4089.00    1.02949   1.00924   99.184
 4090.00    1.01471   0.99499   97.421
 4091.00    0.99986   0.97765   98.552
 4092.00    0.98667   0.96471  100.560
 4093.00    0.98114   0.95246  102.149
 4094.00    0.96987   0.93374   -1.000
 4095.00    0.94189   0.90513   -1.000
 4096.00    0.91433   0.87324   -1.000
 4097.00    0.89327   0.84155   -1.000
 4098.00    0.87604   0.80394   -1.000
 4099.00    0.83564   0.75160   -1.000
 4100.00    0.75378   0.68725   -1.000
 4101.00    0.69251   0.63824   -1.000
 4102.00    0.68663   0.63372   -1.000
 4103.00    0.73666   0.67637   -1.000
 4104.00    0.81225   0.74688   -1.000
 4105.00    0.87457   0.81166   -1.000
 4106.00    0.91111   0.85430   -1.000
 4107.00    0.93001   0.87927   -1.000
 4108.00    0.94124   0.89237   -1.000
 4109.00    0.93528   0.89973   -1.000
 4110.00    0.92708   0.90846  109.970
 4111.00    0.93549   0.92128  111.955
 4112.00    0.95390   0.93760  112.427
 4113.00    0.96919   0.95646  110.511
 4114.00    0.98248   0.97775  108.214
 4115.00    0.99016   0.99411  106.443
 4116.00    0.99527   0.99855  105.039
 4117.00    0.99198   0.99042  104.613
 4118.00    0.98708   0.97752  105.813
 4119.00    0.97520   0.96828  108.618
 4120.00    0.96914   0.96694  111.436
 4121.00    0.97572   0.97132  111.652
 4122.00    0.97276   0.97707  110.283
 4123.00    0.97426   0.98467  109.621
 4124.00    0.98826   0.99457  109.272
 4125.00    0.99894   1.00092  107.770
 4126.00    1.00331   0.99680  106.419
 4127.00    0.99189   0.98627  106.769
 4128.00    0.98004   0.97851  108.581
 4129.00    0.97402   0.97613  110.415
 4130.00    0.97182   0.97020  111.161
 4131.00    0.96750   0.95388  112.026
 4132.00    0.94239   0.93644  114.250
 4133.00    0.92815   0.93267  117.924
 4134.00    0.94339   0.95004  120.385
 4135.00    0.97683   0.98107  118.989
 4136.00    1.00354   1.01385  114.159
 4137.00    1.02008   1.03840  109.108
 4138.00    1.03211   1.05524   -1.000
 4139.00    1.03771   1.06383   -1.000
 4140.00    1.02558   1.05482   -1.000
 4141.00    1.00648   1.02318  103.985
 4142.00    0.96468   0.98262  107.398
 4143.00    0.92710   0.95192   -1.000
 4144.00    0.92742   0.95072   -1.000
 4145.00    0.96189   0.97697  125.156
 4146.00    0.99686   1.00584  119.193
 4147.00    1.00737   1.01964  112.963
 4148.00    1.00933   1.01786  109.933
 4149.00    1.00084   1.01326  110.037
 4150.00    0.98787   1.01439   -1.000
 4151.00    0.98540   1.01654   -1.000
 4152.00    0.98973   1.01175   -1.000
 4153.00    0.98614   0.99849  114.853
 4154.00    0.97124   0.98458  114.829
 4155.00    0.95875   0.98018   -1.000
 4156.00    0.96023   0.98832   -1.000
 4157.00    0.96673   1.00374   -1.000
 4158.00    1.00272   1.02116  114.041
 4159.00    1.16210   1.03559   -1.000
 4160.00    1.27952   1.04436   -1.000
 4161.00    0.97975   1.05068   -1.000
 4162.00    0.73395   1.05809   -1.000
 4163.00    0.98351   1.06553   -1.000
 4164.00    1.07944   1.06841  105.973
 4165.00    1.00914   1.06172   -1.000
 4166.00    0.99375   1.04842   -1.000
 4167.00    0.99278   1.03656   -1.000
 4168.00    0.99997   1.03160   -1.000
 4169.00    0.99752   1.02645   -1.000
 4170.00    0.98280   1.00706   -1.000
 4171.00    0.95038   0.97312   -1.000
 4172.00    0.91483   0.93831   -1.000
 4173.00    0.90385   0.92570   -1.000
 4174.00    0.92117   0.94076   -1.000
 4175.00    0.94236   0.96586   -1.000
 4176.00    0.95597   0.98143   -1.000
 4177.00    0.95325   0.98685   -1.000
 4178.00    0.95328   0.99390   -1.000
 4179.00    0.97386   1.00617   -1.000
 4180.00    0.98238   1.01402   -1.000
 4181.00    0.97421   1.01096   -1.000
 4182.00    0.97466   1.00399   -1.000
 4183.00    0.98351   1.00564   -1.000
 4184.00    0.99108   1.01493   -1.000
 4185.00    0.98777   1.01745   -1.000
 4186.00    0.97363   1.00852   -1.000
 4187.00    0.96110   0.99657   -1.000
 4188.00    0.96297   0.99326   -1.000
 4189.00    0.97953   1.00101   -1.000
 4190.00    0.98994   1.01200   -1.000
 4191.00    0.98753   1.02345   -1.000
 4192.00    0.99570   1.03664   -1.000
 4193.00    1.01020   1.04416   -1.000
 4194.00    1.01430   1.03736   -1.000
 4195.00    0.99024   1.01610   -1.000
 4196.00    0.95941   0.98721   -1.000
 4197.00    0.94637   0.96195  117.350
 4198.00    0.93693   0.94601  120.539
 4199.00    0.92799   0.93988  121.962
 4200.00    0.93593   0.94257  121.609
 4201.00    0.94245   0.94986  120.007
 4202.00    0.94852   0.95710  118.618
 4203.00    0.96129   0.96695  118.190
 4204.00    0.96948   0.98293  117.022
 4205.00    0.96848   1.00257   -1.000
 4206.00    0.97655   1.02267   -1.000
 4207.00    0.98925   1.03844   -1.000
 4208.00    0.99621   1.04590   -1.000
 4209.00    0.99705   1.04576   -1.000
 4210.00    0.98577   1.04497   -1.000
 4211.00    0.99023   1.04960   -1.000
 4212.00    0.99683   1.05438   -1.000
 4213.00    0.99138   1.04663   -1.000
 4214.00    0.96942   1.02367   -1.000
 4215.00    0.94402   0.99948   -1.000
 4216.00    0.92901   0.98971   -1.000
 4217.00    0.95867   1.00075   -1.000
 4218.00    0.98827   1.02680   -1.000
 4219.00    1.00985   1.05083   -1.000
 4220.00    1.02024   1.06212   -1.000
 4221.00    1.02994   1.05734   -1.000
 4222.00    1.01308   1.03376   99.339
 4223.00    0.97597   0.98856  101.366
 4224.00    0.93508   0.92883  106.631
 4225.00    0.87515   0.87036  115.234
 4226.00    0.81772   0.83834  128.093
 4227.00    0.81997   0.85244   -1.000
 4228.00    0.88369   0.91078   -1.000
 4229.00    0.96790   0.97496  133.792
 4230.00    1.02213   1.01433  117.035
 4231.00    1.01894   1.02322  107.206
 4232.00    0.99852   1.01183  103.374
 4233.00    0.98059   0.99479  103.749
 4234.00    0.96981   0.98109  106.327
 4235.00    0.97221   0.97208  108.559
 4236.00    0.96303   0.96693  110.065
 4237.00    0.95463   0.96781  112.519
 4238.00    0.96087   0.97798  113.571
 4239.00    0.96859   0.99346   -1.000
 4240.00    0.98520   1.00893   -1.000
 4241.00    0.99122   1.02048   -1.000
 4242.00    0.99599   1.02871   -1.000
 4243.00    1.00039   1.03581   -1.000
 4244.00    1.00966   1.04024   -1.000
 4245.00    1.00039   1.03566   -1.000
 4246.00    0.97674   1.01745   -1.000
 4247.00    0.94882   0.99211   -1.000
 4248.00    0.93955   0.97295   -1.000
 4249.00    0.94022   0.96736   -1.000
 4250.00    0.94024   0.97579   -1.000
 4251.00    0.95239   0.99023   -1.000
 4252.00    0.97978   1.00154   -1.000
 4253.00    0.98846   0.99928  109.859
 4254.00    0.97786   0.98834  107.983
 4255.00    0.96730   0.98794  109.494
 4256.00    0.99202   1.00029  111.125
 4257.00    1.00306   1.00767  108.543
 4258.00    0.98167   0.99436  105.288
 4259.00    0.94276   0.96647   -1.000
 4260.00    0.92226   0.95018   -1.000
 4261.00    0.93970   0.96205  116.170
 4262.00    0.97585   0.99688  116.628
 4263.00    1.00460   1.03245   -1.000
 4264.00    1.02284   1.05449   -1.000
 4265.00    1.02991   1.05977   -1.000
 4266.00    1.03029   1.05300   98.878
 4267.00    1.01357   1.03894   -1.000
 4268.00    0.99791   1.01750  101.540
 4269.00    0.98228   0.98634  104.896
 4270.00    0.93823   0.94978  108.343
 4271.00    0.90592   0.91687  113.483
 4272.00    0.89715   0.90003  120.983
 4273.00    0.90621   0.90300  126.467
 4274.00    0.91450   0.91949  126.210
 4275.00    0.93401   0.94640  123.121
 4276.00    0.96846   0.98297  119.217
 4277.00    0.99932   1.01601  112.973
 4278.00    1.00294   1.02945   -1.000
 4279.00    0.97689   1.01958   -1.000
 4280.00    0.95735   1.00197   -1.000
 4281.00    0.94848   0.99160   -1.000
 4282.00    0.94899   0.99210   -1.000
 4283.00    0.96476   0.99278   -1.000
 4284.00    0.96372   0.98539  109.760
 4285.00    0.94431   0.97356   -1.000
 4286.00    0.92885   0.95831   -1.000
 4287.00    0.91934   0.93933  114.854
 4288.00    0.89432   0.91462  117.333
 4289.00    0.87196   0.88935  119.831
 4290.00    0.86597   0.88102  125.008
 4291.00    0.87684   0.89794  129.459
 4292.00    0.91478   0.92531  127.293
 4293.00    0.93236   0.94436  120.088
 4294.00    0.93123   0.94522  114.059
 4295.00    0.92259   0.93238  113.084
 4296.00    0.91194   0.91137  114.504
 4297.00    0.88639   0.88172  116.655
 4298.00    0.84835   0.84170  120.334
 4299.00    0.80283   0.80401  127.879
 4300.00    0.77916   0.78216  138.763
 4301.00    0.78542   0.77935  146.399
 4302.00    0.79487   0.78825  145.945
 4303.00    0.80779   0.80220  142.042
 4304.00    0.82244   0.81706  139.967
 4305.00    0.83081   0.82339  137.972
 4306.00    0.82060   0.81290  137.015
 4307.00    0.80197   0.79168  138.954
 4308.00    0.77995   0.77545  144.770
 4309.00    0.77780   0.77914  151.465
 4310.00    0.80734   0.80288  152.956
 4311.00    0.83289   0.83166  147.996
 4312.00    0.84504   0.85769  139.269
 4313.00    0.86298   0.88848   -1.000
 4314.00    0.89337   0.93013   -1.000
 4315.00    0.94594   0.98466   -1.000
 4316.00    1.00036   1.03817   -1.000
 4317.00    1.03770   1.07432   -1.000
 4318.00    1.04545   1.08479   -1.000
 4319.00    1.03590   1.07574   -1.000
 4320.00    1.01452   1.05729   -1.000
 4321.00    0.99426   1.03015   -1.000
 4322.00    0.97755   0.98939   97.751
 4323.00    0.93708   0.93743  101.562
 4324.00    0.89188   0.89049  107.376
 4325.00    0.86703   0.87003  115.952
 4326.00    0.88492   0.88691  124.827
 4327.00    0.94123   0.93486  125.497
 4328.00    0.99099   0.98263  115.243
 4329.00    1.01157   1.00830  104.059
 4330.00    1.00161   1.01250   98.390
 4331.00    0.98907   1.00914   97.401
 4332.00    0.99072   1.00885   97.624
 4333.00    0.99466   1.00788   96.680
 4334.00    0.98731   0.99747   95.142
 4335.00    0.96651   0.96854   94.433
 4336.00    0.93241   0.91429   94.800
 4337.00    0.87288   0.83609   -1.000
 4338.00    0.80455   0.75471   -1.000
 4339.00    0.74092   0.69327   -1.000
 4340.00    0.69596   0.67301  125.933
 4341.00    0.71303   0.70199  134.167
 4342.00    0.78096   0.76677  133.005
 4343.00    0.85324   0.83432  121.634
 4344.00    0.90856   0.88693  110.879
 4345.00    0.94140   0.92699  105.235
 4346.00    0.96316   0.96004  102.181
 4347.00    0.97980   0.98819   99.727
 4348.00    0.99250   1.00703   98.272
 4349.00    0.99973   1.00661   97.091
 4350.00    0.97518   0.98217   96.007
 4351.00    0.93238   0.94873   97.795
 4352.00    0.91807   0.93391  104.040
 4353.00    0.93950   0.94824  110.143
 4354.00    0.98211   0.98152  109.562
 4355.00    1.01006   1.01281  104.676
 4356.00    1.01369   1.03160  100.360
 4357.00    1.02146   1.03912   97.633
 4358.00    1.02056   1.03980   96.242
 4359.00    1.00741   1.04030   -1.000
 4360.00    1.01793   1.04858   -1.000
 4361.00    1.03543   1.06523   -1.000
 4362.00    1.05189   1.08072   -1.000
 4363.00    1.06060   1.09143   -1.000
 4364.00    1.05277   1.09891   -1.000
 4365.00    1.05911   1.09770   -1.000
 4366.00    1.04615   1.08311   -1.000
 4367.00    1.01298   1.06292   -1.000
 4368.00    1.00589   1.04673   -1.000
 4369.00    1.00940   1.03724   -1.000
 4370.00    1.01351   1.03187   99.432
 4371.00    1.01564   1.02508   98.460
 4372.00    1.01183   1.01131   98.022
 4373.00    0.99638   0.98978   98.262
 4374.00    0.95790   0.96939  100.141
 4375.00    0.94872   0.96524  104.383
 4376.00    0.97185   0.98551  107.376
 4377.00    1.01544   1.01659  105.932
 4378.00    1.03414   1.04111  101.068
 4379.00    1.04033   1.04961   96.882
 4380.00    1.03276   1.03633   95.964
 4381.00    1.02366   0.99638   96.963
 4382.00    0.97039   0.93680   99.531
 4383.00    0.90077   0.87910  106.061
 4384.00    0.87467   0.85850  118.317
 4385.00    0.90758   0.88649  128.391
 4386.00    0.95987   0.93463  125.188
 4387.00    0.99173   0.97076  113.024
 4388.00    0.99644   0.98445  104.320
 4389.00    1.00193   0.98636  102.192
 4390.00    0.99452   0.98904  102.702
 4391.00    1.00250   0.99747  103.656
 4392.00    1.01757   1.00819  103.287
 4393.00    1.02383   1.01142  101.074
 4394.00    1.00621   1.00786   99.593
 4395.00    0.99373   1.01069  100.844
 4396.00    1.01658   1.02616  102.451
 4397.00    1.04028   1.04144  100.705
 4398.00    1.04343   1.03969   96.345
 4399.00    1.01871   1.02435   94.759
 4400.00    0.99130   1.01075   96.889
 4401.00    1.00465   1.00830  100.417
 4402.00    1.02005   1.01016  102.215
 4403.00    1.01404   1.00065  100.622
 4404.00    0.98887   0.98156  100.193
 4405.00    0.98202   0.96969  104.644
 4406.00    0.99894   0.97255  109.505
 4407.00    1.00213   0.98463  108.840
 4408.00    0.99729   0.99930  105.523
 4409.00    1.01042   1.02157  104.266
 4410.00    1.02490   1.05437   -1.000
 4411.00    1.05276   1.08191   -1.000
 4412.00    1.07934   1.08797   94.300
 4413.00    1.06543   1.06988   91.707
 4414.00    1.04034   1.03508   91.665
 4415.00    1.00641   1.00190   95.074
 4416.00    0.98807   0.99204  100.209
 4417.00    1.01548   1.01215  102.583
 4418.00    1.04417   1.04808  100.960
 4419.00    1.06976   1.08241   97.099
 4420.00    1.07036   1.09770   -1.000
 4421.00    1.05564   1.09118   -1.000
 4422.00    1.05447   1.07704   92.844
 4423.00    1.05774   1.06844   95.210
 4424.00    1.05845   1.06733   96.285
 4425.00    1.04807   1.06676   95.642
 4426.00    1.04044   1.06354   95.399
 4427.00    1.03957   1.06357   95.828
 4428.00    1.04800   1.06765   95.988
 4429.00    1.04705   1.07194   95.335
 4430.00    1.03444   1.07489   -1.000
 4431.00    1.03723   1.07508   -1.000
 4432.00    1.04999   1.06959   96.090
 4433.00    1.03579   1.05403   94.977
 4434.00    1.00838   1.03162   95.244
 4435.00    1.00063   1.02053   99.023
 4436.00    1.01703   1.03555  103.013
 4437.00    1.05589   1.07042  102.548
 4438.00    1.09280   1.10355   97.588
 4439.00    1.09651   1.11635   91.968
 4440.00    1.07782   1.10314   89.123
 4441.00    1.04041   1.07021   -1.000
 4442.00    1.00635   1.03899   -1.000
 4443.00    0.99672   1.02976   -1.000
 4444.00    1.00818   1.04819   -1.000
 4445.00    1.03541   1.07959   -1.000
 4446.00    1.05652   1.10426   -1.000
 4447.00    1.06707   1.11405   -1.000
 4448.00    1.07062   1.11354   -1.000
 4449.00    1.07355   1.11015   -1.000
 4450.00    1.06506   1.10668   -1.000
 4451.00    1.06336   1.10158   -1.000
 4452.00    1.06335   1.08929   -1.000
 4453.00    1.04910   1.06324   92.700
 4454.00    1.01788   1.03010   94.094
 4455.00    0.99658   1.00664   97.959
 4456.00    1.00984   1.00352  101.927
 4457.00    1.02393   1.01394  102.924
 4458.00    1.02652   1.02390  100.961
 4459.00    1.02151   1.02817   99.627
 4460.00    1.02343   1.03028   99.903
 4461.00    1.01360   1.03449  100.574
 4462.00    1.02374   1.04420  101.622
 4463.00    1.04396   1.06076  101.789
 4464.00    1.05821   1.07711   99.109
 4465.00    1.06894   1.08532   95.490
 4466.00    1.06610   1.08297   93.846
 4467.00    1.05714   1.07316   93.868
 4468.00    1.04251   1.06220   94.182
 4469.00    1.02717   1.05901   -1.000
 4470.00    1.02875   1.06951   -1.000
 4471.00    1.05516   1.09081   -1.000
 4472.00    1.08136   1.11538   -1.000
 4473.00    1.10978   1.13581   -1.000
 4474.00    1.11348   1.14702   -1.000
 4475.00    1.11471   1.15031   -1.000
 4476.00    1.11334   1.15064   -1.000
 4477.00    1.11659   1.14916   -1.000
 4478.00    1.12145   1.14041   85.860
 4479.00    1.09453   1.11915   85.679
 4480.00    1.06160   1.08762   87.086
 4481.00    1.03697   1.06236   90.635
 4482.00    1.03503   1.05926   94.442
 4483.00    1.06197   1.07873   96.125
 4484.00    1.09513   1.11095   94.117
 4485.00    1.11546   1.13970   90.090
 4486.00    1.11894   1.15184   -1.000
 4487.00    1.10528   1.14411   -1.000
 4488.00    1.08391   1.12464   -1.000
 4489.00    1.05666   1.10562   -1.000
 4490.00    1.06040   1.09935   -1.000
 4491.00    1.07651   1.10781   -1.000
 4492.00    1.08658   1.12123   -1.000
 4493.00    1.08316   1.12719   -1.000
 4494.00    1.07123   1.12123   -1.000
 4495.00    1.07026   1.11452   -1.000
 4496.00    1.07306   1.11660   -1.000
 4497.00    1.09028   1.12572   -1.000
 4498.00    1.11917   1.13524   92.725
 4499.00    1.12289   1.13984   89.545
 4500.00    1.10838   1.13836   -1.000
 4501.00    1.08959   1.13797   -1.000
 4502.00    1.09310   1.14899   -1.000
 4503.00    1.11672   1.16911   -1.000
 4504.00    1.13388   1.18927   -1.000
 4505.00    1.13564   1.20003   -1.000
 4506.00    1.13646   1.19869   -1.000
 4507.00    1.12913   1.19003   -1.000
 4508.00    1.12569   1.18264   -1.000
 4509.00    1.13275   1.18194   -1.000
 4510.00    1.13875   1.18461   -1.000
 4511.00    1.13976   1.18355   -1.000
 4512.00    1.12310   1.17517   -1.000
 4513.00    1.11090   1.16293   -1.000
 4514.00    1.11221   1.15164   -1.000
 4515.00    1.10904   1.14400   -1.000
 4516.00    1.11028   1.14154   -1.000
 4517.00    1.10384   1.14029   -1.000
 4518.00    1.08683   1.13639   -1.000
 4519.00    1.09506   1.13417   -1.000
 4520.00    1.11021   1.13698   88.810
 4521.00    1.09796   1.14072   -1.000
 4522.00    1.08257   1.13828   -1.000
 4523.00    1.07287   1.12785   -1.000
 4524.00    1.07079   1.11489   -1.000
 4525.00    1.07304   1.10180   -1.000
 4526.00    1.05728   1.08498   91.119
 4527.00    1.04350   1.06330   92.967
 4528.00    1.04010   1.04325   95.848
 4529.00    1.03345   1.03533   98.205
 4530.00    1.03802   1.04070   98.883
 4531.00    1.05762   1.05168   97.841
 4532.00    1.06450   1.05581   96.054
 4533.00    1.04327   1.04749   94.574
 4534.00    1.01648   1.03618   94.837
 4535.00    1.02320   1.03739   97.796
 4536.00    1.06333   1.06068  100.155
 4537.00    1.09770   1.09920   97.617
 4538.00    1.12273   1.13525   91.793
 4539.00    1.12221   1.15247   -1.000
 4540.00    1.11230   1.15064   -1.000
 4541.00    1.10589   1.14277   -1.000
 4542.00    1.10530   1.13905   -1.000
 4543.00    1.10468   1.13929   -1.000
 4544.00    1.08968   1.13597   -1.000
 4545.00    1.07523   1.12680   -1.000
 4546.00    1.09001   1.11661   88.983
 4547.00    1.07554   1.10567   45.230
 4548.00    0.72706   1.09068   -1.000
 4549.00    0.03157   1.07591   -1.000
 4550.00    0.02391   1.07223   -1.000
 4551.00    0.38742   1.08209   -1.000
 4552.00    0.84957   1.09329   -1.000
 4553.00    0.38281   1.09341   -1.000
 4554.00    0.97901   1.08578   -1.000
 4555.00    1.06837   1.08230   93.187
 4556.00    1.07588   1.09232   93.544
 4557.00    1.09879   1.11544   91.599
 4558.00    1.10481   1.14034   -1.000
 4559.00    1.11386   1.15877   -1.000
 4560.00    1.13130   1.16922   -1.000
 4561.00    1.13168   1.17164   -1.000
 4562.00    1.11876   1.16532   -1.000
 4563.00    1.10316   1.15032   -1.000
 4564.00    1.09070   1.13285   -1.000
 4565.00    1.08892   1.12381   -1.000
 4566.00    1.10132   1.12930   89.876
 4567.00    1.11893   1.14617   88.498
 4568.00    1.13392   1.16141   86.168
 4569.00    1.13156   1.16437   -1.000
 4570.00    1.11215   1.15304   -1.000
 4571.00    1.08208   1.13538   -1.000
 4572.00    1.07743   1.12531   -1.000
 4573.00    1.10354   1.13149   88.951
 4574.00    1.11887   1.14833   87.744
 4575.00    1.12082   1.16145   -1.000
 4576.00    1.11452   1.16496   -1.000
 4577.00    1.10839   1.16064   -1.000
 4578.00    1.10382   1.14962   -1.000
 4579.00    1.09308   1.13151   -1.000
 4580.00    1.07776   1.11030   -1.000
 4581.00    1.07176   1.09281   89.919
 4582.00    1.07568   1.08505   91.322
 4583.00    1.07590   1.08678   90.762
 4584.00    1.07921   1.09253   89.549
 4585.00    1.08477   1.09753   89.098
 4586.00    1.09467   1.10352   89.466
 4587.00    1.10772   1.11378   89.696
 4588.00    1.12339   1.12736   88.146
 4589.00    1.11888   1.13863   85.863
 4590.00    1.10953   1.14096   -1.000
 4591.00    1.10035   1.13335   -1.000
 4592.00    1.09246   1.12237   85.970
 4593.00    1.09482   1.11633   87.575
 4594.00    1.09078   1.11841   88.832
 4595.00    1.10819   1.12511   88.684
 4596.00    1.12488   1.13225   87.900
 4597.00    1.11945   1.13787   87.298
 4598.00    1.11975   1.14065   87.098
 4599.00    1.11675   1.13855   86.914
 4600.00    1.10990   1.13211   86.896
 4601.00    1.10225   1.12468   87.714
 4602.00    1.10048   1.12080   88.402
 4603.00    1.10542   1.12194   88.402
 4604.00    1.11422   1.12650   87.395
 4605.00    1.12013   1.13252   86.618
 4606.00    1.12078   1.13929   86.766
 4607.00    1.13860   1.14805   86.456
 4608.00    1.14025   1.15930   85.332
 4609.00    1.14358   1.17024   83.580
 4610.00    1.14655   1.17512   81.930
 4611.00    1.13970   1.17012   81.245
 4612.00    1.13235   1.16167   81.810
 4613.00    1.13142   1.15590   82.938
 4614.00    1.13717   1.15386   83.779
 4615.00    1.13488   1.15380   84.129
 4616.00    1.13060   1.15262   83.605
 4617.00    1.12193   1.14855   82.917
 4618.00    1.11845   1.14313   82.764
 4619.00    1.12098   1.14142   83.375
 4620.00    1.12890   1.14705   83.873
 4621.00    1.13608   1.15868   83.629
 4622.00    1.14428   1.16970   82.697
 4623.00    1.14362   1.17318   81.581
 4624.00    1.14158   1.17059   81.664
 4625.00    1.14186   1.16699   81.872
 4626.00    1.12838   1.16318   -1.000
 4627.00    1.13600   1.15998   82.826
 4628.00    1.13411   1.15757   82.955
 4629.00    1.12288   1.15612   -1.000
 4630.00    1.12942   1.15695   83.508
 4631.00    1.14014   1.16115   83.562
 4632.00    1.14490   1.16531   83.016
 4633.00    1.13645   1.16313   82.256
 4634.00    1.12891   1.15530   82.838
 4635.00    1.12542   1.14745   84.045
 4636.00    1.12278   1.14225   84.783
 4637.00    1.12352   1.13837   84.784
 4638.00    1.11664   1.13667   85.589
 4639.00    1.12125   1.13909   86.617
 4640.00    1.13308   1.14667   86.848
 4641.00    1.15426   1.15797   86.470
 4642.00    1.16113   1.16868   84.819
 4643.00    1.16017   1.17154   82.862
 4644.00    1.14556   1.16323   82.020
 4645.00    1.13616   1.14718   82.627
 4646.00    1.12341   1.12720   84.364
 4647.00    1.10573   1.10992   86.785
 4648.00    1.11382   1.10597   88.848
 4649.00    1.12345   1.11722   88.790
 4650.00    1.12901   1.13453   87.034
 4651.00    1.12820   1.14725   85.112
 4652.00    1.12629   1.15064   84.157
 4653.00    1.12578   1.14674   84.058
 4654.00    1.11243   1.13808   84.071
 4655.00    1.10019   1.12886   85.290
 4656.00    1.09647   1.12607   87.167
 4657.00    1.10725   1.13571   87.826
 4658.00    1.13433   1.15722   86.643
 4659.00    1.16289   1.18204   83.683
 4660.00    1.17627   1.19647   80.663
 4661.00    1.16793   1.19551   79.198
 4662.00    1.15264   1.18361   79.376
 4663.00    1.14544   1.16753   80.572
 4664.00    1.15056   1.15068   82.549
 4665.00    1.14045   1.13175   83.925
 4666.00    1.10490   1.10788   84.228
 4667.00    1.08180   1.08295   86.028
 4668.00    1.07797   1.06872   89.851
 4669.00    1.08330   1.07461   93.010
 4670.00    1.11019   1.09628   92.432
 4671.00    1.13751   1.12167   89.276
 4672.00    1.14336   1.13981   85.694
 4673.00    1.14529   1.14914   83.729
 4674.00    1.14063   1.15465   83.412
 4675.00    1.14600   1.16145   83.480
 4676.00    1.16240   1.16784   83.226
 4677.00    1.15949   1.16538   82.062
 4678.00    1.14310   1.15165   81.068
 4679.00    1.13337   1.13320   81.773
 4680.00    1.12759   1.11908   83.605
 4681.00    1.12504   1.11329   85.207
 4682.00    1.12630   1.11454   86.512
 4683.00    1.13160   1.12155   87.023
 4684.00    1.15037   1.13138   85.662
 4685.00    1.15238   1.13946   83.598
 4686.00    1.15585   1.14338   82.767
 4687.00    1.14930   1.14451   83.086
 4688.00    1.14064   1.14444   83.167
 4689.00    1.14212   1.14351   83.600
 4690.00    1.13444   1.14193   83.577
 4691.00    1.12754   1.13940   83.675
 4692.00    1.12849   1.13883   84.250
 4693.00    1.14915   1.14316   84.224
 4694.00    1.15892   1.15000   83.122
 4695.00    1.17382   1.15511   81.778
 4696.00    1.17346   1.15639   80.034
 4697.00    1.15578   1.15117   79.263
 4698.00    1.14474   1.13825   80.002
 4699.00    1.13720   1.12261   82.441
 4700.00    1.12834   1.10881   84.720
 4701.00    1.12382   1.09795   85.377
 4702.00    1.11412   1.08877   84.789
 4703.00    1.10767   1.08402   85.627
 4704.00    1.10542   1.08865   87.043
 4705.00    1.11967   1.09931   87.128
 4706.00    1.13116   1.10477   85.412
 4707.00    1.11927   1.10013   84.519
 4708.00    1.10574   1.09230   85.911
 4709.00    1.10497   1.09162   87.541
 4710.00    1.11652   1.10067   88.150
 4711.00    1.13907   1.11461   87.309
 4712.00    1.15969   1.12753   84.647
 4713.00    1.14980   1.13228   82.546
 4714.00    1.13584   1.12885   82.030
 4715.00    1.13897   1.12618   83.010
 4716.00    1.14812   1.13189   84.413
 4717.00    1.16762   1.14511   84.090
 4718.00    1.17076   1.15751   82.335
 4719.00    1.16367   1.16413   80.905
 4720.00    1.15949   1.16509   80.493
 4721.00    1.15241   1.16344   80.219
 4722.00    1.15400   1.16231   80.074
 4723.00    1.15615   1.16330   80.798
 4724.00    1.16441   1.16550   81.222
 4725.00    1.17049   1.16497   80.632
 4726.00    1.15370   1.15728   79.869
 4727.00    1.13310   1.14109   80.287
 4728.00    1.11825   1.12232   82.491
 4729.00    1.12497   1.10991   85.535
 4730.00    1.13273   1.10667   87.078
 4731.00    1.13177   1.10886   86.558
 4732.00    1.12835   1.11446   85.671
 4733.00    1.12875   1.12186   84.962
 4734.00    1.13500   1.12691   83.954
 4735.00    1.13976   1.12758   83.275
 4736.00    1.12833   1.12576   82.817
 4737.00    1.12968   1.12445   82.529
 4738.00    1.13774   1.12651   83.396
 4739.00    1.14407   1.13235   83.301
 4740.00    1.13852   1.13778   82.297
 4741.00    1.14523   1.13989   82.455
 4742.00    1.14175   1.14186   82.913
 4743.00    1.15612   1.14612   82.900
 4744.00    1.15980   1.15067   82.161
 4745.00    1.14914   1.15303   81.384
 4746.00    1.15857   1.15394   81.598
 4747.00    1.16674   1.15678   81.577
 4748.00    1.16793   1.16275   80.900
 4749.00    1.16989   1.16934   80.150
 4750.00    1.16730   1.17504   80.054
 4751.00    1.15729   1.17726   80.184
 4752.00    1.15800   1.17261   80.297
 4753.00    1.15363   1.16123   80.954
 4754.00    1.14710   1.14830   81.864
 4755.00    1.14551   1.14049   82.521
 4756.00    1.15245   1.13993   82.994
 4757.00    1.14082   1.14457   82.863
 4758.00    1.13451   1.15149   83.250
 4759.00    1.14896   1.15854   83.823
 4760.00    1.15584   1.16129   83.789
 4761.00    1.13469   1.15463   83.113
 4762.00    1.10836   1.13744   83.165
 4763.00    1.09792   1.11606   84.640
 4764.00    1.10356   1.10145   86.690
 4765.00    1.11311   1.09665   87.629
 4766.00    1.12417   1.09974   87.670
 4767.00    1.14001   1.11010   87.422
 4768.00    1.14965   1.12738   86.713
 4769.00    1.15890   1.14561   85.388
 4770.00    1.16035   1.15626   83.491
 4771.00    1.14820   1.15663   82.524
 4772.00    1.14490   1.15328   82.798
 4773.00    1.15394   1.15392   83.534
 4774.00    1.16582   1.16177   84.081
 4775.00    1.16846   1.17232   82.916
 4776.00    1.16900   1.17884   81.233
 4777.00    1.16857   1.17897   80.815
 4778.00    1.15757   1.17390   80.930
 4779.00    1.15318   1.16721   81.209
 4780.00    1.14702   1.16188   81.800
 4781.00    1.15085   1.15849   82.696
 4782.00    1.14909   1.15454   83.127
 4783.00    1.14245   1.14916   83.342
 4784.00    1.14008   1.14390   83.791
 4785.00    1.13831   1.13906   84.407
 4786.00    1.12167   1.13445   84.365
 4787.00    1.10733   1.13125   84.730
 4788.00    1.11881   1.13144   85.569
 4789.00    1.12188   1.13483   85.979
 4790.00    1.12888   1.14086   85.825
 4791.00    1.13983   1.14992   85.374
 4792.00    1.15428   1.16218   84.802
 4793.00    1.15864   1.17640   83.843
 4794.00    1.16724   1.18970   82.386
 4795.00    1.16815   1.19870   80.565
 4796.00    1.15946   1.19936   -1.000
 4797.00    1.15322   1.19145   -1.000
 4798.00    1.14731   1.17957   80.138
 4799.00    1.13390   1.16883   -1.000
 4800.00    1.13480   1.16471   83.261
 4801.00    1.14627   1.16958   84.044
 4802.00    1.16384   1.17891   83.114
 4803.00    1.16999   1.18458   81.430
 4804.00    1.15582   1.18308   80.418
 4805.00    1.14559   1.17618   80.701
 4806.00    1.13723   1.16907   81.831
 4807.00    1.14267   1.16516   82.845
 4808.00    1.15117   1.16455   83.505
 4809.00    1.14897   1.16752   83.423
 4810.00    1.14867   1.17245   83.188
 4811.00    1.15899   1.17602   82.767
 4812.00    1.16050   1.17822   82.010
 4813.00    1.16261   1.18149   81.449
 4814.00    1.17626   1.18615   81.073
 4815.00    1.17383   1.19179   81.000
 4816.00    1.17128   1.19767   80.786
 4817.00    1.17894   1.20198   80.470
 4818.00    1.18100   1.20332   79.951
 4819.00    1.18080   1.20287   79.472
 4820.00    1.17130   1.20168   79.186
 4821.00    1.16390   1.19587   79.176
 4822.00    1.15832   1.18118   79.245
 4823.00    1.14009   1.16024   80.109
 4824.00    1.12733   1.14364   82.258
 4825.00    1.14024   1.14242   83.633
 4826.00    1.15851   1.15411   83.261
 4827.00    1.15245   1.16585   81.736
 4828.00    1.15668   1.16969   80.628
 4829.00    1.16324   1.16692   81.104
 4830.00    1.15260   1.16243   82.057
 4831.00    1.14501   1.15636   82.495
 4832.00    1.14161   1.14930   82.514
 4833.00    1.15043   1.14586   83.270
 4834.00    1.16187   1.14829   83.244
 4835.00    1.16095   1.15441   81.853
 4836.00    1.16541   1.15941   80.848
 4837.00    1.15697   1.15932   80.627
 4838.00    1.14725   1.15344   80.803
 4839.00    1.14337   1.14302   81.264
 4840.00    1.14335   1.13172   82.445
 4841.00    1.13589   1.12427   83.824
 4842.00    1.13933   1.12339   83.778
 4843.00    1.14691   1.12664   83.570
 4844.00    1.14754   1.13074   83.120
 4845.00    1.15424   1.13668   82.471
 4846.00    1.15737   1.14261   81.596
 4847.00    1.14498   1.14135   80.359
 4848.00    1.12601   1.13284   80.155
 4849.00    1.12245   1.12557   81.859
 4850.00    1.13503   1.12445   82.957
 4851.00    1.13940   1.12613   82.793
 4852.00    1.13491   1.12318   81.649
 4853.00    1.11678   1.11091   81.561
 4854.00    1.09394   1.08780   82.077
 4855.00    1.07133   1.05852   82.922
 4856.00    1.05616   1.03281   85.493
 4857.00    1.05572   1.01353   -1.000
 4858.00    1.03861   0.98882   -1.000
 4859.00    0.96559   0.93857   86.651
 4860.00    0.86090   0.86513   89.556
 4861.00    0.78657   0.80143   97.777
 4862.00    0.80250   0.78363  109.012
 4863.00    0.90763   0.82106   -1.000
 4864.00    0.99603   0.88716   -1.000
 4865.00    1.03470   0.95132   -1.000
 4866.00    1.05855   0.99996   -1.000
 4867.00    1.07135   1.03372   -1.000
 4868.00    1.08637   1.05492   85.922
 4869.00    1.09286   1.06232   85.215
 4870.00    1.07339   1.05471   84.945
 4871.00    1.05590   1.03727   85.853
 4872.00    1.05419   1.02495   88.342
 4873.00    1.07226   1.03279   -1.000
 4874.00    1.09920   1.05727   -1.000
 4875.00    1.11032   1.08143   86.691
 4876.00    1.10901   1.09286   85.291
 4877.00    1.10546   1.09557   84.679
 4878.00    1.11279   1.10202   84.237
 4879.00    1.11717   1.11642   83.899
 4880.00    1.12742   1.13190   82.652
 4881.00    1.12559   1.13913   81.894
 4882.00    1.11796   1.13564   82.736
 4883.00    1.11477   1.12881   84.081
 4884.00    1.11530   1.12227   84.491
 4885.00    1.11889   1.11415   84.217
 4886.00    1.10581   1.10566   84.760
 4887.00    1.09685   1.10010   86.060
 4888.00    1.10998   1.09715   86.422
 4889.00    1.10424   1.09068   85.942
 4890.00    1.08416   1.07763   85.926
 4891.00    1.07812   1.06748   87.302
 4892.00    1.10162   1.07497   89.119
 4893.00    1.13842   1.10659   88.229
 4894.00    1.16203   1.14994   84.532
 4895.00    1.16976   1.18363   80.655
 4896.00    1.17993   1.20077   78.386
 4897.00    1.16792   1.20483   77.012
 4898.00    1.16220   1.19982   76.716
 4899.00    1.14918   1.18929   -1.000
 4900.00    1.13657   1.17833   -1.000
 4901.00    1.13316   1.17046   -1.000
 4902.00    1.14544   1.16485   81.332
 4903.00    1.14177   1.15855   80.911
 4904.00    1.13014   1.15507   81.097
 4905.00    1.14998   1.16204   82.033
 4906.00    1.15492   1.17602   81.016
 4907.00    1.15382   1.18384   79.300
 4908.00    1.15464   1.17808   78.801
 4909.00    1.13267   1.15987   79.647
 4910.00    1.11696   1.13839   81.647
 4911.00    1.11521   1.12523   83.964
 4912.00    1.13788   1.12768   84.862
 4913.00    1.15370   1.14225   83.639
 4914.00    1.15258   1.15983   82.125
 4915.00    1.15513   1.17355   81.016
 4916.00    1.16131   1.17635   79.980
 4917.00    1.15050   1.15954   79.340
 4918.00    1.10506   1.12271   79.878
 4919.00    1.05720   1.07766   82.853
 4920.00    1.04571   1.04327   87.455
 4921.00    1.06644   1.03365   -1.000
 4922.00    1.08756   1.04716   -1.000
 4923.00    1.09625   1.06918   89.028
 4924.00    1.09785   1.08700   85.871
 4925.00    1.10695   1.10209   84.720
 4926.00    1.12386   1.12043   84.633
 4927.00    1.13894   1.14255   83.462
 4928.00    1.15621   1.16406   81.265
 4929.00    1.16457   1.17917   79.869
 4930.00    1.15483   1.18601   79.151
 4931.00    1.16600   1.18277   78.619
 4932.00    1.15062   1.16674   78.202
 4933.00    1.11403   1.14194   79.078
 4934.00    1.10195   1.12160   81.325
 4935.00    1.10373   1.11549   84.206
 4936.00    1.12177   1.11951   84.241
 4937.00    1.11954   1.11737   82.724
 4938.00    1.09644   1.10309   82.824
 4939.00    1.08538   1.09173   85.363
 4940.00    1.10588   1.09802   87.588
 4941.00    1.14096   1.12268   86.626
 4942.00    1.15676   1.15262   83.596
 4943.00    1.16169   1.17282   80.966
 4944.00    1.17070   1.17944   79.537
 4945.00    1.15679   1.17691   78.865
 4946.00    1.14413   1.17188   78.969
 4947.00    1.15611   1.17061   79.538
 4948.00    1.16914   1.17694   79.662
 4949.00    1.15879   1.18714   78.903
 4950.00    1.16285   1.19312   77.983
 4951.00    1.17129   1.19146   77.769
 4952.00    1.16530   1.18574   77.464
 4953.00    1.15546   1.18007   77.899
 4954.00    1.16436   1.17405   78.453
 4955.00    1.15633   1.16070   79.379
 4956.00    1.11425   1.13052   80.411
 4957.00    1.07035   1.09084   82.675
 4958.00    1.07716   1.06824   87.005
 4959.00    1.12557   1.08023   -1.000
 4960.00    1.15693   1.11752   -1.000
 4961.00    1.16496   1.15315   83.095
 4962.00    1.16376   1.17176   80.365
 4963.00    1.15675   1.17575   79.846
 4964.00    1.15169   1.17038   80.260
 4965.00    1.14740   1.15873   80.920
 4966.00    1.14502   1.14492   81.915
 4967.00    1.14139   1.13389   83.667
 4968.00    1.14250   1.12787   84.699
 4969.00    1.14940   1.12694   84.677
 4970.00    1.14582   1.13146   84.410
 4971.00    1.14601   1.14051   83.764
 4972.00    1.14896   1.15138   82.857
 4973.00    1.15947   1.16173   81.966
 4974.00    1.16812   1.16991   80.987
 4975.00    1.16685   1.17331   80.242
 4976.00    1.15908   1.17118   79.952
 4977.00    1.15418   1.16434   80.547
 4978.00    1.14793   1.15421   81.412
 4979.00    1.13443   1.14228   82.535
 4980.00    1.12465   1.12708   83.883
 4981.00    1.10723   1.10400   84.910
 4982.00    1.08274   1.07233   86.156
 4983.00    1.06416   1.04247   89.057
 4984.00    1.07394   1.03080   -1.000
 4985.00    1.09241   1.04478   -1.000
 4986.00    1.11672   1.07489   -1.000
 4987.00    1.13997   1.10554   -1.000
 4988.00    1.14974   1.12631   84.618
 4989.00    1.14365   1.13188   82.584
 4990.00    1.12802   1.12509   82.745
 4991.00    1.11429   1.11537   83.999
 4992.00    1.11504   1.11099   84.836
 4993.00    1.12922   1.11333   84.832
 4994.00    1.13381   1.11925   84.055
 4995.00    1.12613   1.12596   83.719
 4996.00    1.13965   1.13199   83.683
 4997.00    1.14836   1.13475   83.238
 4998.00    1.12915   1.12978   82.840
 4999.00    1.11778   1.11488   83.384
 5000.00    1.11051   1.09478   84.532
 5001.00    1.11047   1.07862   86.255
 5002.00    1.11701   1.07373   -1.000
 5003.00    1.12559   1.07827   -1.000
 5004.00    1.12180   1.08086   -1.000
 5005.00    1.10142   1.07191   85.925
 5006.00    1.08331   1.05627   87.232
 5007.00    1.09184   1.05147   -1.000
 5008.00    1.12080   1.06589   -1.000
 5009.00    1.14482   1.08920   -1.000
 5010.00    1.14810   1.10396   -1.000
 5011.00    1.12132   1.09871   84.091
 5012.00    1.08403   1.07635   85.272
 5013.00    1.06443   1.05003   87.898
 5014.00    1.06391   1.03427   91.214
 5015.00    1.07904   1.03302   -1.000
 5016.00    1.10223   1.03971   -1.000
 5017.00    1.10863   1.04571   -1.000
 5018.00    1.09703   1.04884   -1.000
 5019.00    1.10503   1.05484   -1.000
 5020.00    1.11609   1.06552   -1.000
 5021.00    1.11309   1.07491   -1.000
 5022.00    1.11634   1.07884   -1.000
 5023.00    1.11867   1.08068   -1.000
 5024.00    1.12661   1.08804   -1.000
 5025.00    1.13234   1.09930   -1.000
 5026.00    1.13101   1.10370   85.848
 5027.00    1.11561   1.10004   85.288
 5028.00    1.12532   1.09696   85.729
 5029.00    1.14343   1.09993   -1.000
 5030.00    1.15198   1.10927   -1.000
 5031.00    1.14688   1.12247   83.666
 5032.00    1.15335   1.13574   82.486
 5033.00    1.16271   1.14382   81.139
 5034.00    1.14523   1.13970   80.220
 5035.00    1.12392   1.12168   80.394
 5036.00    1.10147   1.09935   83.067
 5037.00    1.10112   1.08330   86.397
 5038.00    1.10249   1.07331   87.762
 5039.00    1.07824   1.05635   88.034
 5040.00    1.04134   1.02778   89.154
 5041.00    1.02954   1.00514   92.756
 5042.00    1.05445   1.00811   -1.000
 5043.00    1.09710   1.03975   -1.000
 5044.00    1.13234   1.08455   -1.000
 5045.00    1.15017   1.12224   85.925
 5046.00    1.16117   1.14386   82.480
 5047.00    1.15627   1.14755   80.799
 5048.00    1.13103   1.13450   77.646
 5049.00    1.17841   1.11076   -1.000
 5050.00    0.56381   1.08757   -1.000
 5051.00    0.10277   1.07525   -1.000
 5052.00    0.00713   1.07876   -1.000
 5053.00    0.60889   1.09589   -1.000
 5054.00    1.27043   1.11743   -1.000
 5055.00    1.16294   1.13285   82.489
 5056.00    1.17145   1.14138   81.004
 5057.00    1.16765   1.14743   80.255
 5058.00    1.16588   1.15290   80.012
 5059.00    1.16433   1.15750   80.171
 5060.00    1.16169   1.16024   80.320
 5061.00    1.16039   1.16080   80.283
 5062.00    1.15924   1.15804   79.719
 5063.00    1.14680   1.14632   79.782
 5064.00    1.12177   1.12431   80.891
 5065.00    1.10853   1.10266   83.294
 5066.00    1.11782   1.09193   86.292
 5067.00    1.13320   1.09317   -1.000
 5068.00    1.13213   1.09840   -1.000
 5069.00    1.14101   1.10199   -1.000
 5070.00    1.14297   1.10460   -1.000
 5071.00    1.14401   1.10520   -1.000
 5072.00    1.13517   1.10121   83.586
 5073.00    1.13081   1.09585   -1.000
 5074.00    1.13805   1.09550   -1.000
 5075.00    1.14778   1.10068   -1.000
 5076.00    1.13666   1.10544   83.226
 5077.00    1.13630   1.10270   83.130
 5078.00    1.12044   1.08827   83.065
 5079.00    1.07944   1.06445   83.898
 5080.00    1.05823   1.04388   86.892
 5081.00    1.08039   1.03796   -1.000
 5082.00    1.09723   1.04539   -1.000
 5083.00    1.10516   1.05852   -1.000
 5084.00    1.12426   1.07233   -1.000
 5085.00    1.14215   1.08790   -1.000
 5086.00    1.15362   1.10404   -1.000
 5087.00    1.14909   1.11569   83.828
 5088.00    1.14199   1.12174   83.250
 5089.00    1.14862   1.12500   83.147
 5090.00    1.15423   1.12797   82.720
 5091.00    1.16107   1.13208   82.116
 5092.00    1.16442   1.13818   81.667
 5093.00    1.17105   1.14522   81.245
 5094.00    1.17789   1.14849   80.293
 5095.00    1.17111   1.14178   79.576
 5096.00    1.14092   1.12311   80.337
 5097.00    1.16982   1.09787   -1.000
 5098.00    1.16045   1.07546   -1.000
 5099.00    1.09454   1.06428   85.856
 5100.00    1.10681   1.06818   -1.000
 5101.00    1.13951   1.08492   -1.000
 5102.00    1.16581   1.10431   -1.000
 5103.00    1.16835   1.11511   -1.000
 5104.00    1.15452   1.11519   -1.000
 5105.00    1.14761   1.10743   -1.000
 5106.00    1.12721   1.09463   84.117
 5107.00    1.11078   1.08031   85.181
 5108.00    1.11457   1.06964   -1.000
 5109.00    1.10248   1.06658   -1.000
 5110.00    1.10739   1.07167   -1.000
 5111.00    1.12545   1.08366   -1.000
 5112.00    1.14264   1.09943   -1.000
 5113.00    1.14846   1.11366   -1.000
 5114.00    1.15968   1.12420   -1.000
 5115.00    1.16234   1.13213   82.657
 5116.00    1.15883   1.13917   81.916
 5117.00    1.16300   1.14506   81.483
 5118.00    1.17117   1.14758   80.613
 5119.00    1.16501   1.14465   79.942
 5120.00    1.15093   1.13527   80.194
 5121.00    1.14534   1.12123   81.259
 5122.00    1.12248   1.10534   82.487
 5123.00    1.10624   1.08890   83.853
 5124.00    1.09841   1.07334   86.027
 5125.00    1.10029   1.06314   -1.000
 5126.00    1.10744   1.06044   -1.000
 5127.00    1.12178   1.06208   -1.000
 5128.00    1.11644   1.06349   -1.000
 5129.00    1.10746   1.06433   -1.000
 5130.00    1.11124   1.06745   -1.000
 5131.00    1.12181   1.07439   -1.000
 5132.00    1.12588   1.08333   -1.000
 5133.00    1.13044   1.09148   -1.000
 5134.00    1.13432   1.09790   -1.000
 5135.00    1.14042   1.10182   -1.000
 5136.00    1.13650   1.10060   -1.000
 5137.00    1.11367   1.09166   82.446
 5138.00    1.08595   1.07728   83.954
 5139.00    1.08101   1.06356   86.011
 5140.00    1.09674   1.05645   -1.000
 5141.00    1.09457   1.05593   -1.000
 5142.00    1.09442   1.05768   -1.000
 5143.00    1.10244   1.06028   -1.000
 5144.00    1.10923   1.06512   -1.000
 5145.00    1.11815   1.07095   -1.000
 5146.00    1.11300   1.07249   -1.000
 5147.00    1.11509   1.06808   -1.000
 5148.00    1.11969   1.06540   -1.000
 5149.00    1.12792   1.06916   -1.000
 5150.00    1.12441   1.07208   -1.000
 5151.00    1.10440   1.06838   -1.000
 5152.00    1.09343   1.06096   -1.000
 5153.00    1.09574   1.05523   -1.000
 5154.00    1.10569   1.05575   -1.000
 5155.00    1.12466   1.06507   -1.000
 5156.00    1.14359   1.08211   -1.000
 5157.00    1.16553   1.10124   -1.000
 5158.00    1.15762   1.11692   -1.000
 5159.00    1.16854   1.12609   -1.000
 5160.00    1.16040   1.12864   80.498
 5161.00    1.15225   1.12541   80.489
 5162.00    1.14280   1.11674   80.761
 5163.00    1.14795   1.10284   -1.000
 5164.00    1.13905   1.08116   -1.000
 5165.00    1.08838   1.04323   -1.000
 5166.00    1.02746   0.98631   -1.000
 5167.00    0.96670   0.92672   -1.000
 5168.00    0.96364   0.89232   -1.000
 5169.00    1.00279   0.89875   -1.000
 5170.00    1.03762   0.92175   -1.000
 5171.00    1.01237   0.92412   -1.000
 5172.00    0.95209   0.90406   -1.000
 5173.00    0.95394   0.89253   -1.000
 5174.00    1.02362   0.92103   -1.000
 5175.00    1.09563   0.98197   -1.000
 5176.00    1.13550   1.04114   -1.000
 5177.00    1.15202   1.07904   -1.000
 5178.00    1.15879   1.09506   -1.000
 5179.00    1.16158   1.09602   -1.000
 5180.00    1.14332   1.08170   -1.000
 5181.00    1.10395   1.04390   -1.000
 5182.00    1.02510   0.98357   -1.000
 5183.00    0.94878   0.92104   -1.000
 5184.00    0.95121   0.89110   -1.000
 5185.00    1.02513   0.91183   -1.000
 5186.00    1.09347   0.96782   -1.000
 5187.00    1.11848   1.02436   -1.000
 5188.00    1.12140   1.05645   -1.000
 5189.00    1.11309   1.06818   -1.000
 5190.00    1.11008   1.06989   -1.000
 5191.00    1.09637   1.06182   -1.000
 5192.00    1.08081   1.04699   -1.000
 5193.00    1.08265   1.03592   -1.000
 5194.00    1.09862   1.03501   -1.000
 5195.00    1.10682   1.04241   -1.000
 5196.00    1.11425   1.05198   -1.000
 5197.00    1.12332   1.06300   -1.000
 5198.00    1.13031   1.07841   -1.000
 5199.00    1.13756   1.09574   -1.000
 5200.00    1.15276   1.10871   -1.000
 5201.00    1.15075   1.11256   -1.000
 5202.00    1.13443   1.10449   82.536
 5203.00    1.11964   1.08463   -1.000
 5204.00    1.09692   1.05683   -1.000
 5205.00    1.07448   1.02823   -1.000
 5206.00    1.07683   1.00661   -1.000
 5207.00    1.08657   0.99613   -1.000
 5208.00    1.08527   0.99499   -1.000
 5209.00    1.08723   1.00148   -1.000
 5210.00    1.10091   1.01795   -1.000
 5211.00    1.13499   1.04597   -1.000
 5212.00    1.16851   1.08045   -1.000
 5213.00    1.17538   1.10847   -1.000
 5214.00    1.16602   1.11861   -1.000
 5215.00    1.14060   1.10906   80.527
 5216.00    1.11933   1.09164   81.402
 5217.00    1.13022   1.08345   -1.000
 5218.00    1.14825   1.09235   -1.000
 5219.00    1.15924   1.11335   -1.000
 5220.00    1.17123   1.13464   -1.000
 5221.00    1.17547   1.14823   80.617
 5222.00    1.16979   1.15072   79.994
 5223.00    1.15548   1.14089   79.670
 5224.00    1.13596   1.11675   80.690
 5225.00    1.10092   1.07726   83.146
 5226.00    1.06175   1.03337   86.581
 5227.00    1.05900   1.00771   -1.000
 5228.00    1.09069   1.01473   -1.000
 5229.00    1.12741   1.04745   -1.000
 5230.00    1.14711   1.08158   -1.000
 5231.00    1.14626   1.09894   -1.000
 5232.00    1.13574   1.09713   -1.000
 5233.00    1.12234   1.08429   -1.000
 5234.00    1.11605   1.07462   -1.000
 5235.00    1.12261   1.07971   -1.000
 5236.00    1.14968   1.09914   -1.000
 5237.00    1.16638   1.12254   -1.000
 5238.00    1.16923   1.14033   80.080
 5239.00    1.16919   1.14873   79.165
 5240.00    1.17964   1.14998   79.084
 5241.00    1.18490   1.14778   -1.000
 5242.00    1.17980   1.14483   -1.000
 5243.00    1.17607   1.14452   78.733
 5244.00    1.18095   1.14815   78.845
 5245.00    1.17371   1.14976   78.688
 5246.00    1.15414   1.14183   78.561
 5247.00    1.13818   1.12548   80.114
 5248.00    1.13800   1.10880   82.623
 5249.00    1.12947   1.09836   -1.000
 5250.00    1.12620   1.09411   -1.000
 5251.00    1.12555   1.09412   -1.000
 5252.00    1.13190   1.09812   -1.000
 5253.00    1.14678   1.10358   -1.000
 5254.00    1.13567   1.10634   83.941
 5255.00    1.14726   1.10856   -1.000
 5256.00    1.16585   1.11711   -1.000
 5257.00    1.17450   1.13276   -1.000
 5258.00    1.18923   1.14849   -1.000
 5259.00    1.18722   1.15434   78.430
 5260.00    1.16155   1.14409   77.708
 5261.00    1.13967   1.11753   78.411
 5262.00    1.09915   1.07981   80.540
 5263.00    1.06656   1.03976   83.942
 5264.00    1.06013   1.00629   -1.000
 5265.00    1.05194   0.98721   -1.000
 5266.00    1.06237   0.98598   -1.000
 5267.00    1.08854   0.99402   -1.000
 5268.00    1.08097   0.99573   -1.000
 5269.00    1.04642   0.98442   -1.000
 5270.00    1.04431   0.97200   -1.000
 5271.00    1.08301   0.98010   -1.000
 5272.00    1.11982   1.00967   -1.000
 5273.00    1.12831   1.04037   -1.000
 5274.00    1.12060   1.05891   -1.000
 5275.00    1.12449   1.06794   -1.000
 5276.00    1.13888   1.07905   -1.000
 5277.00    1.16791   1.09920   -1.000
 5278.00    1.18816   1.12339   -1.000
 5279.00    1.17965   1.13857   -1.000
 5280.00    1.16418   1.13500   77.731
 5281.00    1.15311   1.11678   -1.000
 5282.00    1.13319   1.09548   -1.000
 5283.00    1.11973   1.08078   -1.000
 5284.00    1.13331   1.08004   -1.000
 5285.00    1.15685   1.09704   -1.000
 5286.00    1.18210   1.12540   -1.000
 5287.00    1.18695   1.15167   -1.000
 5288.00    1.19104   1.16639   77.387
 5289.00    1.21859   1.17140   -1.000
 5290.00    1.19970   1.17331   77.132
 5291.00    1.18120   1.17353   77.137
 5292.00    1.18575   1.17177   76.696
 5293.00    1.18656   1.16925   76.523
 5294.00    1.18373   1.16391   76.955
 5295.00    1.17643   1.15108   77.678
 5296.00    1.15216   1.12798   78.702
 5297.00    1.12212   1.09947   80.807
 5298.00    1.10869   1.07965   83.894
 5299.00    1.12611   1.07804   -1.000
 5300.00    1.15126   1.08996   -1.000
 5301.00    1.15105   1.10453   -1.000
 5302.00    1.15229   1.11579   -1.000
 5303.00    1.16052   1.12779   -1.000
 5304.00    1.17684   1.14322   -1.000
 5305.00    1.18948   1.15538   -1.000
 5306.00    1.18193   1.15896   76.883
 5307.00    1.17093   1.15604   76.642
 5308.00    1.17312   1.15379   77.362
 5309.00    1.18337   1.15822   78.041
 5310.00    1.18777   1.16735   77.575
 5311.00    1.18986   1.17495   76.765
 5312.00    1.18974   1.17656   76.262
 5313.00    1.18929   1.17150   76.318
 5314.00    1.18818   1.16145   76.738
 5315.00    1.16893   1.14768   77.074
 5316.00    1.15044   1.13318   77.626
 5317.00    1.15518   1.12526   78.389
 5318.00    1.16758   1.12943   -1.000
 5319.00    1.17183   1.14207   79.140
 5320.00    1.17387   1.15158   78.574
 5321.00    1.17052   1.15012   78.227
 5322.00    1.16237   1.13856   78.491
 5323.00    1.15129   1.12108   79.036
 5324.00    1.13954   1.10305   -1.000
 5325.00    1.13911   1.08774   -1.000
 5326.00    1.12490   1.07142   -1.000
 5327.00    1.08525   1.04601   -1.000
 5328.00    1.05146   1.01708   -1.000
 5329.00    1.06589   1.00653   -1.000
 5330.00    1.12448   1.02619   -1.000
 5331.00    1.15966   1.06471   -1.000
 5332.00    1.16392   1.09825   -1.000
 5333.00    1.16901   1.11589   -1.000
 5334.00    1.17323   1.12552   -1.000
 5335.00    1.17844   1.13311   -1.000
 5336.00    1.17294   1.13639   -1.000
 5337.00    1.15535   1.13352   78.221
 5338.00    1.15278   1.12453   78.689
 5339.00    1.14404   1.10922   -1.000
 5340.00    1.13988   1.09138   -1.000
 5341.00    1.13268   1.08112   -1.000
 5342.00    1.15334   1.08675   -1.000
 5343.00    1.17113   1.10496   -1.000
 5344.00    1.17283   1.12093   -1.000
 5345.00    1.16645   1.12451   -1.000
 5346.00    1.16389   1.11806   -1.000
 5347.00    1.16170   1.10906   -1.000
 5348.00    1.15505   1.10317   -1.000
 5349.00    1.15209   1.10226   -1.000
 5350.00    1.16417   1.10730   -1.000
 5351.00    1.17297   1.11866   -1.000
 5352.00    1.17851   1.13283   -1.000
 5353.00    1.17943   1.14397   -1.000
 5354.00    1.18098   1.15157   77.463
 5355.00    1.18503   1.15952   77.184
 5356.00    1.18907   1.16835   76.597
 5357.00    1.19692   1.17507   75.632
 5358.00    1.20004   1.17741   75.042
 5359.00    1.20281   1.17600   75.079
 5360.00    1.19536   1.17141   75.195
 5361.00    1.17839   1.16191   75.462
 5362.00    1.16372   1.14757   76.318
 5363.00    1.15801   1.13175   77.584
 5364.00    1.14818   1.11840   78.733
 5365.00    1.14365   1.11032   -1.000
 5366.00    1.14456   1.10792   -1.000
 5367.00    1.15547   1.10797   -1.000
 5368.00    1.15468   1.10425   -1.000
 5369.00    1.13222   1.09180   -1.000
 5370.00    1.10990   1.07135   -1.000
 5371.00    1.10555   1.05270   -1.000
 5372.00    1.12978   1.04973   -1.000
 5373.00    1.16904   1.06896   -1.000
 5374.00    1.18775   1.10247   -1.000
 5375.00    1.20033   1.13306   -1.000
 5376.00    1.19636   1.15062   -1.000
 5377.00    1.19106   1.15583   -1.000
 5378.00    1.18701   1.15359   -1.000
 5379.00    1.18559   1.14783   -1.000
 5380.00    1.17415   1.14049   -1.000
 5381.00    1.15564   1.13257   77.041
 5382.00    1.16403   1.12496   -1.000
 5383.00    1.16656   1.11984   -1.000
 5384.00    1.16449   1.12092   -1.000
 5385.00    1.17723   1.12980   -1.000
 5386.00    1.18292   1.14203   -1.000
 5387.00    1.18344   1.14994   -1.000
 5388.00    1.17220   1.14975   77.561
 5389.00    1.17171   1.14237   77.887
 5390.00    1.16991   1.13104   -1.000
 5391.00    1.15916   1.11940   -1.000
 5392.00    1.15559   1.10931   -1.000
 5393.00    1.15055   1.10200   -1.000
 5394.00    1.14438   1.09772   -1.000
 5395.00    1.13786   1.09189   -1.000
 5396.00    1.12289   1.08056   -1.000
 5397.00    1.11319   1.06773   -1.000
 5398.00    1.12856   1.06336   -1.000
 5399.00    1.15219   1.07401   -1.000
 5400.00    1.16587   1.09299   -1.000
 5401.00    1.16754   1.10774   -1.000
 5402.00    1.15563   1.11102   -1.000
 5403.00    1.14009   1.09953   -1.000
 5404.00    1.11978   1.07532   -1.000
 5405.00    1.10124   1.05074   -1.000
 5406.00    1.10180   1.03978   -1.000
 5407.00    1.12496   1.04607   -1.000
 5408.00    1.14393   1.06021   -1.000
 5409.00    1.12977   1.06825   -1.000
 5410.00    1.12885   1.06956   -1.000
 5411.00    1.13812   1.07479   -1.000
 5412.00    1.16061   1.08858   -1.000
 5413.00    1.16650   1.10455   -1.000
 5414.00    1.15714   1.11354   -1.000
 5415.00    1.15656   1.11642   -1.000
 5416.00    1.15955   1.12112   -1.000
 5417.00    1.17014   1.12925   -1.000
 5418.00    1.16439   1.13637   78.143
 5419.00    1.16447   1.13861   77.637
 5420.00    1.16346   1.13653   77.904
 5421.00    1.16188   1.13321   78.657
 5422.00    1.16721   1.12815   -1.000
 5423.00    1.15296   1.11960   -1.000
 5424.00    1.14276   1.11075   -1.000
 5425.00    1.14530   1.10878   -1.000
 5426.00    1.16299   1.11778   -1.000
 5427.00    1.16216   1.12761   -1.000
 5428.00    1.15019   1.12286   78.251
 5429.00    1.14522   1.10397   -1.000
 5430.00    1.12992   1.08576   -1.000
 5431.00    1.13014   1.08129   -1.000
 5432.00    1.14156   1.08678   -1.000
 5433.00    1.12854   1.08806   -1.000
 5434.00    1.11380   1.08175   -1.000
 5435.00    1.11768   1.07689   -1.000
 5436.00    1.13626   1.08385   -1.000
 5437.00    1.16008   1.10423   -1.000
 5438.00    1.17491   1.12933   -1.000
 5439.00    1.18808   1.14875   -1.000
 5440.00    1.18968   1.15867   78.124
 5441.00    1.18124   1.16306   76.999
 5442.00    1.17596   1.16427   76.332
 5443.00    1.17602   1.15924   76.169
 5444.00    1.16630   1.14337   76.160
 5445.00    1.13144   1.11637   76.907
 5446.00    1.10906   1.08733   78.876
 5447.00    1.10816   1.07024   -1.000
 5448.00    1.13637   1.07474   -1.000
 5449.00    1.17587   1.09694   -1.000
 5450.00    1.19352   1.12212   -1.000
 5451.00    1.18134   1.13911   -1.000
 5452.00    1.17307   1.14348   78.680
 5453.00    1.16473   1.13406   78.646
 5454.00    1.13939   1.11359   79.275
 5455.00    1.11865   1.09065   81.042
 5456.00    1.12655   1.07942   -1.000
 5457.00    1.15605   1.08957   -1.000
 5458.00    1.17791   1.11360   -1.000
 5459.00    1.17943   1.13494   -1.000
 5460.00    1.17265   1.14251   79.111
 5461.00    1.16067   1.13533   78.537
 5462.00    1.15155   1.11976   -1.000
 5463.00    1.14508   1.10574   -1.000
 5464.00    1.15757   1.10169   -1.000
 5465.00    1.16865   1.10877   -1.000
 5466.00    1.16714   1.12073   -1.000
 5467.00    1.16615   1.13072   -1.000
 5468.00    1.17884   1.13728   -1.000
 5469.00    1.18077   1.14099   -1.000
 5470.00    1.17128   1.14078   78.928
 5471.00    1.16465   1.13683   79.591
 5472.00    1.16976   1.13065   -1.000
 5473.00    1.16403   1.12255   -1.000
 5474.00    1.15248   1.11122   -1.000
 5475.00    1.13724   1.09479   -1.000
 5476.00    1.11570   1.07636   -1.000
 5477.00    1.10813   1.06561   -1.000
 5478.00    1.12739   1.07019   -1.000
 5479.00    1.15167   1.08734   -1.000
 5480.00    1.15309   1.10372   -1.000
 5481.00    1.14760   1.10975   -1.000
 5482.00    1.15007   1.11004   -1.000
 5483.00    1.15216   1.11341   -1.000
 5484.00    1.15837   1.12303   -1.000
 5485.00    1.17143   1.13374   -1.000
 5486.00    1.17115   1.13754   -1.000
 5487.00    1.16174   1.13269   79.031
 5488.00    1.15455   1.12498   79.682
 5489.00    1.15276   1.12180   -1.000
 5490.00    1.16435   1.12460   -1.000
 5491.00    1.16078   1.12947   -1.000
 5492.00    1.15561   1.13295   80.868
 5493.00    1.16350   1.13426   80.275
 5494.00    1.17169   1.13423   -1.000
 5495.00    1.16693   1.13244   -1.000
 5496.00    1.15459   1.12768   80.141
 5497.00    1.14287   1.12147   80.130
 5498.00    1.14192   1.11746   80.664
 5499.00    1.15788   1.11744   -1.000
 5500.00    1.16253   1.11754   -1.000
 5501.00    1.14446   1.11210   -1.000
 5502.00    1.13892   1.10466   -1.000
 5503.00    1.14682   1.10286   -1.000
 5504.00    1.15703   1.10516   -1.000
 5505.00    1.15063   1.10464   -1.000
 5506.00    1.13310   1.09856   -1.000
 5507.00    1.13685   1.09264   -1.000
 5508.00    1.15646   1.09472   -1.000
 5509.00    1.16601   1.10344   -1.000
 5510.00    1.16105   1.11068   -1.000
 5511.00    1.15171   1.10971   -1.000
 5512.00    1.13192   1.10037   -1.000
 5513.00    1.12444   1.08947   -1.000
 5514.00    1.13298   1.08546   -1.000
 5515.00    1.14170   1.09146   -1.000
 5516.00    1.15584   1.10385   -1.000
 5517.00    1.17171   1.11767   -1.000
 5518.00    1.17995   1.12995   -1.000
 5519.00    1.18258   1.13890   -1.000
 5520.00    1.18508   1.14338   -1.000
 5521.00    1.19441   1.14407   -1.000
 5522.00    1.19606   1.14301   -1.000
 5523.00    1.18892   1.14150   -1.000
 5524.00    1.17282   1.13756   -1.000
 5525.00    1.15889   1.12753   -1.000
 5526.00    1.15472   1.11010   -1.000
 5527.00    1.13049   1.08904   -1.000
 5528.00    1.10834   1.07344   -1.000
 5529.00    1.12883   1.07254   -1.000
 5530.00    1.15575   1.08823   -1.000
 5531.00    1.16562   1.11005   -1.000
 5532.00    1.17692   1.12410   -1.000
 5533.00    1.17303   1.12577   -1.000
 5534.00    1.15723   1.11971   -1.000
 5535.00    1.15947   1.11385   -1.000
 5536.00    1.15914   1.11387   -1.000
 5537.00    1.16416   1.11947   -1.000
 5538.00    1.17525   1.12573   -1.000
 5539.00    1.18287   1.13025   -1.000
 5540.00    1.18694   1.13488   -1.000
 5541.00    1.18375   1.13889   -1.000
 5542.00    1.17339   1.13813   -1.000
 5543.00    1.17067   1.13227   -1.000
 5544.00    1.17585   1.12617   -1.000
 5545.00    1.17629   1.12448   -1.000
 5546.00    1.16649   1.12719   -1.000
 5547.00    1.17054   1.13185   -1.000
 5548.00    1.18325   1.13808   -1.000
 5549.00    1.18845   1.14512   -1.000
 5550.00    1.18265   1.14981   -1.000
 5551.00    1.18701   1.15045   -1.000
 5552.00    1.18009   1.14732   -1.000
 5553.00    1.17213   1.14152   -1.000
 5554.00    1.16775   1.13586   -1.000
 5555.00    1.17228   1.13356   -1.000
 5556.00    1.18067   1.13498   -1.000
 5557.00    1.18335   1.13760   -1.000
 5558.00    1.18271   1.13983   -1.000
 5559.00    1.18686   1.14155   -1.000
 5560.00    1.18543   1.14158   -1.000
 5561.00    1.17796   1.13807   -1.000
 5562.00    1.16711   1.13110   -1.000
 5563.00    1.16037   1.12340   -1.000
 5564.00    1.14811   1.11775   -1.000
 5565.00    1.14543   1.11455   -1.000
 5566.00    1.15131   1.11268   -1.000
 5567.00    1.15468   1.11120   -1.000
 5568.00    1.15354   1.10953   -1.000
 5569.00    1.15077   1.10763   -1.000
 5570.00    1.14986   1.10569   -1.000
 5571.00    1.14394   1.10339   -1.000
 5572.00    1.13581   1.10032   -1.000
 5573.00    1.13943   1.09809   -1.000
 5574.00    1.15452   1.10006   -1.000
 5575.00    1.12856   1.10553   81.408
 5576.00    0.96115   1.11056   -1.000
 5577.00    0.37670   1.11521   -1.000
 5578.00   -0.81632   1.12118    0.000
 5579.00   -1.81775   1.12693    0.000
 5580.00   -1.42430   1.12971    0.000
 5581.00    0.10451   1.12932   -1.000
 5582.00    1.15411   1.12794   82.231
 5583.00    1.18515   1.12678   -1.000
 5584.00    1.15729   1.12431   -1.000
 5585.00    1.13329   1.11589   80.277
 5586.00    1.11693   1.09654   80.674
 5587.00    1.10549   1.07042   -1.000
 5588.00    1.08884   1.04974   -1.000
 5589.00    1.08994   1.04296   -1.000
 5590.00    1.10350   1.05071   -1.000
 5591.00    1.12442   1.06696   -1.000
 5592.00    1.13829   1.08221   -1.000
 5593.00    1.13922   1.08972   -1.000
 5594.00    1.13414   1.09130   -1.000
 5595.00    1.13553   1.09341   -1.000
 5596.00    1.15219   1.09850   -1.000
 5597.00    1.14798   1.10157   -1.000
 5598.00    1.13263   1.09705   -1.000
 5599.00    1.13170   1.08872   -1.000
 5600.00    1.13155   1.08227   -1.000
 5601.00    1.11908   1.07614   -1.000
 5602.00    1.11076   1.07122   -1.000
 5603.00    1.12817   1.07474   -1.000
 5604.00    1.14860   1.09036   -1.000
 5605.00    1.16479   1.11367   -1.000
 5606.00    1.17930   1.13558   -1.000
 5607.00    1.18760   1.14970   -1.000
 5608.00    1.18181   1.15626   78.640
 5609.00    1.18563   1.15832   78.386
 5610.00    1.18037   1.15882   78.480
 5611.00    1.16946   1.15901   78.640
 5612.00    1.17813   1.15610   78.593
 5613.00    1.17569   1.14413   -1.000
 5614.00    1.14510   1.12119   78.651
 5615.00    1.11450   1.09413   80.125
 5616.00    1.11373   1.07715   -1.000
 5617.00    1.13921   1.08014   -1.000
 5618.00    1.16372   1.09630   -1.000
 5619.00    1.16905   1.11270   -1.000
 5620.00    1.16627   1.12373   -1.000
 5621.00    1.16379   1.12947   -1.000
 5622.00    1.15935   1.13016   -1.000
 5623.00    1.15337   1.12441   80.307
 5624.00    1.13603   1.11375   80.552
 5625.00    1.13361   1.10570   -1.000
 5626.00    1.14862   1.10662   -1.000
 5627.00    1.15805   1.11609   -1.000
 5628.00    1.15988   1.12874   -1.000
 5629.00    1.16535   1.13946   80.913
 5630.00    1.16666   1.14687   79.950
 5631.00    1.17905   1.15047   79.319
 5632.00    1.17731   1.14916   79.053
 5633.00    1.17411   1.14410   -1.000
 5634.00    1.17127   1.13771   -1.000
 5635.00    1.16273   1.13108   -1.000
 5636.00    1.15566   1.12500   -1.000
 5637.00    1.14960   1.12027   -1.000
 5638.00    1.14084   1.11776   81.012
 5639.00    1.14466   1.11771   81.571
 5640.00    1.15012   1.11809   -1.000
 5641.00    1.15052   1.11713   -1.000
 5642.00    1.15300   1.11663   -1.000
 5643.00    1.15184   1.11830   -1.000
 5644.00    1.15806   1.12122   -1.000
 5645.00    1.15917   1.12453   -1.000
 5646.00    1.15478   1.12779   81.054
 5647.00    1.15672   1.12976   80.551
 5648.00    1.16454   1.12961   -1.000
 5649.00    1.17625   1.12792   -1.000
 5650.00    1.17032   1.12648   -1.000
 5651.00    1.17340   1.12683   -1.000
 5652.00    1.16837   1.12772   -1.000
 5653.00    1.16669   1.12676   -1.000
 5654.00    1.16831   1.12275   -1.000
 5655.00    1.15059   1.11557   -1.000
 5656.00    1.13721   1.10494   -1.000
 5657.00    1.11637   1.09031   80.884
 5658.00    1.10198   1.07542   82.330
 5659.00    1.10050   1.06871   -1.000
 5660.00    1.11664   1.07318   -1.000
 5661.00    1.13739   1.08285   -1.000
 5662.00    1.13703   1.09107   -1.000
 5663.00    1.13408   1.09663   -1.000
 5664.00    1.14256   1.10340   -1.000
 5665.00    1.15375   1.11249   -1.000
 5666.00    1.15624   1.11861   -1.000
 5667.00    1.14717   1.11863   -1.000
 5668.00    1.14128   1.11576   81.125
 5669.00    1.14521   1.11453   -1.000
 5670.00    1.14768   1.11687   -1.000
 5671.00    1.15386   1.12191   -1.000
 5672.00    1.16254   1.12761   -1.000
 5673.00    1.16126   1.13232   -1.000
 5674.00    1.15902   1.13511   79.632
 5675.00    1.15839   1.13572   78.858
 5676.00    1.15594   1.13557   78.763
 5677.00    1.16161   1.13598   79.009
 5678.00    1.16213   1.13611   78.839
 5679.00    1.15412   1.13402   78.683
 5680.00    1.15723   1.12833   79.011
 5681.00    1.15546   1.11892   -1.000
 5682.00    1.15334   1.10771   -1.000
 5683.00    1.14683   1.09842   -1.000
 5684.00    1.13643   1.09461   -1.000
 5685.00    1.13990   1.09669   -1.000
 5686.00    1.13399   1.09995   -1.000
 5687.00    1.13027   1.09942   -1.000
 5688.00    1.13044   1.09603   -1.000
 5689.00    1.13872   1.09499   -1.000
 5690.00    1.14364   1.10030   -1.000
 5691.00    1.14707   1.11045   -1.000
 5692.00    1.15406   1.12035   -1.000
 5693.00    1.15890   1.12684   -1.000
 5694.00    1.15929   1.13029   -1.000
 5695.00    1.15696   1.13195   78.892
 5696.00    1.15046   1.13205   78.961
 5697.00    1.14771   1.13016   79.032
 5698.00    1.14488   1.12545   79.232
 5699.00    1.14284   1.11823   79.935
 5700.00    1.13664   1.11047   80.857
 5701.00    1.13154   1.10449   81.607
 5702.00    1.13326   1.10199   -1.000
 5703.00    1.13969   1.10312   -1.000
 5704.00    1.14394   1.10584   -1.000
 5705.00    1.13760   1.10606   -1.000
 5706.00    1.12549   1.10122   81.286
 5707.00    1.11115   1.09187   81.733
 5708.00    1.10547   1.07935   82.815
 5709.00    1.09815   1.06676   -1.000
 5710.00    1.09365   1.05939   -1.000
 5711.00    1.10743   1.06066   -1.000
 5712.00    1.11539   1.07049   -1.000
 5713.00    1.12682   1.08653   -1.000
 5714.00    1.14268   1.10372   -1.000
 5715.00    1.14481   1.11627   -1.000
 5716.00    1.14995   1.12235   80.338
 5717.00    1.14665   1.12542   79.920
 5718.00    1.14388   1.12880   79.749
 5719.00    1.15884   1.13314   79.511
 5720.00    1.16768   1.13806   -1.000
 5721.00    1.16595   1.14286   78.644
 5722.00    1.16932   1.14663   78.251
 5723.00    1.17182   1.14865   78.039
 5724.00    1.16828   1.14867   77.912
 5725.00    1.16270   1.14615   77.815
 5726.00    1.15625   1.14064   77.957
 5727.00    1.15054   1.13427   78.546
 5728.00    1.14828   1.13052   79.364
 5729.00    1.15662   1.13059   80.033
 5730.00    1.15089   1.13232   79.770
 5731.00    1.15276   1.13259   79.272
 5732.00    1.14782   1.13181   79.377
 5733.00    1.15109   1.13300   79.772
 5734.00    1.15868   1.13729   79.591
 5735.00    1.16369   1.14235   78.872
 5736.00    1.15896   1.14496   78.318
 5737.00    1.15657   1.14476   78.303
 5738.00    1.16005   1.14370   78.406
 5739.00    1.15861   1.14330   78.619
 5740.00    1.15128   1.14321   78.711
 5741.00    1.15359   1.14197   78.859
 5742.00    1.15641   1.13967   78.989
 5743.00    1.16377   1.13844   79.156
 5744.00    1.16445   1.13952   79.032
 5745.00    1.15981   1.14145   78.928
 5746.00    1.15709   1.14144   78.434
 5747.00    1.15283   1.13907   77.971
 5748.00    1.14561   1.13693   78.258
 5749.00    1.14739   1.13717   79.004
 5750.00    1.15393   1.13800   79.396
 5751.00    1.15443   1.13477   79.045
 5752.00    1.14195   1.12615   78.745
 5753.00    1.12831   1.11617   79.225
 5754.00    1.12637   1.11100   80.156
 5755.00    1.13759   1.11457   80.997
 5756.00    1.14949   1.12501   81.119
 5757.00    1.15649   1.13666   80.237
 5758.00    1.15924   1.14427   78.799
 5759.00    1.15522   1.14558   77.766
 5760.00    1.15258   1.14110   77.814
 5761.00    1.15366   1.13243   78.607
 5762.00    1.14442   1.12305   79.628
 5763.00    1.13826   1.11877   80.714
 5764.00    1.14920   1.12315   -1.000
 5765.00    1.15518   1.13407   80.575
 5766.00    1.15151   1.14514   79.201
 5767.00    1.15440   1.15112   78.141
 5768.00    1.16452   1.15200   77.783
 5769.00    1.16420   1.15038   77.692
 5770.00    1.15790   1.14791   77.571
 5771.00    1.15515   1.14475   77.675
 5772.00    1.14986   1.14057   77.924
 5773.00    1.14966   1.13606   78.328
 5774.00    1.15063   1.13285   78.811
 5775.00    1.15243   1.13196   79.062
 5776.00    1.15928   1.13350   79.169
 5777.00    1.15136   1.13576   79.051
 5778.00    1.13933   1.13456   78.688
 5779.00    1.12767   1.12723   78.548
 5780.00    1.11537   1.11579   78.745
 5781.00    1.11267   1.10478   79.730
 5782.00    1.11498   1.09819   81.442
 5783.00    1.11777   1.09695   82.670
 5784.00    1.13199   1.09903   -1.000
 5785.00    1.13799   1.10192   -1.000
 5786.00    1.13601   1.10585   -1.000
 5787.00    1.14719   1.11275   -1.000
 5788.00    1.15105   1.12070   -1.000
 5789.00    1.15374   1.12492   -1.000
 5790.00    1.14839   1.12387   79.252
 5791.00    1.14531   1.12098   79.216
 5792.00    1.14116   1.12121   79.540
 5793.00    1.13624   1.12589   79.521
 5794.00    1.14052   1.13258   78.954
 5795.00    1.14548   1.13850   78.379
 5796.00    1.14530   1.14122   77.898
 5797.00    1.14302   1.13953   77.762
 5798.00    1.13588   1.13623   78.135
 5799.00    1.14237   1.13607   78.644
 5800.00    1.16092   1.13982   78.446
 5801.00    1.17207   1.14441   77.545
 5802.00    1.16259   1.14693   76.478
 5803.00    1.14645   1.14581   76.121
 5804.00    1.13883   1.14125   76.618
 5805.00    1.14435   1.13585   77.246
 5806.00    1.14495   1.13307   77.868
 5807.00    1.13595   1.13394   78.276
 5808.00    1.14061   1.13655   78.197
 5809.00    1.15091   1.13906   77.912
 5810.00    1.15567   1.14157   77.665
 5811.00    1.15566   1.14418   77.616
 5812.00    1.15541   1.14541   77.562
 5813.00    1.16132   1.14420   77.311
 5814.00    1.15754   1.14072   77.064
 5815.00    1.14934   1.13574   77.141
 5816.00    1.15463   1.13169   77.693
 5817.00    1.15799   1.13211   78.126
 5818.00    1.15820   1.13739   77.876
 5819.00    1.16225   1.14358   77.347
 5820.00    1.16349   1.14704   76.900
 5821.00    1.16400   1.14781   76.515
 5822.00    1.15967   1.14799   76.235
 5823.00    1.15659   1.14861   76.281
 5824.00    1.15904   1.14894   76.532
 5825.00    1.16080   1.14851   76.485
 5826.00    1.16803   1.14820   76.355
 5827.00    1.16892   1.14892   76.220
 5828.00    1.16718   1.15018   76.132
 5829.00    1.16685   1.15080   76.135
 5830.00    1.15730   1.15057   76.263
 5831.00    1.15678   1.14998   76.180
 5832.00    1.15961   1.14895   76.154
 5833.00    1.16237   1.14708   76.082
 5834.00    1.16517   1.14468   76.175
 5835.00    1.15973   1.14320   76.618
 5836.00    1.15440   1.14394   76.838
 5837.00    1.15441   1.14634   76.651
 5838.00    1.15682   1.14839   76.468
 5839.00    1.16283   1.14907   76.634
 5840.00    1.16625   1.14931   76.837
 5841.00    1.16601   1.14995   76.680
 5842.00    1.16461   1.15028   76.169
 5843.00    1.17066   1.14943   75.728
 5844.00    1.16615   1.14748   75.661
 5845.00    1.16033   1.14442   75.874
 5846.00    1.15826   1.14028   76.166
 5847.00    1.16086   1.13660   76.630
 5848.00    1.15916   1.13538   77.048
 5849.00    1.15428   1.13609   77.425
 5850.00    1.15294   1.13563   77.442
 5851.00    1.14872   1.13161   77.506
 5852.00    1.14145   1.12438   77.888
 5853.00    1.14086   1.11643   78.376
 5854.00    1.13004   1.10992   79.089
 5855.00    1.12301   1.10449   79.567
 5856.00    1.12605   1.09702   -1.000
 5857.00    1.12260   1.08637   -1.000
 5858.00    1.12623   1.07898   -1.000
 5859.00    1.13658   1.08159   -1.000
 5860.00    1.14668   1.09192   -1.000
 5861.00    1.15093   1.10316   -1.000
 5862.00    1.14831   1.11128   -1.000
 5863.00    1.14339   1.11683   78.967
 5864.00    1.14307   1.12109   78.657
 5865.00    1.14690   1.12213   78.494
 5866.00    1.14358   1.11912   78.645
 5867.00    1.14302   1.11541   -1.000
 5868.00    1.15367   1.11536   -1.000
 5869.00    1.16531   1.12076   -1.000
 5870.00    1.17097   1.12886   -1.000
 5871.00    1.16872   1.13471   -1.000
 5872.00    1.17087   1.13590   -1.000
 5873.00    1.16899   1.13366   -1.000
 5874.00    1.15542   1.13054   77.673
 5875.00    1.15617   1.12794   -1.000
 5876.00    1.15946   1.12584   -1.000
 5877.00    1.15226   1.12377   -1.000
 5878.00    1.14560   1.12120   78.109
 5879.00    1.14438   1.11792   78.276
 5880.00    1.14797   1.11426   -1.000
 5881.00    1.14408   1.11044   -1.000
 5882.00    1.14333   1.10592   -1.000
 5883.00    1.13629   1.10039   -1.000
 5884.00    1.13484   1.09472   -1.000
 5885.00    1.13963   1.08960   -1.000
 5886.00    1.13813   1.08136   -1.000
 5887.00    1.11411   1.06005   -1.000
 5888.00    1.03192   1.01850   80.643
 5889.00    0.89692   0.96473   -1.000
 5890.00    0.69226   0.92421   -1.000
 5891.00    0.46634   0.91905   -1.000
 5892.00    0.39922   0.94111   -1.000
 5893.00    0.57392   0.96326   -1.000
 5894.00    0.82627   0.96722   -1.000
 5895.00    0.92102   0.95409   88.904
 5896.00    0.85186   0.94069   -1.000
 5897.00    0.74208   0.94553   -1.000
 5898.00    0.72187   0.97241   -1.000
 5899.00    0.83547   1.00703   -1.000
 5900.00    0.99935   1.03639   86.703
 5901.00    1.10146   1.05969   -1.000
 5902.00    1.13325   1.07792   -1.000
 5903.00    1.13069   1.08982   -1.000
 5904.00    1.13407   1.09578   -1.000
 5905.00    1.13793   1.09833   -1.000
 5906.00    1.14234   1.10031   -1.000
 5907.00    1.14807   1.10296   -1.000
 5908.00    1.14709   1.10585   -1.000
 5909.00    1.14340   1.10829   -1.000
 5910.00    1.14011   1.10989   -1.000
 5911.00    1.13425   1.11012   79.698
 5912.00    1.13069   1.10755   79.871
 5913.00    1.13071   1.10116   -1.000
 5914.00    1.12422   1.09324   -1.000
 5915.00    1.12160   1.08794   -1.000
 5916.00    1.12604   1.08733   -1.000
 5917.00    1.12573   1.09107   -1.000
 5918.00    1.13548   1.09736   -1.000
 5919.00    1.14733   1.10350   -1.000
 5920.00    1.14114   1.10708   -1.000
 5921.00    1.13070   1.10789   80.622
 5922.00    1.12691   1.10737   80.353
 5923.00    1.12670   1.10704   80.296
 5924.00    1.13165   1.10804   80.376
 5925.00    1.13644   1.11064   -1.000
 5926.00    1.13400   1.11339   79.862
 5927.00    1.13520   1.11337   79.697
 5928.00    1.14179   1.10894   -1.000
 5929.00    1.13576   1.10207   -1.000
 5930.00    1.12584   1.09713   -1.000
 5931.00    1.12796   1.09736   -1.000
 5932.00    1.13351   1.10165   -1.000
 5933.00    1.13795   1.10508   -1.000
 5934.00    1.13695   1.10544   -1.000
 5935.00    1.13093   1.10576   80.166
 5936.00    1.12993   1.10842   80.770
 5937.00    1.13630   1.11231   80.994
 5938.00    1.13518   1.11472   80.619
 5939.00    1.13543   1.11377   79.952
 5940.00    1.13929   1.10983   -1.000
 5941.00    1.13077   1.10537   79.717
 5942.00    1.12832   1.10317   80.435
 5943.00    1.13369   1.10391   -1.000
 5944.00    1.12784   1.10628   81.043
 5945.00    1.12411   1.10836   80.652
 5946.00    1.13031   1.10823   80.164
 5947.00    1.12477   1.10519   79.813
 5948.00    1.11504   1.10096   79.911
 5949.00    1.11510   1.09857   80.530
 5950.00    1.12067   1.09934   81.371
 5951.00    1.12298   1.10112   81.724
 5952.00    1.11980   1.10057   81.426
 5953.00    1.11742   1.09850   81.075
 5954.00    1.11714   1.09821   81.165
 5955.00    1.12097   1.09881   81.188
 5956.00    1.12491   1.09781   -1.000
 5957.00    1.13205   1.09657   -1.000
 5958.00    1.13511   1.09783   -1.000
 5959.00    1.13221   1.10243   -1.000
 5960.00    1.13639   1.10867   -1.000
 5961.00    1.13383   1.11374   80.444
 5962.00    1.13402   1.11633   79.608
 5963.00    1.13515   1.11663   79.191
 5964.00    1.12992   1.11498   79.064
 5965.00    1.12977   1.11216   79.187
 5966.00    1.13093   1.10963   79.573
 5967.00    1.12860   1.10875   79.894
 5968.00    1.12995   1.10974   80.169
 5969.00    1.12940   1.11191   80.108
 5970.00    1.12837   1.11481   79.582
 5971.00    1.12780   1.11764   79.267
 5972.00    1.12908   1.11903   79.224
 5973.00    1.13092   1.11795   79.092
 5974.00    1.12829   1.11384   78.975
 5975.00    1.12372   1.10711   79.277
 5976.00    1.12039   1.09980   79.880
 5977.00    1.11573   1.09516   80.502
 5978.00    1.11046   1.09561   81.085
 5979.00    1.12013   1.10032   81.503
 5980.00    1.13549   1.10609   -1.000
 5981.00    1.13240   1.10916   80.676
 5982.00    1.12556   1.10687   80.260
 5983.00    1.11798   1.09980   80.341
 5984.00    1.11189   1.09207   80.896
 5985.00    1.11437   1.08843   -1.000
 5986.00    1.11506   1.09037   -1.000
 5987.00    1.11436   1.09570   81.976
 5988.00    1.11805   1.10112   81.235
 5989.00    1.12929   1.10463   80.631
 5990.00    1.13205   1.10585   -1.000
 5991.00    1.12041   1.10594   79.971
 5992.00    1.11762   1.10727   79.951
 5993.00    1.12492   1.11119   80.146
 5994.00    1.12735   1.11525   79.904
 5995.00    1.12396   1.11573   79.282
 5996.00    1.12007   1.11249   78.932
 5997.00    1.11766   1.10816   79.295
 5998.00    1.11775   1.10531   79.880
 5999.00    1.11948   1.10472   80.281
 6000.00    1.12309   1.10514   80.490
 6001.00    1.12287   1.10464   80.424
 6002.00    1.12012   1.10228   80.428
 6003.00    1.11539   1.09933   80.812
 6004.00    1.11495   1.09797   81.155
 6005.00    1.11477   1.09768   81.194
 6006.00    1.10437   1.09497   81.013
 6007.00    1.09986   1.08870   80.984
 6008.00    1.10415   1.08327   81.438
 6009.00    1.10745   1.08385   82.221
 6010.00    1.11061   1.09057   82.452
 6011.00    1.11501   1.09765   81.720
 6012.00    1.10930   1.09976   80.812
 6013.00    1.10447   1.09767   80.615
 6014.00    1.10696   1.09494   81.114
 6015.00    1.11202   1.09345   81.618
 6016.00    1.11231   1.09297   81.431
 6017.00    1.10822   1.09240   81.272
 6018.00    1.10400   1.09097   81.552
 6019.00    1.10159   1.08797   81.781
 6020.00    1.09069   1.08347   81.661
 6021.00    1.09067   1.07994   81.765
 6022.00    1.09696   1.07976   82.237
 6023.00    1.09660   1.08181   82.168
 6024.00    1.09432   1.08470   81.636
 6025.00    1.09836   1.08975   81.348
 6026.00    1.10791   1.09667   81.243
 6027.00    1.11277   1.10266   80.863
 6028.00    1.11366   1.10713   80.534
 6029.00    1.11407   1.11132   80.115
 6030.00    1.11296   1.11479   79.706
 6031.00    1.11583   1.11661   79.539
 6032.00    1.11816   1.11736   79.532
 6033.00    1.11874   1.11832   79.676
 6034.00    1.12069   1.11979   79.634
 6035.00    1.11908   1.12091   79.321
 6036.00    1.11830   1.12099   79.068
 6037.00    1.11163   1.12008   78.995
 6038.00    1.10451   1.11814   78.886
 6039.00    1.10371   1.11500   78.898
 6040.00    1.10635   1.11133   79.257
 6041.00    1.10690   1.10841   79.519
 6042.00    1.10385   1.10731   79.728
 6043.00    1.10907   1.10837   79.689
 6044.00    1.11675   1.11117   79.540
 6045.00    1.11603   1.11428   79.226
 6046.00    1.11414   1.11668   78.642
 6047.00    1.11591   1.11902   78.481
 6048.00    1.11760   1.12170   78.543
 6049.00    1.11770   1.12368   78.450
 6050.00    1.11450   1.12425   78.460
 6051.00    1.11301   1.12359   78.689
 6052.00    1.11098   1.12177   78.903
 6053.00    1.10609   1.11816   78.999
 6054.00    1.10468   1.11275   79.123
 6055.00    1.10176   1.10724   79.401
 6056.00    1.10037   1.10416   79.676
 6057.00    1.10091   1.10496   80.054
 6058.00    1.09738   1.10864   80.369
 6059.00    1.10249   1.11273   80.335
 6060.00    1.11340   1.11538   79.978
 6061.00    1.11046   1.11561   79.551
 6062.00    1.10025   1.11242   79.495
 6063.00    1.09299   1.10509   79.675
 6064.00    1.08659   1.09478   80.523
 6065.00    1.07352   1.08627   82.025
 6066.00    1.06125   1.08547   80.611
 6067.00    1.10637   1.09273  106.481
 6068.00    0.90690   1.10276   -1.000
 6069.00    0.63855   1.11123   -1.000
 6070.00    0.94026   1.11669   -1.000
 6071.00    1.12706   1.11934   79.661
 6072.00    1.07116   1.12067   78.254
 6073.00    1.08600   1.12187   76.785
 6074.00    0.88402   1.12271   -1.000
 6075.00    0.48948   1.12202   -1.000
 6076.00    0.79025   1.11913   -1.000
 6077.00    1.10297   1.11402   79.032
 6078.00    1.08847   1.10757   79.410
 6079.00    1.08744   1.10260   79.857
 6080.00    1.08787   1.10084   80.428
 6081.00    1.08760   1.10020   80.971
 6082.00    1.08923   1.09851   81.150
 6083.00    1.08970   1.09624   81.193
 6084.00    1.09106   1.09446   81.381
 6085.00    1.08968   1.09413   81.460
 6086.00    1.08767   1.09625   81.404
 6087.00    1.08886   1.10008   81.325
 6088.00    1.09006   1.10285   81.136
 6089.00    1.08669   1.10264   80.830
 6090.00    1.08031   1.10026   80.828
 6091.00    1.07822   1.09798   81.238
 6092.00    1.08689   1.09760   81.645
 6093.00    1.08882   1.09942   81.719
 6094.00    1.08776   1.10262   81.332
 6095.00    1.09051   1.10613   80.867
 6096.00    1.09582   1.10931   80.436
 6097.00    1.09487   1.11182   80.048
 6098.00    1.08947   1.11275   79.960
 6099.00    1.08856   1.11008   80.122
 6100.00    1.08468   1.10109   80.229
 6101.00    1.06823   1.08504   80.241
 6102.00    1.05167   1.06687   80.883
 6103.00    1.05152   1.05654   82.582
 6104.00    1.06597   1.06057   84.194
 6105.00    1.07922   1.07426   84.192
 6106.00    1.08886   1.08810   82.821
 6107.00    1.09600   1.09769   81.425
 6108.00    1.09180   1.10377   80.849
 6109.00    1.08286   1.10799   81.005
 6110.00    1.08435   1.11041   81.265
 6111.00    1.08132   1.11092   81.301
 6112.00    1.07574   1.11071   81.162
 6113.00    1.07909   1.11109   80.859
 6114.00    1.07926   1.11210   80.720
 6115.00    1.07347   1.11273   80.447
 6116.00    1.07426   1.11229   80.150
 6117.00    1.07386   1.11118   80.305
 6118.00    1.06868   1.10890   80.787
 6119.00    1.06535   1.10277   81.052
 6120.00    1.05681   1.09039   81.327
 6121.00    1.04529   1.07329   82.257
 6122.00    1.04674   1.05839   83.409
 6123.00    1.05787   1.05333   84.290
 6124.00    1.06516   1.05947   84.597
 6125.00    1.06945   1.07166   83.678
 6126.00    1.06784   1.08309   82.438
 6127.00    1.06083   1.09025   82.079
 6128.00    1.06280   1.09403   82.434
 6129.00    1.06908   1.09718   82.551
 6130.00    1.07192   1.10149   82.364
 6131.00    1.07246   1.10666   81.861
 6132.00    1.07186   1.11115   81.097
 6133.00    1.06938   1.11167   80.720
 6134.00    1.05846   1.10341   80.794
 6135.00    1.03673   1.08417   81.360
 6136.00    1.01629   1.05908   82.858
 6137.00    1.01143   1.04014   85.171
 6138.00    1.02776   1.03595   87.475
 6139.00    1.04732   1.04184   88.390
 6140.00    1.05158   1.04881   86.931
 6141.00    1.04927   1.05630   84.455
 6142.00    1.04308   1.06719   83.010
 6143.00    1.04077   1.08032   82.856
 6144.00    1.05378   1.09170   83.041
 6145.00    1.06308   1.09777   82.536
 6146.00    1.06215   1.09842   81.549
 6147.00    1.06383   1.09576   81.123
 6148.00    1.06107   1.09171   81.367
 6149.00    1.05669   1.08763   81.855
 6150.00    1.06097   1.08476   82.428
 6151.00    1.06546   1.08463   82.954
 6152.00    1.06127   1.08730   83.123
 6153.00    1.05727   1.08964   82.903
 6154.00    1.05939   1.08847   82.406
 6155.00    1.05778   1.08483   82.123
 6156.00    1.05273   1.08191   82.565
 6157.00    1.05284   1.08052   83.129
 6158.00    1.05580   1.07788   83.298
 6159.00    1.05266   1.06916   83.526
 6160.00    1.03532   1.05067   84.239
 6161.00    1.01081   1.02494   85.620
 6162.00    1.00112   1.00213   87.909
 6163.00    1.01252   0.99312   90.558
 6164.00    1.02668   1.00006   -1.000
 6165.00    1.03702   1.01557   -1.000
 6166.00    1.04096   1.03035   89.174
 6167.00    1.03944   1.03741   87.368
 6168.00    1.03356   1.03441   86.713
 6169.00    1.02593   1.02710   86.766
 6170.00    1.02882   1.02565   87.599
 6171.00    1.03982   1.03373   88.629
 6172.00    1.04692   1.04629   88.512
 6173.00    1.05244   1.05801   87.090
 6174.00    1.05293   1.06659   85.656
 6175.00    1.05077   1.07164   85.309
 6176.00    1.04861   1.07428   85.449
 6177.00    1.05004   1.07630   85.328
 6178.00    1.05414   1.07840   85.134
 6179.00    1.05643   1.08010   84.933
 6180.00    1.04852   1.08169   84.576
 6181.00    1.04911   1.08432   84.219
 6182.00    1.05795   1.08787   83.946
 6183.00    1.06050   1.09029   83.599
 6184.00    1.05449   1.08985   83.316
 6185.00    1.05158   1.08679   83.358
 6186.00    1.05228   1.08214   83.626
 6187.00    1.05093   1.07681   84.163
 6188.00    1.04685   1.07116   85.018
 6189.00    1.03871   1.06358   85.928
 6190.00    1.02871   1.05273   86.766
 6191.00    1.01914   1.04290   87.462
 6192.00    1.02539   1.04185   88.410
 6193.00    1.04136   1.05064   89.229
 6194.00    1.05391   1.06284   88.761
 6195.00    1.05935   1.07327   86.904
 6196.00    1.05474   1.08033   85.158
 6197.00    1.04840   1.08322   84.372
 6198.00    1.04435   1.08169   84.145
 6199.00    1.04157   1.07713   84.463
 6200.00    1.03988   1.07323   85.328
 6201.00    1.04372   1.07335   86.155
 6202.00    1.04628   1.07754   86.340
 6203.00    1.04386   1.08357   85.710
 6204.00    1.04550   1.08939   84.667
 6205.00    1.04330   1.09362   -1.000
 6206.00    1.04400   1.09589   -1.000
 6207.00    1.04662   1.09683   -1.000
 6208.00    1.04670   1.09684   -1.000
 6209.00    1.04573   1.09535   -1.000
 6210.00    1.04448   1.09125   84.293
 6211.00    1.04161   1.08358   84.500
 6212.00    1.03140   1.07291   85.156
 6213.00    1.02222   1.06202   85.886
 6214.00    1.01714   1.05438   86.652
 6215.00    1.01867   1.05140   87.814
 6216.00    1.02435   1.05153   88.899
 6217.00    1.02300   1.05175   89.345
 6218.00    1.01897   1.05017   88.658
 6219.00    1.01801   1.04810   87.875
 6220.00    1.01651   1.04868   88.196
 6221.00    1.02119   1.05297   88.303
 6222.00    1.03094   1.05866   87.697
 6223.00    1.04038   1.06280   87.782
 6224.00    1.04461   1.06499   92.054
 6225.00    1.04697   1.06599   93.103
 6226.00    1.03617   1.06567   88.577
 6227.00    1.01922   1.06270   86.890
 6228.00    1.02077   1.05498   87.081
 6229.00    1.02156   1.04260   87.383
 6230.00    1.00994   1.02977   88.341
 6231.00    1.00408   1.02272   89.752
 6232.00    1.00905   1.02506   91.042
 6233.00    1.01955   1.03504   91.224
 6234.00    1.03169   1.04701   90.171
 6235.00    1.04032   1.05531   88.576
 6236.00    1.03297   1.05762   87.028
 6237.00    1.01752   1.05514   86.252
 6238.00    1.01184   1.05081   86.512
 6239.00    1.01102   1.04710   87.326
 6240.00    1.01757   1.04459   88.224
 6241.00    1.02168   1.04240   89.146
 6242.00    1.01388   1.03889   89.747
 6243.00    1.01163   1.03307   89.834
 6244.00    1.01276   1.02578   90.202
 6245.00    1.00912   1.01967   90.872
 6246.00    1.00815   1.01832   91.059
 6247.00    1.00930   1.02421   90.643
 6248.00    1.01012   1.03561   89.843
 6249.00    1.01321   1.04652   88.781
 6250.00    1.01109   1.05058   87.761
 6251.00    0.99900   1.04568   87.360
 6252.00    0.98684   1.03497   -1.000
 6253.00    0.98304   1.02422   89.216
 6254.00    0.98671   1.01789   90.584
 6255.00    0.98681   1.01621   91.359
 6256.00    0.98272   1.01667   91.737
 6257.00    0.98569   1.01727   91.797
 6258.00    0.98740   1.01840   92.266
 6259.00    0.98404   1.02184   93.154
 6260.00    0.98868   1.02846   93.240
 6261.00    0.99973   1.03745   92.164
 6262.00    1.01034   1.04660   90.728
 6263.00    1.01562   1.05317   89.453
 6264.00    1.01090   1.05594   88.142
 6265.00    1.00318   1.05682   -1.000
 6266.00    1.00163   1.05855   -1.000
 6267.00    1.00733   1.06131   -1.000
 6268.00    1.01087   1.06272   -1.000
 6269.00    1.01304   1.06126   -1.000
 6270.00    1.01390   1.05881   87.600
 6271.00    1.01074   1.05809   88.048
 6272.00    1.01144   1.05900   88.163
 6273.00    1.01239   1.05849   87.902
 6274.00    1.01057   1.05341   87.649
 6275.00    1.01110   1.04382   87.706
 6276.00    1.01022   1.03262   88.202
 6277.00    1.00711   1.02272   88.907
 6278.00    0.99536   1.01566   90.039
 6279.00    0.97401   1.01176   92.019
 6280.00    0.95712   1.01210   -1.000
 6281.00    0.95144   1.01785   -1.000
 6282.00    0.96070   1.02783   -1.000
 6283.00    0.97114   1.03928   -1.000
 6284.00    0.97655   1.04931   -1.000
 6285.00    0.97728   1.05619   -1.000
 6286.00    0.98093   1.06008   -1.000
 6287.00    0.99579   1.06187   -1.000
 6288.00    1.00394   1.06165   -1.000
 6289.00    1.00715   1.05903   -1.000
 6290.00    1.01110   1.05506   86.922
 6291.00    1.00719   1.05186   87.141
 6292.00    1.00147   1.05043   -1.000
 6293.00    0.99402   1.05026   -1.000
 6294.00    0.99157   1.05007   -1.000
 6295.00    0.98821   1.04807   -1.000
 6296.00    0.97821   1.04324   -1.000
 6297.00    0.97506   1.03706   -1.000
 6298.00    0.96362   1.03223   -1.000
 6299.00    0.92280   1.02926   -1.000
 6300.00    0.85638   1.02634   -1.000
 6301.00    0.76375   1.02333   -1.000
 6302.00    0.68171   1.02386   -1.000
 6303.00    0.69261   1.03090   -1.000
 6304.00    0.80436   1.04212   -1.000
 6305.00    0.93023   1.05248   -1.000
 6306.00    0.99562   1.05928   -1.000
 6307.00    1.01022   1.06242   -1.000
 6308.00    1.01152   1.06297   -1.000
 6309.00    1.00801   1.06244   -1.000
 6310.00    1.00358   1.06172   -1.000
 6311.00    0.99370   1.06050   -1.000
 6312.00    0.98477   1.05802   -1.000
 6313.00    0.98676   1.05372   -1.000
 6314.00    0.98264   1.04801   -1.000
 6315.00    0.97287   1.04235   -1.000
 6316.00    0.96874   1.03761   -1.000
 6317.00    0.96861   1.03425   -1.000
 6318.00    0.97238   1.03366   -1.000
 6319.00    0.97676   1.03742   -1.000
 6320.00    0.98014   1.04461   -1.000
 6321.00    0.98418   1.05166   -1.000
 6322.00    0.99304   1.05689   -1.000
 6323.00    0.99747   1.06199   -1.000
 6324.00    0.99883   1.06761   -1.000
 6325.00    1.00778   1.07173   -1.000
 6326.00    1.00394   1.07311   -1.000
 6327.00    0.99715   1.07253   -1.000
 6328.00    0.99733   1.07149   -1.000
 6329.00    0.99921   1.07098   -1.000
 6330.00    1.00043   1.07108   -1.000
 6331.00    1.00372   1.07155   -1.000
 6332.00    1.01321   1.07110   -1.000
 6333.00    1.01124   1.06724   -1.000
 6334.00    0.99425   1.05875   -1.000
 6335.00    0.97926   1.04822   -1.000
 6336.00    0.97117   1.04091   -1.000
 6337.00    0.97345   1.04027   -1.000
 6338.00    0.99326   1.04529   -1.000
 6339.00    1.00701   1.05294   87.244
 6340.00    1.00294   1.06096   -1.000
 6341.00    0.99441   1.06693   -1.000
 6342.00    0.99345   1.06872   -1.000
 6343.00    1.00082   1.06673   -1.000
 6344.00    1.00270   1.06328   -1.000
 6345.00    1.00154   1.06083   -1.000
 6346.00    1.00739   1.06106   -1.000
 6347.00    1.01993   1.06471   85.077
 6348.00    1.02453   1.07096   84.703
 6349.00    1.01453   1.07733   -1.000
 6350.00    1.00892   1.08141   -1.000
 6351.00    1.00882   1.08236   -1.000
 6352.00    1.00542   1.08025   -1.000
 6353.00    0.99596   1.07573   -1.000
 6354.00    0.98816   1.07044   -1.000
 6355.00    0.99357   1.06626   -1.000
 6356.00    0.99986   1.06349   -1.000
 6357.00    1.00191   1.06072   -1.000
 6358.00    1.00455   1.05736   -1.000
 6359.00    1.00166   1.05448   -1.000
 6360.00    0.99731   1.05222   -1.000
 6361.00    0.99564   1.04969   -1.000
 6362.00    0.98602   1.04727   -1.000
 6363.00    0.96710   1.04658   -1.000
 6364.00    0.94045   1.04837   -1.000
 6365.00    0.91810   1.05198   -1.000
 6366.00    0.91053   1.05638   -1.000
 6367.00    0.93262   1.06057   -1.000
 6368.00    0.98206   1.06311   -1.000
 6369.00    1.00447   1.06325   -1.000
 6370.00    0.99600   1.06245   -1.000
 6371.00    0.99143   1.06309   -1.000
 6372.00    0.99575   1.06589   -1.000
 6373.00    1.00342   1.06943   -1.000
 6374.00    0.99997   1.07165   -1.000
 6375.00    0.99719   1.07153   -1.000
 6376.00    0.99556   1.06937   -1.000
 6377.00    0.99393   1.06628   -1.000
 6378.00    0.99050   1.06339   -1.000
 6379.00    0.98971   1.06105   -1.000
 6380.00    0.99228   1.05898   -1.000
 6381.00    0.98800   1.05710   -1.000
 6382.00    0.98261   1.05572   -1.000
 6383.00    0.97811   1.05537   -1.000
 6384.00    0.98057   1.05663   -1.000
 6385.00    0.98024   1.05945   -1.000
 6386.00    0.97746   1.06257   -1.000
 6387.00    0.97652   1.06440   -1.000
 6388.00    0.97701   1.06460   -1.000
 6389.00    0.97412   1.06370   -1.000
 6390.00    0.96117   1.06115   -1.000
 6391.00    0.95396   1.05546   -1.000
 6392.00    0.94494   1.04730   -1.000
 6393.00    0.93566   1.04084   -1.000
 6394.00    0.93381   1.04028   -1.000
 6395.00    0.93582   1.04570   -1.000
 6396.00    0.93530   1.05255   -1.000
 6397.00    0.93285   1.05488   -1.000
 6398.00    0.92519   1.05016   -1.000
 6399.00    0.90903   1.04173   -1.000
 6400.00    0.90132   1.03645   -1.000
 6401.00    0.90666   1.03866   -1.000
 6402.00    0.91767   1.04703   -1.000
 6403.00    0.92134   1.05685   -1.000
 6404.00    0.91665   1.06346   -1.000
 6405.00    0.91200   1.06431   -1.000
 6406.00    0.90513   1.05983   -1.000
 6407.00    0.89567   1.05374   -1.000
 6408.00    0.88958   1.05023   -1.000
 6409.00    0.88263   1.04979   -1.000
 6410.00    0.86842   1.04970   -1.000
 6411.00    0.86206   1.04890   -1.000
 6412.00    0.86749   1.04943   -1.000
 6413.00    0.86506   1.05217   -1.000
 6414.00    0.86187   1.05541   -1.000
 6415.00    0.86722   1.05770   -1.000
 6416.00    0.86341   1.05893   -1.000
 6417.00    0.85201   1.05866   -1.000
 6418.00    0.84355   1.05554   -1.000
 6419.00    0.83546   1.04941   -1.000
 6420.00    0.82834   1.04309   -1.000
 6421.00    0.82308   1.04117   -1.000
 6422.00    0.82596   1.04629   -1.000
 6423.00    0.82516   1.05598   -1.000
 6424.00    0.81763   1.06536   -1.000
 6425.00    0.80899   1.07227   -1.000
 6426.00    0.80338   1.07655   -1.000
 6427.00    0.80176   1.07723   -1.000
 6428.00    0.79243   1.07287   -1.000
