###################################################################
## OUTPUT of StarlightChains_v04.for    [Cid@UFSC - 01/Apr/2007] ##
###################################################################

## Some input info
NGC6553_a_1.cxt                          [arq_obs]
Base.BC03.N                              [arq_base]
NGC6553_a_1.msk                          [arq_masks]
StCv04.C99.config                        [arq_config]
   45                                    [N_base]
    0                                    [N_YAV_components = # of components with extra extinction!]
    0                                    [i_FitPowerLaw (1/0 = Yes/No)]
-9.99                                    [alpha_PowerLaw]
CCM                                      [red_law_option]
 1.458241                                [q_norm = A(l_norm)/A(V)]

## (Re)Sampling Parameters
 3359.00                                 [l_ini (A)]
 6428.00                                 [l_fin (A)]
    1.00                                 [dl    (A)]     (OBS: dl_cushion =    50.00 A)

## Normalization info
 4020.00                                 [l_norm (A) - for base]
 4010.00                                 [llow_norm (A) - window for f_obs]
 4060.00                                 [lupp_norm (A) - window for f_obs]
3.120735E-15                             [fobs_norm (in input units)]

## S/N
 4730.00                                 [llow_SN (A) - window for S/N]
 4780.00                                 [lupp_SN (A) - window for S/N]
  23.083                                 [S/N in S/N window]
  11.394                                 [S/N in norm. window]
 239.013                                 [S/N_err in S/N window]
 117.980                                 [S/N_err in norm. window]
  1.0000                                 [fscale_chi2]

## etc...
  2147483599                             [idum_orig]
  3066                                   [NOl_eff]
  1746                                   [Nl_eff]
  1320    NSIGMA                         [Ntot_cliped & clip_method]
  2142000                                [Nglobal_steps]
   7                                     [N_chains]
  15                                     [NEX0s_base = N_base in EX0s-fits]
 0   0   1       98   2.0   2.803E+02    [Clip-Bug, RC-Crash & Burn-In warning-flags, n_censored_weights, wei_nsig_threshold & wei_limit]
    33     32.319     32.311      0.008  [idt_all, wdt_TotTime, wdt_UsrTime & wdt_SysTime (sec)]

## Synthesis Results - Best model ##

 2.39724E+00                             [chi2/Nl_eff]
     2.27863                             [adev (%)]

    96.17331                             [sum-of-x (%)]
 9.28545E-14                             [Flux_tot (units of input spectrum!)]
 5.61131E-09                             [Mini_tot (???)]
 2.83191E-09                             [Mcor_tot (???)]

 -23.29                                  [v0_min  (km/s)]
   4.07                                  [vd_min  (km/s)]
 2.5553                                  [AV_min  (mag)]
 0.0000                                  [YAV_min (mag)]

# j     x_j(%)      Mini_j(%)     Mcor_j(%)     age_j(yr)     Z_j      (L/M)_j    YAV?  Mstars   component_j        a/Fe...       SSP_chi2r SSP_adev(%)   SSP_AV   SSP_x(%)
  1      9.9958     1.5439E-02    3.0592E-02    1.000000E+06  0.00400  1.114E-02    0   1.0000   age020_m42            0.0000     2.0133E+03    47.2294   4.0000   115.2728
  2      5.8934     2.4896E-03    4.9326E-03    3.160000E+06  0.00400  4.073E-02    0   0.9999   age045_m42            0.0000     6.6817E+02    28.0395   4.0000   118.6581
  3      5.6520     3.8378E-03    7.2150E-03    5.010000E+06  0.00400  2.534E-02    0   0.9488   age055_m42            0.0000     1.1331E+03    36.3441   4.0000   118.6651
  4      5.3379     7.2262E-03    1.2689E-02    1.000000E+07  0.00400  1.271E-02    0   0.8862   age070_m42            0.0000     4.0994E+02    20.2105   4.0000   111.1142
  5      0.0000     0.0000E+00    0.0000E+00    2.512000E+07  0.00400  5.070E-03    0   0.8174   age090_m42            0.0000     3.0917E+02    17.3756   4.0000   110.2947
  6      0.0000     0.0000E+00    0.0000E+00    4.000000E+07  0.00400  3.505E-03    0   0.7851   age104_m42            0.0000     1.5652E+02    11.2593   4.0000   105.9938
  7      0.0000     0.0000E+00    0.0000E+00    1.015200E+08  0.00400  2.268E-03    0   0.7207   age116_m42            0.0000     3.3275E+02    17.1917   4.0000   111.7360
  8      0.0000     0.0000E+00    0.0000E+00    2.861200E+08  0.00400  1.079E-03    0   0.6613   age125_m42            0.0000     2.9045E+02    12.3258   3.9342   102.9720
  9      0.0000     0.0000E+00    0.0000E+00    6.405400E+08  0.00400  5.077E-04    0   0.6197   age132_m42            0.0000     2.9710E+02    12.5575   3.5743   107.0067
 10      0.0000     0.0000E+00    0.0000E+00    9.047900E+08  0.00400  3.535E-04    0   0.6024   age135_m42            0.0000     2.3467E+02    11.7448   3.3230   106.7463
 11      0.0000     0.0000E+00    0.0000E+00    1.434000E+09  0.00400  1.910E-04    0   0.5716   age139_m42            0.0000     1.5232E+02    10.8270   2.7959   105.2346
 12      0.0000     0.0000E+00    0.0000E+00    2.500000E+09  0.00400  9.818E-05    0   0.5463   age150_m42            0.0000     9.1258E+01    10.0130   2.4789   101.7116
 13      0.0000     0.0000E+00    0.0000E+00    5.000000E+09  0.00400  4.718E-05    0   0.5228   age161_m42            0.0000     6.5507E+01     9.2159   2.3016    99.0182
 14      4.0683     3.1746E+00    3.1326E+00    1.100000E+10  0.00400  2.205E-05    0   0.4980   age185_m42            0.0000     7.2349E+01     9.9851   2.0391    96.5356
 15     10.7355     9.8097E+00    9.5768E+00    1.300000E+10  0.00400  1.883E-05    0   0.4927   age193_m42            0.0000     7.3874E+01    10.0067   2.0235    96.3781
 16      6.0359     5.2215E-03    1.0346E-02    1.000000E+06  0.02000  1.989E-02    0   1.0000   age020_m62            0.0000     1.9554E+03    46.4173   4.0000   116.2023
 17      2.0572     9.3841E-04    1.8330E-03    3.160000E+06  0.02000  3.772E-02    0   0.9858   age045_m62            0.0000     1.7330E+03    43.9389   4.0000   117.9167
 18      0.0000     0.0000E+00    0.0000E+00    5.010000E+06  0.02000  3.227E-02    0   0.9342   age055_m62            0.0000     9.5763E+02    33.5808   4.0000   119.8149
 19      2.8368     4.8280E-03    8.3716E-03    1.000000E+07  0.02000  1.011E-02    0   0.8751   age070_m62            0.0000     4.8484E+02    20.0056   4.0000   110.3391
 20      0.0000     0.0000E+00    0.0000E+00    2.512000E+07  0.02000  4.206E-03    0   0.8099   age090_m62            0.0000     3.7207E+02    18.8040   4.0000   108.6834
 21      0.0000     0.0000E+00    0.0000E+00    4.000000E+07  0.02000  3.373E-03    0   0.7799   age104_m62            0.0000     2.7562E+02    15.8371   4.0000   111.8708
 22      0.0000     0.0000E+00    0.0000E+00    1.015200E+08  0.02000  1.878E-03    0   0.7221   age116_m62            0.0000     3.2770E+02    16.6168   4.0000   113.7233
 23      0.0000     0.0000E+00    0.0000E+00    2.861200E+08  0.02000  8.869E-04    0   0.6700   age125_m62            0.0000     3.7986E+02    13.2625   3.9828   106.6933
 24      0.0000     0.0000E+00    0.0000E+00    6.405400E+08  0.02000  3.657E-04    0   0.6322   age132_m62            0.0000     2.9476E+02    13.5726   3.2778   109.4352
 25      0.0000     0.0000E+00    0.0000E+00    9.047900E+08  0.02000  2.312E-04    0   0.6152   age135_m62            0.0000     2.1263E+02    12.7178   2.8840   109.1258
 26      0.0000     0.0000E+00    0.0000E+00    1.434000E+09  0.02000  1.168E-04    0   0.5865   age139_m62            0.0000     1.1783E+02    11.1276   2.4250   104.9916
 27      0.0000     0.0000E+00    0.0000E+00    2.500000E+09  0.02000  5.505E-05    0   0.5610   age150_m62            0.0000     9.5801E+01    11.2410   2.0354   102.4493
 28      0.0000     0.0000E+00    0.0000E+00    5.000000E+09  0.02000  2.596E-05    0   0.5353   age161_m62            0.0000     1.2470E+02    12.7088   1.7037   101.6665
 29     11.2480     1.6556E+01    1.6740E+01    1.100000E+10  0.02000  1.169E-05    0   0.5103   age185_m62            0.0000     1.7964E+02    14.1667   1.3556   102.0019
 30     14.1697     2.5158E+01    2.5159E+01    1.300000E+10  0.02000  9.691E-06    0   0.5047   age193_m62            0.0000     1.9145E+02    14.3536   1.3155   102.0131
 31      2.0301     1.3176E-03    2.6103E-03    1.000000E+06  0.05000  2.651E-02    0   0.9998   age020_m72            0.0000     1.9131E+03    46.3278   4.0000   117.4410
 32      0.0004     1.3074E-07    2.4809E-07    3.160000E+06  0.05000  4.817E-02    0   0.9577   age045_m72            0.0000     1.4394E+03    40.9997   4.0000   120.2332
 33      0.0000     0.0000E+00    0.0000E+00    5.010000E+06  0.05000  3.101E-02    0   0.9147   age055_m72            0.0000     9.9019E+02    33.8015   4.0000   119.1679
 34      0.0000     0.0000E+00    0.0000E+00    1.000000E+07  0.05000  8.954E-03    0   0.8524   age070_m72            0.0000     1.2356E+03    38.2926   4.0000   120.7419
 35      0.0000     0.0000E+00    0.0000E+00    2.512000E+07  0.05000  4.207E-03    0   0.7902   age090_m72            0.0000     7.1158E+02    29.4935   4.0000   120.0996
 36      0.0000     0.0000E+00    0.0000E+00    4.000000E+07  0.05000  3.198E-03    0   0.7618   age104_m72            0.0000     4.2000E+02    20.5954   4.0000   117.7218
 37      0.0000     0.0000E+00    0.0000E+00    1.015200E+08  0.05000  1.716E-03    0   0.7092   age116_m72            0.0000     3.8747E+02    18.3221   4.0000   115.6746
 38      0.0000     0.0000E+00    0.0000E+00    2.861200E+08  0.05000  7.047E-04    0   0.6618   age125_m72            0.0000     3.6372E+02    13.4802   3.7775   106.6150
 39      0.0000     0.0000E+00    0.0000E+00    6.405400E+08  0.05000  2.633E-04    0   0.6253   age132_m72            0.0000     2.4223E+02    12.9396   2.9128   108.4446
 40      0.0000     0.0000E+00    0.0000E+00    9.047900E+08  0.05000  1.484E-04    0   0.6088   age135_m72            0.0000     1.5163E+02    12.1863   2.3880   104.5076
 41      0.0000     0.0000E+00    0.0000E+00    1.434000E+09  0.05000  7.827E-05    0   0.5847   age139_m72            0.0000     1.2433E+02    12.5644   1.9609   101.7242
 42      0.0000     0.0000E+00    0.0000E+00    2.500000E+09  0.05000  3.759E-05    0   0.5583   age150_m72            0.0000     1.3560E+02    13.1660   1.6275   101.0631
 43      0.0000     0.0000E+00    0.0000E+00    5.000000E+09  0.05000  1.548E-05    0   0.5320   age161_m72            0.0000     1.8845E+02    13.5470   1.2729    99.2224
 44     11.4343     3.0119E+01    3.0258E+01    1.100000E+10  0.05000  6.532E-06    0   0.5070   age185_m72            0.0000     2.8718E+02    15.4575   0.9358    97.0312
 45      4.6780     1.5141E+01    1.5055E+01    1.300000E+10  0.05000  5.316E-06    0   0.5018   age193_m72            0.0000     3.3032E+02    16.2323   0.8345    96.3098


## Synthesis Results - Average & Chains ##

# j      x_j: min, <> & last-chain-values for 1 ...  7 chains
  1      9.9958      9.5105      9.7266      9.7243      9.4940      9.2881      9.5939      9.5175      9.4597
  2      5.8934      3.0478      3.2210      3.2867      3.2716      3.2710      3.3498      3.1267      3.2759
  3      5.6520      5.3879      5.2951      5.3718      5.5672      5.5707      5.7819      5.5133      5.2660
  4      5.3379      5.0290      5.2244      4.9683      5.0843      4.9571      5.1656      5.2528      5.0060
  5      0.0000      0.0745      0.0717      0.0000      0.0699      0.0000      0.0000      0.0000      0.0000
  6      0.0000      0.0515      0.0000      0.0125      0.1366      0.2226      0.0364      0.2237      0.0437
  7      0.0000      0.0453      0.0000      0.3977      0.0610      0.0000      0.0939      0.0472      0.1385
  8      0.0000      0.0938      0.1255      0.0647      0.1901      0.0753      0.1881      0.2456      0.3000
  9      0.0000      0.0497      0.1317      0.0813      0.0222      0.1968      0.0000      0.1380      0.0150
 10      0.0000      0.0542      0.0000      0.0000      0.0000      0.0000      0.0196      0.0597      0.0000
 11      0.0000      0.0595      0.1970      0.0000      0.0889      0.2153      0.0000      0.0000      0.0000
 12      0.0000      0.0462      0.0287      0.0000      0.0000      0.0000      0.1446      0.0000      0.0000
 13      0.0000      0.0510      0.0000      0.0000      0.1421      0.0000      0.0000      0.0000      0.0309
 14      4.0683      4.5296      4.3463      4.6550      4.2388      4.5325      4.0323      4.3647      4.1280
 15     10.7355      9.4797      9.5899      9.3697      9.3471      9.6172      9.3535      9.5481      9.8517
 16      6.0359      5.3999      5.3535      5.2744      5.3265      5.5901      5.3594      5.5020      5.3871
 17      2.0572      2.8706      2.8699      3.0580      2.7730      2.8016      2.7502      3.0603      2.9418
 18      0.0000      0.0284      0.0000      0.0000      0.0102      0.0000      0.1357      0.1238      0.0000
 19      2.8368      2.3818      2.5619      2.3482      2.4084      2.3940      2.3736      2.4333      2.4944
 20      0.0000      0.0258      0.0000      0.0000      0.0191      0.1998      0.0000      0.0000      0.0000
 21      0.0000      0.0389      0.0000      0.0043      0.1074      0.0000      0.1723      0.0000      0.1463
 22      0.0000      0.0380      0.0000      0.0000      0.0243      0.0180      0.0578      0.0000      0.0000
 23      0.0000      0.0443      0.0000      0.1115      0.0887      0.0636      0.0000      0.0000      0.0000
 24      0.0000      0.0329      0.0814      0.0000      0.0000      0.0000      0.0000      0.0000      0.3044
 25      0.0000      0.0241      0.0000      0.0171      0.0107      0.0000      0.0000      0.0000      0.0000
 26      0.0000      0.0201      0.0000      0.0000      0.0000      0.0000      0.0000      0.0000      0.0387
 27      0.0000      0.0162      0.0000      0.0000      0.0000      0.0000      0.0000      0.0000      0.0000
 28      0.0000      0.0154      0.0000      0.0000      0.0000      0.0000      0.0000      0.0000      0.0000
 29     11.2480     13.3124     13.0081     12.8830     12.9693     13.2208     12.9363     13.0507     12.9733
 30     14.1697     15.1763     15.0841     15.2722     15.1426     14.4347     15.3898     15.2175     14.7705
 31      2.0301      2.3243      2.3546      2.2073      2.2690      2.3021      2.2116      1.9404      2.4971
 32      0.0004      2.4439      2.0180      2.3782      2.4999      2.3669      2.1176      2.2225      2.3098
 33      0.0000      0.0200      0.0117      0.0000      0.0000      0.0000      0.0000      0.0000      0.0000
 34      0.0000      0.0145      0.0000      0.0000      0.0000      0.0000      0.0622      0.0000      0.0000
 35      0.0000      0.0241      0.0000      0.0043      0.0000      0.0000      0.0408      0.0000      0.0039
 36      0.0000      0.0415      0.0765      0.0000      0.0000      0.0000      0.0000      0.0000      0.0000
 37      0.0000      0.0594      0.1472      0.0000      0.0802      0.0000      0.0000      0.0893      0.0000
 38      0.0000      0.0377      0.0000      0.1649      0.0000      0.0162      0.0000      0.0000      0.0000
 39      0.0000      0.0414      0.0000      0.0000      0.0000      0.0000      0.0246      0.0000      0.0000
 40      0.0000      0.0359      0.0000      0.0000      0.0000      0.0126      0.0363      0.0000      0.0000
 41      0.0000      0.0171      0.0000      0.0000      0.0000      0.0000      0.0000      0.0000      0.0000
 42      0.0000      0.0144      0.0000      0.0000      0.0000      0.0000      0.0000      0.0000      0.0000
 43      0.0000      0.8454      1.2419      0.7749      1.0303      1.1728      0.9757      0.9438      0.8614
 44     11.4343      9.6765      9.7054      9.8083      9.9466      9.8599     10.0414      9.8360      9.9044
 45      4.6780      3.8213      3.8486      4.1262      3.9140      3.9216      3.8894      3.8783      4.1867

# j      m_j: min, <> & last-chain-values for 1 ...  7 chains
  1  3.0592E-02  2.9772E-02  3.0473E-02  3.0224E-02  2.9629E-02  2.9132E-02  2.9846E-02  2.9713E-02  2.9448E-02
  2  4.9326E-03  2.6093E-03  2.7598E-03  2.7937E-03  2.7922E-03  2.8058E-03  2.8499E-03  2.6696E-03  2.7889E-03
  3  7.2150E-03  7.0353E-03  6.9196E-03  6.9640E-03  7.2471E-03  7.2880E-03  7.5027E-03  7.1795E-03  6.8376E-03
  4  1.2689E-02  1.2228E-02  1.2714E-02  1.1994E-02  1.2325E-02  1.2077E-02  1.2482E-02  1.2738E-02  1.2104E-02
  5  0.0000E+00  4.1867E-04  4.0347E-04  0.0000E+00  3.9188E-04  0.0000E+00  0.0000E+00  0.0000E+00  0.0000E+00
  6  0.0000E+00  4.0193E-04  0.0000E+00  9.7249E-05  1.0634E-03  1.7423E-03  2.8274E-04  1.7424E-03  3.3925E-04
  7  0.0000E+00  5.0154E-04  0.0000E+00  4.3756E-03  6.7388E-04  0.0000E+00  1.0337E-03  5.2111E-04  1.5267E-03
  8  0.0000E+00  2.0052E-03  2.6837E-03  1.3731E-03  4.0510E-03  1.6132E-03  3.9943E-03  5.2354E-03  6.3752E-03
  9  0.0000E+00  2.1136E-03  5.6119E-03  3.4379E-03  9.4226E-04  8.3930E-03  0.0000E+00  5.8591E-03  6.3319E-04
 10  0.0000E+00  3.2214E-03  0.0000E+00  0.0000E+00  0.0000E+00  0.0000E+00  1.1557E-03  3.5374E-03  0.0000E+00
 11  0.0000E+00  6.2139E-03  2.0576E-02  0.0000E+00  9.2528E-03  2.2516E-02  0.0000E+00  0.0000E+00  0.0000E+00
 12  0.0000E+00  8.9630E-03  5.5722E-03  0.0000E+00  0.0000E+00  0.0000E+00  2.7891E-02  0.0000E+00  0.0000E+00
 13  0.0000E+00  1.9714E-02  0.0000E+00  0.0000E+00  5.4735E-02  0.0000E+00  0.0000E+00  0.0000E+00  1.1878E-02
 14  3.1326E+00  3.5676E+00  3.4260E+00  3.6401E+00  3.3283E+00  3.5768E+00  3.1561E+00  3.4284E+00  3.2331E+00
 15  9.5768E+00  8.6501E+00  8.7577E+00  8.4885E+00  8.5029E+00  8.7926E+00  8.4816E+00  8.6889E+00  8.9392E+00
 16  1.0346E-02  9.4678E-03  9.3939E-03  9.1814E-03  9.3103E-03  9.8202E-03  9.3380E-03  9.6205E-03  9.3924E-03
 17  1.8330E-03  2.6163E-03  2.6177E-03  2.7671E-03  2.5196E-03  2.5583E-03  2.4909E-03  2.7816E-03  2.6661E-03
 18  0.0000E+00  2.8722E-05  0.0000E+00  0.0000E+00  1.0311E-05  0.0000E+00  1.3610E-04  1.2466E-04  0.0000E+00
 19  8.3716E-03  7.1895E-03  7.7394E-03  7.0374E-03  7.2477E-03  7.2404E-03  7.1202E-03  7.3251E-03  7.4873E-03
 20  0.0000E+00  1.7298E-04  0.0000E+00  0.0000E+00  1.2796E-04  1.3444E-03  0.0000E+00  0.0000E+00  0.0000E+00
 21  0.0000E+00  3.1350E-04  0.0000E+00  3.4307E-05  8.6360E-04  0.0000E+00  1.3810E-03  0.0000E+00  1.1730E-03
 22  0.0000E+00  5.0929E-04  0.0000E+00  0.0000E+00  3.2499E-04  2.4235E-04  7.6955E-04  0.0000E+00  0.0000E+00
 23  0.0000E+00  1.1670E-03  0.0000E+00  2.9167E-03  2.3307E-03  1.6789E-03  0.0000E+00  0.0000E+00  0.0000E+00
 24  0.0000E+00  1.9841E-03  4.9127E-03  0.0000E+00  0.0000E+00  0.0000E+00  0.0000E+00  0.0000E+00  1.8250E-02
 25  0.0000E+00  2.2401E-03  0.0000E+00  1.5760E-03  9.9393E-04  0.0000E+00  0.0000E+00  0.0000E+00  0.0000E+00
 26  0.0000E+00  3.5193E-03  0.0000E+00  0.0000E+00  0.0000E+00  0.0000E+00  0.0000E+00  0.0000E+00  6.7442E-03
 27  0.0000E+00  5.7651E-03  0.0000E+00  0.0000E+00  0.0000E+00  0.0000E+00  0.0000E+00  0.0000E+00  0.0000E+00
 28  0.0000E+00  1.1066E-02  0.0000E+00  0.0000E+00  0.0000E+00  0.0000E+00  0.0000E+00  0.0000E+00  0.0000E+00
 29  1.6740E+01  2.0266E+01  1.9818E+01  1.9471E+01  1.9683E+01  2.0165E+01  1.9570E+01  1.9813E+01  1.9639E+01
 30  2.5159E+01  2.7563E+01  2.7418E+01  2.7538E+01  2.7417E+01  2.6267E+01  2.7776E+01  2.7563E+01  2.6676E+01
 31  2.6103E-03  3.0570E-03  3.0993E-03  2.8823E-03  2.9750E-03  3.0336E-03  2.8905E-03  2.5452E-03  3.2658E-03
 32  2.4809E-07  1.6945E-03  1.4003E-03  1.6371E-03  1.7279E-03  1.6442E-03  1.4591E-03  1.5368E-03  1.5925E-03
 33  0.0000E+00  2.0606E-05  1.2025E-05  0.0000E+00  0.0000E+00  0.0000E+00  0.0000E+00  0.0000E+00  0.0000E+00
 34  0.0000E+00  4.8240E-05  0.0000E+00  0.0000E+00  0.0000E+00  0.0000E+00  2.0525E-04  0.0000E+00  0.0000E+00
 35  0.0000E+00  1.5763E-04  0.0000E+00  2.8109E-05  0.0000E+00  0.0000E+00  2.6582E-04  0.0000E+00  2.5507E-05
 36  0.0000E+00  3.4437E-04  6.3570E-04  0.0000E+00  0.0000E+00  0.0000E+00  0.0000E+00  0.0000E+00  0.0000E+00
 37  0.0000E+00  8.5649E-04  2.1231E-03  0.0000E+00  1.1524E-03  0.0000E+00  0.0000E+00  1.2829E-03  0.0000E+00
 38  0.0000E+00  1.2351E-03  0.0000E+00  5.3623E-03  0.0000E+00  5.3156E-04  0.0000E+00  0.0000E+00  0.0000E+00
 39  0.0000E+00  3.4316E-03  0.0000E+00  0.0000E+00  0.0000E+00  0.0000E+00  2.0251E-03  0.0000E+00  0.0000E+00
 40  0.0000E+00  5.1308E-03  0.0000E+00  0.0000E+00  0.0000E+00  1.8037E-03  5.1567E-03  0.0000E+00  0.0000E+00
 41  0.0000E+00  4.4476E-03  0.0000E+00  0.0000E+00  0.0000E+00  0.0000E+00  0.0000E+00  0.0000E+00  0.0000E+00
 42  0.0000E+00  7.4613E-03  0.0000E+00  0.0000E+00  0.0000E+00  0.0000E+00  0.0000E+00  0.0000E+00  0.0000E+00
 43  0.0000E+00  1.0132E+00  1.4896E+00  9.2206E-01  1.2311E+00  1.4083E+00  1.1621E+00  1.1281E+00  1.0266E+00
 44  3.0258E+01  2.6192E+01  2.6292E+01  2.6359E+01  2.6841E+01  2.6740E+01  2.7010E+01  2.6552E+01  2.6659E+01
 45  1.5055E+01  1.2579E+01  1.2679E+01  1.3486E+01  1.2845E+01  1.2934E+01  1.2723E+01  1.2732E+01  1.3705E+01

# AV, chi2 & Mass for <> & i_chain = 1 ...  7 solutions
AV       2.5553      2.5514      2.5521      2.5509      2.5539      2.5538      2.5525      2.5524      2.5523
chi2 2.3972E+00  2.4800E+00  2.4640E+00  2.4668E+00  2.4645E+00  2.4634E+00  2.4634E+00  2.4654E+00  2.4601E+00
Mass 2.8319E-09  2.7540E-09  2.7546E-09  2.7723E-09  2.7718E-09  2.7576E-09  2.7757E-09  2.7655E-09  2.7730E-09
 -22.54                                  [v0_min (km/s) before EX0s...]
   5.02                                  [vd_min (km/s) before EX0s...]


## Synthetic spectrum (Best Model) ##l_obs f_obs f_syn wei
 3070    [Nl_obs]
 3359.00    0.00000   0.48962   -2.000
 3360.00    0.16961   0.48002   -1.000
 3361.00    0.31588   0.48456   -1.000
 3362.00    0.33110   0.50411   -1.000
 3363.00    0.30074   0.52515   -1.000
 3364.00    0.30274   0.53664   -1.000
 3365.00    0.29882   0.53169   -1.000
 3366.00    0.33880   0.51421   -1.000
 3367.00    0.32936   0.49715   -1.000
 3368.00    0.36956   0.48491   -1.000
 3369.00    0.33951   0.48285   -1.000
 3370.00    0.29419   0.48474   -1.000
 3371.00    0.32881   0.48374   -1.000
 3372.00    0.40463   0.48540   -1.000
 3373.00    0.44645   0.49708   58.269
 3374.00    0.40387   0.51651   -1.000
 3375.00    0.38657   0.53794   -1.000
 3376.00    0.36557   0.54688   -1.000
 3377.00    0.30475   0.53782   -1.000
 3378.00    0.30980   0.52181   -1.000
 3379.00    0.39962   0.51004   -1.000
 3380.00    0.43560   0.50878   -1.000
 3381.00    0.40264   0.51844   -1.000
 3382.00    0.39636   0.53062   -1.000
 3383.00    0.37368   0.54043   -1.000
 3384.00    0.42233   0.54598   -1.000
 3385.00    0.45852   0.55300   -1.000
 3386.00    0.43942   0.55535   -1.000
 3387.00    0.40275   0.55428   -1.000
 3388.00    0.40090   0.55220   -1.000
 3389.00    0.38440   0.54966   -1.000
 3390.00    0.40660   0.54570   -1.000
 3391.00    0.41882   0.53756   -1.000
 3392.00    0.43707   0.53110   -1.000
 3393.00    0.41719   0.53285   -1.000
 3394.00    0.41446   0.54437   -1.000
 3395.00    0.42142   0.55866   -1.000
 3396.00    0.43735   0.56731   -1.000
 3397.00    0.46867   0.57387   -1.000
 3398.00    0.41044   0.57627   -1.000
 3399.00    0.40940   0.57157   -1.000
 3400.00    0.47625   0.56699   32.715
 3401.00    0.51639   0.56193   32.853
 3402.00    0.52456   0.55200   34.043
 3403.00    0.53429   0.54466   34.656
 3404.00    0.52795   0.54050   35.205
 3405.00    0.56971   0.53679   35.844
 3406.00    0.57989   0.53177   36.443
 3407.00    0.50262   0.52936   36.704
 3408.00    0.46653   0.53162   37.199
 3409.00    0.39888   0.53765   -1.000
 3410.00    0.43732   0.54314   -1.000
 3411.00    0.54507   0.53793   36.408
 3412.00    0.57078   0.52823   35.940
 3413.00    0.53227   0.51928   37.089
 3414.00    0.46604   0.51667   37.989
 3415.00    0.45201   0.52440   38.071
 3416.00    0.46951   0.53703   37.304
 3417.00    0.53557   0.55340   35.839
 3418.00    0.53278   0.56652   34.173
 3419.00    0.49339   0.57783   32.467
 3420.00    0.48831   0.58040   32.000
 3421.00    0.55243   0.57440   31.805
 3422.00    0.53934   0.56263   31.907
 3423.00    0.50279   0.55717   32.680
 3424.00    0.51498   0.55661   33.474
 3425.00    0.46967   0.55827   32.887
 3426.00    0.49970   0.56149   31.996
 3427.00    0.55863   0.56779   31.675
 3428.00    0.53859   0.58109   -1.000
 3429.00    0.50649   0.59330   -1.000
 3430.00    0.47049   0.58895   -1.000
 3431.00    0.49987   0.57651   -1.000
 3432.00    0.46146   0.56166   -1.000
 3433.00    0.46583   0.55679   -1.000
 3434.00    0.52550   0.56274   31.601
 3435.00    0.50414   0.56811   -1.000
 3436.00    0.49257   0.56646   -1.000
 3437.00    0.52381   0.55605   40.127
 3438.00    0.55225   0.53843   32.667
 3439.00    0.49589   0.51549   34.536
 3440.00    0.48949   0.49488   37.132
 3441.00    0.48803   0.48357   38.977
 3442.00    0.44818   0.48737   39.384
 3443.00    0.45819   0.49877   39.265
 3444.00    0.50388   0.50930   38.013
 3445.00    0.51162   0.51597   36.052
 3446.00    0.50392   0.52652   34.059
 3447.00    0.48695   0.54039   32.718
 3448.00    0.48566   0.55866   -1.000
 3449.00    0.54752   0.57045   -1.000
 3450.00    0.55431   0.56554  280.321
 3451.00    0.56915   0.55194   -1.000
 3452.00    0.56839   0.54154   -1.000
 3453.00    0.54791   0.54053   -1.000
 3454.00    0.56434   0.54839   -1.000
 3455.00    0.59199   0.55357   -1.000
 3456.00    0.53745   0.55072   -1.000
 3457.00    0.50401   0.53912   -1.000
 3458.00    0.51847   0.52339  280.321
 3459.00    0.57264   0.51467   40.308
 3460.00    0.54728   0.50992   31.963
 3461.00    0.55120   0.51506   31.899
 3462.00    0.59676   0.53124   -1.000
 3463.00    0.55479   0.54912  280.321
 3464.00    0.52719   0.54882   -1.000
 3465.00    0.50446   0.54633   -1.000
 3466.00    0.51832   0.54625   -1.000
 3467.00    0.54736   0.55195  280.321
 3468.00    0.58028   0.56187   -1.000
 3469.00    0.59662   0.56934   -1.000
 3470.00    0.54049   0.57128   -1.000
 3471.00    0.52558   0.56144   -1.000
 3472.00    0.49715   0.54707   -1.000
 3473.00    0.47497   0.53036   -1.000
 3474.00    0.51802   0.51519  280.321
 3475.00    0.57008   0.50563   40.676
 3476.00    0.52079   0.50966   32.810
 3477.00    0.45910   0.51968   32.539
 3478.00    0.49995   0.53166  100.096
 3479.00    0.51308   0.54082   -1.000
 3480.00    0.54009   0.54674  273.299
 3481.00    0.57512   0.54609   -1.000
 3482.00    0.56589   0.53793   -1.000
 3483.00    0.57552   0.53082   -1.000
 3484.00    0.58898   0.53476   -1.000
 3485.00    0.64592   0.55059   -1.000
 3486.00    0.63221   0.56529   -1.000
 3487.00    0.65155   0.57032   -1.000
 3488.00    0.65408   0.56004   -1.000
 3489.00    0.54680   0.54128  274.925
 3490.00    0.48582   0.52677   -1.000
 3491.00    0.48822   0.52682   -1.000
 3492.00    0.50444   0.53781   -1.000
 3493.00    0.52258   0.54690   -1.000
 3494.00    0.58526   0.54900   -1.000
 3495.00    0.55758   0.54144   -1.000
 3496.00    0.53266   0.53512  280.321
 3497.00    0.53030   0.54141  280.321
 3498.00    0.52980   0.55977   -1.000
 3499.00    0.57604   0.57487  270.468
 3500.00    0.62761   0.57558   -1.000
 3501.00    0.63510   0.57711   -1.000
 3502.00    0.63071   0.58413   -1.000
 3503.00    0.62452   0.58843   -1.000
 3504.00    0.59258   0.58320  250.383
 3505.00    0.57826   0.57267  254.506
 3506.00    0.58517   0.56685   -1.000
 3507.00    0.58702   0.56700   -1.000
 3508.00    0.61674   0.56568   -1.000
 3509.00    0.59911   0.55787   -1.000
 3510.00    0.61570   0.54965   -1.000
 3511.00    0.62220   0.54104   -1.000
 3512.00    0.56847   0.53289   -1.000
 3513.00    0.53430   0.52481   -1.000
 3514.00    0.55682   0.52681   -1.000
 3515.00    0.57225   0.54381   -1.000
 3516.00    0.56586   0.56836  273.837
 3517.00    0.61041   0.58583   -1.000
 3518.00    0.59025   0.58981  251.139
 3519.00    0.56332   0.57805   -1.000
 3520.00    0.59011   0.56003   -1.000
 3521.00    0.58483   0.54085   -1.000
 3522.00    0.53279   0.52855  280.321
 3523.00    0.49613   0.51659   -1.000
 3524.00    0.51854   0.50807   40.505
 3525.00    0.55713   0.50753   32.482
 3526.00    0.54679   0.51995   32.596
 3527.00    0.54646   0.54064   99.973
 3528.00    0.59841   0.56298   -1.000
 3529.00    0.63559   0.57523   -1.000
 3530.00    0.60790   0.57739   -1.000
 3531.00    0.58931   0.57318   -1.000
 3532.00    0.55605   0.57400   -1.000
 3533.00    0.56338   0.57919   -1.000
 3534.00    0.58888   0.58630  263.515
 3535.00    0.56963   0.59081   -1.000
 3536.00    0.55681   0.59005   -1.000
 3537.00    0.57781   0.59146   -1.000
 3538.00    0.56052   0.59820   -1.000
 3539.00    0.58683   0.60104   -1.000
 3540.00    0.58138   0.59748   -1.000
 3541.00    0.57900   0.59065  254.195
 3542.00    0.55015   0.59158   -1.000
 3543.00    0.55019   0.59936   -1.000
 3544.00    0.61009   0.60619  252.883
 3545.00    0.62226   0.60636   -1.000
 3546.00    0.61145   0.60046  254.784
 3547.00    0.56195   0.59738   -1.000
 3548.00    0.56685   0.59737   -1.000
 3549.00    0.57683   0.59790   -1.000
 3550.00    0.56907   0.59584   -1.000
 3551.00    0.53240   0.59027   -1.000
 3552.00    0.49968   0.58172   -1.000
 3553.00    0.51735   0.57316   -1.000
 3554.00    0.52364   0.57115   -1.000
 3555.00    0.56892   0.57489  280.321
 3556.00    0.58304   0.57771  277.087
 3557.00    0.58574   0.57783  276.539
 3558.00    0.55416   0.57411   -1.000
 3559.00    0.53073   0.57408   -1.000
 3560.00    0.54800   0.58091   -1.000
 3561.00    0.56792   0.59144   -1.000
 3562.00    0.59438   0.59568  275.399
 3563.00    0.57904   0.58102  275.626
 3564.00    0.52369   0.55243   -1.000
 3565.00    0.51140   0.52789   40.985
 3566.00    0.50666   0.52410   32.925
 3567.00    0.53530   0.52703   32.956
 3568.00    0.51702   0.52437   32.721
 3569.00    0.48802   0.51317   33.524
 3570.00    0.50085   0.50410   34.274
 3571.00    0.48951   0.50672   33.595
 3572.00    0.47714   0.52039   32.189
 3573.00    0.52929   0.53000   97.604
 3574.00    0.54481   0.53579   -1.000
 3575.00    0.54705   0.53842   -1.000
 3576.00    0.52687   0.53748  280.321
 3577.00    0.54331   0.52752   -1.000
 3578.00    0.54401   0.51130   -1.000
 3579.00    0.50063   0.49052   42.448
 3580.00    0.47866   0.47720   34.968
 3581.00    0.46806   0.47276   37.109
 3582.00    0.50370   0.47729   37.779
 3583.00    0.49709   0.48201   37.951
 3584.00    0.48192   0.48081   38.716
 3585.00    0.47708   0.47542   39.926
 3586.00    0.46870   0.47462   40.674
 3587.00    0.47736   0.48157   39.219
 3588.00    0.48856   0.49580   37.145
 3589.00    0.51213   0.51844   35.306
 3590.00    0.53123   0.54014   32.468
 3591.00    0.53363   0.55392   96.011
 3592.00    0.52515   0.55438   -1.000
 3593.00    0.50801   0.55437   -1.000
 3594.00    0.53840   0.56170   -1.000
 3595.00    0.54823   0.57650   -1.000
 3596.00    0.56744   0.59125   -1.000
 3597.00    0.58640   0.59977   -1.000
 3598.00    0.58767   0.60856   -1.000
 3599.00    0.59111   0.61583   -1.000
 3600.00    0.57816   0.61283   -1.000
 3601.00    0.60284   0.59610  248.825
 3602.00    0.59847   0.57509   -1.000
 3603.00    0.58999   0.55540   -1.000
 3604.00    0.53960   0.54675  280.321
 3605.00    0.53573   0.54609  280.321
 3606.00    0.57443   0.54494   -1.000
 3607.00    0.53858   0.53674  280.321
 3608.00    0.50662   0.52607   -1.000
 3609.00    0.53632   0.52527   -1.000
 3610.00    0.57884   0.53721   -1.000
 3611.00    0.57476   0.55391   -1.000
 3612.00    0.53752   0.56354   -1.000
 3613.00    0.51540   0.57172   -1.000
 3614.00    0.56235   0.58074   -1.000
 3615.00    0.61971   0.58599   -1.000
 3616.00    0.64333   0.57550   -1.000
 3617.00    0.60788   0.54784   -1.000
 3618.00    0.54092   0.52192   -1.000
 3619.00    0.50779   0.52518   40.630
 3620.00    0.51775   0.54518   95.078
 3621.00    0.55420   0.57477   -1.000
 3622.00    0.60860   0.59658   -1.000
 3623.00    0.61042   0.60863  249.589
 3624.00    0.61726   0.61980  245.853
 3625.00    0.62053   0.63943   -1.000
 3626.00    0.62893   0.65885   -1.000
 3627.00    0.68466   0.66627   -1.000
 3628.00    0.72986   0.65128   -1.000
 3629.00    0.69478   0.61517   -1.000
 3630.00    0.60058   0.57216   -1.000
 3631.00    0.54787   0.55062  280.321
 3632.00    0.55555   0.54872   -1.000
 3633.00    0.55973   0.56340  280.321
 3634.00    0.55679   0.57890   -1.000
 3635.00    0.56214   0.58886   -1.000
 3636.00    0.55593   0.59280   -1.000
 3637.00    0.58615   0.60649   -1.000
 3638.00    0.62913   0.62489  239.129
 3639.00    0.61978   0.63860   -1.000
 3640.00    0.60329   0.64273   -1.000
 3641.00    0.60955   0.63397   -1.000
 3642.00    0.66911   0.61780   -1.000
 3643.00    0.68692   0.60073   -1.000
 3644.00    0.65513   0.58597   -1.000
 3645.00    0.62122   0.57413   -1.000
 3646.00    0.57568   0.56172   -1.000
 3647.00    0.58845   0.55228   -1.000
 3648.00    0.60719   0.55476   -1.000
 3649.00    0.60504   0.56793   -1.000
 3650.00    0.57616   0.59048   -1.000
 3651.00    0.57731   0.61305   -1.000
 3652.00    0.60903   0.63307   -1.000
 3653.00    0.62614   0.64098   -1.000
 3654.00    0.67686   0.64599   -1.000
 3655.00    0.71190   0.65177   -1.000
 3656.00    0.64305   0.66221   -1.000
 3657.00    0.64722   0.67397   -1.000
 3658.00    0.68711   0.67912  217.734
 3659.00    0.67372   0.68064  217.018
 3660.00    0.67606   0.67664  217.077
 3661.00    0.70727   0.66771   -1.000
 3662.00    0.67220   0.65545   -1.000
 3663.00    0.64503   0.64879  224.753
 3664.00    0.65976   0.64699  226.995
 3665.00    0.67021   0.64919   -1.000
 3666.00    0.68295   0.64874   -1.000
 3667.00    0.64991   0.64033  228.373
 3668.00    0.60644   0.62903   -1.000
 3669.00    0.60977   0.62512   -1.000
 3670.00    0.64965   0.63578   -1.000
 3671.00    0.64938   0.65151  229.448
 3672.00    0.61901   0.66109   -1.000
 3673.00    0.62246   0.66264   -1.000
 3674.00    0.65756   0.65861  221.986
 3675.00    0.65952   0.64828  222.366
 3676.00    0.64642   0.63263  227.727
 3677.00    0.65662   0.61365   -1.000
 3678.00    0.64523   0.59644   -1.000
 3679.00    0.63915   0.58806   -1.000
 3680.00    0.68051   0.59251   -1.000
 3681.00    0.62997   0.60673   -1.000
 3682.00    0.63322   0.61945   -1.000
 3683.00    0.64291   0.62467   -1.000
 3684.00    0.62757   0.61594  237.819
 3685.00    0.58444   0.59494  246.686
 3686.00    0.58652   0.57247   -1.000
 3687.00    0.59197   0.57004   -1.000
 3688.00    0.58998   0.58794  258.358
 3689.00    0.59647   0.61990   -1.000
 3690.00    0.64410   0.64759  227.209
 3691.00    0.68672   0.66036   -1.000
 3692.00    0.67348   0.65419   -1.000
 3693.00    0.65066   0.64229  223.159
 3694.00    0.69454   0.63442   -1.000
 3695.00    0.70250   0.63162   -1.000
 3696.00    0.64701   0.63599  225.170
 3697.00    0.65190   0.64863  222.584
 3698.00    0.67660   0.66855  216.328
 3699.00    0.69061   0.68424  210.429
 3700.00    0.72192   0.68872   -1.000
 3701.00    0.70980   0.67242   -1.000
 3702.00    0.67989   0.63625   -1.000
 3703.00    0.73456   0.58744   -1.000
 3704.00    0.69645   0.55085   -1.000
 3705.00    0.58722   0.53221   -1.000
 3706.00    0.58143   0.53812   -1.000
 3707.00    0.54967   0.54951  270.216
 3708.00    0.53848   0.56051   -1.000
 3709.00    0.57636   0.57237  259.125
 3710.00    0.65126   0.59049   -1.000
 3711.00    0.71235   0.61152   -1.000
 3712.00    0.70346   0.63732   -1.000
 3713.00    0.70165   0.65966   -1.000
 3714.00    0.69778   0.67078   -1.000
 3715.00    0.68456   0.66914  204.692
 3716.00    0.66164   0.65357  208.657
 3717.00    0.66133   0.62248   -1.000
 3718.00    0.63764   0.58025   -1.000
 3719.00    0.55339   0.53053   -1.000
 3720.00    0.49561   0.49090  280.321
 3721.00    0.47547   0.48666   41.778
 3722.00    0.47759   0.50924   95.016
 3723.00    0.53135   0.55044   -1.000
 3724.00    0.58677   0.59218  244.229
 3725.00    0.61013   0.61341  230.531
 3726.00    0.63866   0.61082   -1.000
 3727.00    0.66020   0.60722   -1.000
 3728.00    0.61831   0.61286  239.194
 3729.00    0.61583   0.61645  236.615
 3730.00    0.64472   0.60609   -1.000
 3731.00    0.61904   0.57347   -1.000
 3732.00    0.56633   0.52461   -1.000
 3733.00    0.52113   0.48132   40.914
 3734.00    0.51806   0.44931   34.268
 3735.00    0.47943   0.44627   36.302
 3736.00    0.45101   0.46892   35.247
 3737.00    0.48196   0.51167   32.280
 3738.00    0.52787   0.56029   91.707
 3739.00    0.58258   0.60740   -1.000
 3740.00    0.63533   0.62940  239.445
 3741.00    0.63265   0.62799  235.043
 3742.00    0.63177   0.60576   -1.000
 3743.00    0.61715   0.57822   -1.000
 3744.00    0.56525   0.55268   -1.000
 3745.00    0.53555   0.53755  280.321
 3746.00    0.54308   0.51917   -1.000
 3747.00    0.52013   0.49436   41.672
 3748.00    0.48469   0.46988   33.480
 3749.00    0.47467   0.46205   34.306
 3750.00    0.50594   0.48667  100.526
 3751.00    0.53923   0.53352  280.321
 3752.00    0.56738   0.57960  250.495
 3753.00    0.62590   0.62053  230.083
 3754.00    0.66393   0.65017  216.748
 3755.00    0.68675   0.65049   -1.000
 3756.00    0.68659   0.62373   -1.000
 3757.00    0.64331   0.58405   -1.000
 3758.00    0.60103   0.55704   -1.000
 3759.00    0.58531   0.55781   -1.000
 3760.00    0.60964   0.57135   -1.000
 3761.00    0.63078   0.58553   -1.000
 3762.00    0.60297   0.59251   -1.000
 3763.00    0.56953   0.59382   -1.000
 3764.00    0.57923   0.59166  240.040
 3765.00    0.57449   0.58363  242.077
 3766.00    0.56902   0.57274  247.468
 3767.00    0.56823   0.56673  251.062
 3768.00    0.56808   0.56310  248.681
 3769.00    0.59588   0.55837   -1.000
 3770.00    0.64005   0.55856   -1.000
 3771.00    0.67185   0.57443   -1.000
 3772.00    0.66415   0.60087   -1.000
 3773.00    0.66612   0.62544   -1.000
 3774.00    0.67976   0.63807   -1.000
 3775.00    0.70842   0.64629   -1.000
 3776.00    0.67739   0.65422   -1.000
 3777.00    0.66050   0.66443  217.276
 3778.00    0.70741   0.67663   -1.000
 3779.00    0.72202   0.68838   -1.000
 3780.00    0.71901   0.69934   -1.000
 3781.00    0.75177   0.70593   -1.000
 3782.00    0.71114   0.70978  199.748
 3783.00    0.71253   0.70782  199.537
 3784.00    0.70731   0.69337  203.047
 3785.00    0.68428   0.66633   -1.000
 3786.00    0.64038   0.63696  227.284
 3787.00    0.63538   0.61337   -1.000
 3788.00    0.58877   0.60159  246.463
 3789.00    0.58713   0.60303   -1.000
 3790.00    0.61560   0.61020  243.984
 3791.00    0.60853   0.61402  241.002
 3792.00    0.63748   0.60686   -1.000
 3793.00    0.62563   0.58727   -1.000
 3794.00    0.59448   0.56548   -1.000
 3795.00    0.55628   0.54199   -1.000
 3796.00    0.57093   0.51591   -1.000
 3797.00    0.59493   0.48847   -1.000
 3798.00    0.53352   0.48094   -1.000
 3799.00    0.52573   0.50780   -1.000
 3800.00    0.54235   0.55755   -1.000
 3801.00    0.57986   0.60408   -1.000
 3802.00    0.61535   0.64032   -1.000
 3803.00    0.61541   0.65882   -1.000
 3804.00    0.61136   0.66310   -1.000
 3805.00    0.58959   0.65241   -1.000
 3806.00    0.58392   0.63897   -1.000
 3807.00    0.58890   0.63767   -1.000
 3808.00    0.58579   0.65315   -1.000
 3809.00    0.61519   0.67107   -1.000
 3810.00    0.65793   0.67763   -1.000
 3811.00    0.65042   0.66548   -1.000
 3812.00    0.60630   0.63793   -1.000
 3813.00    0.57373   0.60833   -1.000
 3814.00    0.57540   0.58345  263.508
 3815.00    0.54940   0.57516   -1.000
 3816.00    0.54340   0.57937   -1.000
 3817.00    0.55261   0.58273   -1.000
 3818.00    0.53154   0.56959   -1.000
 3819.00    0.52516   0.54520   -1.000
 3820.00    0.53400   0.53380  280.321
 3821.00    0.53232   0.54374  280.321
 3822.00    0.51855   0.56102   -1.000
 3823.00    0.52729   0.55877   -1.000
 3824.00    0.52825   0.53945  280.321
 3825.00    0.47757   0.52389   43.330
 3826.00    0.44179   0.51711   33.557
 3827.00    0.43848   0.52065   33.515
 3828.00    0.44444   0.52655   33.028
 3829.00    0.47942   0.52872   32.485
 3830.00    0.47732   0.52246   32.656
 3831.00    0.45532   0.50434   33.881
 3832.00    0.45524   0.47862   36.312
 3833.00    0.46885   0.45325   37.894
 3834.00    0.43353   0.43682   37.600
 3835.00    0.44379   0.43592   36.250
 3836.00    0.47664   0.44939   35.286
 3837.00    0.47822   0.46257   35.662
 3838.00    0.48317   0.47341   36.513
 3839.00    0.45450   0.48898   36.239
 3840.00    0.45654   0.51358   34.491
 3841.00    0.51223   0.54842   97.711
 3842.00    0.53023   0.58326   -1.000
 3843.00    0.53109   0.61325   -1.000
 3844.00    0.55845   0.62672   -1.000
 3845.00    0.59556   0.63198   -1.000
 3846.00    0.62128   0.63341  256.105
 3847.00    0.62724   0.63234  256.434
 3848.00    0.58923   0.62401   -1.000
 3849.00    0.54886   0.61599   -1.000
 3850.00    0.52734   0.61507   -1.000
 3851.00    0.56842   0.62509   -1.000
 3852.00    0.59173   0.63318   -1.000
 3853.00    0.55562   0.62941   -1.000
 3854.00    0.52613   0.61561   -1.000
 3855.00    0.53725   0.60152   -1.000
 3856.00    0.55920   0.58984   -1.000
 3857.00    0.54984   0.57517   -1.000
 3858.00    0.53517   0.56092   41.135
 3859.00    0.53126   0.55848   32.732
 3860.00    0.51608   0.57238   32.700
 3861.00    0.54234   0.60008   -1.000
 3862.00    0.55455   0.62354   -1.000
 3863.00    0.59348   0.63063   -1.000
 3864.00    0.62779   0.62460  251.183
 3865.00    0.60576   0.61830   -1.000
 3866.00    0.58483   0.61647   -1.000
 3867.00    0.56786   0.61760   -1.000
 3868.00    0.56307   0.61567   -1.000
 3869.00    0.56046   0.60638   -1.000
 3870.00    0.54234   0.58982   -1.000
 3871.00    0.52009   0.57954   41.778
 3872.00    0.50429   0.58225   -1.000
 3873.00    0.56673   0.60340   -1.000
 3874.00    0.61210   0.63062   -1.000
 3875.00    0.61319   0.64424   -1.000
 3876.00    0.61549   0.62780  249.502
 3877.00    0.57791   0.60312   -1.000
 3878.00    0.54164   0.59182   -1.000
 3879.00    0.53371   0.59271   -1.000
 3880.00    0.54617   0.59838   -1.000
 3881.00    0.55229   0.59926   -1.000
 3882.00    0.55212   0.59987   -1.000
 3883.00    0.57669   0.60442   -1.000
 3884.00    0.61023   0.59778   -1.000
 3885.00    0.59426   0.56727   -1.000
 3886.00    0.53702   0.52852  266.104
 3887.00    0.50392   0.49809  272.391
 3888.00    0.53527   0.49265   -1.000
 3889.00    0.58686   0.51724   -1.000
 3890.00    0.60829   0.56590   -1.000
 3891.00    0.65171   0.61822   -1.000
 3892.00    0.67025   0.65410   -1.000
 3893.00    0.67745   0.66355   -1.000
 3894.00    0.68435   0.66110   -1.000
 3895.00    0.68044   0.66500   -1.000
 3896.00    0.69248   0.67381   -1.000
 3897.00    0.70352   0.68012   -1.000
 3898.00    0.69912   0.67847   -1.000
 3899.00    0.70823   0.67509   -1.000
 3900.00    0.72100   0.67993   -1.000
 3901.00    0.73713   0.68615   -1.000
 3902.00    0.72192   0.68514   -1.000
 3903.00    0.71291   0.67646   -1.000
 3904.00    0.69733   0.66573   -1.000
 3905.00    0.68504   0.66266   -1.000
 3906.00    0.67997   0.67167  228.823
 3907.00    0.69008   0.69783  218.075
 3908.00    0.72140   0.72697  203.714
 3909.00    0.74468   0.74501  196.646
 3910.00    0.74072   0.75220  194.207
 3911.00    0.74336   0.75871  192.396
 3912.00    0.73132   0.75926   -1.000
 3913.00    0.75315   0.75403  192.492
 3914.00    0.76481   0.74595   -1.000
 3915.00    0.74767   0.73897  200.597
 3916.00    0.75735   0.73121   -1.000
 3917.00    0.72802   0.71951  206.373
 3918.00    0.69257   0.69987  211.590
 3919.00    0.67798   0.67535  220.195
 3920.00    0.67583   0.65618   -1.000
 3921.00    0.66630   0.64674   -1.000
 3922.00    0.65233   0.65072  236.523
 3923.00    0.63352   0.65721   -1.000
 3924.00    0.64032   0.65858   -1.000
 3925.00    0.64822   0.64952  242.081
 3926.00    0.59788   0.62548   -1.000
 3927.00    0.57117   0.59619   -1.000
 3928.00    0.53881   0.56528   46.103
 3929.00    0.49106   0.54111   39.181
 3930.00    0.44081   0.51601   45.867
 3931.00    0.42194   0.48414   54.103
 3932.00    0.40115   0.44720   63.512
 3933.00    0.40105   0.42239   70.748
 3934.00    0.37556   0.43738   -1.000
 3935.00    0.39362   0.47793   -1.000
 3936.00    0.40330   0.51908   -1.000
 3937.00    0.44160   0.55671   -1.000
 3938.00    0.50000   0.59272   35.826
 3939.00    0.55955   0.61852   -1.000
 3940.00    0.60430   0.63912   -1.000
 3941.00    0.61531   0.64626   -1.000
 3942.00    0.61953   0.64271   -1.000
 3943.00    0.60606   0.63968   -1.000
 3944.00    0.62386   0.64812   -1.000
 3945.00    0.65958   0.66778  236.835
 3946.00    0.68526   0.68826  221.072
 3947.00    0.70904   0.70123  216.046
 3948.00    0.71000   0.71207  214.340
 3949.00    0.71652   0.72691  208.027
 3950.00    0.74170   0.73915  200.962
 3951.00    0.76817   0.73879   -1.000
 3952.00    0.76613   0.73815   -1.000
 3953.00    0.74545   0.74448  200.536
 3954.00    0.77338   0.74943   -1.000
 3955.00    0.79869   0.74259   -1.000
 3956.00    0.75673   0.72940   -1.000
 3957.00    0.75691   0.72294   -1.000
 3958.00    0.76519   0.72057   -1.000
 3959.00    0.73180   0.70197   -1.000
 3960.00    0.69214   0.66015   -1.000
 3961.00    0.64236   0.61918   -1.000
 3962.00    0.59382   0.58821   -1.000
 3963.00    0.57125   0.57206  280.321
 3964.00    0.54547   0.55249   43.608
 3965.00    0.51543   0.51707   36.887
 3966.00    0.46953   0.46549   44.852
 3967.00    0.41381   0.40731   55.037
 3968.00    0.35751   0.37058   62.654
 3969.00    0.36102   0.36953   60.908
 3970.00    0.41410   0.40136   51.619
 3971.00    0.46119   0.45250   42.421
 3972.00    0.49884   0.51297   35.340
 3973.00    0.54491   0.56998   93.803
 3974.00    0.58602   0.62256   -1.000
 3975.00    0.65210   0.66501  238.335
 3976.00    0.70349   0.70242  218.444
 3977.00    0.72824   0.73610  204.542
 3978.00    0.76699   0.76644  193.505
 3979.00    0.80914   0.79205  183.145
 3980.00    0.83644   0.80062   -1.000
 3981.00    0.84117   0.79952   -1.000
 3982.00    0.84549   0.79295   -1.000
 3983.00    0.85119   0.79423   -1.000
 3984.00    0.86630   0.80547   -1.000
 3985.00    0.87341   0.81847   -1.000
 3986.00    0.86625   0.83079   -1.000
 3987.00    0.87547   0.84371   -1.000
 3988.00    0.91664   0.85426   -1.000
 3989.00    0.92618   0.85514   -1.000
 3990.00    0.90718   0.85731   -1.000
 3991.00    0.91961   0.86574   -1.000
 3992.00    0.93114   0.87693   -1.000
 3993.00    0.94823   0.88105   -1.000
 3994.00    0.93671   0.87293   -1.000
 3995.00    0.88427   0.85737   -1.000
 3996.00    0.86827   0.84388   -1.000
 3997.00    0.87635   0.84487   -1.000
 3998.00    0.89031   0.85972   -1.000
 3999.00    0.95371   0.88170   -1.000
 4000.00    0.99135   0.90017   -1.000
 4001.00    0.99870   0.91308   -1.000
 4002.00    1.00590   0.91149   -1.000
 4003.00    0.98632   0.89102   -1.000
 4004.00    0.93477   0.85415   -1.000
 4005.00    0.90137   0.82926   -1.000
 4006.00    0.88191   0.83596   -1.000
 4007.00    0.92340   0.86713   -1.000
 4008.00    0.97791   0.89862   -1.000
 4009.00    0.97308   0.91276   -1.000
 4010.00    0.97192   0.92056   -1.000
 4011.00    0.99256   0.92702   -1.000
 4012.00    1.02044   0.93142   -1.000
 4013.00    0.98853   0.93759   -1.000
 4014.00    1.01610   0.94348   -1.000
 4015.00    1.06318   0.94423   -1.000
 4016.00    1.02641   0.94278   -1.000
 4017.00    0.99724   0.94383   -1.000
 4018.00    1.00000   0.95084   -1.000
 4019.00    0.99470   0.95787   -1.000
 4020.00    1.02671   0.95968   -1.000
 4021.00    1.05296   0.95311   -1.000
 4022.00    1.04137   0.94460   -1.000
 4023.00    1.03295   0.93036   -1.000
 4024.00    1.02557   0.91565   -1.000
 4025.00    1.03062   0.91480   -1.000
 4026.00    1.02056   0.93579   -1.000
 4027.00    1.04675   0.96162   -1.000
 4028.00    1.06512   0.96350   -1.000
 4029.00    1.03887   0.93049   -1.000
 4030.00    0.97011   0.87978   -1.000
 4031.00    0.89612   0.84240   -1.000
 4032.00    0.87479   0.82610   -1.000
 4033.00    0.90115   0.83225   -1.000
 4034.00    0.91751   0.86020   -1.000
 4035.00    0.93758   0.90757   -1.000
 4036.00    0.97201   0.95773  148.289
 4037.00    1.06047   0.99756   -1.000
 4038.00    1.10383   1.00730   -1.000
 4039.00    1.05516   0.99409   -1.000
 4040.00    0.99833   0.97867  146.359
 4041.00    1.02300   0.97172   -1.000
 4042.00    1.05335   0.95010   -1.000
 4043.00    0.99195   0.90003   -1.000
 4044.00    0.91869   0.83196   -1.000
 4045.00    0.83030   0.79178   -1.000
 4046.00    0.81089   0.81384  180.094
 4047.00    0.89258   0.87740  164.783
 4048.00    0.96060   0.93833  153.197
 4049.00    1.02032   0.98059   -1.000
 4050.00    1.05747   0.99648   -1.000
 4051.00    1.06078   0.99513   -1.000
 4052.00    1.03175   0.97974   -1.000
 4053.00    1.01363   0.95992   -1.000
 4054.00    0.99863   0.94447   -1.000
 4055.00    0.98831   0.93303   -1.000
 4056.00    0.93933   0.92047  158.273
 4057.00    0.88301   0.91319   -1.000
 4058.00    0.89340   0.92401   -1.000
 4059.00    0.95511   0.94486  153.971
 4060.00    1.01356   0.95078   -1.000
 4061.00    1.00634   0.92108   -1.000
 4062.00    0.93472   0.87073   -1.000
 4063.00    0.85128   0.83836  171.732
 4064.00    0.83404   0.83305  172.799
 4065.00    0.90051   0.85161   -1.000
 4066.00    0.96172   0.88618   -1.000
 4067.00    0.99841   0.91632   -1.000
 4068.00    1.04228   0.93431   -1.000
 4069.00    1.04672   0.93043   -1.000
 4070.00    1.01185   0.90032   -1.000
 4071.00    0.96473   0.87265   -1.000
 4072.00    0.94584   0.87922   -1.000
 4073.00    0.98198   0.90645   -1.000
 4074.00    1.00915   0.91971   -1.000
 4075.00    0.98166   0.89633   -1.000
 4076.00    0.89961   0.85982   -1.000
 4077.00    0.85643   0.84896  178.674
 4078.00    0.87007   0.87519  175.544
 4079.00    0.92521   0.92965  164.892
 4080.00    1.00670   0.97871   -1.000
 4081.00    1.07216   1.00131   -1.000
 4082.00    1.07403   0.98910   -1.000
 4083.00    1.02521   0.96565   -1.000
 4084.00    1.02332   0.95392   -1.000
 4085.00    1.00635   0.96708   -1.000
 4086.00    1.04218   0.99845   -1.000
 4087.00    1.11766   1.02944   -1.000
 4088.00    1.12345   1.04789   -1.000
 4089.00    1.11332   1.04445   -1.000
 4090.00    1.11030   1.02702   -1.000
 4091.00    1.10272   1.01298   -1.000
 4092.00    1.06113   1.00780   -1.000
 4093.00    1.06615   0.99575   -1.000
 4094.00    1.07818   0.97287   -1.000
 4095.00    1.02331   0.93636   -1.000
 4096.00    0.94742   0.90070   -1.000
 4097.00    0.95041   0.87771   -1.000
 4098.00    0.96080   0.85097   -1.000
 4099.00    0.95830   0.80704   -1.000
 4100.00    0.90058   0.75357   -1.000
 4101.00    0.84630   0.72189   -1.000
 4102.00    0.82582   0.73657   -1.000
 4103.00    0.85887   0.79750   -1.000
 4104.00    0.91397   0.86786   -1.000
 4105.00    0.97756   0.92395   -1.000
 4106.00    0.99762   0.95552   -1.000
 4107.00    1.00399   0.97030   -1.000
 4108.00    1.03679   0.96887   -1.000
 4109.00    1.01667   0.95891   -1.000
 4110.00    0.96985   0.95392  159.916
 4111.00    0.95940   0.96016  159.039
 4112.00    0.97784   0.97424  155.802
 4113.00    1.00212   0.99372  152.887
 4114.00    1.00560   1.01291  150.473
 4115.00    1.02697   1.02195  148.786
 4116.00    1.05735   1.01483   -1.000
 4117.00    1.02961   0.99643   -1.000
 4118.00    0.98323   0.97756  156.205
 4119.00    0.98018   0.97005  158.974
 4120.00    0.98158   0.97520  157.937
 4121.00    1.00099   0.98356  156.172
 4122.00    1.00270   0.99061  155.875
 4123.00    0.99728   1.00096  154.689
 4124.00    1.01173   1.01510  152.191
 4125.00    1.06727   1.02268   -1.000
 4126.00    1.06446   1.01388   -1.000
 4127.00    1.02424   0.99630   -1.000
 4128.00    1.01197   0.98258   -1.000
 4129.00    1.01165   0.97274   -1.000
 4130.00    0.99580   0.95482   -1.000
 4131.00    0.95397   0.92938   -1.000
 4132.00    0.92340   0.90885  169.452
 4133.00    0.92605   0.91746  171.191
 4134.00    0.96761   0.95192  167.047
 4135.00    1.01371   0.99272  159.254
 4136.00    1.02908   1.02640  153.299
 4137.00    1.01162   1.04475   -1.000
 4138.00    1.01674   1.05257   -1.000
 4139.00    1.02812   1.05332   -1.000
 4140.00    1.03998   1.03189  148.907
 4141.00    1.00251   0.98187  155.529
 4142.00    0.95146   0.92140   -1.000
 4143.00    0.87313   0.88918   -1.000
 4144.00    0.87662   0.90350   -1.000
 4145.00    0.94609   0.95110  165.628
 4146.00    1.00481   0.99376  158.433
 4147.00    1.03305   1.00705   -1.000
 4148.00    1.00304   1.00046  157.512
 4149.00    0.99889   0.99094  161.623
 4150.00    0.97109   0.98954   -1.000
 4151.00    0.95844   0.99027   -1.000
 4152.00    1.00193   0.98651  162.896
 4153.00    0.98433   0.97778  163.781
 4154.00    0.95269   0.97006   -1.000
 4155.00    0.96550   0.97202  163.827
 4156.00    0.95022   0.98622   -1.000
 4157.00    0.98747   1.00695   -1.000
 4158.00    1.19292   1.03224   -1.000
 4159.00    1.34575   1.05332   -1.000
 4160.00    0.93556   1.06520   -1.000
 4161.00    0.78971   1.07669   -1.000
 4162.00    1.02834   1.08579   -1.000
 4163.00    1.09218   1.08616  150.972
 4164.00    1.05754   1.07325   -1.000
 4165.00    1.00583   1.05085   -1.000
 4166.00    0.95458   1.02806   -1.000
 4167.00    0.94616   1.02181   -1.000
 4168.00    0.97749   1.02798   -1.000
 4169.00    0.98269   1.03421   -1.000
 4170.00    0.99882   1.01783   -1.000
 4171.00    0.97964   0.98019  166.620
 4172.00    0.94645   0.94751  176.872
 4173.00    0.90795   0.93983   -1.000
 4174.00    0.90820   0.95957   -1.000
 4175.00    0.93106   0.98182   -1.000
 4176.00    0.93786   0.99136   -1.000
 4177.00    0.94216   0.99742   -1.000
 4178.00    0.95305   1.01062   -1.000
 4179.00    0.93964   1.02248   -1.000
 4180.00    0.96840   1.02360   -1.000
 4181.00    1.01248   1.01650  163.303
 4182.00    1.02019   1.01870  162.055
 4183.00    1.05988   1.03818  159.155
 4184.00    1.07561   1.05325  156.216
 4185.00    1.07773   1.04733   -1.000
 4186.00    1.04313   1.02256  159.647
 4187.00    0.97623   1.00508   -1.000
 4188.00    0.98032   1.01130   -1.000
 4189.00    1.03604   1.02718  161.428
 4190.00    1.00935   1.03903   -1.000
 4191.00    0.99383   1.04959   -1.000
 4192.00    1.03413   1.06353   -1.000
 4193.00    1.04251   1.07005   -1.000
 4194.00    1.03550   1.05154   -1.000
 4195.00    1.01102   1.01101  162.477
 4196.00    0.96253   0.97486  168.769
 4197.00    0.92718   0.95020   -1.000
 4198.00    0.91865   0.93819   -1.000
 4199.00    0.92948   0.93309  172.083
 4200.00    0.95563   0.93801  169.507
 4201.00    0.94696   0.94860  168.450
 4202.00    0.95305   0.96741   -1.000
 4203.00    0.98992   0.99818  165.295
 4204.00    1.01509   1.03464   -1.000
 4205.00    1.03387   1.06694   -1.000
 4206.00    1.10436   1.09073  157.223
 4207.00    1.11304   1.10592  153.925
 4208.00    1.10464   1.10597  152.595
 4209.00    1.08569   1.09737  152.900
 4210.00    1.06153   1.09207   -1.000
 4211.00    1.06469   1.09556   -1.000
 4212.00    1.08158   1.09364  152.307
 4213.00    1.04678   1.06856   -1.000
 4214.00    0.99802   1.03142   -1.000
 4215.00    0.99198   1.01527   -1.000
 4216.00    1.01939   1.03594   -1.000
 4217.00    1.07749   1.08720  155.732
 4218.00    1.13251   1.13022  148.002
 4219.00    1.16563   1.15343  143.293
 4220.00    1.21968   1.15107   -1.000
 4221.00    1.22139   1.12565   -1.000
 4222.00    1.15485   1.07318   -1.000
 4223.00    1.10051   0.99700   -1.000
 4224.00    1.00892   0.90386   -1.000
 4225.00    0.89297   0.83050   -1.000
 4226.00    0.77309   0.80119   -1.000
 4227.00    0.77725   0.84538   -1.000
 4228.00    0.88728   0.93927   -1.000
 4229.00    1.02701   1.03346  159.682
 4230.00    1.12095   1.07996   -1.000
 4231.00    1.13870   1.08996   -1.000
 4232.00    1.13006   1.07292   -1.000
 4233.00    1.10684   1.05121   -1.000
 4234.00    1.09075   1.03530   -1.000
 4235.00    1.08601   1.03032   -1.000
 4236.00    1.07153   1.03246   -1.000
 4237.00    1.06595   1.04640  160.867
 4238.00    1.08998   1.06916   -1.000
 4239.00    1.11035   1.09243  155.041
 4240.00    1.14426   1.11336   -1.000
 4241.00    1.19128   1.13502   -1.000
 4242.00    1.19967   1.15808   -1.000
 4243.00    1.20021   1.18632  146.920
 4244.00    1.21353   1.20524  143.927
 4245.00    1.22309   1.19791   -1.000
 4246.00    1.18358   1.15956   -1.000
 4247.00    1.14533   1.10784   -1.000
 4248.00    1.09075   1.06373   -1.000
 4249.00    1.03194   1.04310  162.349
 4250.00    1.01874   1.04629   -1.000
 4251.00    1.06432   1.06435  158.975
 4252.00    1.10184   1.07298   -1.000
 4253.00    1.09310   1.06078   -1.000
 4254.00    1.05741   1.04991  157.351
 4255.00    1.04450   1.07323   -1.000
 4256.00    1.06860   1.11358   -1.000
 4257.00    1.11112   1.12269  149.253
 4258.00    1.10826   1.08537  153.229
 4259.00    1.05438   1.03687  161.168
 4260.00    0.99788   1.02495   -1.000
 4261.00    0.99385   1.06701   -1.000
 4262.00    1.07216   1.13870   -1.000
 4263.00    1.18749   1.20101  145.788
 4264.00    1.23159   1.22814  141.516
 4265.00    1.24521   1.22743  140.449
 4266.00    1.23830   1.20863   -1.000
 4267.00    1.19001   1.17362  146.252
 4268.00    1.15647   1.12145   -1.000
 4269.00    1.10771   1.05863   -1.000
 4270.00    1.02788   0.99373   -1.000
 4271.00    0.95058   0.95215  176.087
 4272.00    0.91090   0.94311   -1.000
 4273.00    0.91669   0.96324   -1.000
 4274.00    0.93515   0.99871   -1.000
 4275.00    0.98061   1.05184   -1.000
 4276.00    1.08013   1.11882   -1.000
 4277.00    1.16266   1.17224  148.181
 4278.00    1.19347   1.18222  146.356
 4279.00    1.18162   1.16040   -1.000
 4280.00    1.14348   1.13594  157.053
 4281.00    1.11476   1.13354  158.757
 4282.00    1.10246   1.14313   -1.000
 4283.00    1.12355   1.14335   -1.000
 4284.00    1.12903   1.13299  156.569
 4285.00    1.10811   1.12008  160.579
 4286.00    1.09321   1.10659  164.861
 4287.00    1.08064   1.08447  167.667
 4288.00    1.06101   1.04484  173.025
 4289.00    1.00851   1.00347  181.263
 4290.00    0.96826   0.99802   -1.000
 4291.00    1.01007   1.03602   -1.000
 4292.00    1.08456   1.08219  166.113
 4293.00    1.12631   1.10177   -1.000
 4294.00    1.09860   1.09490  161.416
 4295.00    1.07126   1.07729  163.849
 4296.00    1.07988   1.05115   -1.000
 4297.00    1.04369   1.00618   -1.000
 4298.00    0.95260   0.95028  188.185
 4299.00    0.85231   0.90623   -1.000
 4300.00    0.80500   0.89462   -1.000
 4301.00    0.82076   0.90649   -1.000
 4302.00    0.88367   0.92264   -1.000
 4303.00    0.93011   0.93526  197.682
 4304.00    0.92504   0.94386  195.130
 4305.00    0.90386   0.93301   -1.000
 4306.00    0.88599   0.89871  200.412
 4307.00    0.84330   0.86200  210.352
 4308.00    0.80682   0.85109   -1.000
 4309.00    0.82407   0.87817   -1.000
 4310.00    0.87522   0.92899   -1.000
 4311.00    0.92184   0.98631   -1.000
 4312.00    0.99424   1.04122   -1.000
 4313.00    1.06672   1.10551   -1.000
 4314.00    1.15034   1.18393   -1.000
 4315.00    0.95276   1.26866   -1.000
 4316.00    0.75760   1.34246   -1.000
 4317.00    1.17475   1.37492   -1.000
 4318.00    1.38999   1.36787  132.208
 4319.00    1.37503   1.34405   -1.000
 4320.00    1.33571   1.31459  136.643
 4321.00    1.29419   1.26564   -1.000
 4322.00    1.23711   1.19164   -1.000
 4323.00    1.14208   1.09508   -1.000
 4324.00    1.04072   1.01803   -1.000
 4325.00    0.96107   1.00791   -1.000
 4326.00    0.99128   1.07794   -1.000
 4327.00    1.11263   1.19229   -1.000
 4328.00    1.23145   1.28634   -1.000
 4329.00    1.30881   1.32377  138.885
 4330.00    1.30861   1.32624  138.755
 4331.00    1.31067   1.32638  138.385
 4332.00    1.33742   1.34284  136.344
 4333.00    1.35938   1.35832  134.667
 4334.00    1.36820   1.35515  134.115
 4335.00    1.38710   1.31433   -1.000
 4336.00    1.34122   1.22722   -1.000
 4337.00    1.21896   1.10843   -1.000
 4338.00    1.11137   1.00070   -1.000
 4339.00    1.02078   0.94948   -1.000
 4340.00    0.97230   0.96145  192.341
 4341.00    1.01827   1.03421  182.572
 4342.00    1.10206   1.13033   -1.000
 4343.00    1.18121   1.20661   -1.000
 4344.00    1.23170   1.25199   -1.000
 4345.00    1.31082   1.28821   -1.000
 4346.00    1.35600   1.32114   -1.000
 4347.00    1.37060   1.35307  139.067
 4348.00    1.40909   1.37140   -1.000
 4349.00    1.39252   1.34628   -1.000
 4350.00    1.32317   1.27585   -1.000
 4351.00    1.22494   1.20815  152.568
 4352.00    1.16146   1.18845   -1.000
 4353.00    1.18782   1.22339   -1.000
 4354.00    1.28031   1.27926  145.840
 4355.00    1.32666   1.32236  140.806
 4356.00    1.34065   1.34063  137.554
 4357.00    1.37040   1.34296   -1.000
 4358.00    1.35246   1.33451  139.181
 4359.00    1.33751   1.33564  141.297
 4360.00    1.34133   1.35805  139.671
 4361.00    1.38326   1.38782  135.706
 4362.00    1.42037   1.40968  133.505
 4363.00    1.39572   1.42497   -1.000
 4364.00    1.45228   1.43846  131.528
 4365.00    1.50046   1.43286   -1.000
 4366.00    1.43342   1.39663   -1.000
 4367.00    1.36922   1.35393  138.869
 4368.00    1.35360   1.33339  141.343
 4369.00    1.34744   1.33068  140.631
 4370.00    1.35908   1.32944   -1.000
 4371.00    1.37769   1.31514   -1.000
 4372.00    1.36335   1.28475   -1.000
 4373.00    1.31574   1.24394   -1.000
 4374.00    1.24048   1.21050   -1.000
 4375.00    1.20445   1.21561  152.473
 4376.00    1.26131   1.26189  147.644
 4377.00    1.33465   1.31245  140.430
 4378.00    1.39005   1.33317   -1.000
 4379.00    1.39119   1.31598   -1.000
 4380.00    1.35270   1.25912   -1.000
 4381.00    1.28422   1.16272   -1.000
 4382.00    1.15089   1.05133   -1.000
 4383.00    0.98774   0.98236  176.193
 4384.00    0.92602   0.99712   -1.000
 4385.00    1.03968   1.08602   -1.000
 4386.00    1.17488   1.17904  153.821
 4387.00    1.24372   1.22399  146.406
 4388.00    1.27925   1.22872   -1.000
 4389.00    1.28073   1.22752   -1.000
 4390.00    1.25108   1.23625  147.485
 4391.00    1.26088   1.25637  145.439
 4392.00    1.32112   1.27803   -1.000
 4393.00    1.32803   1.28590   -1.000
 4394.00    1.30697   1.29055  144.781
 4395.00    1.31983   1.31686  145.249
 4396.00    1.38779   1.36319   -1.000
 4397.00    1.42278   1.39039   -1.000
 4398.00    1.40513   1.37364   -1.000
 4399.00    1.39512   1.33578   -1.000
 4400.00    1.34139   1.31173   -1.000
 4401.00    1.31313   1.29782  144.332
 4402.00    1.32983   1.26962   -1.000
 4403.00    1.27700   1.20828   -1.000
 4404.00    1.17948   1.14953   -1.000
 4405.00    1.16173   1.14361  155.942
 4406.00    1.20172   1.18388  152.166
 4407.00    1.23459   1.23429  149.102
 4408.00    1.25963   1.28331   -1.000
 4409.00    1.31350   1.34348   -1.000
 4410.00    1.38515   1.41364   -1.000
 4411.00    1.45058   1.45292  132.019
 4412.00    1.49576   1.43235   -1.000
 4413.00    1.45674   1.37062   -1.000
 4414.00    1.35825   1.30018   -1.000
 4415.00    1.27478   1.26313  144.579
 4416.00    1.26748   1.29311   -1.000
 4417.00    1.33695   1.36710   -1.000
 4418.00    1.42487   1.43791  135.377
 4419.00    1.48647   1.47207  131.085
 4420.00    1.47724   1.46111  130.734
 4421.00    1.41677   1.41943  133.595
 4422.00    1.33716   1.38290   -1.000
 4423.00    1.29397   1.37354   -1.000
 4424.00    1.31684   1.38541   -1.000
 4425.00    1.35964   1.39210   -1.000
 4426.00    1.38538   1.39306  136.482
 4427.00    1.38083   1.40102   -1.000
 4428.00    1.37018   1.40693   -1.000
 4429.00    1.35100   1.40626   -1.000
 4430.00    1.34406   1.40388   -1.000
 4431.00    1.36082   1.40573   -1.000
 4432.00    1.36320   1.40113   -1.000
 4433.00    1.32647   1.36640   -1.000
 4434.00    1.26101   1.32174   -1.000
 4435.00    1.23504   1.31640   -1.000
 4436.00    1.30429   1.37019   -1.000
 4437.00    1.41693   1.45422   -1.000
 4438.00    1.49922   1.51032  128.272
 4439.00    1.53458   1.51261  126.659
 4440.00    1.48852   1.46656  129.635
 4441.00    1.39453   1.40866  135.424
 4442.00    1.33288   1.37902   -1.000
 4443.00    1.33248   1.40314   -1.000
 4444.00    1.40430   1.46761   -1.000
 4445.00    1.50278   1.52534  133.428
 4446.00    1.54415   1.55054  130.074
 4447.00    1.54107   1.54863  129.537
 4448.00    1.53004   1.54378  129.781
 4449.00    1.52384   1.54299  130.920
 4450.00    1.51673   1.53600  132.283
 4451.00    1.49866   1.51818  131.867
 4452.00    1.50901   1.48303  132.223
 4453.00    1.47615   1.42249   -1.000
 4454.00    1.40135   1.35767   -1.000
 4455.00    1.30987   1.32817   -1.000
 4456.00    1.30040   1.33467   -1.000
 4457.00    1.34197   1.35491  142.310
 4458.00    1.35671   1.36223  141.719
 4459.00    1.36290   1.35701  142.341
 4460.00    1.35624   1.35466  143.652
 4461.00    1.35253   1.36918  145.010
 4462.00    1.37849   1.40752   -1.000
 4463.00    1.41609   1.45612   -1.000
 4464.00    1.45276   1.49025   -1.000
 4465.00    1.49195   1.49949  133.380
 4466.00    1.48761   1.49012  133.454
 4467.00    1.50154   1.47657   -1.000
 4468.00    1.51056   1.46419   -1.000
 4469.00    1.47626   1.45801  138.297
 4470.00    1.47257   1.47528  137.039
 4471.00    1.51738   1.51860  133.275
 4472.00    1.58335   1.56583  128.720
 4473.00    1.63240   1.60225   -1.000
 4474.00    1.64553   1.62041  123.322
 4475.00    1.63336   1.63339  123.264
 4476.00    1.66355   1.65045  122.545
 4477.00    1.68649   1.65730   -1.000
 4478.00    1.66812   1.62700   -1.000
 4479.00    1.60338   1.55864   -1.000
 4480.00    1.53381   1.48899   -1.000
 4481.00    1.47990   1.46893  135.899
 4482.00    1.49003   1.50697  135.726
 4483.00    1.54836   1.57809   -1.000
 4484.00    1.63269   1.64633  125.770
 4485.00    1.68159   1.68613  122.559
 4486.00    1.71288   1.67823   -1.000
 4487.00    1.70486   1.63065   -1.000
 4488.00    1.65082   1.57243   -1.000
 4489.00    1.58606   1.54402   -1.000
 4490.00    1.53605   1.55644  131.748
 4491.00    1.55984   1.58924   -1.000
 4492.00    1.61651   1.60108  126.213
 4493.00    1.60103   1.57481  127.098
 4494.00    1.53116   1.53824  130.562
 4495.00    1.49977   1.52966   -1.000
 4496.00    1.51362   1.56142   -1.000
 4497.00    1.56592   1.60787   -1.000
 4498.00    1.64330   1.64108  125.588
 4499.00    1.67491   1.65000  123.738
 4500.00    1.65121   1.64298  124.527
 4501.00    1.62733   1.64924   -1.000
 4502.00    1.64753   1.68386   -1.000
 4503.00    1.72629   1.73552  119.168
 4504.00    1.80674   1.77662   -1.000
 4505.00    1.82713   1.78948   -1.000
 4506.00    1.80858   1.77068   -1.000
 4507.00    1.78603   1.74731   -1.000
 4508.00    1.77555   1.73968   -1.000
 4509.00    1.77724   1.74452   -1.000
 4510.00    1.77289   1.75090  118.958
 4511.00    1.76193   1.74151  119.483
 4512.00    1.72385   1.71177  121.534
 4513.00    1.67483   1.67998  123.800
 4514.00    1.68246   1.66299  124.950
 4515.00    1.70059   1.66465   -1.000
 4516.00    1.70078   1.67263   -1.000
 4517.00    1.67928   1.67332  125.519
 4518.00    1.68802   1.67325  126.500
 4519.00    1.73404   1.68982   -1.000
 4520.00    1.77631   1.71622   -1.000
 4521.00    1.78382   1.72866   -1.000
 4522.00    1.75323   1.71401   -1.000
 4523.00    1.70592   1.67881   -1.000
 4524.00    1.67323   1.64162   -1.000
 4525.00    1.62721   1.60197   -1.000
 4526.00    1.56870   1.54865  134.124
 4527.00    1.49367   1.49466  138.046
 4528.00    1.46629   1.45960  140.300
 4529.00    1.45663   1.45868  139.955
 4530.00    1.48002   1.49005  137.820
 4531.00    1.53847   1.52755  135.298
 4532.00    1.57314   1.54455   -1.000
 4533.00    1.56524   1.53291   -1.000
 4534.00    1.52203   1.51278  141.281
 4535.00    1.50273   1.52003  141.222
 4536.00    1.55343   1.57513  134.635
 4537.00    1.68558   1.65527   -1.000
 4538.00    1.74553   1.71011   -1.000
 4539.00    1.71293   1.71227  122.202
 4540.00    1.69709   1.68131  124.766
 4541.00    1.68267   1.66044  125.520
 4542.00    1.69819   1.66632   -1.000
 4543.00    1.71916   1.67834   -1.000
 4544.00    1.69209   1.67897  159.296
 4545.00    1.66946   1.66593   71.603
 4546.00    1.55349   1.65675   -1.000
 4547.00    0.56176   1.65387   -1.000
 4548.00   -0.18689   1.64361    0.000
 4549.00   -0.20559   1.63283    0.000
 4550.00    0.67001   1.64049   -1.000
 4551.00    0.61297   1.66415   -1.000
 4552.00    0.90490   1.67132   -1.000
 4553.00    1.49216   1.65302   -1.000
 4554.00    1.64880   1.63207  133.009
 4555.00    1.65733   1.63725  131.860
 4556.00    1.70987   1.68186   -1.000
 4557.00    1.76859   1.74846  122.655
 4558.00    1.83886   1.80030   -1.000
 4559.00    1.86968   1.82248   -1.000
 4560.00    1.85106   1.83088   -1.000
 4561.00    1.85346   1.82376   -1.000
 4562.00    1.83545   1.80033   -1.000
 4563.00    1.77960   1.75865  124.959
 4564.00    1.71323   1.72046  127.374
 4565.00    1.67776   1.71134   -1.000
 4566.00    1.72979   1.74209  124.127
 4567.00    1.80212   1.79318  120.842
 4568.00    1.84608   1.83083  119.087
 4569.00    1.86063   1.82653   -1.000
 4570.00    1.80982   1.79362  122.359
 4571.00    1.73158   1.75725  125.588
 4572.00    1.74417   1.75206  125.832
 4573.00    1.81335   1.78526   -1.000
 4574.00    1.84636   1.82100   -1.000
 4575.00    1.85385   1.83453   -1.000
 4576.00    1.83762   1.82839  120.452
 4577.00    1.80578   1.81290  121.120
 4578.00    1.76967   1.77920  122.819
 4579.00    1.72197   1.72891  126.097
 4580.00    1.64564   1.68848   -1.000
 4581.00    1.62198   1.68204   -1.000
 4582.00    1.69582   1.69896  128.035
 4583.00    1.73154   1.71985  126.826
 4584.00    1.70648   1.72331  126.857
 4585.00    1.69692   1.71515  127.565
 4586.00    1.70644   1.72353  126.510
 4587.00    1.76733   1.75832  123.563
 4588.00    1.82465   1.80423   -1.000
 4589.00    1.83709   1.83092  119.910
 4590.00    1.83701   1.82448  121.171
 4591.00    1.81163   1.79294  123.337
 4592.00    1.77810   1.75682   -1.000
 4593.00    1.73423   1.73896  126.247
 4594.00    1.72010   1.73499  125.462
 4595.00    1.72168   1.73659  124.432
 4596.00    1.72107   1.74348  123.923
 4597.00    1.72828   1.75778   -1.000
 4598.00    1.74573   1.77027  123.382
 4599.00    1.74277   1.77346   -1.000
 4600.00    1.73477   1.76751   -1.000
 4601.00    1.75333   1.76314  125.793
 4602.00    1.76854   1.76676  124.909
 4603.00    1.75684   1.76977  123.496
 4604.00    1.73871   1.76813   -1.000
 4605.00    1.76400   1.77336  123.194
 4606.00    1.79983   1.79803  122.157
 4607.00    1.86431   1.84069   -1.000
 4608.00    1.94460   1.89351   -1.000
 4609.00    1.96521   1.93425   -1.000
 4610.00    1.93989   1.93358  115.787
 4611.00    1.91548   1.90920  117.118
 4612.00    1.90069   1.88222   -1.000
 4613.00    1.89069   1.87125   -1.000
 4614.00    1.91202   1.88150   -1.000
 4615.00    1.94946   1.90151   -1.000
 4616.00    1.95157   1.91472   -1.000
 4617.00    1.93992   1.91777   -1.000
 4618.00    1.91765   1.91689  118.946
 4619.00    1.89657   1.91449  119.113
 4620.00    1.92189   1.91861  118.238
 4621.00    1.95622   1.93091   -1.000
 4622.00    1.95382   1.94024  115.986
 4623.00    1.94283   1.93805  116.221
 4624.00    1.92703   1.92968  116.473
 4625.00    1.91488   1.91943  117.310
 4626.00    1.91639   1.90745  117.835
 4627.00    1.93169   1.90339   -1.000
 4628.00    1.90622   1.90609  118.383
 4629.00    1.89299   1.91062  118.796
 4630.00    1.93214   1.91651  118.426
 4631.00    1.95981   1.92623   -1.000
 4632.00    1.94363   1.92707  117.236
 4633.00    1.92578   1.90813  118.656
 4634.00    1.90963   1.88325   -1.000
 4635.00    1.87024   1.86891  120.392
 4636.00    1.83948   1.85631  121.039
 4637.00    1.81928   1.83651  122.496
 4638.00    1.79925   1.81467  123.326
 4639.00    1.81188   1.80305  123.320
 4640.00    1.84475   1.81310   -1.000
 4641.00    1.88025   1.84234   -1.000
 4642.00    1.90889   1.87000   -1.000
 4643.00    1.90135   1.87200   -1.000
 4644.00    1.86253   1.83882  118.621
 4645.00    1.79985   1.78911  121.686
 4646.00    1.73297   1.73434  125.102
 4647.00    1.68402   1.70887   -1.000
 4648.00    1.70907   1.72953  124.930
 4649.00    1.79730   1.78132  122.149
 4650.00    1.85458   1.83942  120.133
 4651.00    1.88390   1.87891  119.543
 4652.00    1.92233   1.89558   -1.000
 4653.00    1.90728   1.88803   -1.000
 4654.00    1.83477   1.86256  122.729
 4655.00    1.78556   1.84123   -1.000
 4656.00    1.80232   1.84966   -1.000
 4657.00    1.90468   1.89475  120.965
 4658.00    2.01333   1.96506   -1.000
 4659.00    2.08140   2.02580   -1.000
 4660.00    2.07585   2.04582   -1.000
 4661.00    1.99742   2.01765  113.595
 4662.00    1.92172   1.96968   -1.000
 4663.00    1.88830   1.92041  118.510
 4664.00    1.87989   1.87556  119.353
 4665.00    1.84447   1.82531  120.800
 4666.00    1.75622   1.76233  125.121
 4667.00    1.65677   1.70963   -1.000
 4668.00    1.64639   1.70479   -1.000
 4669.00    1.71495   1.75354   -1.000
 4670.00    1.82506   1.82782  123.983
 4671.00    1.89433   1.88584  120.094
 4672.00    1.90585   1.90960  118.705
 4673.00    1.88883   1.90546  118.619
 4674.00    1.89038   1.90834  118.569
 4675.00    1.90368   1.92645  117.414
 4676.00    1.95700   1.94645  115.682
 4677.00    1.97307   1.94347   -1.000
 4678.00    1.94704   1.91214   -1.000
 4679.00    1.89119   1.87276   -1.000
 4680.00    1.83870   1.84376  122.144
 4681.00    1.81325   1.83244  123.555
 4682.00    1.84451   1.84098  122.763
 4683.00    1.92000   1.86704   -1.000
 4684.00    1.97129   1.89012   -1.000
 4685.00    1.95220   1.89695   -1.000
 4686.00    1.92005   1.89412   -1.000
 4687.00    1.89382   1.88859  118.584
 4688.00    1.90942   1.88938  118.792
 4689.00    1.93459   1.89543   -1.000
 4690.00    1.92716   1.89953   -1.000
 4691.00    1.90902   1.89788  119.848
 4692.00    1.91417   1.90289  118.878
 4693.00    1.93683   1.92253  117.174
 4694.00    1.98462   1.94777   -1.000
 4695.00    2.02363   1.96627   -1.000
 4696.00    2.03052   1.96896   -1.000
 4697.00    2.00312   1.94325   -1.000
 4698.00    1.92991   1.89882   -1.000
 4699.00    1.86378   1.86017  121.080
 4700.00    1.86084   1.84217   -1.000
 4701.00    1.87634   1.83220   -1.000
 4702.00    1.85548   1.82494   -1.000
 4703.00    1.87007   1.83125   -1.000
 4704.00    1.89140   1.85702   -1.000
 4705.00    1.89925   1.88291   -1.000
 4706.00    1.91993   1.88530   -1.000
 4707.00    1.89154   1.86372   -1.000
 4708.00    1.85385   1.84614  125.017
 4709.00    1.86481   1.85655  124.861
 4710.00    1.89976   1.88686  121.981
 4711.00    1.97282   1.91693   -1.000
 4712.00    2.01809   1.92849   -1.000
 4713.00    1.95308   1.91711   -1.000
 4714.00    1.90213   1.90255  119.223
 4715.00    1.92186   1.91366  119.890
 4716.00    1.97553   1.95408   -1.000
 4717.00    2.03820   2.00636   -1.000
 4718.00    2.10704   2.04711   -1.000
 4719.00    2.13624   2.06964   -1.000
 4720.00    2.15349   2.08051   -1.000
 4721.00    2.10485   2.07610   -1.000
 4722.00    2.05668   2.06420  115.269
 4723.00    2.06438   2.06238  115.012
 4724.00    2.08965   2.07251   -1.000
 4725.00    2.07970   2.06673  113.658
 4726.00    2.02904   2.02636  115.705
 4727.00    1.91746   1.95298   -1.000
 4728.00    1.81425   1.88298   -1.000
 4729.00    1.79836   1.85672   -1.000
 4730.00    1.83278   1.86781   -1.000
 4731.00    1.88503   1.90331  121.242
 4732.00    1.94162   1.94312  119.928
 4733.00    1.96700   1.97544  118.762
 4734.00    1.99693   1.98980  117.994
 4735.00    2.01931   1.98975   -1.000
 4736.00    1.99214   1.98686  118.055
 4737.00    1.97452   1.99193  118.565
 4738.00    2.03798   2.01033   -1.000
 4739.00    2.10526   2.03253   -1.000
 4740.00    2.09354   2.03879   -1.000
 4741.00    2.04081   2.03131  117.902
 4742.00    2.03746   2.03211  117.257
 4743.00    2.06499   2.04003   -1.000
 4744.00    2.09015   2.04945   -1.000
 4745.00    2.12671   2.06387   -1.000
 4746.00    2.13850   2.08004   -1.000
 4747.00    2.13505   2.09912   -1.000
 4748.00    2.14473   2.11445   -1.000
 4749.00    2.15132   2.12486   -1.000
 4750.00    2.12744   2.12943  113.997
 4751.00    2.11153   2.11906  114.608
 4752.00    2.10191   2.09437  115.794
 4753.00    2.04385   2.06391  116.875
 4754.00    1.98863   2.03807   -1.000
 4755.00    1.98085   2.03183   -1.000
 4756.00    2.01126   2.03885  118.048
 4757.00    2.04633   2.05233  118.821
 4758.00    2.05798   2.06820  119.176
 4759.00    2.06022   2.08201  118.489
 4760.00    2.02340   2.08213   -1.000
 4761.00    1.95450   2.05764   -1.000
 4762.00    1.90732   2.01463   -1.000
 4763.00    1.88197   1.96782   -1.000
 4764.00    1.86363   1.93658   -1.000
 4765.00    1.84210   1.91888   -1.000
 4766.00    1.85265   1.91215   -1.000
 4767.00    1.89967   1.93425   -1.000
 4768.00    1.95574   1.99083   -1.000
 4769.00    2.02474   2.05077   -1.000
 4770.00    2.05197   2.07634   -1.000
 4771.00    2.02635   2.06727   -1.000
 4772.00    2.00532   2.05446   -1.000
 4773.00    2.02293   2.07098   -1.000
 4774.00    2.08111   2.10988   -1.000
 4775.00    2.10848   2.14297   -1.000
 4776.00    2.13194   2.15670  114.935
 4777.00    2.14951   2.15712  115.218
 4778.00    2.12828   2.15238   -1.000
 4779.00    2.07341   2.13941   -1.000
 4780.00    2.02861   2.11997   -1.000
 4781.00    2.03291   2.09808   -1.000
 4782.00    2.03810   2.07034   -1.000
 4783.00    2.01195   2.04144   -1.000
 4784.00    2.01288   2.03049  119.896
 4785.00    2.02494   2.03383  120.148
 4786.00    2.01187   2.03773   -1.000
 4787.00    2.00908   2.03812   -1.000
 4788.00    2.01322   2.04260   -1.000
 4789.00    2.02559   2.04977  121.619
 4790.00    2.02434   2.06308   -1.000
 4791.00    2.04105   2.08942   -1.000
 4792.00    2.07822   2.13445   -1.000
 4793.00    2.14327   2.19199   -1.000
 4794.00    2.21841   2.24587  113.399
 4795.00    2.25672   2.27893  112.548
 4796.00    2.23965   2.27119  113.257
 4797.00    2.19005   2.22830   -1.000
 4798.00    2.12580   2.17460   -1.000
 4799.00    2.08902   2.13736   -1.000
 4800.00    2.09805   2.13427   -1.000
 4801.00    2.14786   2.17017  116.701
 4802.00    2.20085   2.22196  114.800
 4803.00    2.21043   2.25127   -1.000
 4804.00    2.16378   2.23234   -1.000
 4805.00    2.12691   2.19209   -1.000
 4806.00    2.11798   2.15743   -1.000
 4807.00    2.07479   2.13663   -1.000
 4808.00    2.06313   2.13245   -1.000
 4809.00    2.09007   2.15127   -1.000
 4810.00    2.09950   2.17910   -1.000
 4811.00    2.12972   2.19758   -1.000
 4812.00    2.15349   2.20259   -1.000
 4813.00    2.14926   2.20309   -1.000
 4814.00    2.14365   2.21047   -1.000
 4815.00    2.14763   2.22866   -1.000
 4816.00    2.19729   2.25333   -1.000
 4817.00    2.22914   2.27703   -1.000
 4818.00    2.23376   2.29587   -1.000
 4819.00    2.24230   2.30777   -1.000
 4820.00    2.23694   2.30555   -1.000
 4821.00    2.20317   2.27714   -1.000
 4822.00    2.14617   2.22438   -1.000
 4823.00    2.10102   2.16559   -1.000
 4824.00    2.10360   2.13574   -1.000
 4825.00    2.15059   2.15883  117.049
 4826.00    2.18914   2.20554  115.129
 4827.00    2.19357   2.22828   -1.000
 4828.00    2.16887   2.21642   -1.000
 4829.00    2.15988   2.19993   -1.000
 4830.00    2.14648   2.18943   -1.000
 4831.00    2.10922   2.16919   -1.000
 4832.00    2.09414   2.14978   -1.000
 4833.00    2.12494   2.15882   -1.000
 4834.00    2.16916   2.19220  115.440
 4835.00    2.18314   2.23004   -1.000
 4836.00    2.19109   2.24668   -1.000
 4837.00    2.19736   2.24085   -1.000
 4838.00    2.17508   2.21780   -1.000
 4839.00    2.12943   2.18643   -1.000
 4840.00    2.11814   2.16501   -1.000
 4841.00    2.12790   2.16020  118.910
 4842.00    2.13100   2.16331   -1.000
 4843.00    2.11250   2.16691   -1.000
 4844.00    2.11833   2.18463   -1.000
 4845.00    2.17238   2.22464   -1.000
 4846.00    2.19652   2.25756   -1.000
 4847.00    2.15594   2.25356   -1.000
 4848.00    2.11575   2.22446   -1.000
 4849.00    2.13568   2.20781   -1.000
 4850.00    2.18324   2.22068   -1.000
 4851.00    2.19515   2.23791   -1.000
 4852.00    2.15903   2.23664   -1.000
 4853.00    2.11847   2.20520   -1.000
 4854.00    2.07978   2.14648   -1.000
 4855.00    2.01906   2.08551   -1.000
 4856.00    2.00713   2.05535   -1.000
 4857.00    2.02986   2.05631  123.333
 4858.00    1.99164   2.03217   -1.000
 4859.00    1.89257   1.92846   -1.000
 4860.00    1.76153   1.76724  148.438
 4861.00    1.66963   1.65573   -1.000
 4862.00    1.66641   1.67038  154.130
 4863.00    1.75362   1.78633  141.380
 4864.00    1.86860   1.91705   -1.000
 4865.00    1.97597   2.01937   -1.000
 4866.00    2.04967   2.08990   -1.000
 4867.00    2.07740   2.13487   -1.000
 4868.00    2.09333   2.15362   -1.000
 4869.00    2.09547   2.13777   -1.000
 4870.00    2.03362   2.07902   -1.000
 4871.00    1.93138   1.99879   -1.000
 4872.00    1.88227   1.96576   -1.000
 4873.00    1.94950   2.01980   -1.000
 4874.00    2.03987   2.10819   -1.000
 4875.00    2.05662   2.16885   -1.000
 4876.00    2.05329   2.19419   -1.000
 4877.00    2.11709   2.21628   -1.000
 4878.00    2.15605   2.25069   -1.000
 4879.00    2.15465   2.28337   -1.000
 4880.00    2.14382   2.29335   -1.000
 4881.00    2.08363   2.26919   -1.000
 4882.00    2.06164   2.23940   -1.000
 4883.00    2.08852   2.22889   -1.000
 4884.00    2.09179   2.21464   -1.000
 4885.00    2.04442   2.17580   -1.000
 4886.00    2.00763   2.13739   -1.000
 4887.00    2.03752   2.12957   -1.000
 4888.00    2.04912   2.13631   -1.000
 4889.00    2.03500   2.11625   -1.000
 4890.00    1.99771   2.06337   -1.000
 4891.00    1.97538   2.02814   -1.000
 4892.00    2.05096   2.07553  122.213
 4893.00    2.17849   2.20505  116.690
 4894.00    2.31262   2.35486   -1.000
 4895.00    2.39459   2.45217   -1.000
 4896.00    2.42184   2.48445   -1.000
 4897.00    2.41522   2.48308   -1.000
 4898.00    2.36629   2.45866   -1.000
 4899.00    2.31540   2.41743   -1.000
 4900.00    2.28380   2.37936   -1.000
 4901.00    2.26596   2.36027   -1.000
 4902.00    2.25568   2.34481   -1.000
 4903.00    2.25533   2.32596   -1.000
 4904.00    2.27508   2.32845   -1.000
 4905.00    2.30350   2.37585   -1.000
 4906.00    2.33915   2.43220   -1.000
 4907.00    2.34095   2.43973   -1.000
 4908.00    2.27068   2.38778   -1.000
 4909.00    2.18788   2.31235   -1.000
 4910.00    2.14677   2.25627   -1.000
 4911.00    2.16510   2.25002   -1.000
 4912.00    2.22208   2.29253   -1.000
 4913.00    2.28508   2.34987   -1.000
 4914.00    2.34509   2.39950   -1.000
 4915.00    2.39764   2.43356  113.066
 4916.00    2.41526   2.43003  113.123
 4917.00    2.32915   2.35413  116.008
 4918.00    2.15135   2.20270   -1.000
 4919.00    1.98711   2.04132   -1.000
 4920.00    1.92638   1.95322  130.785
 4921.00    1.99336   1.97793   -1.000
 4922.00    2.12256   2.08293   -1.000
 4923.00    2.19315   2.18372  120.989
 4924.00    2.21996   2.23728  120.374
 4925.00    2.25205   2.27087  119.305
 4926.00    2.28209   2.32984   -1.000
 4927.00    2.34490   2.40174   -1.000
 4928.00    2.41311   2.46627   -1.000
 4929.00    2.44902   2.51422   -1.000
 4930.00    2.47203   2.53394   -1.000
 4931.00    2.47130   2.51471  111.855
 4932.00    2.39130   2.45374   -1.000
 4933.00    2.29626   2.37801   -1.000
 4934.00    2.27290   2.33476   -1.000
 4935.00    2.31071   2.34315  118.332
 4936.00    2.30554   2.34997   -1.000
 4937.00    2.23899   2.29609   -1.000
 4938.00    2.14974   2.21268   -1.000
 4939.00    2.15281   2.18480  123.716
 4940.00    2.26772   2.24986   -1.000
 4941.00    2.37225   2.36126   -1.000
 4942.00    2.40254   2.45281   -1.000
 4943.00    2.43181   2.50035   -1.000
 4944.00    2.45638   2.50881   -1.000
 4945.00    2.45487   2.49558  112.746
 4946.00    2.44993   2.48390  113.180
 4947.00    2.47302   2.49836  112.553
 4948.00    2.53066   2.53518  111.301
 4949.00    2.56501   2.56696  110.647
 4950.00    2.57220   2.58108  110.233
 4951.00    2.57074   2.58212  110.473
 4952.00    2.54021   2.56745  111.188
 4953.00    2.49123   2.54012   -1.000
 4954.00    2.44301   2.49416   -1.000
 4955.00    2.36495   2.40318   -1.000
 4956.00    2.21784   2.25762   -1.000
 4957.00    2.09032   2.10941  126.697
 4958.00    2.11078   2.07708   -1.000
 4959.00    2.24366   2.19230   -1.000
 4960.00    2.35876   2.34720  115.584
 4961.00    2.41228   2.44437   -1.000
 4962.00    2.41602   2.46652   -1.000
 4963.00    2.39049   2.44982   -1.000
 4964.00    2.35289   2.40849   -1.000
 4965.00    2.29634   2.34893   -1.000
 4966.00    2.24285   2.30368   -1.000
 4967.00    2.23156   2.28927   -1.000
 4968.00    2.25808   2.29755   -1.000
 4969.00    2.27944   2.32373   -1.000
 4970.00    2.32738   2.36446   -1.000
 4971.00    2.35939   2.40967   -1.000
 4972.00    2.39309   2.45725   -1.000
 4973.00    2.43514   2.48991   -1.000
 4974.00    2.44100   2.50394   -1.000
 4975.00    2.41324   2.50043   -1.000
 4976.00    2.39868   2.47903   -1.000
 4977.00    2.37261   2.43905   -1.000
 4978.00    2.31609   2.39308   -1.000
 4979.00    2.26608   2.35394   -1.000
 4980.00    2.22657   2.31573   -1.000
 4981.00    2.15700   2.24687   -1.000
 4982.00    2.06474   2.14971   -1.000
 4983.00    2.04115   2.08453   -1.000
 4984.00    2.08523   2.09570  128.795
 4985.00    2.17982   2.17487  125.528
 4986.00    2.27901   2.27758  121.670
 4987.00    2.33714   2.36772  118.373
 4988.00    2.35917   2.41574   -1.000
 4989.00    2.34786   2.40968   -1.000
 4990.00    2.32282   2.37946   -1.000
 4991.00    2.32997   2.36659  120.581
 4992.00    2.37633   2.37805  119.855
 4993.00    2.39794   2.39590  119.153
 4994.00    2.36772   2.40639   -1.000
 4995.00    2.35334   2.41636   -1.000
 4996.00    2.37980   2.43609   -1.000
 4997.00    2.39495   2.44204   -1.000
 4998.00    2.34611   2.40457   -1.000
 4999.00    2.25565   2.33400   -1.000
 5000.00    2.20506   2.26272   -1.000
 5001.00    2.20504   2.22838  124.098
 5002.00    2.22789   2.23683  123.314
 5003.00    2.25129   2.25266  122.369
 5004.00    2.23541   2.23935  123.284
 5005.00    2.15893   2.18860   -1.000
 5006.00    2.11843   2.14409  127.567
 5007.00    2.17469   2.16317  125.648
 5008.00    2.24897   2.24662  122.010
 5009.00    2.28848   2.32812   -1.000
 5010.00    2.29111   2.35181   -1.000
 5011.00    2.23680   2.30911   -1.000
 5012.00    2.13967   2.22368   -1.000
 5013.00    2.07737   2.14029   -1.000
 5014.00    2.07201   2.10372   -1.000
 5015.00    2.12990   2.12517  129.848
 5016.00    2.18402   2.16916  127.051
 5017.00    2.16981   2.20280   -1.000
 5018.00    2.19131   2.22424  125.690
 5019.00    2.24426   2.25152  124.738
 5020.00    2.25406   2.27742  123.569
 5021.00    2.20911   2.27672   -1.000
 5022.00    2.18137   2.26312   -1.000
 5023.00    2.21826   2.27300   -1.000
 5024.00    2.30781   2.32165  122.474
 5025.00    2.36053   2.37118  121.489
 5026.00    2.31931   2.37686   -1.000
 5027.00    2.27453   2.34604   -1.000
 5028.00    2.30398   2.33204  121.654
 5029.00    2.36333   2.36138  119.719
 5030.00    2.39931   2.42232  117.819
 5031.00    2.42995   2.48872   -1.000
 5032.00    2.48702   2.54344   -1.000
 5033.00    2.51917   2.56774   -1.000
 5034.00    2.47768   2.53195   -1.000
 5035.00    2.38089   2.44789   -1.000
 5036.00    2.30215   2.36987   -1.000
 5037.00    2.29778   2.33720   -1.000
 5038.00    2.28514   2.31588  126.142
 5039.00    2.18054   2.24302   -1.000
 5040.00    2.04140   2.13173   -1.000
 5041.00    2.01681   2.07514   -1.000
 5042.00    2.14938   2.13832   -1.000
 5043.00    2.33679   2.29300   -1.000
 5044.00    2.48744   2.45792   -1.000
 5045.00    2.56446   2.57033  115.654
 5046.00    2.58797   2.60510  111.876
 5047.00    2.55600   2.57080  112.722
 5048.00    1.88400   2.48292   -1.000
 5049.00    0.51511   2.38399   -1.000
 5050.00   -0.11144   2.32412    0.000
 5051.00    0.47296   2.32317   -1.000
 5052.00    1.93750   2.35938   -1.000
 5053.00    2.52992   2.42547   -1.000
 5054.00    2.51228   2.49660   -1.000
 5055.00    2.54277   2.53827  114.424
 5056.00    2.55456   2.55844  113.832
 5057.00    2.58073   2.57520  113.862
 5058.00    2.61742   2.59468   -1.000
 5059.00    2.63066   2.62280  114.119
 5060.00    2.63986   2.65162  113.574
 5061.00    2.64916   2.67221  113.354
 5062.00    2.59162   2.65883   -1.000
 5063.00    2.48899   2.58456   -1.000
 5064.00    2.39165   2.47803   -1.000
 5065.00    2.35411   2.39988   -1.000
 5066.00    2.37651   2.38336  122.925
 5067.00    2.40018   2.40225  121.141
 5068.00    2.42659   2.42243  120.278
 5069.00    2.45878   2.44473   -1.000
 5070.00    2.48386   2.46947   -1.000
 5071.00    2.46499   2.47229  119.453
 5072.00    2.43530   2.45167  120.433
 5073.00    2.45300   2.44566  119.735
 5074.00    2.51322   2.46719   -1.000
 5075.00    2.52202   2.48786   -1.000
 5076.00    2.49749   2.49301  118.084
 5077.00    2.48721   2.47595  118.828
 5078.00    2.42436   2.41817  122.006
 5079.00    2.30381   2.32251  127.365
 5080.00    2.22259   2.25227  130.381
 5081.00    2.23264   2.25161  128.932
 5082.00    2.29877   2.29321  126.130
 5083.00    2.34677   2.34108  124.114
 5084.00    2.40031   2.38917  121.997
 5085.00    2.47688   2.44339   -1.000
 5086.00    2.51123   2.49368   -1.000
 5087.00    2.51684   2.52209  118.215
 5088.00    2.54562   2.53604  117.769
 5089.00    2.58081   2.54740   -1.000
 5090.00    2.59068   2.56160   -1.000
 5091.00    2.60601   2.58695   -1.000
 5092.00    2.64205   2.62606   -1.000
 5093.00    2.67109   2.66075  113.430
 5094.00    2.65950   2.65969  113.799
 5095.00    2.60485   2.60309  115.773
 5096.00    2.51965   2.51452  118.273
 5097.00    2.43339   2.43558  121.041
 5098.00    2.35424   2.37576  123.718
 5099.00    2.33464   2.35589  124.825
 5100.00    2.38945   2.39551  122.831
 5101.00    2.49438   2.47193   -1.000
 5102.00    2.55353   2.53049   -1.000
 5103.00    2.54522   2.53816  117.717
 5104.00    2.50534   2.51544  119.017
 5105.00    2.48011   2.48687  120.559
 5106.00    2.45516   2.45519  122.051
 5107.00    2.37854   2.42139   -1.000
 5108.00    2.33581   2.39537   -1.000
 5109.00    2.35083   2.39050   -1.000
 5110.00    2.38331   2.41157  122.459
 5111.00    2.43851   2.45537  120.978
 5112.00    2.51740   2.50565  119.398
 5113.00    2.56803   2.54299   -1.000
 5114.00    2.61474   2.57805   -1.000
 5115.00    2.65137   2.61745   -1.000
 5116.00    2.66037   2.65466  114.975
 5117.00    2.67848   2.68319  113.922
 5118.00    2.69028   2.69249  113.843
 5119.00    2.66296   2.67034  114.980
 5120.00    2.60952   2.62231  116.659
 5121.00    2.55233   2.56303  118.536
 5122.00    2.47415   2.49210  121.235
 5123.00    2.39056   2.42068   -1.000
 5124.00    2.35683   2.37010  126.568
 5125.00    2.36636   2.35811  126.041
 5126.00    2.39506   2.37751  125.230
 5127.00    2.40746   2.39549  124.534
 5128.00    2.39614   2.39959  124.412
 5129.00    2.40113   2.40503  124.410
 5130.00    2.44767   2.43019  123.266
 5131.00    2.52475   2.48059   -1.000
 5132.00    2.56122   2.53148   -1.000
 5133.00    2.57578   2.56302   -1.000
 5134.00    2.62536   2.58599   -1.000
 5135.00    2.64611   2.60409   -1.000
 5136.00    2.61225   2.59865   -1.000
 5137.00    2.53472   2.54475  121.287
 5138.00    2.45754   2.47375  123.572
 5139.00    2.42647   2.44210  124.308
 5140.00    2.45950   2.45253  123.574
 5141.00    2.50969   2.46825   -1.000
 5142.00    2.49857   2.46638   -1.000
 5143.00    2.48042   2.46244   -1.000
 5144.00    2.48710   2.47666   -1.000
 5145.00    2.48118   2.48068  122.982
 5146.00    2.43478   2.44866  123.651
 5147.00    2.40849   2.42153  124.262
 5148.00    2.44294   2.43653  123.306
 5149.00    2.48005   2.46946  122.315
 5150.00    2.47210   2.47381  123.129
 5151.00    2.43912   2.44535  125.188
 5152.00    2.40082   2.41374  126.503
 5153.00    2.39740   2.39788  126.310
 5154.00    2.44355   2.41071   -1.000
 5155.00    2.52349   2.47156   -1.000
 5156.00    2.62143   2.56600   -1.000
 5157.00    2.69451   2.65002   -1.000
 5158.00    2.72095   2.69573   -1.000
 5159.00    2.72967   2.71049   -1.000
 5160.00    2.72066   2.70508   -1.000
 5161.00    2.69496   2.68095   -1.000
 5162.00    2.64977   2.63141   -1.000
 5163.00    2.58471   2.55873   -1.000
 5164.00    2.46777   2.46278  121.623
 5165.00    2.26861   2.30858   -1.000
 5166.00    2.00935   2.08422   -1.000
 5167.00    1.80701   1.89335   -1.000
 5168.00    1.80632   1.85274   -1.000
 5169.00    1.94833   1.95058  147.855
 5170.00    2.01219   2.02755   -1.000
 5171.00    1.88969   1.96239   -1.000
 5172.00    1.73610   1.83527   -1.000
 5173.00    1.77061   1.82319   -1.000
 5174.00    2.00097   1.98741  144.179
 5175.00    2.26728   2.23040   -1.000
 5176.00    2.41335   2.39893  124.249
 5177.00    2.45871   2.46705  121.884
 5178.00    2.49557   2.48638  121.321
 5179.00    2.48311   2.46882  122.074
 5180.00    2.37078   2.39504   -1.000
 5181.00    2.16835   2.22947   -1.000
 5182.00    1.90894   1.99897   -1.000
 5183.00    1.72931   1.82053   -1.000
 5184.00    1.78231   1.82518   -1.000
 5185.00    2.06739   2.03007   -1.000
 5186.00    2.37785   2.29322   -1.000
 5187.00    2.54925   2.47630   -1.000
 5188.00    2.62813   2.56164   -1.000
 5189.00    2.66943   2.58762   -1.000
 5190.00    2.62800   2.56653   -1.000
 5191.00    2.50512   2.48376   -1.000
 5192.00    2.38161   2.38644  128.747
 5193.00    2.36840   2.35845  129.211
 5194.00    2.46947   2.40616   -1.000
 5195.00    2.51994   2.46007   -1.000
 5196.00    2.53927   2.51307   -1.000
 5197.00    2.59266   2.58074   -1.000
 5198.00    2.68028   2.65201   -1.000
 5199.00    2.71373   2.70030   -1.000
 5200.00    2.71287   2.71656  117.321
 5201.00    2.71229   2.69845   -1.000
 5202.00    2.66684   2.64483   -1.000
 5203.00    2.59153   2.55556   -1.000
 5204.00    2.48332   2.42583   -1.000
 5205.00    2.37356   2.29538   -1.000
 5206.00    2.32771   2.21885   -1.000
 5207.00    2.29971   2.19341   -1.000
 5208.00    2.28489   2.19648   -1.000
 5209.00    2.32355   2.23209   -1.000
 5210.00    2.45076   2.33453   -1.000
 5211.00    2.62798   2.49435   -1.000
 5212.00    2.77345   2.65616   -1.000
 5213.00    2.85148   2.74927   -1.000
 5214.00    2.81189   2.74919   -1.000
 5215.00    2.69464   2.68674   -1.000
 5216.00    2.64893   2.63629   -1.000
 5217.00    2.69258   2.65439   -1.000
 5218.00    2.75629   2.73362   -1.000
 5219.00    2.83773   2.82113   -1.000
 5220.00    2.91344   2.87872   -1.000
 5221.00    2.93529   2.89601   -1.000
 5222.00    2.87418   2.86358   -1.000
 5223.00    2.75590   2.77434  117.091
 5224.00    2.63018   2.63636  121.569
 5225.00    2.47878   2.47861  127.085
 5226.00    2.34860   2.36479  131.425
 5227.00    2.40088   2.36086   -1.000
 5228.00    2.58876   2.48714   -1.000
 5229.00    2.74478   2.67423   -1.000
 5230.00    2.84483   2.79828   -1.000
 5231.00    2.85443   2.80665   -1.000
 5232.00    2.78202   2.73521   -1.000
 5233.00    2.72315   2.65880   -1.000
 5234.00    2.71552   2.65351   -1.000
 5235.00    2.76481   2.73385   -1.000
 5236.00    2.85022   2.84202   -1.000
 5237.00    2.96915   2.93093   -1.000
 5238.00    3.02203   2.96593   -1.000
 5239.00    2.98219   2.95982   -1.000
 5240.00    2.92118   2.94162  112.627
 5241.00    2.91846   2.92512  112.095
 5242.00    2.94356   2.92339   -1.000
 5243.00    2.95977   2.94428   -1.000
 5244.00    2.98438   2.96789   -1.000
 5245.00    2.96151   2.94113   -1.000
 5246.00    2.83653   2.85353  116.367
 5247.00    2.72830   2.75742  119.416
 5248.00    2.72219   2.71064   -1.000
 5249.00    2.72837   2.70993   -1.000
 5250.00    2.70168   2.71088  121.284
 5251.00    2.71597   2.72337  121.153
 5252.00    2.77020   2.75965   -1.000
 5253.00    2.79342   2.78727   -1.000
 5254.00    2.78628   2.78866  118.076
 5255.00    2.79181   2.79623  117.529
 5256.00    2.87360   2.86159   -1.000
 5257.00    3.00665   2.97121   -1.000
 5258.00    3.06651   3.04769   -1.000
 5259.00    3.03879   3.04880  111.111
 5260.00    2.96770   2.97502  113.558
 5261.00    2.83837   2.84374  117.875
 5262.00    2.67717   2.68400  123.340
 5263.00    2.55054   2.52923   -1.000
 5264.00    2.44877   2.41415   -1.000
 5265.00    2.38948   2.35954   -1.000
 5266.00    2.43104   2.37289   -1.000
 5267.00    2.49134   2.41133   -1.000
 5268.00    2.44503   2.38732   -1.000
 5269.00    2.32459   2.28733   -1.000
 5270.00    2.32415   2.24357   -1.000
 5271.00    2.51436   2.35994   -1.000
 5272.00    2.71257   2.57551   -1.000
 5273.00    2.81872   2.71933   -1.000
 5274.00    2.83238   2.74192   -1.000
 5275.00    2.83964   2.75817   -1.000
 5276.00    2.91139   2.82063   -1.000
 5277.00    3.01994   2.93670   -1.000
 5278.00    3.12030   3.03641   -1.000
 5279.00    3.10844   3.04915   -1.000
 5280.00    3.01449   2.98295   -1.000
 5281.00    2.92352   2.88272   -1.000
 5282.00    2.86420   2.79078   -1.000
 5283.00    2.81802   2.74944   -1.000
 5284.00    2.87541   2.80654   -1.000
 5285.00    3.03181   2.94859   -1.000
 5286.00    3.15087   3.09548   -1.000
 5287.00    3.18126   3.16822   -1.000
 5288.00    3.20152   3.17038   16.377
 5289.00    3.21928   3.16269   10.965
 5290.00    3.23042   3.17224   10.919
 5291.00    3.22970   3.18197   10.881
 5292.00    3.18789   3.17011   10.918
 5293.00    3.16644   3.14870   11.011
 5294.00    3.16643   3.12010   11.145
 5295.00    3.08039   3.04991   11.399
 5296.00    2.92329   2.91278   11.800
 5297.00    2.78545   2.76763   12.165
 5298.00    2.76317   2.71471   12.213
 5299.00    2.87091   2.77101   11.967
 5300.00    2.95670   2.86487   11.714
 5301.00    2.98686   2.92715   11.595
 5302.00    3.05467   2.97776   11.478
 5303.00    3.16491   3.06039   11.219
 5304.00    3.28220   3.16583   10.978
 5305.00    3.32753   3.22976   10.897
 5306.00    3.27672   3.22167   10.964
 5307.00    3.22954   3.18635   11.066
 5308.00    3.24570   3.18076   11.047
 5309.00    3.29456   3.21364   10.941
 5310.00    3.31565   3.24961   10.856
 5311.00    3.31614   3.25209   10.842
 5312.00    3.29186   3.22855   10.889
 5313.00    3.27699   3.19845   10.942
 5314.00    3.26937   3.16834   11.011
 5315.00    3.24207   3.14008   11.111
 5316.00    3.21570   3.11143   11.215
 5317.00    3.20236   3.10317   11.249
 5318.00    3.20491   3.11902   11.190
 5319.00    3.21303   3.13530   11.129
 5320.00    3.22423   3.13933   11.143
 5321.00    3.19483   3.12346   11.212
 5322.00    3.14237   3.07642   11.328
 5323.00    3.10324   3.00031   11.507
 5324.00    3.05821   2.93176   11.646
 5325.00    3.02083   2.88511   11.675
 5326.00    2.95488   2.79750   11.887
 5327.00    2.77737   2.63423   12.519
 5328.00    2.63381   2.49325   13.066
 5329.00    2.68032   2.51620   12.837
 5330.00    2.89686   2.72001   12.130
 5331.00    3.08644   2.93004   11.629
 5332.00    3.15191   3.03026   11.434
 5333.00    3.17996   3.07657   11.327
 5334.00    3.23941   3.12859   11.203
 5335.00    3.28093   3.18728   11.127
 5336.00    3.27667   3.21130   11.163
 5337.00    3.25159   3.18595   11.238
 5338.00    3.21277   3.11879   11.345
 5339.00    3.11796   3.01175   11.581
 5340.00    3.00466   2.90629   11.818
 5341.00    3.00076   2.88407   11.815
 5342.00    3.09944   2.97052   11.557
 5343.00    3.18181   3.06898   11.311
 5344.00    3.20399   3.10681   11.249
 5345.00    3.19003   3.09314   11.304
 5346.00    3.15773   3.06154   11.379
 5347.00    3.12744   3.03131   11.440
 5348.00    3.12097   3.00254   11.528
 5349.00    3.14419   2.99407   11.581
 5350.00    3.20212   3.04335   11.465
 5351.00    3.27076   3.13654   11.221
 5352.00    3.32658   3.22604   11.041
 5353.00    3.37699   3.28249   10.976
 5354.00    3.44073   3.31825   10.909
 5355.00    3.51369   3.36574   10.784
 5356.00    3.52175   3.40178   10.684
 5357.00    3.52602   3.41303   10.666
 5358.00    3.50400   3.40731   10.683
 5359.00    3.44819   3.38891   10.715
 5360.00    3.39839   3.34874   10.813
 5361.00    3.34563   3.29251   10.980
 5362.00    3.29736   3.24193   11.150
 5363.00    3.24769   3.20338   11.255
 5364.00    3.19944   3.16824   11.323
 5365.00    3.15444   3.13874   11.390
 5366.00    3.17789   3.12528   11.388
 5367.00    3.23681   3.12621   11.373
 5368.00    3.20501   3.09797   11.453
 5369.00    3.05260   2.99540   11.688
 5370.00    2.93479   2.85750   12.028
 5371.00    2.91221   2.78243   12.172
 5372.00    3.01562   2.84395   11.867
 5373.00    3.20891   3.02193   11.342
 5374.00    3.35000   3.20067   10.985
 5375.00    3.39720   3.29895   10.850
 5376.00    3.42327   3.30651   10.852
 5377.00    3.42496   3.29314   10.868
 5378.00    3.42227   3.30239   10.883
 5379.00    3.41432   3.31792   10.933
 5380.00    3.38358   3.30981   11.028
 5381.00    3.35827   3.26906   11.139
 5382.00    3.33286   3.22343   11.211
 5383.00    3.30744   3.20287   11.221
 5384.00    3.34508   3.21480   11.181
 5385.00    3.40826   3.25587   11.081
 5386.00    3.41133   3.29566   11.026
 5387.00    3.37202   3.29835   11.056
 5388.00    3.31217   3.25452   11.147
 5389.00    3.25680   3.18617   11.300
 5390.00    3.21245   3.12326   11.443
 5391.00    3.17251   3.08866   11.517
 5392.00    3.15374   3.08107   11.535
 5393.00    3.15753   3.08359   11.560
 5394.00    3.14081   3.07630   11.631
 5395.00    3.09964   3.03265   11.765
 5396.00    3.04149   2.95855   11.979
 5397.00    3.01082   2.90604   12.065
 5398.00    3.06303   2.94509   11.812
 5399.00    3.16897   3.05658   11.459
 5400.00    3.24868   3.15059   11.309
 5401.00    3.28084   3.19513   11.310
 5402.00    3.25957   3.18223   11.380
 5403.00    3.14708   3.09917   11.646
 5404.00    2.96567   2.95204   12.027
 5405.00    2.86011   2.81388   12.276
 5406.00    2.89725   2.78868   12.236
 5407.00    2.97930   2.87902   12.007
 5408.00    3.03888   2.95895   11.853
 5409.00    3.07307   2.97031   11.896
 5410.00    3.10207   2.96131   11.896
 5411.00    3.18464   3.02293   11.655
 5412.00    3.31157   3.13857   11.365
 5413.00    3.36317   3.22294   11.202
 5414.00    3.35670   3.25364   11.174
 5415.00    3.38417   3.27856   11.183
 5416.00    3.42871   3.33010   11.127
 5417.00    3.46478   3.37956   11.049
 5418.00    3.45175   3.38525   11.059
 5419.00    3.37584   3.35119   11.152
 5420.00    3.33084   3.31400   11.235
 5421.00    3.35532   3.29833   11.223
 5422.00    3.37559   3.29617   11.175
 5423.00    3.36036   3.27069   11.268
 5424.00    3.32352   3.24322   11.395
 5425.00    3.33272   3.27796   11.342
 5426.00    3.42670   3.36024   11.165
 5427.00    3.46414   3.39135   11.128
 5428.00    3.34146   3.29898   11.356
 5429.00    3.18665   3.14209   11.714
 5430.00    3.16168   3.05970   11.848
 5431.00    3.23960   3.08889   11.697
 5432.00    3.24435   3.13574   11.620
 5433.00    3.16945   3.11549   11.740
 5434.00    3.14395   3.05024   11.891
 5435.00    3.14292   3.03146   11.902
 5436.00    3.20045   3.09893   11.720
 5437.00    3.34024   3.22585   11.418
 5438.00    3.49266   3.35667   11.153
 5439.00    3.56752   3.45230   10.975
 5440.00    3.62265   3.50741   10.867
 5441.00    3.63266   3.53151   10.828
 5442.00    3.60641   3.54120   10.824
 5443.00    3.56539   3.51537   10.902
 5444.00    3.48825   3.41914   11.142
 5445.00    3.30001   3.25173   11.556
 5446.00    3.10760   3.08206   11.975
 5447.00    3.08312   3.00787   12.035
 5448.00    3.22282   3.07184   11.724
 5449.00    3.34331   3.20871   11.373
 5450.00    3.37514   3.31049   11.201
 5451.00    3.36991   3.32993   11.175
 5452.00    3.35130   3.29985   11.244
 5453.00    3.28725   3.22656   11.457
 5454.00    3.16771   3.11008   11.773
 5455.00    3.08256   3.00589   12.057
 5456.00    3.13997   3.00809   12.016
 5457.00    3.30772   3.13606   11.659
 5458.00    3.43374   3.29633   11.307
 5459.00    3.43515   3.36918   11.170
 5460.00    3.38748   3.34352   11.248
 5461.00    3.32104   3.26732   11.441
 5462.00    3.25313   3.19306   11.618
 5463.00    3.22622   3.16778   11.709
 5464.00    3.27954   3.19821   11.625
 5465.00    3.38268   3.25626   11.480
 5466.00    3.44312   3.30756   11.402
 5467.00    3.44354   3.34031   11.300
 5468.00    3.41404   3.35354   11.225
 5469.00    3.37342   3.34231   11.286
 5470.00    3.35393   3.31026   11.405
 5471.00    3.37616   3.28093   11.471
 5472.00    3.38302   3.26418   11.521
 5473.00    3.34506   3.24408   11.622
 5474.00    3.28438   3.19712   11.774
 5475.00    3.19045   3.12033   12.002
 5476.00    3.11297   3.04398   12.214
 5477.00    3.13014   3.03565   12.195
 5478.00    3.24466   3.13057   11.891
 5479.00    3.31795   3.23108   11.614
 5480.00    3.28842   3.24015   11.611
 5481.00    3.21970   3.18698   11.748
 5482.00    3.22569   3.16506   11.780
 5483.00    3.31359   3.23903   11.624
 5484.00    3.41066   3.34977   11.391
 5485.00    3.46063   3.40895   11.249
 5486.00    3.40358   3.39044   11.298
 5487.00    3.30364   3.32134   11.451
 5488.00    3.27781   3.27450   11.550
 5489.00    3.33939   3.28363   11.569
 5490.00    3.40068   3.33225   11.511
 5491.00    3.44648   3.36964   11.426
 5492.00    3.45881   3.37862   11.371
 5493.00    3.43096   3.37136   11.376
 5494.00    3.43626   3.36593   11.390
 5495.00    3.46542   3.36121   11.389
 5496.00    3.44788   3.33990   11.445
 5497.00    3.43949   3.31768   11.530
 5498.00    3.47787   3.33106   11.512
 5499.00    3.51017   3.36812   11.398
 5500.00    3.45474   3.36937   11.418
 5501.00    3.39819   3.31731   11.581
 5502.00    3.40358   3.26370   11.656
 5503.00    3.39785   3.26042   11.590
 5504.00    3.38731   3.27794   11.540
 5505.00    3.35488   3.25719   11.643
 5506.00    3.31304   3.21518   11.778
 5507.00    3.34474   3.21777   11.738
 5508.00    3.40166   3.28294   11.566
 5509.00    3.42578   3.34987   11.471
 5510.00    3.40745   3.34659   11.513
 5511.00    3.33933   3.27246   11.696
 5512.00    3.26736   3.18545   11.907
 5513.00    3.24406   3.13746   12.039
 5514.00    3.26898   3.15145   11.971
 5515.00    3.31588   3.19882   11.773
 5516.00    3.39718   3.26311   11.585
 5517.00    3.50970   3.34309   11.381
 5518.00    3.58871   3.42840   11.183
 5519.00    3.59990   3.49258   11.106
 5520.00    3.58566   3.51297   11.115
 5521.00    3.59389   3.49903   11.137
 5522.00    3.60057   3.49204   11.170
 5523.00    3.57775   3.49610   11.196
 5524.00    3.53978   3.49163   11.248
 5525.00    3.50601   3.44879   11.376
 5526.00    3.42172   3.35988   11.608
 5527.00    3.31311   3.25426   11.902
 5528.00    3.29242   3.19273   12.047
 5529.00    3.34947   3.23753   11.879
 5530.00    3.46082   3.34983   11.571
 5531.00    3.53836   3.43512   11.371
 5532.00    3.54680   3.45383   11.346
 5533.00    3.52137   3.42979   11.432
 5534.00    3.48621   3.40589   11.507
 5535.00    3.49289   3.39348   11.496
 5536.00    3.51509   3.39552   11.415
 5537.00    3.52008   3.41261   11.364
 5538.00    3.53824   3.43822   11.324
 5539.00    3.59180   3.47615   11.231
 5540.00    3.65916   3.52341   11.134
 5541.00    3.70347   3.54647   11.110
 5542.00    3.66264   3.52742   11.194
 5543.00    3.58719   3.48761   11.312
 5544.00    3.55453   3.46339   11.368
 5545.00    3.55576   3.46391   11.352
 5546.00    3.56860   3.47627   11.323
 5547.00    3.62225   3.50382   11.266
 5548.00    3.69549   3.55802   11.165
 5549.00    3.73222   3.60930   11.065
 5550.00    3.77704   3.62721   11.019
 5551.00    3.75956   3.61763   11.054
 5552.00    3.69659   3.58470   11.141
 5553.00    3.66503   3.54014   11.261
 5554.00    3.63957   3.50867   11.340
 5555.00    3.65534   3.50391   11.343
 5556.00    3.67462   3.51219   11.311
 5557.00    3.64370   3.51556   11.286
 5558.00    3.63832   3.51596   11.271
 5559.00    3.65682   3.52501   11.258
 5560.00    3.64350   3.52870   11.271
 5561.00    3.60288   3.50629   11.320
 5562.00    3.56313   3.46937   11.418
 5563.00    3.57174   3.44818   11.512
 5564.00    3.59172   3.44284   11.558
 5565.00    3.54649   3.43414   11.583
 5566.00    3.49945   3.41698   11.599
 5567.00    3.52666   3.40712   11.585
 5568.00    3.56164   3.40921   11.559
 5569.00    3.56920   3.41848   11.575
 5570.00    3.59757   3.43275   11.582
 5571.00    3.60117   3.44062   11.578
 5572.00    3.57376   3.42977   11.603
 5573.00    3.59159   3.41579   11.580
 5574.00    3.76929   3.43672   -1.000
 5575.00    4.42148   3.49118   -1.000
 5576.00    5.87225   3.52213   -1.000
 5577.00    6.74903   3.53039   -1.000
 5578.00    5.02612   3.55330   -1.000
 5579.00    1.75534   3.57827   -1.000
 5580.00    0.47049   3.58275   -1.000
 5581.00    1.53290   3.57065   -1.000
 5582.00    2.82438   3.54422   -1.000
 5583.00    3.43493   3.52256   11.411
 5584.00    3.60181   3.49818   11.453
 5585.00    3.55430   3.42448   11.651
 5586.00    3.41957   3.30619   11.944
 5587.00    3.33902   3.18848   12.224
 5588.00    3.33010   3.13680   12.373
 5589.00    3.38453   3.16881   -1.000
 5590.00    3.42108   3.24362   12.088
 5591.00    3.43387   3.32285   11.901
 5592.00    3.48000   3.36425   11.825
 5593.00    3.49684   3.37860   11.852
 5594.00    3.49695   3.40656   11.821
 5595.00    3.58592   3.46822   11.676
 5596.00    3.67650   3.52485   11.553
 5597.00    3.63817   3.51217   11.601
 5598.00    3.53421   3.43174   11.783
 5599.00    3.47792   3.35352   11.937
 5600.00    3.45147   3.30984   11.968
 5601.00    3.43054   3.28844   12.008
 5602.00    3.44981   3.28533   12.073
 5603.00    3.52311   3.33799   11.954
 5604.00    3.64216   3.45718   11.656
 5605.00    3.74862   3.58332   11.369
 5606.00    3.77816   3.66283   11.196
 5607.00    3.76174   3.69498   11.142
 5608.00    3.75531   3.69332   11.150
 5609.00    3.75908   3.68528   11.173
 5610.00    3.77691   3.69175   11.172
 5611.00    3.80099   3.71759   11.143
 5612.00    3.78753   3.71888   11.168
 5613.00    3.70900   3.64230   11.346
 5614.00    3.56377   3.48029   11.698
 5615.00    3.43479   3.32101   12.021
 5616.00    3.44499   3.28052   12.034
 5617.00    3.54346   3.35803   11.790
 5618.00    3.60574   3.45622   11.583
 5619.00    3.61774   3.49980   11.519
 5620.00    3.67122   3.52446   11.480
 5621.00    3.71567   3.56790   11.423
 5622.00    3.70607   3.57851   11.438
 5623.00    3.65119   3.51256   11.613
 5624.00    3.55892   3.41813   11.841
 5625.00    3.50416   3.37320   11.874
 5626.00    3.54877   3.42395   11.709
 5627.00    3.62613   3.51309   11.525
 5628.00    3.70456   3.57788   11.383
 5629.00    3.75018   3.62390   11.285
 5630.00    3.77258   3.65505   11.239
 5631.00    3.81111   3.66657   11.200
 5632.00    3.80770   3.65772   11.193
 5633.00    3.76352   3.63497   11.260
 5634.00    3.74077   3.60788   11.346
 5635.00    3.70333   3.57122   11.420
 5636.00    3.64925   3.53425   11.500
 5637.00    3.63112   3.51512   11.581
 5638.00    3.66331   3.51925   11.606
 5639.00    3.68596   3.53183   11.595
 5640.00    3.66564   3.52627   11.618
 5641.00    3.64058   3.50261   11.637
 5642.00    3.64691   3.49644   11.605
 5643.00    3.67502   3.52163   11.551
 5644.00    3.71353   3.55059   11.522
 5645.00    3.74321   3.57358   11.462
 5646.00    3.72949   3.59549   11.412
 5647.00    3.71729   3.60545   11.384
 5648.00    3.74241   3.59956   11.363
 5649.00    3.75519   3.58940   11.377
 5650.00    3.75139   3.60152   11.387
 5651.00    3.78332   3.64249   11.323
 5652.00    3.82413   3.67570   11.270
 5653.00    3.80092   3.66666   11.294
 5654.00    3.74129   3.63011   11.373
 5655.00    3.68234   3.60020   11.479
 5656.00    3.60124   3.56146   11.666
 5657.00    3.51511   3.48093   11.989
 5658.00    3.46742   3.38739   12.245
 5659.00    3.49510   3.36660   12.177
 5660.00    3.58450   3.43440   11.923
 5661.00    3.62560   3.49232   11.807
 5662.00    3.62233   3.49038   11.816
 5663.00    3.68417   3.50723   11.732
 5664.00    3.75382   3.57182   11.570
 5665.00    3.76654   3.62908   11.486
 5666.00    3.73011   3.63899   11.519
 5667.00    3.68304   3.60610   11.590
 5668.00    3.68360   3.58008   11.621
 5669.00    3.69476   3.58373   11.603
 5670.00    3.70950   3.60101   11.540
 5671.00    3.75408   3.63557   11.445
 5672.00    3.82878   3.69159   11.334
 5673.00    3.90137   3.74087   11.223
 5674.00    3.91208   3.75946   11.191
 5675.00    3.88988   3.75939   11.223
 5676.00    3.91582   3.76108   11.211
 5677.00    3.95671   3.77353   11.185
 5678.00    3.92059   3.77230   11.220
 5679.00    3.89255   3.74429   11.272
 5680.00    3.86522   3.70637   11.332
 5681.00    3.79394   3.66055   11.445
 5682.00    3.72410   3.60579   11.584
 5683.00    3.73336   3.58354   11.644
 5684.00    3.76181   3.61898   11.601
 5685.00    3.76995   3.65673   11.540
 5686.00    3.75068   3.64119   11.563
 5687.00    3.71762   3.59904   11.679
 5688.00    3.74093   3.57885   11.752
 5689.00    3.80269   3.61284   11.668
 5690.00    3.85329   3.68353   11.471
 5691.00    3.89484   3.75281   11.327
 5692.00    3.92212   3.80067   11.249
 5693.00    3.93017   3.81256   11.214
 5694.00    3.94784   3.80291   11.220
 5695.00    3.96376   3.78894   11.231
 5696.00    3.92434   3.77171   11.256
 5697.00    3.86324   3.73842   11.344
 5698.00    3.81371   3.69053   11.473
 5699.00    3.77673   3.64853   11.585
 5700.00    3.76388   3.61718   11.701
 5701.00    3.71069   3.58410   11.779
 5702.00    3.65045   3.58272   11.731
 5703.00    3.67259   3.62474   11.613
 5704.00    3.69965   3.66056   11.554
 5705.00    3.66270   3.65304   11.604
 5706.00    3.60784   3.59312   11.746
 5707.00    3.57936   3.51956   11.954
 5708.00    3.54764   3.46757   12.154
 5709.00    3.53774   3.43579   12.259
 5710.00    3.54287   3.43956   12.256
 5711.00    3.55958   3.47407   12.155
 5712.00    3.63915   3.53867   11.939
 5713.00    3.78536   3.63969   11.652
 5714.00    3.90934   3.72921   11.439
 5715.00    3.94447   3.77258   11.361
 5716.00    3.93565   3.79728   11.337
 5717.00    3.94412   3.81105   11.305
 5718.00    3.96798   3.82276   11.255
 5719.00    3.98896   3.84352   11.187
 5720.00    4.02558   3.87776   11.127
 5721.00    4.06909   3.91451   11.094
 5722.00    4.10494   3.94201   11.075
 5723.00    4.12225   3.95700   11.061
 5724.00    4.09639   3.94977   11.075
 5725.00    4.02184   3.90383   11.150
 5726.00    3.96352   3.83601   11.264
 5727.00    3.94897   3.79672   11.364
 5728.00    3.95809   3.81332   11.348
 5729.00    3.98819   3.85525   11.275
 5730.00    3.97833   3.86216   11.276
 5731.00    3.93618   3.83735   11.330
 5732.00    3.95906   3.83336   11.319
 5733.00    4.02047   3.88066   11.224
 5734.00    4.06228   3.93857   11.139
 5735.00    4.09094   3.95279   11.126
 5736.00    4.10143   3.93158   11.142
 5737.00    4.08063   3.90282   11.169
 5738.00    4.05361   3.89231   11.186
 5739.00    4.04573   3.90126   11.204
 5740.00    4.03279   3.90741   11.224
 5741.00    4.01056   3.90462   11.247
 5742.00    3.99936   3.89430   11.236
 5743.00    4.02691   3.90405   11.218
 5744.00    4.07353   3.94394   11.158
 5745.00    4.09728   3.97927   11.088
 5746.00    4.07480   3.97030   11.113
 5747.00    4.00937   3.91379   11.214
 5748.00    3.99078   3.88015   11.280
 5749.00    4.04086   3.91266   11.244
 5750.00    4.06811   3.95436   11.195
 5751.00    4.04309   3.94292   11.247
 5752.00    3.98223   3.85715   11.375
 5753.00    3.93367   3.77129   11.499
 5754.00    3.95153   3.76586   -1.000
 5755.00    4.02218   3.84729   11.423
 5756.00    4.12294   3.96148   11.224
 5757.00    4.18516   4.02893   11.066
 5758.00    4.17177   4.03018   11.053
 5759.00    4.09844   3.97146   11.156
 5760.00    3.98330   3.87925   11.300
 5761.00    3.86631   3.79271   11.453
 5762.00    3.83545   3.74991   11.542
 5763.00    3.92189   3.78989   11.468
 5764.00    4.04409   3.90085   11.280
 5765.00    4.11385   4.00337   11.120
 5766.00    4.12373   4.04227   11.057
 5767.00    4.15139   4.05212   11.043
 5768.00    4.16572   4.04858   11.027
 5769.00    4.14912   4.03310   11.036
 5770.00    4.11307   4.01376   11.070
 5771.00    4.06737   3.99580   11.125
 5772.00    4.01226   3.97329   11.193
 5773.00    3.99097   3.95428   11.234
 5774.00    3.98218   3.94163   11.250
 5775.00    3.97843   3.94218   11.238
 5776.00    3.97316   3.96494   11.190
 5777.00    3.93329   3.98163   11.164
 5778.00    3.83761   3.95807   11.187
 5779.00    3.64962   3.87969   11.312
 5780.00    3.46644   3.76686   11.545
 5781.00    3.45198   3.67114   11.735
 5782.00    3.53394   3.63817   11.763
 5783.00    3.63943   3.65818   11.718
 5784.00    3.70994   3.66618   11.674
 5785.00    3.72886   3.67080   11.632
 5786.00    3.80096   3.72907   11.529
 5787.00    3.91043   3.82183   11.380
 5788.00    3.97872   3.89088   11.272
 5789.00    4.01896   3.91346   11.256
 5790.00    4.01546   3.89623   11.299
 5791.00    4.02119   3.88701   11.305
 5792.00    4.08178   3.92281   11.232
 5793.00    4.11429   4.00345   11.147
 5794.00    4.11612   4.07668   11.078
 5795.00    4.10963   4.09505   11.052
 5796.00    4.04359   4.05739   11.097
 5797.00    3.98383   3.99721   11.170
 5798.00    4.04504   3.98647   11.156
 5799.00    4.19452   4.04425   11.036
 5800.00    4.30620   4.13396   10.885
 5801.00    4.30898   4.19008   10.819
 5802.00    4.26816   4.18074   10.878
 5803.00    4.25437   4.12565   10.970
 5804.00    4.23102   4.06193   11.058
 5805.00    4.17748   4.03318   11.120
 5806.00    4.15139   4.03951   11.117
 5807.00    4.15739   4.06159   11.077
 5808.00    4.17053   4.08235   11.041
 5809.00    4.19567   4.09960   11.031
 5810.00    4.21853   4.11536   11.025
 5811.00    4.24602   4.11902   10.992
 5812.00    4.22659   4.10616   10.955
 5813.00    4.18876   4.07863   10.961
 5814.00    4.14367   4.03303   11.032
 5815.00    4.11516   3.97974   11.099
 5816.00    4.13803   3.96275   11.075
 5817.00    4.18338   4.01528   11.000
 5818.00    4.25004   4.09814   10.935
 5819.00    4.31404   4.15477   10.880
 5820.00    4.33650   4.16797   10.838
 5821.00    4.29462   4.15391   10.839
 5822.00    4.25336   4.12821   10.873
 5823.00    4.24128   4.11359   10.873
 5824.00    4.27239   4.11974   10.853
 5825.00    4.30671   4.13314   10.835
 5826.00    4.30308   4.14897   10.821
 5827.00    4.30526   4.15856   10.820
 5828.00    4.32421   4.16651   10.836
 5829.00    4.35277   4.17716   10.829
 5830.00    4.35338   4.18314   10.823
 5831.00    4.34153   4.18188   10.815
 5832.00    4.34281   4.17417   10.824
 5833.00    4.33281   4.15439   10.882
 5834.00    4.29019   4.12736   10.920
 5835.00    4.26110   4.11636   10.898
 5836.00    4.26802   4.12965   10.869
 5837.00    4.25427   4.13361   10.888
 5838.00    4.23453   4.12716   10.918
 5839.00    4.28264   4.14050   10.902
 5840.00    4.35551   4.17602   10.833
 5841.00    4.37139   4.21713   10.767
 5842.00    4.36371   4.23731   10.752
 5843.00    4.35266   4.22488   10.780
 5844.00    4.29772   4.19279   10.821
 5845.00    4.24597   4.14960   10.884
 5846.00    4.22310   4.10591   10.946
 5847.00    4.18743   4.07361   10.999
 5848.00    4.17599   4.06471   11.008
 5849.00    4.19384   4.07039   11.013
 5850.00    4.18641   4.06591   11.064
 5851.00    4.13851   4.02751   11.133
 5852.00    4.09380   3.97585   11.230
 5853.00    4.07751   3.94882   11.304
 5854.00    4.07413   3.95304   11.332
 5855.00    4.07226   3.94945   11.345
 5856.00    4.03184   3.88566   11.428
 5857.00    3.97529   3.80336   11.543
 5858.00    3.97184   3.78668   11.522
 5859.00    4.03358   3.85538   11.389
 5860.00    4.11714   3.94912   11.278
 5861.00    4.18694   3.99484   -1.000
 5862.00    4.21347   3.99984   -1.000
 5863.00    4.21122   3.99740   -1.000
 5864.00    4.22121   4.00124   -1.000
 5865.00    4.22655   3.99224   -1.000
 5866.00    4.20931   3.95976   -1.000
 5867.00    4.20477   3.95165   -1.000
 5868.00    4.19430   4.00344   11.193
 5869.00    4.20423   4.06990   11.091
 5870.00    4.20460   4.10616   11.030
 5871.00    4.20678   4.10654   11.015
 5872.00    4.22324   4.08192   11.036
 5873.00    4.22322   4.06035   11.048
 5874.00    4.21970   4.05339   11.036
 5875.00    4.19972   4.05520   11.052
 5876.00    4.17142   4.04205   11.097
 5877.00    4.17166   4.01027   11.124
 5878.00    4.18321   3.96985   -1.000
 5879.00    4.17974   3.93183   -1.000
 5880.00    4.14403   3.91095   -1.000
 5881.00    4.10374   3.91854   11.266
 5882.00    4.10163   3.93730   11.255
 5883.00    4.09727   3.92426   11.290
 5884.00    4.12314   3.89956   -1.000
 5885.00    4.14325   3.88480   -1.000
 5886.00    4.11736   3.81761   -1.000
 5887.00    4.04439   3.60655   -1.000
 5888.00    3.98941   3.22803   -1.000
 5889.00    3.99155   2.83541   -1.000
 5890.00    3.72127   2.67600   -1.000
 5891.00    2.83683   2.82746   13.512
 5892.00    1.96703   3.11013   -1.000
 5893.00    2.01106   3.25231   -1.000
 5894.00    2.68216   3.17063   -1.000
 5895.00    3.27843   2.98433   -1.000
 5896.00    3.46734   2.92981   -1.000
 5897.00    3.18950   3.13537   12.800
 5898.00    2.83939   3.41009   -1.000
 5899.00    2.96850   3.60165   -1.000
 5900.00    3.48708   3.73919   11.688
 5901.00    3.90531   3.83847   11.464
 5902.00    4.06917   3.90009   11.359
 5903.00    4.11974   3.93225   11.339
 5904.00    4.15803   3.93824   -1.000
 5905.00    4.16618   3.93363   -1.000
 5906.00    4.14653   3.93680   -1.000
 5907.00    4.13285   3.96202   11.331
 5908.00    4.12651   3.99228   11.305
 5909.00    4.14618   4.01514   11.324
 5910.00    4.18857   4.03565   11.351
 5911.00    4.20275   4.03894   11.362
 5912.00    4.18646   4.00573   11.395
 5913.00    4.14925   3.93691   -1.000
 5914.00    4.09813   3.87213   -1.000
 5915.00    4.07780   3.85535   -1.000
 5916.00    4.06763   3.88495   11.590
 5917.00    4.04934   3.93692   11.539
 5918.00    4.06657   3.99338   11.494
 5919.00    4.13433   4.02906   11.460
 5920.00    4.17478   4.03943   11.423
 5921.00    4.18740   4.02781   11.411
 5922.00    4.19065   4.00860   11.423
 5923.00    4.15401   4.00736   11.394
 5924.00    4.16807   4.03369   11.352
 5925.00    4.21317   4.06898   11.328
 5926.00    4.22059   4.09226   11.316
 5927.00    4.18446   4.07957   11.329
 5928.00    4.12818   4.03269   11.394
 5929.00    4.10333   3.98953   11.484
 5930.00    4.14413   3.98596   11.505
 5931.00    4.23445   4.03256   -1.000
 5932.00    4.30115   4.06919   -1.000
 5933.00    4.28474   4.05523   -1.000
 5934.00    4.18976   4.02111   11.475
 5935.00    4.12469   4.01963   11.511
 5936.00    4.14446   4.06908   11.463
 5937.00    4.20489   4.11651   11.369
 5938.00    4.24545   4.13269   11.308
 5939.00    4.25219   4.11898   11.327
 5940.00    4.20484   4.07364   11.424
 5941.00    4.16886   4.02537   11.508
 5942.00    4.20676   4.01598   -1.000
 5943.00    4.25844   4.05887   -1.000
 5944.00    4.28796   4.11351   11.397
 5945.00    4.32595   4.14509   11.345
 5946.00    4.32173   4.14295   11.355
 5947.00    4.24454   4.10472   11.439
 5948.00    4.17946   4.05201   11.558
 5949.00    4.17547   4.03550   11.614
 5950.00    4.20801   4.05861   11.576
 5951.00    4.25677   4.06532   11.525
 5952.00    4.26279   4.04651   -1.000
 5953.00    4.23533   4.03686   -1.000
 5954.00    4.21296   4.05727   11.519
 5955.00    4.18576   4.06518   11.514
 5956.00    4.12965   4.03466   11.549
 5957.00    4.11103   4.01040   11.577
 5958.00    4.15582   4.03506   11.549
 5959.00    4.22088   4.09528   11.440
 5960.00    4.27727   4.15832   11.319
 5961.00    4.31073   4.19744   11.257
 5962.00    4.32018   4.20409   11.237
 5963.00    4.30707   4.19168   11.253
 5964.00    4.26682   4.16469   11.306
 5965.00    4.25545   4.13551   11.353
 5966.00    4.28354   4.13197   11.392
 5967.00    4.31186   4.16504   11.387
 5968.00    4.34392   4.19980   11.315
 5969.00    4.37381   4.22148   11.266
 5970.00    4.39700   4.24200   11.259
 5971.00    4.40528   4.25499   11.242
 5972.00    4.37120   4.25142   11.225
 5973.00    4.31701   4.23339   11.264
 5974.00    4.28765   4.19562   11.349
 5975.00    4.28141   4.13573   11.437
 5976.00    4.28026   4.08318   -1.000
 5977.00    4.25390   4.06232   -1.000
 5978.00    4.21683   4.07854   11.560
 5979.00    4.21787   4.12783   11.470
 5980.00    4.27315   4.17649   11.408
 5981.00    4.30395   4.18617   11.417
 5982.00    4.25573   4.13376   11.493
 5983.00    4.16933   4.05466   11.595
 5984.00    4.12497   4.01047   11.666
 5985.00    4.17668   4.04286   11.653
 5986.00    4.26356   4.11659   11.551
 5987.00    4.32426   4.16447   11.462
 5988.00    4.34152   4.19143   11.417
 5989.00    4.33701   4.20936   11.368
 5990.00    4.32453   4.21226   11.362
 5991.00    4.30071   4.21373   11.390
 5992.00    4.31896   4.24489   11.359
 5993.00    4.36178   4.30066   11.271
 5994.00    4.38350   4.33219   11.219
 5995.00    4.39601   4.30668   11.266
 5996.00    4.35567   4.24122   11.350
 5997.00    4.29580   4.18622   11.408
 5998.00    4.29403   4.17369   11.439
 5999.00    4.30509   4.19387   11.431
 6000.00    4.31847   4.21278   11.430
 6001.00    4.32908   4.21238   11.482
 6002.00    4.32980   4.19186   11.533
 6003.00    4.34145   4.18392   11.540
 6004.00    4.33980   4.20790   11.515
 6005.00    4.27386   4.20956   11.509
 6006.00    4.18254   4.15110   11.571
 6007.00    4.14787   4.08077   11.681
 6008.00    4.16483   4.07048   11.719
 6009.00    4.19592   4.14650   11.619
 6010.00    4.23300   4.23048   11.489
 6011.00    4.26498   4.23768   11.456
 6012.00    4.23230   4.19533   11.525
 6013.00    4.20953   4.15908   11.598
 6014.00    4.27345   4.16308   11.576
 6015.00    4.32114   4.18143   11.550
 6016.00    4.30573   4.16798   11.589
 6017.00    4.28956   4.15683   11.622
 6018.00    4.27517   4.16561   11.607
 6019.00    4.24381   4.15235   11.619
 6020.00    4.23467   4.13235   11.685
 6021.00    4.26523   4.14220   11.680
 6022.00    4.31658   4.17078   11.605
 6023.00    4.37091   4.20156   -1.000
 6024.00    4.39885   4.23472   -1.000
 6025.00    4.39327   4.27396   11.495
 6026.00    4.41492   4.30808   11.446
 6027.00    4.46731   4.33484   11.388
 6028.00    4.50847   4.36888   11.329
 6029.00    4.52014   4.39506   11.304
 6030.00    4.50771   4.39843   11.303
 6031.00    4.53649   4.40238   11.323
 6032.00    4.58581   4.41884   -1.000
 6033.00    4.58878   4.44994   11.275
 6034.00    4.57775   4.48432   11.238
 6035.00    4.55323   4.49244   11.227
 6036.00    4.49362   4.47768   11.212
 6037.00    4.44555   4.45538   11.213
 6038.00    4.44895   4.43147   11.262
 6039.00    4.44895   4.41040   11.301
 6040.00    4.41308   4.39946   11.330
 6041.00    4.43743   4.40817   11.326
 6042.00    4.51111   4.43381   11.305
 6043.00    4.56071   4.47149   11.261
 6044.00    4.61288   4.50011   11.179
 6045.00    4.64151   4.51385   11.153
 6046.00    4.61782   4.52429   11.163
 6047.00    4.58616   4.52997   11.150
 6048.00    4.58011   4.53078   11.151
 6049.00    4.58741   4.53046   11.183
 6050.00    4.59043   4.53504   11.213
 6051.00    4.58578   4.52921   11.227
 6052.00    4.59221   4.49496   11.245
 6053.00    4.58038   4.45247   11.284
 6054.00    4.53550   4.41928   11.323
 6055.00    4.50821   4.38522   11.376
 6056.00    4.47468   4.36685   11.422
 6057.00    4.46597   4.38224   11.418
 6058.00    4.52259   4.41940   11.368
 6059.00    4.57770   4.46130   11.307
 6060.00    4.60318   4.48224   11.298
 6061.00    4.59651   4.46762   11.323
 6062.00    4.53109   4.41706   11.441
 6063.00    4.43300   4.34577   11.654
 6064.00    4.33937   4.28358   11.464
 6065.00    4.29462   4.27580   15.006
 6066.00    4.42533   4.35265    5.154
 6067.00    4.21647   4.46073    5.903
 6068.00    2.63177   4.53676   -1.000
 6069.00    2.31763   4.57052   -1.000
 6070.00    3.77435   4.58826   -1.000
 6071.00    4.68325   4.60082   10.914
 6072.00    4.23059   4.60413   11.033
 6073.00    2.13974   4.59869   -1.000
 6074.00    2.60755   4.58899   -1.000
 6075.00    4.34642   4.56751   11.232
 6076.00    4.66645   4.52801   11.285
 6077.00    4.58671   4.47547   11.349
 6078.00    4.49856   4.43038   11.430
 6079.00    4.44398   4.40944   11.507
 6080.00    4.46969   4.39456   11.533
 6081.00    4.50177   4.36732   11.539
 6082.00    4.48028   4.35588   11.566
 6083.00    4.45624   4.37688   11.577
 6084.00    4.49241   4.39684   11.569
 6085.00    4.50335   4.41305   11.558
 6086.00    4.49613   4.43932   11.531
 6087.00    4.53831   4.45825   11.488
 6088.00    4.55087   4.44800   11.487
 6089.00    4.48649   4.40642   11.545
 6090.00    4.45804   4.36457   11.603
 6091.00    4.48354   4.35800   11.614
 6092.00    4.51945   4.38298   11.560
 6093.00    4.56259   4.42845   11.493
 6094.00    4.61142   4.47842   11.432
 6095.00    4.65411   4.50759   11.377
 6096.00    4.64935   4.51046   11.364
 6097.00    4.62560   4.51349   11.387
 6098.00    4.62075   4.53914   11.402
 6099.00    4.61408   4.53890   11.404
 6100.00    4.56374   4.46512   11.495
 6101.00    4.44064   4.31678   11.736
 6102.00    4.32350   4.18308   11.965
 6103.00    4.31999   4.19226   11.966
 6104.00    4.42574   4.30809   11.771
 6105.00    4.55844   4.41591   11.573
 6106.00    4.62847   4.47025   -1.000
 6107.00    4.61119   4.49066   11.513
 6108.00    4.58273   4.51598   11.550
 6109.00    4.58866   4.53803   11.555
 6110.00    4.58629   4.52943   11.535
 6111.00    4.57795   4.52104   11.492
 6112.00    4.57873   4.54559   11.472
 6113.00    4.60651   4.58586   11.433
 6114.00    4.63276   4.60577   11.391
 6115.00    4.62515   4.58140   11.413
 6116.00    4.61463   4.55230   11.482
 6117.00    4.59617   4.54588   11.519
 6118.00    4.56135   4.51253   11.558
 6119.00    4.49191   4.42763   11.691
 6120.00    4.40432   4.30245   11.855
 6121.00    4.33046   4.19759   11.980
 6122.00    4.34298   4.20038   12.023
 6123.00    4.46544   4.29805   -1.000
 6124.00    4.55167   4.40427   -1.000
 6125.00    4.55604   4.45125   11.665
 6126.00    4.53844   4.45080   11.716
 6127.00    4.51966   4.43681   11.732
 6128.00    4.52021   4.44622   11.706
 6129.00    4.57036   4.50814   11.634
 6130.00    4.63472   4.58563   11.525
 6131.00    4.68317   4.63558   11.472
 6132.00    4.68035   4.63515   11.483
 6133.00    4.63221   4.56703   11.564
 6134.00    4.52635   4.41656   11.778
 6135.00    4.35285   4.21035   12.107
 6136.00    4.19990   4.05734   12.435
 6137.00    4.16863   4.08104   12.562
 6138.00    4.29633   4.24534   12.351
 6139.00    4.48688   4.40574   12.000
 6140.00    4.56881   4.46829   11.797
 6141.00    4.57568   4.46118   11.776
 6142.00    4.61814   4.49519   11.802
 6143.00    4.67991   4.56965   11.729
 6144.00    4.68583   4.62149   11.588
 6145.00    4.66597   4.62911   11.529
 6146.00    4.62411   4.60230   11.565
 6147.00    4.52572   4.54736   11.634
 6148.00    4.44957   4.48537   11.716
 6149.00    4.44371   4.44539   11.790
 6150.00    4.44612   4.44357   11.813
 6151.00    4.46610   4.48217   11.782
 6152.00    4.49679   4.51516   11.711
 6153.00    4.48725   4.50445   11.672
 6154.00    4.44801   4.46075   11.736
 6155.00    4.43042   4.42855   11.815
 6156.00    4.41300   4.41979   11.838
 6157.00    4.35820   4.40266   11.872
 6158.00    4.27717   4.34881   11.974
 6159.00    4.16297   4.21594   12.172
 6160.00    4.01395   4.01353   12.500
 6161.00    3.89167   3.81559   12.876
 6162.00    3.83655   3.73634   13.084
 6163.00    3.85773   3.81603   12.985
 6164.00    3.97022   3.96462   12.667
 6165.00    4.09404   4.09841   12.414
 6166.00    4.16309   4.17498   12.323
 6167.00    4.15844   4.17019   12.332
 6168.00    4.10388   4.08476   12.453
 6169.00    4.04986   4.01823   12.598
 6170.00    4.08286   4.05355   12.577
 6171.00    4.13743   4.16548   12.372
 6172.00    4.15635   4.25819   12.171
 6173.00    4.18088   4.29071   12.125
 6174.00    4.21110   4.30191   12.144
 6175.00    4.23450   4.30429   12.126
 6176.00    4.23516   4.30900   12.099
 6177.00    4.23552   4.33447   12.070
 6178.00    4.27035   4.37113   12.019
 6179.00    4.28467   4.39511   11.968
 6180.00    4.26818   4.41441   11.930
 6181.00    4.31779   4.44410   11.880
 6182.00    4.38541   4.46124   11.840
 6183.00    4.37906   4.44884   11.848
 6184.00    4.34508   4.41084   11.886
 6185.00    4.30023   4.35310   11.964
 6186.00    4.22509   4.28893   12.086
 6187.00    4.17583   4.24222   12.215
 6188.00    4.15721   4.20831   12.334
 6189.00    4.13947   4.15256   12.432
 6190.00    4.09528   4.06875   12.570
 6191.00    4.07493   4.03777   12.683
 6192.00    4.12952   4.10868   12.610
 6193.00    4.22239   4.22268   12.342
 6194.00    4.29064   4.31539   12.098
 6195.00    4.30660   4.37350   11.989
 6196.00    4.30225   4.40064   11.958
 6197.00    4.29230   4.38146   12.007
 6198.00    4.26633   4.31966   12.131
 6199.00    4.21578   4.27074   12.247
 6200.00    4.20489   4.29631   12.270
 6201.00    4.24032   4.36146   12.177
 6202.00    4.26219   4.42023   12.028
 6203.00    4.27001   4.45663   11.955
 6204.00    4.27529   4.47086   11.951
 6205.00    4.30060   4.48166   11.939
 6206.00    4.35187   4.49222   11.930
 6207.00    4.39614   4.50283   11.962
 6208.00    4.41688   4.49989   11.980
 6209.00    4.40992   4.47318   12.011
 6210.00    4.37521   4.42818   12.106
 6211.00    4.29911   4.36074   12.209
 6212.00    4.19907   4.26103   12.319
 6213.00    4.13610   4.15880   12.487
 6214.00    4.14823   4.09822   12.638
 6215.00    4.32574   4.09437   -1.000
 6216.00    4.62317   4.13214   -1.000
 6217.00    4.65648   4.17105   -1.000
 6218.00    4.54241   4.17225   -1.000
 6219.00    4.51020   4.14742   -1.000
 6220.00    4.46765   4.15054   -1.000
 6221.00    4.68696   4.18166   -1.000
 6222.00    4.76681   4.20274   -1.000
 6223.00    4.45223   4.20941   -1.000
 6224.00    3.89468   4.22062   -1.000
 6225.00    3.48324   4.23872   -1.000
 6226.00    3.87694   4.25360   -1.000
 6227.00    4.22693   4.23775   12.422
 6228.00    4.17142   4.16912   12.562
 6229.00    4.10422   4.05479   12.764
 6230.00    4.04471   3.96906   12.945
 6231.00    4.06797   3.97599   12.961
 6232.00    4.16058   4.06015   12.807
 6233.00    4.28528   4.18199   12.579
 6234.00    4.40937   4.29551   12.360
 6235.00    4.44511   4.35097   12.257
 6236.00    4.38778   4.33387   12.299
 6237.00    4.26376   4.27503   12.416
 6238.00    4.12338   4.20726   12.544
 6239.00    4.04488   4.15556   12.675
 6240.00    4.05613   4.13058   12.757
 6241.00    4.07660   4.12138   12.767
 6242.00    4.05162   4.09858   12.824
 6243.00    4.00932   4.07058   12.918
 6244.00    4.02886   4.07078   12.940
 6245.00    4.08691   4.09930   12.878
 6246.00    4.12023   4.16365   12.763
 6247.00    4.20855   4.25331   12.610
 6248.00    4.29127   4.32090   12.467
 6249.00    4.28966   4.34031   12.416
 6250.00    4.23452   4.30282   12.493
 6251.00    4.17135   4.21681   12.691
 6252.00    4.12986   4.13509   12.881
 6253.00    4.08106   4.10671   12.988
 6254.00    4.05556   4.10856   13.039
 6255.00    4.06534   4.09818   13.046
 6256.00    4.07968   4.04899   13.120
 6257.00    4.09007   4.00497   13.245
 6258.00    4.09590   4.02094   13.247
 6259.00    4.10105   4.09272   13.088
 6260.00    4.11014   4.19643   12.885
 6261.00    4.14673   4.30394   12.705
 6262.00    4.23202   4.38347   12.517
 6263.00    4.32493   4.40526   12.407
 6264.00    4.32623   4.38290   12.457
 6265.00    4.29894   4.35966   12.553
 6266.00    4.31399   4.36688   12.543
 6267.00    4.28923   4.38297   12.457
 6268.00    4.21799   4.37782   12.453
 6269.00    4.19275   4.36944   12.517
 6270.00    4.22644   4.38543   12.528
 6271.00    4.30208   4.41954   12.490
 6272.00    4.34854   4.44582   12.455
 6273.00    4.32963   4.44260   12.467
 6274.00    4.30139   4.40761   12.541
 6275.00    4.26663   4.36022   12.641
 6276.00    4.20571   4.31036   12.809
 6277.00    4.11558   4.26599   13.097
 6278.00    4.00631   4.22823   13.374
 6279.00    3.88576   4.20081   -1.000
 6280.00    3.81251   4.20202   -1.000
 6281.00    3.76133   4.24383   -1.000
 6282.00    3.70427   4.31798   -1.000
 6283.00    3.69630   4.39234   -1.000
 6284.00    3.75981   4.44445   -1.000
 6285.00    3.90357   4.48631   -1.000
 6286.00    4.08607   4.52975   -1.000
 6287.00    4.25638   4.57327   12.398
 6288.00    4.37110   4.59192   12.353
 6289.00    4.37484   4.56665   12.389
 6290.00    4.29836   4.51594   12.485
 6291.00    4.27813   4.47014   12.584
 6292.00    4.31417   4.44597   12.633
 6293.00    4.34756   4.44101   12.647
 6294.00    4.36016   4.43656   12.666
 6295.00    4.35021   4.39372   12.738
 6296.00    4.32583   4.33208   12.831
 6297.00    4.31423   4.32065   12.872
 6298.00    4.35321   4.35221   12.864
 6299.00    4.38902   4.37421   12.821
 6300.00    4.35445   4.35951   12.763
 6301.00    4.26607   4.33131   12.812
 6302.00    4.19324   4.34295   12.954
 6303.00    4.21110   4.39094   12.938
 6304.00    4.32009   4.43972   12.755
 6305.00    4.43987   4.48596   12.579
 6306.00    4.54556   4.54453   12.457
 6307.00    4.57822   4.60671   12.348
 6308.00    4.51285   4.63563   12.294
 6309.00    4.40318   4.61255   12.326
 6310.00    4.31701   4.57317   12.403
 6311.00    4.32483   4.54337   12.465
 6312.00    4.40159   4.52990   12.513
 6313.00    4.43070   4.51182   12.539
 6314.00    4.38222   4.47439   12.616
 6315.00    4.31245   4.44227   12.693
 6316.00    4.29020   4.41793   12.699
 6317.00    4.29444   4.38965   12.686
 6318.00    4.32386   4.38993   12.693
 6319.00    4.38816   4.45360   12.671
 6320.00    4.48314   4.52979   12.553
 6321.00    4.56910   4.57165   12.415
 6322.00    4.56364   4.60324   12.342
 6323.00    4.51559   4.64524   12.302
 6324.00    4.52544   4.67969   12.245
 6325.00    4.59530   4.69045   12.195
 6326.00    4.66513   4.69308   12.178
 6327.00    4.71227   4.70122   12.138
 6328.00    4.73733   4.71403   12.120
 6329.00    4.74208   4.71695   12.134
 6330.00    4.72488   4.72081   12.142
 6331.00    4.65905   4.75511   12.117
 6332.00    4.58056   4.77739   12.085
 6333.00    4.54264   4.73525   12.100
 6334.00    4.49714   4.63842   12.134
 6335.00    4.46595   4.54302   12.323
 6336.00    4.43791   4.52426   12.461
 6337.00    4.48051   4.56976   12.391
 6338.00    4.57273   4.63142   12.268
 6339.00    4.61515   4.69771   12.136
 6340.00    4.66940   4.74336   12.049
 6341.00    4.69571   4.73687   11.993
 6342.00    4.65916   4.68477   11.977
 6343.00    4.60986   4.61959   12.052
 6344.00    4.58485   4.60270   12.108
 6345.00    4.63169   4.65346   12.088
 6346.00    4.72622   4.72130   12.033
 6347.00    4.76643   4.78308   11.954
 6348.00    4.76381   4.82973   11.894
 6349.00    4.76982   4.85577   11.880
 6350.00    4.75386   4.86235   11.867
 6351.00    4.71623   4.85098   11.863
 6352.00    4.70523   4.81629   11.901
 6353.00    4.69874   4.75284   11.956
 6354.00    4.67038   4.69334   12.063
 6355.00    4.63837   4.67268   12.184
 6356.00    4.63411   4.65535   12.225
 6357.00    4.58785   4.60297   12.245
 6358.00    4.47747   4.53698   12.348
 6359.00    4.39029   4.49005   12.439
 6360.00    4.35767   4.46005   12.423
 6361.00    4.38556   4.44189   12.375
 6362.00    4.41960   4.45120   12.354
 6363.00    4.47158   4.49858   12.324
 6364.00    4.55208   4.56826   12.255
 6365.00    4.58948   4.64036   12.174
 6366.00    4.59770   4.70944   12.104
 6367.00    4.65226   4.77760   12.032
 6368.00    4.75756   4.81974   11.953
 6369.00    4.81629   4.82814   11.903
 6370.00    4.82440   4.83787   11.899
 6371.00    4.83691   4.86587   11.879
 6372.00    4.85799   4.90292   11.832
 6373.00    4.87063   4.92212   11.834
 6374.00    4.85890   4.92141   11.855
 6375.00    4.83305   4.91867   11.873
 6376.00    4.78384   4.90526   11.911
 6377.00    4.74033   4.85851   11.967
 6378.00    4.74703   4.80773   12.041
 6379.00    4.76702   4.78201   12.102
 6380.00    4.75874   4.77904   12.123
 6381.00    4.74723   4.79548   12.139
 6382.00    4.75573   4.81646   12.147
 6383.00    4.77173   4.82887   12.124
 6384.00    4.77556   4.83514   12.145
 6385.00    4.82457   4.85576   12.188
 6386.00    4.87242   4.88118   12.191
 6387.00    4.83953   4.89184   12.208
 6388.00    4.81588   4.89579   12.249
 6389.00    4.77802   4.89762   12.327
 6390.00    4.70183   4.87054   12.428
 6391.00    4.63993   4.79433   12.553
 6392.00    4.55824   4.69841   12.729
 6393.00    4.51330   4.65615   12.872
 6394.00    4.57833   4.72127   12.886
 6395.00    4.65010   4.83347   12.745
 6396.00    4.65084   4.90768   12.652
 6397.00    4.63004   4.89520   12.700
 6398.00    4.60218   4.79521   12.852
 6399.00    4.52797   4.68531   13.114
 6400.00    4.45853   4.67212   13.295
 6401.00    4.49690   4.78251   13.240
 6402.00    4.59907   4.91157   13.047
 6403.00    4.64890   4.98845   12.924
 6404.00    4.63567   5.00425   12.927
 6405.00    4.58406   4.96221   -1.000
 6406.00    4.51644   4.89094   -1.000
 6407.00    4.44408   4.84874   -1.000
 6408.00    4.40827   4.86424   -1.000
 6409.00    4.40525   4.88140   -1.000
 6410.00    4.38412   4.86285   -1.000
 6411.00    4.35868   4.82707   -1.000
 6412.00    4.34440   4.81944   -1.000
 6413.00    4.32024   4.84783   -1.000
 6414.00    4.27822   4.88611   -1.000
 6415.00    4.26116   4.92612   -1.000
 6416.00    4.25801   4.94436   -1.000
 6417.00    4.20344   4.92152   -1.000
 6418.00    4.13620   4.85566   -1.000
 6419.00    4.08165   4.77568   -1.000
 6420.00    4.02260   4.73341   -1.000
 6421.00    3.98994   4.78055   -1.000
 6422.00    3.99844   4.88446   -1.000
 6423.00    4.04257   4.96476   -1.000
 6424.00    4.06221   5.00962   -1.000
 6425.00    4.03222   5.03917   -1.000
 6426.00    4.01260   5.06530   -1.000
 6427.00    4.00205   5.06195   -1.000
 6428.00    3.95070   4.98725   -1.000
