###################################################################
## OUTPUT of StarlightChains_v04.for    [Cid@UFSC - 01/Apr/2007] ##
###################################################################

## Some input info
NGC6388_a_1.cxt                          [arq_obs]
Base.BC03.N                              [arq_base]
NGC6388_a_1.msk                          [arq_masks]
StCv04.C99.config                        [arq_config]
   45                                    [N_base]
    0                                    [N_YAV_components = # of components with extra extinction!]
    0                                    [i_FitPowerLaw (1/0 = Yes/No)]
-9.99                                    [alpha_PowerLaw]
CCM                                      [red_law_option]
 1.458241                                [q_norm = A(l_norm)/A(V)]

## (Re)Sampling Parameters
 3359.00                                 [l_ini (A)]
 6428.00                                 [l_fin (A)]
    1.00                                 [dl    (A)]     (OBS: dl_cushion =    50.00 A)

## Normalization info
 4020.00                                 [l_norm (A) - for base]
 4010.00                                 [llow_norm (A) - window for f_obs]
 4060.00                                 [lupp_norm (A) - window for f_obs]
4.539934E-14                             [fobs_norm (in input units)]

## S/N
 4730.00                                 [llow_SN (A) - window for S/N]
 4780.00                                 [lupp_SN (A) - window for S/N]
  38.687                                 [S/N in S/N window]
  24.472                                 [S/N in norm. window]
 271.099                                 [S/N_err in S/N window]
 171.489                                 [S/N_err in norm. window]
  1.0000                                 [fscale_chi2]

## etc...
  2147483610                             [idum_orig]
  3069                                   [NOl_eff]
   655                                   [Nl_eff]
  2414    NSIGMA                         [Ntot_cliped & clip_method]
  1807680                                [Nglobal_steps]
   7                                     [N_chains]
   9                                     [NEX0s_base = N_base in EX0s-fits]
 0   0   1      207   2.0   3.750E+02    [Clip-Bug, RC-Crash & Burn-In warning-flags, n_censored_weights, wei_nsig_threshold & wei_limit]
    25     24.619     24.619      0.000  [idt_all, wdt_TotTime, wdt_UsrTime & wdt_SysTime (sec)]

## Synthesis Results - Best model ##

 2.64642E+00                             [chi2/Nl_eff]
     1.22192                             [adev (%)]

   100.88205                             [sum-of-x (%)]
 1.97909E-13                             [Flux_tot (units of input spectrum!)]
 6.10233E-09                             [Mini_tot (???)]
 3.17750E-09                             [Mcor_tot (???)]

 -13.43                                  [v0_min  (km/s)]
  44.01                                  [vd_min  (km/s)]
 1.0897                                  [AV_min  (mag)]
 0.0000                                  [YAV_min (mag)]

# j     x_j(%)      Mini_j(%)     Mcor_j(%)     age_j(yr)     Z_j      (L/M)_j    YAV?  Mstars   component_j        a/Fe...       SSP_chi2r SSP_adev(%)   SSP_AV   SSP_x(%)
  1      0.0000     0.0000E+00    0.0000E+00    1.000000E+06  0.00400  1.114E-02    0   1.0000   age020_m42            0.0000     3.7794E+03    35.8389   4.0000    97.6291
  2      3.2173     2.5394E-03    4.8764E-03    3.160000E+06  0.00400  4.073E-02    0   0.9999   age045_m42            0.0000     5.1005E+02    13.3036   3.9828    93.7102
  3      0.0000     0.0000E+00    0.0000E+00    5.010000E+06  0.00400  2.534E-02    0   0.9488   age055_m42            0.0000     1.1667E+03    21.9050   4.0000    96.5634
  4      5.0838     1.2859E-02    2.1885E-02    1.000000E+07  0.00400  1.271E-02    0   0.8862   age070_m42            0.0000     7.9830E+02    17.4518   3.5624    92.5130
  5      0.0000     0.0000E+00    0.0000E+00    2.512000E+07  0.00400  5.070E-03    0   0.8174   age090_m42            0.0000     7.1920E+02    16.6894   3.4405    94.0688
  6      0.0000     0.0000E+00    0.0000E+00    4.000000E+07  0.00400  3.505E-03    0   0.7851   age104_m42            0.0000     5.2709E+02    14.3187   3.1409    96.7309
  7      0.0000     0.0000E+00    0.0000E+00    1.015200E+08  0.00400  2.268E-03    0   0.7207   age116_m42            0.0000     7.0477E+02    12.1755   3.1964   104.4865
  8      0.0000     0.0000E+00    0.0000E+00    2.861200E+08  0.00400  1.079E-03    0   0.6613   age125_m42            0.0000     7.0452E+02    11.9456   2.7073   106.4800
  9      0.0000     0.0000E+00    0.0000E+00    6.405400E+08  0.00400  5.077E-04    0   0.6197   age132_m42            0.0000     7.2546E+02    12.3084   2.3386   110.7988
 10      0.0000     0.0000E+00    0.0000E+00    9.047900E+08  0.00400  3.535E-04    0   0.6024   age135_m42            0.0000     5.0312E+02    10.0400   2.1020   109.8872
 11      0.0000     0.0000E+00    0.0000E+00    1.434000E+09  0.00400  1.910E-04    0   0.5716   age139_m42            0.0000     2.1484E+02     6.3459   1.6105   107.5926
 12     24.5042     8.0237E+00    8.4181E+00    2.500000E+09  0.00400  9.818E-05    0   0.5463   age150_m42            0.0000     4.6589E+01     2.7669   1.3452   102.6489
 13     33.7243     2.2980E+01    2.3072E+01    5.000000E+09  0.00400  4.718E-05    0   0.5228   age161_m42            0.0000     1.2457E+01     1.8518   1.1811    99.4094
 14      0.0000     0.0000E+00    0.0000E+00    1.100000E+10  0.00400  2.205E-05    0   0.4980   age185_m42            0.0000     3.4231E+01     3.1131   0.9423    96.8561
 15      0.0000     0.0000E+00    0.0000E+00    1.300000E+10  0.00400  1.883E-05    0   0.4927   age193_m42            0.0000     4.2817E+01     3.4854   0.9259    96.7060
 16      0.0000     0.0000E+00    0.0000E+00    1.000000E+06  0.02000  1.989E-02    0   1.0000   age020_m62            0.0000     3.5687E+03    34.7601   4.0000    97.9937
 17      0.0000     0.0000E+00    0.0000E+00    3.160000E+06  0.02000  3.772E-02    0   0.9858   age045_m62            0.0000     2.7956E+03    31.8892   4.0000    98.6460
 18      0.0000     0.0000E+00    0.0000E+00    5.010000E+06  0.02000  3.227E-02    0   0.9342   age055_m62            0.0000     8.3423E+02    18.5547   4.0000    96.6336
 19      0.0000     0.0000E+00    0.0000E+00    1.000000E+07  0.02000  1.011E-02    0   0.8751   age070_m62            0.0000     1.2799E+03    21.8287   3.6067    89.3582
 20      0.0000     0.0000E+00    0.0000E+00    2.512000E+07  0.02000  4.206E-03    0   0.8099   age090_m62            0.0000     9.8183E+02    19.6038   3.5418    90.1717
 21      0.0000     0.0000E+00    0.0000E+00    4.000000E+07  0.02000  3.373E-03    0   0.7799   age104_m62            0.0000     5.4871E+02    13.9335   3.3806    98.1397
 22      0.0000     0.0000E+00    0.0000E+00    1.015200E+08  0.02000  1.878E-03    0   0.7221   age116_m62            0.0000     6.8136E+02    12.0146   3.2165   105.4309
 23      0.0000     0.0000E+00    0.0000E+00    2.861200E+08  0.02000  8.869E-04    0   0.6700   age125_m62            0.0000     1.0408E+03    14.7256   2.7310   111.4114
 24      0.0000     0.0000E+00    0.0000E+00    6.405400E+08  0.02000  3.657E-04    0   0.6322   age132_m62            0.0000     6.7569E+02    11.1155   2.0828   113.3587
 25      0.0000     0.0000E+00    0.0000E+00    9.047900E+08  0.02000  2.312E-04    0   0.6152   age135_m62            0.0000     3.8177E+02     7.9288   1.7229   111.7836
 26      0.0000     0.0000E+00    0.0000E+00    1.434000E+09  0.02000  1.168E-04    0   0.5865   age139_m62            0.0000     9.4614E+01     3.9038   1.3274   105.7407
 27      1.2721     7.4288E-01    8.0037E-01    2.500000E+09  0.02000  5.505E-05    0   0.5610   age150_m62            0.0000     4.2624E+01     3.5237   0.9793   102.4554
 28     13.5660     1.6800E+01    1.7271E+01    5.000000E+09  0.02000  2.596E-05    0   0.5353   age161_m62            0.0000     1.2392E+02     6.0403   0.6802   101.5316
 29      8.4514     2.3242E+01    2.2777E+01    1.100000E+10  0.02000  1.169E-05    0   0.5103   age185_m62            0.0000     3.0117E+02     9.0272   0.3536   102.0008
 30      7.6097     2.5244E+01    2.4468E+01    1.300000E+10  0.02000  9.691E-06    0   0.5047   age193_m62            0.0000     3.4042E+02     9.5254   0.3126   102.1172
 31      0.0000     0.0000E+00    0.0000E+00    1.000000E+06  0.05000  2.651E-02    0   0.9998   age020_m72            0.0000     3.4990E+03    34.3731   4.0000    99.1919
 32      0.0000     0.0000E+00    0.0000E+00    3.160000E+06  0.05000  4.817E-02    0   0.9577   age045_m72            0.0000     1.9716E+03    27.5170   4.0000    99.9708
 33      0.0000     0.0000E+00    0.0000E+00    5.010000E+06  0.05000  3.101E-02    0   0.9147   age055_m72            0.0000     1.0229E+03    20.7733   4.0000    95.8661
 34      0.0000     0.0000E+00    0.0000E+00    1.000000E+07  0.05000  8.954E-03    0   0.8524   age070_m72            0.0000     1.5702E+03    24.9736   4.0000    99.4911
 35      0.0000     0.0000E+00    0.0000E+00    2.512000E+07  0.05000  4.207E-03    0   0.7902   age090_m72            0.0000     5.8133E+02    15.2389   4.0000    95.7624
 36      0.0000     0.0000E+00    0.0000E+00    4.000000E+07  0.05000  3.198E-03    0   0.7618   age104_m72            0.0000     5.4220E+02    11.1489   3.6223   100.8101
 37      0.0000     0.0000E+00    0.0000E+00    1.015200E+08  0.05000  1.716E-03    0   0.7092   age116_m72            0.0000     7.6131E+02    12.3966   3.3555   104.8589
 38      0.0000     0.0000E+00    0.0000E+00    2.861200E+08  0.05000  7.047E-04    0   0.6618   age125_m72            0.0000     9.7357E+02    13.9290   2.5735   110.7899
 39      0.0000     0.0000E+00    0.0000E+00    6.405400E+08  0.05000  2.633E-04    0   0.6253   age132_m72            0.0000     4.9018E+02     9.1558   1.7525   111.5904
 40      0.0000     0.0000E+00    0.0000E+00    9.047900E+08  0.05000  1.484E-04    0   0.6088   age135_m72            0.0000     1.7084E+02     5.7040   1.2853   106.0711
 41      0.0000     0.0000E+00    0.0000E+00    1.434000E+09  0.05000  7.827E-05    0   0.5847   age139_m72            0.0000     1.0871E+02     5.4587   0.9304   101.9831
 42      3.4532     2.9533E+00    3.1666E+00    2.500000E+09  0.05000  3.759E-05    0   0.5583   age150_m72            0.0000     1.6697E+02     6.9560   0.6307   100.8557
 43      0.0000     0.0000E+00    0.0000E+00    5.000000E+09  0.05000  1.548E-05    0   0.5320   age161_m72            0.0000     3.6164E+02     9.6118   0.2934    99.3162
 44      0.0000     0.0000E+00    0.0000E+00    1.100000E+10  0.05000  6.532E-06    0   0.5070   age185_m72            0.0000     6.8259E+02    12.7686  -0.0270    97.6899
 45      0.0000     0.0000E+00    0.0000E+00    1.300000E+10  0.05000  5.316E-06    0   0.5018   age193_m72            0.0000     8.3211E+02    14.0551  -0.1221    97.1747


## Synthesis Results - Average & Chains ##

# j      x_j: min, <> & last-chain-values for 1 ...  7 chains
  1      0.0000      0.0977      0.0489      0.0587      0.2581      0.0994      0.0983      0.1364      0.0000
  2      3.2173      2.8175      2.9975      2.7234      2.8695      2.8452      2.7544      2.9129      2.8337
  3      0.0000      0.0258      0.0000      0.0000      0.1626      0.0000      0.0000      0.0513      0.0000
  4      5.0838      4.0092      4.1385      4.0847      3.8817      4.0365      3.9487      3.9709      4.0033
  5      0.0000      0.5188      0.5631      0.4548      0.4839      0.5128      0.6446      0.4055      0.7132
  6      0.0000      0.0302      0.0000      0.0000      0.0000      0.0000      0.0000      0.0000      0.0000
  7      0.0000      0.0136      0.0024      0.0000      0.0000      0.0169      0.0000      0.0000      0.0020
  8      0.0000      0.0225      0.0000      0.0000      0.0000      0.0000      0.0000      0.0000      0.0000
  9      0.0000      0.0440      0.0000      0.0000      0.0000      0.0000      0.0000      0.0456      0.0000
 10      0.0000      0.0824      0.0000      0.0328      0.5083      0.0229      0.0000      0.5033      0.0000
 11      0.0000      0.0957      0.1055      0.0984      0.1063      0.1956      0.0728      0.0000      0.3239
 12     24.5042     23.6665     24.0256     23.5413     23.9298     23.7565     24.1230     23.2252     24.2684
 13     33.7243     34.8490     34.4609     35.1344     34.5126     34.5704     34.2781     35.0271     34.5327
 14      0.0000      0.1508      0.0911      0.0000      0.0000      0.0467      0.1044      0.0000      0.0000
 15      0.0000      0.1155      0.0240      0.0000      0.0000      0.0312      0.0000      0.0086      0.0598
 16      0.0000      0.0363      0.0000      0.0687      0.0000      0.0000      0.0000      0.0676      0.1770
 17      0.0000      0.0302      0.0000      0.0155      0.0000      0.0000      0.0000      0.0000      0.0000
 18      0.0000      0.0285      0.0000      0.0000      0.0000      0.0259      0.1327      0.0936      0.0000
 19      0.0000      0.0473      0.0000      0.0000      0.0000      0.1442      0.0001      0.0332      0.0000
 20      0.0000      0.0298      0.0000      0.1128      0.0000      0.1612      0.0582      0.0362      0.0000
 21      0.0000      0.0401      0.0894      0.0831      0.0000      0.0000      0.0164      0.0852      0.0000
 22      0.0000      0.0159      0.0000      0.0000      0.0000      0.0000      0.0082      0.0057      0.0116
 23      0.0000      0.0134      0.0000      0.0000      0.0000      0.0000      0.0000      0.0000      0.0000
 24      0.0000      0.0294      0.0000      0.0000      0.0000      0.0000      0.0000      0.0000      0.0000
 25      0.0000      0.0496      0.0360      0.0049      0.0000      0.0000      0.0000      0.0756      0.0000
 26      0.0000      0.2701      0.5427      0.2369      0.0882      0.0068      0.5951      0.0000      0.2564
 27      1.2721      1.6091      1.5777      2.3152      1.4266      2.8827      1.9666      2.0131      1.3508
 28     13.5660     12.1602     12.1376     12.6599     13.0073     12.4190     11.9468     11.9627     12.2409
 29      8.4514      9.3664      9.2940      9.3236      9.6230      9.2332      9.1085      9.2433      9.1737
 30      7.6097      9.1862      9.0149      8.5598      8.7479      8.5882      8.9656      9.0824      9.1078
 31      0.0000      0.0324      0.0000      0.0575      0.0260      0.0000      0.0000      0.0141      0.0027
 32      0.0000      0.0779      0.1284      0.1033      0.1177      0.0665      0.0810      0.0000      0.0178
 33      0.0000      0.0285      0.0942      0.0096      0.0808      0.0388      0.0000      0.0770      0.0565
 34      0.0000      0.0424      0.0811      0.0000      0.0221      0.0000      0.1023      0.0715      0.1815
 35      0.0000      0.0276      0.0000      0.1215      0.0000      0.0000      0.1814      0.0046      0.0000
 36      0.0000      0.0209      0.0000      0.0000      0.0051      0.0000      0.0000      0.0000      0.0000
 37      0.0000      0.0123      0.0000      0.0000      0.0088      0.0294      0.0000      0.0000      0.0000
 38      0.0000      0.0118      0.0000      0.0000      0.0000      0.0000      0.0000      0.0000      0.0000
 39      0.0000      0.0309      0.0003      0.0000      0.1518      0.0000      0.0000      0.0000      0.0000
 40      0.0000      0.0982      0.0000      0.0000      0.0000      0.0270      0.0000      0.0000      0.0098
 41      0.0000      0.4417      0.2255      0.0000      0.2949      0.1724      0.6888      1.2342      0.2761
 42      3.4532      0.6486      1.2712      1.1121      0.6368      0.9958      1.0806      0.5723      1.3459
 43      0.0000      0.0232      0.0000      0.0000      0.0000      0.0000      0.0000      0.0000      0.0000
 44      0.0000      0.0050      0.0000      0.0000      0.0000      0.0000      0.0000      0.0000      0.0000
 45      0.0000      0.0055      0.0000      0.0000      0.0000      0.0000      0.0000      0.0000      0.0000

# j      m_j: min, <> & last-chain-values for 1 ...  7 chains
  1  0.0000E+00  5.1725E-04  2.6071E-04  3.1413E-04  1.3726E-03  5.3427E-04  5.2744E-04  7.2834E-04  0.0000E+00
  2  4.8764E-03  4.0774E-03  4.3698E-03  3.9883E-03  4.1731E-03  4.1819E-03  4.0436E-03  4.2550E-03  4.1284E-03
  3  0.0000E+00  5.6986E-05  0.0000E+00  0.0000E+00  3.6066E-04  0.0000E+00  0.0000E+00  1.1438E-04  0.0000E+00
  4  2.1885E-02  1.6479E-02  1.7135E-02  1.6990E-02  1.6033E-02  1.6850E-02  1.6464E-02  1.6474E-02  1.6565E-02
  5  0.0000E+00  4.9306E-03  5.3907E-03  4.3738E-03  4.6214E-03  4.9497E-03  6.2143E-03  3.8905E-03  6.8235E-03
  6  0.0000E+00  3.9849E-04  0.0000E+00  0.0000E+00  0.0000E+00  0.0000E+00  0.0000E+00  0.0000E+00  0.0000E+00
  7  0.0000E+00  2.5528E-04  4.5630E-05  0.0000E+00  0.0000E+00  3.2235E-04  0.0000E+00  0.0000E+00  3.8033E-05
  8  0.0000E+00  8.1114E-04  0.0000E+00  0.0000E+00  0.0000E+00  0.0000E+00  0.0000E+00  0.0000E+00  0.0000E+00
  9  0.0000E+00  3.1659E-03  0.0000E+00  0.0000E+00  0.0000E+00  0.0000E+00  0.0000E+00  3.3100E-03  0.0000E+00
 10  0.0000E+00  8.2733E-03  0.0000E+00  3.3371E-03  5.1315E-02  2.3341E-03  0.0000E+00  5.1038E-02  0.0000E+00
 11  0.0000E+00  1.6879E-02  1.8755E-02  1.7564E-02  1.8845E-02  3.5047E-02  1.3023E-02  0.0000E+00  5.7520E-02
 12  8.4181E+00  7.7628E+00  7.9386E+00  7.8142E+00  7.8877E+00  7.9142E+00  8.0267E+00  7.6896E+00  8.0137E+00
 13  2.3072E+01  2.2764E+01  2.2676E+01  2.3225E+01  2.2655E+01  2.2935E+01  2.2714E+01  2.3095E+01  2.2709E+01
 14  0.0000E+00  2.0076E-01  1.2219E-01  0.0000E+00  0.0000E+00  6.3119E-02  1.4101E-01  0.0000E+00  0.0000E+00
 15  0.0000E+00  1.7815E-01  3.7296E-02  0.0000E+00  0.0000E+00  4.8904E-02  0.0000E+00  1.3415E-02  9.2784E-02
 16  0.0000E+00  1.0746E-04  0.0000E+00  2.0606E-04  0.0000E+00  0.0000E+00  0.0000E+00  2.0234E-04  5.2818E-04
 17  0.0000E+00  4.6523E-05  0.0000E+00  2.4185E-05  0.0000E+00  0.0000E+00  0.0000E+00  0.0000E+00  0.0000E+00
 18  0.0000E+00  4.8587E-05  0.0000E+00  0.0000E+00  0.0000E+00  4.4814E-05  2.2968E-04  1.6129E-04  0.0000E+00
 19  0.0000E+00  2.4138E-04  0.0000E+00  0.0000E+00  0.0000E+00  7.4734E-04  3.5737E-07  1.7117E-04  0.0000E+00
 20  0.0000E+00  3.3869E-04  0.0000E+00  1.2957E-03  0.0000E+00  1.8588E-03  6.7062E-04  4.1533E-04  0.0000E+00
 21  0.0000E+00  5.4605E-04  1.2274E-03  1.1464E-03  0.0000E+00  0.0000E+00  2.2646E-04  1.1718E-03  0.0000E+00
 22  0.0000E+00  3.6097E-04  0.0000E+00  0.0000E+00  0.0000E+00  0.0000E+00  1.8758E-04  1.3140E-04  2.6494E-04
 23  0.0000E+00  5.9494E-04  0.0000E+00  0.0000E+00  0.0000E+00  0.0000E+00  0.0000E+00  0.0000E+00  0.0000E+00
 24  0.0000E+00  2.9989E-03  0.0000E+00  0.0000E+00  0.0000E+00  0.0000E+00  0.0000E+00  0.0000E+00  0.0000E+00
 25  0.0000E+00  7.7845E-03  5.6842E-03  7.8108E-04  0.0000E+00  0.0000E+00  0.0000E+00  1.1966E-02  0.0000E+00
 26  0.0000E+00  7.9959E-02  1.6183E-01  7.0955E-02  2.6246E-02  2.0298E-03  1.7869E-01  0.0000E+00  7.6419E-02
 27  8.0037E-01  9.6667E-01  9.5477E-01  1.4075E+00  8.6120E-01  1.7588E+00  1.1985E+00  1.2207E+00  8.1693E-01
 28  1.7271E+01  1.4781E+01  1.4862E+01  1.5573E+01  1.5889E+01  1.5332E+01  1.4731E+01  1.4678E+01  1.4979E+01
 29  2.2777E+01  2.4103E+01  2.4092E+01  2.4279E+01  2.4884E+01  2.4131E+01  2.3777E+01  2.4009E+01  2.3765E+01
 30  2.4468E+01  2.8202E+01  2.7880E+01  2.6593E+01  2.6988E+01  2.6778E+01  2.7922E+01  2.8145E+01  2.8149E+01
 31  0.0000E+00  7.2066E-05  0.0000E+00  1.2935E-04  5.8027E-05  0.0000E+00  0.0000E+00  3.1733E-05  6.0559E-06
 32  0.0000E+00  9.1241E-05  1.5162E-04  1.2248E-04  1.3860E-04  7.9117E-05  9.6258E-05  0.0000E+00  2.0988E-05
 33  0.0000E+00  4.9493E-05  1.6508E-04  1.6945E-05  1.4118E-04  6.8571E-05  0.0000E+00  1.3507E-04  9.8912E-05
 34  0.0000E+00  2.3774E-04  4.5875E-04  0.0000E+00  1.2467E-04  0.0000E+00  5.8214E-04  4.0491E-04  1.0252E-03
 35  0.0000E+00  3.0586E-04  0.0000E+00  1.3611E-03  0.0000E+00  0.0000E+00  2.0379E-03  5.1120E-05  0.0000E+00
 36  0.0000E+00  2.9392E-04  0.0000E+00  0.0000E+00  7.1673E-05  0.0000E+00  0.0000E+00  0.0000E+00  0.0000E+00
 37  0.0000E+00  3.0033E-04  0.0000E+00  0.0000E+00  2.1575E-04  7.2675E-04  0.0000E+00  0.0000E+00  0.0000E+00
 38  0.0000E+00  6.5495E-04  0.0000E+00  0.0000E+00  0.0000E+00  0.0000E+00  0.0000E+00  0.0000E+00  0.0000E+00
 39  0.0000E+00  4.3202E-03  4.6168E-05  0.0000E+00  2.1358E-02  0.0000E+00  0.0000E+00  0.0000E+00  0.0000E+00
 40  0.0000E+00  2.3748E-02  0.0000E+00  0.0000E+00  0.0000E+00  6.6395E-03  0.0000E+00  0.0000E+00  2.3744E-03
 41  0.0000E+00  1.9451E-01  1.0005E-01  0.0000E+00  1.3049E-01  7.7084E-02  3.0770E-01  5.4861E-01  1.2241E-01
 42  3.1666E+00  5.6787E-01  1.1212E+00  9.8529E-01  5.6031E-01  8.8546E-01  9.5978E-01  5.0581E-01  1.1863E+00
 43  0.0000E+00  4.6981E-02  0.0000E+00  0.0000E+00  0.0000E+00  0.0000E+00  0.0000E+00  0.0000E+00  0.0000E+00
 44  0.0000E+00  2.2953E-02  0.0000E+00  0.0000E+00  0.0000E+00  0.0000E+00  0.0000E+00  0.0000E+00  0.0000E+00
 45  0.0000E+00  3.0659E-02  0.0000E+00  0.0000E+00  0.0000E+00  0.0000E+00  0.0000E+00  0.0000E+00  0.0000E+00

# AV, chi2 & Mass for <> & i_chain = 1 ...  7 solutions
AV       1.0897      1.0831      1.0851      1.0822      1.0853      1.0843      1.0856      1.0861      1.0832
chi2 2.6464E+00  2.6821E+00  2.6696E+00  2.6706E+00  2.6679E+00  2.6667E+00  2.6677E+00  2.6710E+00  2.6695E+00
Mass 3.1775E-09  3.2985E-09  3.2834E-09  3.2559E-09  3.2923E-09  3.2530E-09  3.2625E-09  3.2812E-09  3.2772E-09
 -13.81                                  [v0_min (km/s) before EX0s...]
  44.11                                  [vd_min (km/s) before EX0s...]


## Synthetic spectrum (Best Model) ##l_obs f_obs f_syn wei
 3070    [Nl_obs]
 3359.00    0.15692   0.37566   -1.000
 3360.00    0.19556   0.34951   -1.000
 3361.00    0.19788   0.35327   -1.000
 3362.00    0.20908   0.38662   -1.000
 3363.00    0.22362   0.42840   -1.000
 3364.00    0.24350   0.45514   -1.000
 3365.00    0.25806   0.45446   -1.000
 3366.00    0.26367   0.43187   -1.000
 3367.00    0.25836   0.40379   -1.000
 3368.00    0.24916   0.38272   -1.000
 3369.00    0.23892   0.37292   -1.000
 3370.00    0.23524   0.36923   -1.000
 3371.00    0.22970   0.36664   -1.000
 3372.00    0.23308   0.37032   -1.000
 3373.00    0.24803   0.38902   -1.000
 3374.00    0.26448   0.42013   -1.000
 3375.00    0.27600   0.45497   -1.000
 3376.00    0.28874   0.47439   -1.000
 3377.00    0.30085   0.46547   -1.000
 3378.00    0.30497   0.43656   -1.000
 3379.00    0.29976   0.40737   -1.000
 3380.00    0.28705   0.39628   -1.000
 3381.00    0.28540   0.40688   -1.000
 3382.00    0.28959   0.42797   -1.000
 3383.00    0.29533   0.44636   -1.000
 3384.00    0.29953   0.45912   -1.000
 3385.00    0.31091   0.47082   -1.000
 3386.00    0.31527   0.47656   -1.000
 3387.00    0.31513   0.47423   -1.000
 3388.00    0.32745   0.46996   -1.000
 3389.00    0.33775   0.46687   -1.000
 3390.00    0.33652   0.45974   -1.000
 3391.00    0.33163   0.44522   -1.000
 3392.00    0.33343   0.42953   -1.000
 3393.00    0.33168   0.42592   -1.000
 3394.00    0.33315   0.44011   -1.000
 3395.00    0.34549   0.46544   -1.000
 3396.00    0.36483   0.48995   -1.000
 3397.00    0.38199   0.51022   -1.000
 3398.00    0.39841   0.52297   -1.000
 3399.00    0.41242   0.52462   -1.000
 3400.00    0.41199   0.51596   -1.000
 3401.00    0.41461   0.50067   -1.000
 3402.00    0.40896   0.48199   -1.000
 3403.00    0.39919   0.46739   -1.000
 3404.00    0.39988   0.46058   -1.000
 3405.00    0.39331   0.45632   -1.000
 3406.00    0.38556   0.44909   -1.000
 3407.00    0.38128   0.44074   -1.000
 3408.00    0.37399   0.43867   -1.000
 3409.00    0.37720   0.44673   -1.000
 3410.00    0.37969   0.45843   -1.000
 3411.00    0.38504   0.46000   -1.000
 3412.00    0.38559   0.44780   -1.000
 3413.00    0.38373   0.43145   55.279
 3414.00    0.37740   0.42440   55.382
 3415.00    0.37410   0.43227   -1.000
 3416.00    0.37818   0.45076   -1.000
 3417.00    0.39098   0.47342   -1.000
 3418.00    0.41048   0.49480   -1.000
 3419.00    0.42082   0.51113   -1.000
 3420.00    0.42763   0.51507   -1.000
 3421.00    0.43664   0.50480   -1.000
 3422.00    0.43113   0.48872   47.567
 3423.00    0.42697   0.47815   48.715
 3424.00    0.42297   0.47572   47.817
 3425.00    0.42155   0.47860   46.525
 3426.00    0.43275   0.48464   46.076
 3427.00    0.43380   0.49693   -1.000
 3428.00    0.44408   0.51867   -1.000
 3429.00    0.45667   0.53659   -1.000
 3430.00    0.46332   0.53512   -1.000
 3431.00    0.46243   0.51536   -1.000
 3432.00    0.45297   0.49212   57.445
 3433.00    0.44696   0.48278   45.965
 3434.00    0.44473   0.48858   -1.000
 3435.00    0.44613   0.49759   -1.000
 3436.00    0.45139   0.49737   56.979
 3437.00    0.44185   0.48466   47.572
 3438.00    0.42762   0.45954   50.308
 3439.00    0.40821   0.42582   54.114
 3440.00    0.37913   0.39219   56.753
 3441.00    0.36248   0.37027   57.295
 3442.00    0.35264   0.36902   57.115
 3443.00    0.36120   0.38236   55.246
 3444.00    0.37511   0.40087   52.377
 3445.00    0.39036   0.42008   49.480
 3446.00    0.40901   0.44246   47.556
 3447.00    0.42836   0.46793   -1.000
 3448.00    0.44808   0.49342   -1.000
 3449.00    0.46314   0.51009   -1.000
 3450.00    0.47044   0.50807   -1.000
 3451.00    0.47233   0.49024   -1.000
 3452.00    0.46249   0.47102   -1.000
 3453.00    0.45636   0.46539   -1.000
 3454.00    0.46095   0.47406   -1.000
 3455.00    0.47252   0.48378   -1.000
 3456.00    0.47883   0.48238  375.031
 3457.00    0.46770   0.46678  375.031
 3458.00    0.45642   0.44642   56.802
 3459.00    0.45061   0.43082   46.516
 3460.00    0.44242   0.42132   46.396
 3461.00    0.43809   0.42547  158.045
 3462.00    0.44467   0.44582  375.031
 3463.00    0.45698   0.46744   -1.000
 3464.00    0.47415   0.47444  375.031
 3465.00    0.48386   0.47188   -1.000
 3466.00    0.48269   0.47077   -1.000
 3467.00    0.48121   0.47964  375.031
 3468.00    0.48459   0.49396   -1.000
 3469.00    0.50056   0.50477  375.031
 3470.00    0.51535   0.50739  375.031
 3471.00    0.51454   0.49900   -1.000
 3472.00    0.49971   0.48016   -1.000
 3473.00    0.48094   0.45385   -1.000
 3474.00    0.45708   0.42613   57.046
 3475.00    0.43265   0.40867   47.791
 3476.00    0.42662   0.41341   47.301
 3477.00    0.44017   0.43572  160.660
 3478.00    0.46363   0.46218  375.031
 3479.00    0.49352   0.48115   -1.000
 3480.00    0.50715   0.48814   -1.000
 3481.00    0.51456   0.48411   -1.000
 3482.00    0.51038   0.47344   -1.000
 3483.00    0.50114   0.46385   -1.000
 3484.00    0.49553   0.46531   -1.000
 3485.00    0.49724   0.48191   -1.000
 3486.00    0.51742   0.50245   -1.000
 3487.00    0.52763   0.50648   -1.000
 3488.00    0.52324   0.48774   -1.000
 3489.00    0.49854   0.45904   -1.000
 3490.00    0.47489   0.43963   -1.000
 3491.00    0.46753   0.43944   -1.000
 3492.00    0.46906   0.44992   -1.000
 3493.00    0.47359   0.45863   -1.000
 3494.00    0.48128   0.45679   -1.000
 3495.00    0.48211   0.44581   -1.000
 3496.00    0.47184   0.43901   -1.000
 3497.00    0.46958   0.45083   -1.000
 3498.00    0.48253   0.48032  375.031
 3499.00    0.50992   0.50495  371.430
 3500.00    0.53619   0.51380   -1.000
 3501.00    0.54954   0.51775   -1.000
 3502.00    0.55447   0.52403   -1.000
 3503.00    0.55699   0.52847   -1.000
 3504.00    0.55831   0.52207   -1.000
 3505.00    0.54582   0.50965   -1.000
 3506.00    0.53151   0.50259   -1.000
 3507.00    0.52669   0.50230   -1.000
 3508.00    0.52945   0.50110   -1.000
 3509.00    0.53478   0.49236   -1.000
 3510.00    0.52023   0.48010   -1.000
 3511.00    0.50078   0.46860   -1.000
 3512.00    0.50060   0.45783   -1.000
 3513.00    0.49501   0.44800   -1.000
 3514.00    0.48882   0.45023   -1.000
 3515.00    0.49224   0.47159   -1.000
 3516.00    0.51618   0.50420   -1.000
 3517.00    0.54386   0.52992   -1.000
 3518.00    0.55744   0.53486   -1.000
 3519.00    0.54517   0.51928   -1.000
 3520.00    0.52308   0.49282   -1.000
 3521.00    0.50795   0.46782   -1.000
 3522.00    0.48956   0.44889   -1.000
 3523.00    0.47171   0.42920   55.886
 3524.00    0.45706   0.41259   47.335
 3525.00    0.44219   0.40864   47.404
 3526.00    0.43931   0.42515  167.680
 3527.00    0.45624   0.45794  375.031
 3528.00    0.48044   0.49209   -1.000
 3529.00    0.50923   0.51237  375.031
 3530.00    0.52340   0.51483  375.031
 3531.00    0.51764   0.50835  375.031
 3532.00    0.51440   0.50704  375.031
 3533.00    0.51541   0.51510  375.031
 3534.00    0.52158   0.52672  375.031
 3535.00    0.53102   0.53370  368.978
 3536.00    0.53409   0.53626  369.677
 3537.00    0.53484   0.54200   -1.000
 3538.00    0.54030   0.55185   -1.000
 3539.00    0.55514   0.55678  363.885
 3540.00    0.55146   0.55077  370.166
 3541.00    0.53444   0.54204   -1.000
 3542.00    0.53129   0.54316   -1.000
 3543.00    0.53502   0.55231   -1.000
 3544.00    0.54023   0.56084   -1.000
 3545.00    0.54380   0.56101   -1.000
 3546.00    0.54181   0.55432   -1.000
 3547.00    0.52901   0.54947   -1.000
 3548.00    0.52431   0.55031   -1.000
 3549.00    0.52731   0.55443   -1.000
 3550.00    0.52672   0.55491   -1.000
 3551.00    0.52457   0.54773   -1.000
 3552.00    0.51133   0.53387   -1.000
 3553.00    0.49942   0.52207   -1.000
 3554.00    0.49574   0.51959   -1.000
 3555.00    0.49356   0.52460   -1.000
 3556.00    0.49819   0.52948   -1.000
 3557.00    0.50101   0.52775   -1.000
 3558.00    0.49688   0.52126   -1.000
 3559.00    0.49386   0.51917   -1.000
 3560.00    0.49321   0.52755   -1.000
 3561.00    0.49624   0.54255   -1.000
 3562.00    0.50124   0.54999   -1.000
 3563.00    0.50503   0.53227   -1.000
 3564.00    0.48453   0.48876   55.822
 3565.00    0.44776   0.44957   48.015
 3566.00    0.42876   0.43735   47.908
 3567.00    0.42901   0.43972   47.585
 3568.00    0.42249   0.43689   48.872
 3569.00    0.41800   0.42268   49.916
 3570.00    0.40994   0.41291   48.776
 3571.00    0.41714   0.42141   46.696
 3572.00    0.43443   0.43953  171.158
 3573.00    0.45103   0.45436  375.031
 3574.00    0.45880   0.46296  375.031
 3575.00    0.46796   0.46752  375.031
 3576.00    0.47161   0.46946  375.031
 3577.00    0.46282   0.46477  375.031
 3578.00    0.45471   0.44835   57.522
 3579.00    0.43638   0.41954   51.128
 3580.00    0.41242   0.39276   54.172
 3581.00    0.38866   0.38033   54.980
 3582.00    0.37893   0.38317   55.224
 3583.00    0.37875   0.38866   56.416
 3584.00    0.37683   0.38305   58.209
 3585.00    0.36960   0.37077   59.225
 3586.00    0.36535   0.36690   56.859
 3587.00    0.37125   0.37689   53.843
 3588.00    0.38353   0.39973   51.196
 3589.00    0.40488   0.43177   46.943
 3590.00    0.43203   0.46543   -1.000
 3591.00    0.46382   0.49062   -1.000
 3592.00    0.48889   0.50062   -1.000
 3593.00    0.49094   0.50262   -1.000
 3594.00    0.49640   0.50907   -1.000
 3595.00    0.50828   0.52586   -1.000
 3596.00    0.52749   0.54503   -1.000
 3597.00    0.54869   0.55933   -1.000
 3598.00    0.55982   0.57104   -1.000
 3599.00    0.56316   0.57720   -1.000
 3600.00    0.57425   0.56965  363.216
 3601.00    0.56049   0.54529   -1.000
 3602.00    0.53455   0.51360   -1.000
 3603.00    0.50950   0.48754   -1.000
 3604.00    0.49436   0.47653   -1.000
 3605.00    0.48862   0.47810   -1.000
 3606.00    0.49035   0.47866   -1.000
 3607.00    0.49429   0.46903   -1.000
 3608.00    0.47947   0.45279   -1.000
 3609.00    0.45875   0.44653   -1.000
 3610.00    0.45734   0.45998  375.031
 3611.00    0.48092   0.48010  375.031
 3612.00    0.49969   0.49358  375.031
 3613.00    0.50518   0.50543  375.031
 3614.00    0.51650   0.52012  375.031
 3615.00    0.53375   0.53131  375.031
 3616.00    0.53305   0.51954   -1.000
 3617.00    0.50935   0.47962   -1.000
 3618.00    0.46841   0.44357   54.351
 3619.00    0.44451   0.44180  173.987
 3620.00    0.46301   0.46948   -1.000
 3621.00    0.49922   0.50583   -1.000
 3622.00    0.52837   0.53205  362.437
 3623.00    0.54379   0.54833  357.322
 3624.00    0.55328   0.56673   -1.000
 3625.00    0.57644   0.59527   -1.000
 3626.00    0.60220   0.62338   -1.000
 3627.00    0.61672   0.63682   -1.000
 3628.00    0.61633   0.62084  347.052
 3629.00    0.58006   0.57197   -1.000
 3630.00    0.52458   0.51223   -1.000
 3631.00    0.48073   0.47417  375.031
 3632.00    0.46931   0.46984  375.031
 3633.00    0.48484   0.48914  375.031
 3634.00    0.50054   0.51149   -1.000
 3635.00    0.51083   0.52694   -1.000
 3636.00    0.53184   0.53807  363.091
 3637.00    0.55049   0.55641  346.597
 3638.00    0.56762   0.58108   -1.000
 3639.00    0.59290   0.60256   -1.000
 3640.00    0.59990   0.60843   -1.000
 3641.00    0.59242   0.59453  350.357
 3642.00    0.58097   0.56881   -1.000
 3643.00    0.55921   0.54335   -1.000
 3644.00    0.53717   0.52564   -1.000
 3645.00    0.51985   0.51407  375.031
 3646.00    0.51179   0.50293   -1.000
 3647.00    0.50356   0.49401   -1.000
 3648.00    0.49352   0.49477  375.031
 3649.00    0.50336   0.50760  375.031
 3650.00    0.52699   0.53208  359.950
 3651.00    0.55136   0.56259   -1.000
 3652.00    0.57667   0.59042   -1.000
 3653.00    0.59627   0.60746   -1.000
 3654.00    0.60562   0.61623   -1.000
 3655.00    0.61518   0.62354   -1.000
 3656.00    0.61966   0.63617   -1.000
 3657.00    0.63224   0.64983   -1.000
 3658.00    0.64439   0.65743   -1.000
 3659.00    0.64796   0.65879   -1.000
 3660.00    0.64692   0.65358  318.776
 3661.00    0.63829   0.64175  322.228
 3662.00    0.62346   0.62674  327.465
 3663.00    0.61411   0.61545  330.441
 3664.00    0.61174   0.61196  327.356
 3665.00    0.61926   0.61434  326.926
 3666.00    0.61983   0.61416  332.876
 3667.00    0.61011   0.60494  337.058
 3668.00    0.60208   0.58894   -1.000
 3669.00    0.58793   0.58230  344.115
 3670.00    0.59081   0.59422  332.617
 3671.00    0.60797   0.61589   -1.000
 3672.00    0.62353   0.63206   -1.000
 3673.00    0.62868   0.63577   -1.000
 3674.00    0.62990   0.62999  323.561
 3675.00    0.62717   0.61561   -1.000
 3676.00    0.61461   0.59448   -1.000
 3677.00    0.59189   0.57115   -1.000
 3678.00    0.57060   0.55068   -1.000
 3679.00    0.55730   0.54053   -1.000
 3680.00    0.55777   0.54390   -1.000
 3681.00    0.56866   0.55808   -1.000
 3682.00    0.58343   0.57366  340.129
 3683.00    0.59663   0.58020   -1.000
 3684.00    0.59551   0.57000   -1.000
 3685.00    0.57809   0.54427   -1.000
 3686.00    0.54924   0.51955   -1.000
 3687.00    0.53557   0.51465   -1.000
 3688.00    0.54006   0.53442  351.773
 3689.00    0.57484   0.57148  328.389
 3690.00    0.60790   0.60919  316.811
 3691.00    0.63785   0.62909  317.556
 3692.00    0.64715   0.62554   -1.000
 3693.00    0.63188   0.61348   -1.000
 3694.00    0.62094   0.60436   -1.000
 3695.00    0.61977   0.60003   -1.000
 3696.00    0.62111   0.60325   -1.000
 3697.00    0.63341   0.61859   -1.000
 3698.00    0.65096   0.64429  305.353
 3699.00    0.66753   0.66667  300.776
 3700.00    0.68854   0.67239   -1.000
 3701.00    0.68189   0.65325   -1.000
 3702.00    0.64237   0.60861   -1.000
 3703.00    0.60255   0.55293   -1.000
 3704.00    0.55922   0.50577   -1.000
 3705.00    0.52241   0.48189   -1.000
 3706.00    0.51725   0.48350   -1.000
 3707.00    0.52463   0.49504   -1.000
 3708.00    0.53013   0.50805   -1.000
 3709.00    0.54280   0.52281   -1.000
 3710.00    0.56875   0.54314   -1.000
 3711.00    0.59272   0.57143   -1.000
 3712.00    0.61968   0.60953  308.046
 3713.00    0.65882   0.64443   -1.000
 3714.00    0.68205   0.66460   -1.000
 3715.00    0.68533   0.66629   -1.000
 3716.00    0.68117   0.64882   -1.000
 3717.00    0.65982   0.61162   -1.000
 3718.00    0.61337   0.55550   -1.000
 3719.00    0.54420   0.48689   -1.000
 3720.00    0.48266   0.43375   54.089
 3721.00    0.45259   0.42065   -1.000
 3722.00    0.46442   0.44908   -1.000
 3723.00    0.51647   0.50491   -1.000
 3724.00    0.58470   0.56195   -1.000
 3725.00    0.62978   0.59077   -1.000
 3726.00    0.63444   0.58811   -1.000
 3727.00    0.61736   0.58148   -1.000
 3728.00    0.60804   0.58570   -1.000
 3729.00    0.60715   0.59042   -1.000
 3730.00    0.60251   0.57838   -1.000
 3731.00    0.57804   0.53724   -1.000
 3732.00    0.53543   0.47601   -1.000
 3733.00    0.47763   0.41668   -1.000
 3734.00    0.42557   0.37595   53.023
 3735.00    0.39876   0.36806   50.986
 3736.00    0.40820   0.39494   46.461
 3737.00    0.44914   0.44665  187.092
 3738.00    0.50792   0.51025  369.550
 3739.00    0.55901   0.56853   -1.000
 3740.00    0.59778   0.60091  341.751
 3741.00    0.61635   0.60199   -1.000
 3742.00    0.60556   0.57832   -1.000
 3743.00    0.57003   0.54248   -1.000
 3744.00    0.53755   0.50723   -1.000
 3745.00    0.50803   0.48078   -1.000
 3746.00    0.48055   0.45568   53.515
 3747.00    0.46172   0.42483   49.065
 3748.00    0.43669   0.39385   49.966
 3749.00    0.41841   0.38757   -1.000
 3750.00    0.44053   0.42050   -1.000
 3751.00    0.50071   0.48152   -1.000
 3752.00    0.56546   0.54740   -1.000
 3753.00    0.61729   0.60602   -1.000
 3754.00    0.65894   0.64655   -1.000
 3755.00    0.68042   0.65246   -1.000
 3756.00    0.66496   0.61882   -1.000
 3757.00    0.60738   0.56672   -1.000
 3758.00    0.54949   0.52940   -1.000
 3759.00    0.53549   0.52545   -1.000
 3760.00    0.56102   0.54382   -1.000
 3761.00    0.58729   0.56123   -1.000
 3762.00    0.59676   0.56908   -1.000
 3763.00    0.59751   0.57260   -1.000
 3764.00    0.59537   0.57189   -1.000
 3765.00    0.59593   0.56304   -1.000
 3766.00    0.58633   0.54902   -1.000
 3767.00    0.57291   0.53606   -1.000
 3768.00    0.57557   0.52554   -1.000
 3769.00    0.57405   0.51806   -1.000
 3770.00    0.57342   0.52038   -1.000
 3771.00    0.58222   0.54135   -1.000
 3772.00    0.61251   0.57701   -1.000
 3773.00    0.64224   0.60843   -1.000
 3774.00    0.66161   0.62553   -1.000
 3775.00    0.66022   0.63537   -1.000
 3776.00    0.66513   0.64508   -1.000
 3777.00    0.67739   0.65932   -1.000
 3778.00    0.68321   0.67887  302.144
 3779.00    0.69794   0.69928  294.710
 3780.00    0.71619   0.71553  292.153
 3781.00    0.72868   0.72526  290.367
 3782.00    0.73259   0.73023  290.305
 3783.00    0.73413   0.72748  296.256
 3784.00    0.73223   0.70794   -1.000
 3785.00    0.70634   0.67052   -1.000
 3786.00    0.65779   0.63002   -1.000
 3787.00    0.62399   0.59963   -1.000
 3788.00    0.60605   0.58518   -1.000
 3789.00    0.59258   0.58582  354.115
 3790.00    0.59290   0.59370  350.153
 3791.00    0.60879   0.59696   -1.000
 3792.00    0.61256   0.58585   -1.000
 3793.00    0.58849   0.56176   -1.000
 3794.00    0.55868   0.53321   -1.000
 3795.00    0.53751   0.50422   -1.000
 3796.00    0.51559   0.47374   -1.000
 3797.00    0.49345   0.44493   -1.000
 3798.00    0.47843   0.43927   -1.000
 3799.00    0.49358   0.47241   -1.000
 3800.00    0.53322   0.52966  350.455
 3801.00    0.57654   0.58955   -1.000
 3802.00    0.61948   0.63686   -1.000
 3803.00    0.65460   0.66280  323.077
 3804.00    0.66380   0.66794  327.305
 3805.00    0.65333   0.65479  339.013
 3806.00    0.63769   0.63803  346.386
 3807.00    0.63200   0.63892  339.014
 3808.00    0.63516   0.66105   -1.000
 3809.00    0.65634   0.68828   -1.000
 3810.00    0.67531   0.69986   -1.000
 3811.00    0.67569   0.68393  343.266
 3812.00    0.65107   0.64634  364.400
 3813.00    0.61116   0.60215   -1.000
 3814.00    0.57804   0.56756   -1.000
 3815.00    0.55385   0.55745  375.031
 3816.00    0.55423   0.56998   -1.000
 3817.00    0.57138   0.58141  375.031
 3818.00    0.57241   0.57204  375.031
 3819.00    0.54734   0.54466  375.031
 3820.00    0.51990   0.52446  375.031
 3821.00    0.52286   0.52931  375.031
 3822.00    0.54435   0.54106  375.031
 3823.00    0.54378   0.53336   -1.000
 3824.00    0.51222   0.50588   54.304
 3825.00    0.47983   0.47847   48.959
 3826.00    0.46301   0.46537   48.693
 3827.00    0.46833   0.46575   47.940
 3828.00    0.47717   0.47161   47.151
 3829.00    0.48334   0.47330   47.593
 3830.00    0.48324   0.46327   49.605
 3831.00    0.46354   0.43971   53.419
 3832.00    0.43876   0.40869   55.352
 3833.00    0.41284   0.38063   54.539
 3834.00    0.40542   0.36803   52.430
 3835.00    0.41307   0.37251   51.179
 3836.00    0.42561   0.38483   52.043
 3837.00    0.43511   0.39562   53.300
 3838.00    0.43196   0.40494   52.578
 3839.00    0.43692   0.42240   49.759
 3840.00    0.45715   0.45740  222.985
 3841.00    0.49102   0.50591   -1.000
 3842.00    0.54174   0.55461   -1.000
 3843.00    0.57824   0.59220   -1.000
 3844.00    0.59994   0.61236   -1.000
 3845.00    0.59617   0.62351   -1.000
 3846.00    0.59508   0.63426   -1.000
 3847.00    0.59526   0.64130   -1.000
 3848.00    0.59348   0.63639   -1.000
 3849.00    0.57852   0.62750   -1.000
 3850.00    0.56765   0.62717   -1.000
 3851.00    0.57719   0.63791   -1.000
 3852.00    0.59515   0.64972   -1.000
 3853.00    0.59297   0.64835   -1.000
 3854.00    0.58407   0.63320   -1.000
 3855.00    0.57149   0.61618   -1.000
 3856.00    0.55855   0.59893   -1.000
 3857.00    0.54928   0.57768   51.043
 3858.00    0.52834   0.55527   48.061
 3859.00    0.50413   0.54673   47.400
 3860.00    0.49793   0.56531   -1.000
 3861.00    0.53289   0.60432   -1.000
 3862.00    0.58389   0.64272   -1.000
 3863.00    0.61620   0.65943   -1.000
 3864.00    0.62465   0.65599   -1.000
 3865.00    0.61265   0.64860   -1.000
 3866.00    0.59851   0.64429   -1.000
 3867.00    0.59305   0.64280   -1.000
 3868.00    0.58362   0.63763   -1.000
 3869.00    0.56662   0.62114   -1.000
 3870.00    0.54386   0.59405   51.581
 3871.00    0.52440   0.56955   -1.000
 3872.00    0.52658   0.56508   -1.000
 3873.00    0.55832   0.58585   -1.000
 3874.00    0.60108   0.62135   -1.000
 3875.00    0.63401   0.64163  364.795
 3876.00    0.62795   0.62886  375.031
 3877.00    0.58880   0.59937   -1.000
 3878.00    0.55559   0.57944   -1.000
 3879.00    0.54837   0.57738   -1.000
 3880.00    0.54181   0.58166   -1.000
 3881.00    0.52845   0.58227   -1.000
 3882.00    0.53449   0.58176   -1.000
 3883.00    0.56101   0.58118   -1.000
 3884.00    0.59223   0.56980   -1.000
 3885.00    0.58527   0.53814   -1.000
 3886.00    0.54961   0.49511   -1.000
 3887.00    0.52951   0.46314   -1.000
 3888.00    0.52503   0.45697   -1.000
 3889.00    0.53785   0.48293   -1.000
 3890.00    0.58595   0.53248   -1.000
 3891.00    0.64614   0.58758   -1.000
 3892.00    0.68583   0.62439   -1.000
 3893.00    0.69929   0.63508   -1.000
 3894.00    0.69315   0.63546   -1.000
 3895.00    0.69514   0.64220   -1.000
 3896.00    0.70571   0.65708   -1.000
 3897.00    0.71404   0.66788   -1.000
 3898.00    0.71511   0.66935   -1.000
 3899.00    0.71161   0.67127   -1.000
 3900.00    0.71831   0.67997   -1.000
 3901.00    0.73109   0.68743   -1.000
 3902.00    0.73448   0.68436   -1.000
 3903.00    0.72227   0.66863   -1.000
 3904.00    0.70097   0.65016   -1.000
 3905.00    0.68451   0.64492   -1.000
 3906.00    0.68312   0.66005   -1.000
 3907.00    0.70890   0.69303   -1.000
 3908.00    0.74804   0.73090   -1.000
 3909.00    0.78061   0.75774   -1.000
 3910.00    0.79723   0.77164   -1.000
 3911.00    0.80612   0.77872   -1.000
 3912.00    0.80849   0.77878   -1.000
 3913.00    0.80113   0.77216   -1.000
 3914.00    0.78168   0.76147   -1.000
 3915.00    0.76873   0.74919   -1.000
 3916.00    0.76562   0.73771   -1.000
 3917.00    0.75702   0.72435   -1.000
 3918.00    0.73747   0.70438   -1.000
 3919.00    0.71206   0.68020   -1.000
 3920.00    0.68730   0.66015   -1.000
 3921.00    0.67209   0.65362   -1.000
 3922.00    0.67023   0.66155   -1.000
 3923.00    0.67647   0.67098  339.315
 3924.00    0.67705   0.66675   -1.000
 3925.00    0.66311   0.64245   -1.000
 3926.00    0.62481   0.60058   -1.000
 3927.00    0.56420   0.54720   56.102
 3928.00    0.50365   0.48959   58.621
 3929.00    0.44746   0.43196   68.601
 3930.00    0.38181   0.37207   81.100
 3931.00    0.31746   0.31415   94.987
 3932.00    0.26015   0.26549  104.492
 3933.00    0.24008   0.24159  101.328
 3934.00    0.25692   0.25414   88.623
 3935.00    0.28980   0.29959   73.536
 3936.00    0.34411   0.36320   60.401
 3937.00    0.40636   0.43410   50.681
 3938.00    0.46772   0.50119   -1.000
 3939.00    0.52429   0.55547   -1.000
 3940.00    0.57122   0.59336   -1.000
 3941.00    0.59342   0.61088   -1.000
 3942.00    0.59686   0.61463   -1.000
 3943.00    0.58846   0.61794   -1.000
 3944.00    0.60572   0.63351   -1.000
 3945.00    0.65152   0.66112   -1.000
 3946.00    0.70695   0.68569   -1.000
 3947.00    0.72095   0.69842   -1.000
 3948.00    0.72072   0.70852   -1.000
 3949.00    0.73989   0.72402   -1.000
 3950.00    0.76290   0.73614   -1.000
 3951.00    0.76486   0.73767   -1.000
 3952.00    0.75609   0.73873   -1.000
 3953.00    0.76532   0.74573   -1.000
 3954.00    0.78281   0.75107   -1.000
 3955.00    0.78084   0.74378   -1.000
 3956.00    0.75466   0.72989   -1.000
 3957.00    0.74229   0.72508   -1.000
 3958.00    0.74767   0.72365   -1.000
 3959.00    0.73933   0.70246   -1.000
 3960.00    0.68780   0.65396   -1.000
 3961.00    0.61523   0.59551   -1.000
 3962.00    0.56207   0.54825   -1.000
 3963.00    0.53209   0.51471   52.419
 3964.00    0.49930   0.47705   55.310
 3965.00    0.43328   0.42017   67.932
 3966.00    0.35449   0.34579   83.201
 3967.00    0.28470   0.28057   92.810
 3968.00    0.24933   0.24893   87.421
 3969.00    0.25841   0.25939   72.659
 3970.00    0.30313   0.30489   59.690
 3971.00    0.36692   0.37078   49.871
 3972.00    0.43499   0.44132  245.952
 3973.00    0.50272   0.50972   -1.000
 3974.00    0.56749   0.57378  340.441
 3975.00    0.62821   0.62989  313.245
 3976.00    0.68074   0.67951  294.378
 3977.00    0.72588   0.72425  278.805
 3978.00    0.77758   0.76698  263.791
 3979.00    0.81884   0.80045   -1.000
 3980.00    0.84479   0.81436   -1.000
 3981.00    0.84259   0.81107   -1.000
 3982.00    0.83080   0.80374   -1.000
 3983.00    0.82861   0.80615   -1.000
 3984.00    0.84376   0.81817   -1.000
 3985.00    0.86409   0.83317   -1.000
 3986.00    0.87966   0.85034   -1.000
 3987.00    0.89642   0.86766   -1.000
 3988.00    0.90744   0.87983   -1.000
 3989.00    0.90880   0.88611   -1.000
 3990.00    0.90713   0.89175   -1.000
 3991.00    0.92327   0.90310   -1.000
 3992.00    0.94530   0.91577   -1.000
 3993.00    0.94635   0.91814   -1.000
 3994.00    0.93218   0.90670   -1.000
 3995.00    0.90972   0.88661   -1.000
 3996.00    0.89071   0.86912   -1.000
 3997.00    0.87478   0.86793  246.147
 3998.00    0.88550   0.88622  235.094
 3999.00    0.92256   0.91459  226.941
 4000.00    0.95869   0.94204   -1.000
 4001.00    0.98480   0.95911   -1.000
 4002.00    0.99234   0.95670   -1.000
 4003.00    0.98024   0.92977   -1.000
 4004.00    0.92945   0.88636   -1.000
 4005.00    0.87962   0.85363   -1.000
 4006.00    0.87424   0.85872   -1.000
 4007.00    0.91197   0.89511   -1.000
 4008.00    0.95274   0.93474   -1.000
 4009.00    0.97371   0.95885   -1.000
 4010.00    0.98385   0.96824   -1.000
 4011.00    0.98256   0.97127  221.405
 4012.00    0.98577   0.97388  222.639
 4013.00    0.99592   0.97925   -1.000
 4014.00    1.00000   0.98459   -1.000
 4015.00    1.01025   0.98487   -1.000
 4016.00    1.00772   0.98143   -1.000
 4017.00    0.99545   0.98192  221.498
 4018.00    1.00238   0.99084  218.162
 4019.00    1.01628   1.00132   -1.000
 4020.00    1.02676   1.00559   -1.000
 4021.00    1.02340   1.00102   -1.000
 4022.00    1.01313   0.99269   -1.000
 4023.00    1.00038   0.98421   -1.000
 4024.00    0.98832   0.98075  220.934
 4025.00    0.99751   0.98994  213.123
 4026.00    1.03062   1.01140   -1.000
 4027.00    1.05908   1.02912   -1.000
 4028.00    1.05952   1.01849   -1.000
 4029.00    1.02115   0.97522   -1.000
 4030.00    0.95674   0.92033   -1.000
 4031.00    0.90202   0.87916   -1.000
 4032.00    0.88627   0.86371   -1.000
 4033.00    0.89497   0.87249   -1.000
 4034.00    0.91691   0.90306  224.699
 4035.00    0.96186   0.95075  213.589
 4036.00    1.01691   1.00478  205.919
 4037.00    1.05976   1.04721  204.813
 4038.00    1.07744   1.05892   -1.000
 4039.00    1.06096   1.04391   -1.000
 4040.00    1.03275   1.02671  216.421
 4041.00    1.02649   1.01648  217.524
 4042.00    1.02103   0.99545   -1.000
 4043.00    0.98827   0.94385   -1.000
 4044.00    0.91117   0.87125   -1.000
 4045.00    0.82762   0.82994  259.624
 4046.00    0.82445   0.85169   -1.000
 4047.00    0.90993   0.91586  220.150
 4048.00    0.99759   0.98207   -1.000
 4049.00    1.02952   1.02413  210.901
 4050.00    1.04812   1.03778  212.181
 4051.00    1.04892   1.03111   -1.000
 4052.00    1.02993   1.01070   -1.000
 4053.00    1.00145   0.98658   -1.000
 4054.00    0.97790   0.96985  229.010
 4055.00    0.97219   0.95788   -1.000
 4056.00    0.97311   0.94539   -1.000
 4057.00    0.96362   0.94029   -1.000
 4058.00    0.95500   0.95288  222.263
 4059.00    0.97588   0.97916  217.676
 4060.00    1.00429   0.99123   -1.000
 4061.00    1.00430   0.96422   -1.000
 4062.00    0.95080   0.91284   -1.000
 4063.00    0.87787   0.87364  250.429
 4064.00    0.87357   0.86799  238.310
 4065.00    0.92163   0.88733   -1.000
 4066.00    0.94525   0.91436   -1.000
 4067.00    0.95777   0.94273   -1.000
 4068.00    0.99087   0.96647   -1.000
 4069.00    1.02433   0.96735   -1.000
 4070.00    0.99867   0.94047   -1.000
 4071.00    0.94598   0.91278   -1.000
 4072.00    0.93206   0.91259   -1.000
 4073.00    0.96143   0.93398   -1.000
 4074.00    0.98878   0.94031   -1.000
 4075.00    0.96263   0.91115   -1.000
 4076.00    0.89846   0.86964   -1.000
 4077.00    0.85828   0.85053  253.468
 4078.00    0.86595   0.87228  236.290
 4079.00    0.91229   0.92460   -1.000
 4080.00    0.98801   0.97850  212.936
 4081.00    1.02665   1.00413   -1.000
 4082.00    1.01604   0.99498   -1.000
 4083.00    0.99121   0.97012   -1.000
 4084.00    0.97063   0.95609  223.977
 4085.00    0.97177   0.96830  216.513
 4086.00    1.00202   1.00090  208.189
 4087.00    1.04276   1.03677  201.427
 4088.00    1.07951   1.05789   -1.000
 4089.00    1.08137   1.05566   -1.000
 4090.00    1.07564   1.03664   -1.000
 4091.00    1.04939   1.01720   -1.000
 4092.00    1.02711   1.00562   -1.000
 4093.00    1.03137   0.99284   -1.000
 4094.00    1.02734   0.96978   -1.000
 4095.00    0.98868   0.93574   -1.000
 4096.00    0.94930   0.90276   -1.000
 4097.00    0.92381   0.87540   -1.000
 4098.00    0.91346   0.84148   -1.000
 4099.00    0.87484   0.78944   -1.000
 4100.00    0.81038   0.72829   -1.000
 4101.00    0.74349   0.69245   -1.000
 4102.00    0.73898   0.70710   -1.000
 4103.00    0.79709   0.76581   -1.000
 4104.00    0.87247   0.84055   -1.000
 4105.00    0.92897   0.90024   -1.000
 4106.00    0.96715   0.93461   -1.000
 4107.00    0.98203   0.95012   -1.000
 4108.00    0.97728   0.95203   -1.000
 4109.00    0.96930   0.94879   -1.000
 4110.00    0.95121   0.94995  230.676
 4111.00    0.95781   0.95962  225.491
 4112.00    0.97674   0.97664  221.573
 4113.00    1.00031   0.99869  218.153
 4114.00    1.02186   1.02159  215.987
 4115.00    1.03154   1.03488  216.968
 4116.00    1.03545   1.03121  221.523
 4117.00    1.02188   1.01332  229.000
 4118.00    0.99202   0.99388  231.836
 4119.00    0.97436   0.98433  229.069
 4120.00    0.98120   0.98676  226.667
 4121.00    0.98657   0.99382  226.836
 4122.00    0.98374   1.00033   -1.000
 4123.00    0.98621   1.00907   -1.000
 4124.00    1.01682   1.02032  219.666
 4125.00    1.02676   1.02518  222.550
 4126.00    1.01705   1.01688  227.351
 4127.00    0.99555   1.00297  229.315
 4128.00    0.97865   0.99336   -1.000
 4129.00    0.97898   0.98631  233.353
 4130.00    0.97402   0.97023  240.656
 4131.00    0.94461   0.94410  248.294
 4132.00    0.92273   0.92389  249.135
 4133.00    0.91322   0.92864   -1.000
 4134.00    0.93750   0.96071   -1.000
 4135.00    0.97554   1.00374   -1.000
 4136.00    1.01371   1.04178   -1.000
 4137.00    1.03259   1.06680   -1.000
 4138.00    1.05427   1.08190   -1.000
 4139.00    1.06098   1.08544   -1.000
 4140.00    1.04778   1.06395   -1.000
 4141.00    1.01281   1.01363  248.428
 4142.00    0.95384   0.95713  261.818
 4143.00    0.89231   0.92599   -1.000
 4144.00    0.89416   0.93944   -1.000
 4145.00    0.94367   0.98214   -1.000
 4146.00    0.99312   1.01869   -1.000
 4147.00    1.00677   1.03052   -1.000
 4148.00    0.99628   1.02342   -1.000
 4149.00    0.97332   1.01532   -1.000
 4150.00    0.96093   1.01437   -1.000
 4151.00    0.96114   1.01370   -1.000
 4152.00    0.96104   1.00600   -1.000
 4153.00    0.95742   0.99164   -1.000
 4154.00    0.94772   0.97948   -1.000
 4155.00    0.93942   0.97948   -1.000
 4156.00    0.97755   0.99342   -1.000
 4157.00    0.97758   1.01534   -1.000
 4158.00    0.98132   1.04056   -1.000
 4159.00    0.98660   1.06191   -1.000
 4160.00    0.98989   1.07568   -1.000
 4161.00    1.02736   1.08711   -1.000
 4162.00    1.04001   1.09739   -1.000
 4163.00    1.04675   1.10268   -1.000
 4164.00    1.03814   1.09694   -1.000
 4165.00    1.01959   1.07828   -1.000
 4166.00    0.99713   1.05676   -1.000
 4167.00    0.97991   1.04580   -1.000
 4168.00    0.98710   1.04682   -1.000
 4169.00    1.00052   1.04459   -1.000
 4170.00    0.99954   1.01990   -1.000
 4171.00    0.95668   0.97717   -1.000
 4172.00    0.89654   0.94046   -1.000
 4173.00    0.87613   0.93438   -1.000
 4174.00    0.89804   0.95699   -1.000
 4175.00    0.92422   0.98369   -1.000
 4176.00    0.93257   0.99716   -1.000
 4177.00    0.93386   1.00427   -1.000
 4178.00    0.93399   1.01673   -1.000
 4179.00    0.94617   1.03024   -1.000
 4180.00    0.96274   1.03245   -1.000
 4181.00    0.96326   1.02403   -1.000
 4182.00    0.97304   1.02190   -1.000
 4183.00    0.98957   1.03630   -1.000
 4184.00    1.01107   1.05199   -1.000
 4185.00    1.02143   1.04905   -1.000
 4186.00    0.99641   1.02956   -1.000
 4187.00    0.96151   1.01402   -1.000
 4188.00    0.95785   1.01701   -1.000
 4189.00    0.97957   1.03299   -1.000
 4190.00    0.99886   1.04898   -1.000
 4191.00    1.00298   1.06376   -1.000
 4192.00    1.01953   1.07906   -1.000
 4193.00    1.04061   1.08344   -1.000
 4194.00    1.03266   1.06527   -1.000
 4195.00    0.98757   1.02866   -1.000
 4196.00    0.94637   0.99029   -1.000
 4197.00    0.92251   0.96366   -1.000
 4198.00    0.91799   0.95175   -1.000
 4199.00    0.93302   0.95091   -1.000
 4200.00    0.95287   0.95781  244.928
 4201.00    0.95402   0.96727  243.348
 4202.00    0.95479   0.97954   -1.000
 4203.00    0.96558   0.99990   -1.000
 4204.00    0.98402   1.02824   -1.000
 4205.00    0.99550   1.05784   -1.000
 4206.00    1.01953   1.08331   -1.000
 4207.00    1.03712   1.09973   -1.000
 4208.00    1.04790   1.10347   -1.000
 4209.00    1.05681   1.09959   -1.000
 4210.00    1.05035   1.09889   -1.000
 4211.00    1.05619   1.10564   -1.000
 4212.00    1.06208   1.10610   -1.000
 4213.00    1.04419   1.08394   -1.000
 4214.00    1.00039   1.04725   -1.000
 4215.00    0.95483   1.02389   -1.000
 4216.00    0.96723   1.03359   -1.000
 4217.00    1.04434   1.07210   -1.000
 4218.00    1.10572   1.11559  207.020
 4219.00    1.13167   1.14455  204.807
 4220.00    1.14949   1.14998  206.691
 4221.00    1.15374   1.13059   -1.000
 4222.00    1.11848   1.08405   -1.000
 4223.00    1.05625   1.00934   -1.000
 4224.00    0.98110   0.91771   -1.000
 4225.00    0.88520   0.83966   -1.000
 4226.00    0.80108   0.81120  291.642
 4227.00    0.80705   0.85379   -1.000
 4228.00    0.91448   0.94977   -1.000
 4229.00    1.03209   1.04123  214.520
 4230.00    1.10019   1.08852  212.928
 4231.00    1.11981   1.09430   -1.000
 4232.00    1.09828   1.07561   -1.000
 4233.00    1.06300   1.05150  225.758
 4234.00    1.04600   1.03201   -1.000
 4235.00    1.03048   1.02106  235.321
 4236.00    1.01826   1.01741  233.498
 4237.00    1.02596   1.02442  227.947
 4238.00    1.03385   1.04332  224.746
 4239.00    1.04658   1.06679   -1.000
 4240.00    1.06690   1.08945   -1.000
 4241.00    1.09056   1.10869   -1.000
 4242.00    1.11046   1.12548   -1.000
 4243.00    1.12344   1.14293   -1.000
 4244.00    1.13827   1.15416   -1.000
 4245.00    1.14132   1.14492  220.438
 4246.00    1.10820   1.11227  228.825
 4247.00    1.06479   1.07022  234.620
 4248.00    1.03385   1.03648  236.695
 4249.00    1.01594   1.02353  236.384
 4250.00    1.00997   1.03256   -1.000
 4251.00    1.02992   1.05200   -1.000
 4252.00    1.06503   1.06351  224.357
 4253.00    1.06437   1.05455   -1.000
 4254.00    1.04173   1.04251  227.486
 4255.00    1.04057   1.05498  218.402
 4256.00    1.07223   1.08208  216.751
 4257.00    1.09668   1.08796  225.339
 4258.00    1.07729   1.05679   -1.000
 4259.00    1.01768   1.01315  244.119
 4260.00    0.97517   1.00005   -1.000
 4261.00    0.99363   1.03415   -1.000
 4262.00    1.06242   1.09681   -1.000
 4263.00    1.12877   1.15259   -1.000
 4264.00    1.16765   1.18021  204.245
 4265.00    1.18575   1.18166  207.692
 4266.00    1.17114   1.16561  214.722
 4267.00    1.14010   1.13568  221.234
 4268.00    1.10824   1.09164   -1.000
 4269.00    1.07479   1.03530   -1.000
 4270.00    1.00984   0.97635   -1.000
 4271.00    0.93490   0.93432  262.855
 4272.00    0.91167   0.92255  256.730
 4273.00    0.93767   0.93842  250.254
 4274.00    0.96312   0.97151  238.895
 4275.00    0.99403   1.02040   -1.000
 4276.00    1.05756   1.07894   -1.000
 4277.00    1.11795   1.12420  213.015
 4278.00    1.14228   1.13413  222.881
 4279.00    1.11910   1.11331  230.604
 4280.00    1.07812   1.08909  231.014
 4281.00    1.05832   1.08176   -1.000
 4282.00    1.06893   1.08740   -1.000
 4283.00    1.08063   1.08743  228.650
 4284.00    1.06910   1.07543  235.559
 4285.00    1.04649   1.05885  241.473
 4286.00    1.03014   1.04021  244.827
 4287.00    1.01916   1.01477  254.474
 4288.00    0.98724   0.97812   -1.000
 4289.00    0.93178   0.94384  267.577
 4290.00    0.90573   0.94036   -1.000
 4291.00    0.94639   0.97364   -1.000
 4292.00    1.01078   1.01521  233.150
 4293.00    1.04923   1.03652   -1.000
 4294.00    1.04992   1.03211   -1.000
 4295.00    1.03054   1.01241   -1.000
 4296.00    1.01089   0.98132   -1.000
 4297.00    0.98113   0.93413   -1.000
 4298.00    0.91880   0.87563   -1.000
 4299.00    0.85334   0.82884   -1.000
 4300.00    0.82476   0.81105   -1.000
 4301.00    0.83402   0.81874   -1.000
 4302.00    0.85533   0.83582   -1.000
 4303.00    0.87121   0.85209   -1.000
 4304.00    0.88869   0.86309   -1.000
 4305.00    0.89068   0.85719   -1.000
 4306.00    0.86670   0.82958   -1.000
 4307.00    0.82491   0.79697   -1.000
 4308.00    0.79774   0.78362   -1.000
 4309.00    0.80388   0.80361  294.149
 4310.00    0.85763   0.84904  274.755
 4311.00    0.90987   0.90009  261.007
 4312.00    0.94811   0.94967  250.624
 4313.00    0.98724   1.00817   -1.000
 4314.00    1.02735   1.08118   -1.000
 4315.00    1.09713   1.16421   -1.000
 4316.00    1.19535   1.23715   -1.000
 4317.00    1.26436   1.27595  192.433
 4318.00    1.26777   1.27587  195.582
 4319.00    1.24827   1.25437  200.091
 4320.00    1.21962   1.22387  206.998
 4321.00    1.18904   1.17797  217.376
 4322.00    1.15059   1.10952   -1.000
 4323.00    1.08567   1.02443   -1.000
 4324.00    0.99529   0.95675   -1.000
 4325.00    0.93193   0.94437   -1.000
 4326.00    0.95158   0.99737   -1.000
 4327.00    1.05175   1.09037   -1.000
 4328.00    1.16004   1.16983  201.105
 4329.00    1.20247   1.20624  202.184
 4330.00    1.20098   1.21078  200.957
 4331.00    1.19486   1.21038   -1.000
 4332.00    1.20629   1.21916   -1.000
 4333.00    1.21596   1.22767  195.011
 4334.00    1.22346   1.22017  198.560
 4335.00    1.21606   1.18081   -1.000
 4336.00    1.16071   1.10199   -1.000
 4337.00    1.06299   0.99493   -1.000
 4338.00    0.96621   0.89492   -1.000
 4339.00    0.88836   0.83759   -1.000
 4340.00    0.84528   0.84049  259.481
 4341.00    0.88148   0.89963   -1.000
 4342.00    0.98337   0.98692  219.565
 4343.00    1.05743   1.06270  212.953
 4344.00    1.10740   1.11470  207.190
 4345.00    1.14758   1.15422  203.787
 4346.00    1.18217   1.18804  201.711
 4347.00    1.18958   1.21799   -1.000
 4348.00    1.21444   1.23416   -1.000
 4349.00    1.23105   1.21664  210.792
 4350.00    1.19202   1.16231   -1.000
 4351.00    1.11044   1.10517  229.371
 4352.00    1.06468   1.08759   -1.000
 4353.00    1.10250   1.11632   -1.000
 4354.00    1.16450   1.16642  203.039
 4355.00    1.20392   1.20784  198.917
 4356.00    1.22866   1.22846  199.247
 4357.00    1.23814   1.23120  203.874
 4358.00    1.21731   1.22478  206.260
 4359.00    1.19459   1.22508   -1.000
 4360.00    1.21029   1.24296   -1.000
 4361.00    1.25138   1.27136   -1.000
 4362.00    1.27895   1.29451   -1.000
 4363.00    1.28592   1.30979   -1.000
 4364.00    1.29879   1.31935   -1.000
 4365.00    1.31003   1.31186  196.950
 4366.00    1.28183   1.28179  204.258
 4367.00    1.22905   1.24732   -1.000
 4368.00    1.19884   1.22627   -1.000
 4369.00    1.19956   1.21928   -1.000
 4370.00    1.21825   1.21646  202.586
 4371.00    1.21971   1.20493   -1.000
 4372.00    1.21539   1.17819   -1.000
 4373.00    1.17817   1.14119   -1.000
 4374.00    1.12488   1.11305  221.681
 4375.00    1.10798   1.11752  211.942
 4376.00    1.14553   1.15793  201.166
 4377.00    1.21274   1.20528  198.031
 4378.00    1.25578   1.23112   -1.000
 4379.00    1.25560   1.22586   -1.000
 4380.00    1.23321   1.18385   -1.000
 4381.00    1.19407   1.10298   -1.000
 4382.00    1.09187   1.00458   -1.000
 4383.00    0.96002   0.93354   -1.000
 4384.00    0.90519   0.93475   -1.000
 4385.00    0.98033   1.00335   -1.000
 4386.00    1.08874   1.08352  211.141
 4387.00    1.15195   1.13007   -1.000
 4388.00    1.16978   1.13967   -1.000
 4389.00    1.16080   1.13769   -1.000
 4390.00    1.15770   1.14267   -1.000
 4391.00    1.17105   1.15822  205.448
 4392.00    1.19242   1.17430   -1.000
 4393.00    1.21102   1.17868   -1.000
 4394.00    1.18918   1.18015  210.927
 4395.00    1.17684   1.19794   -1.000
 4396.00    1.22167   1.23195  195.085
 4397.00    1.27173   1.25389   -1.000
 4398.00    1.27781   1.24233   -1.000
 4399.00    1.23059   1.21308   -1.000
 4400.00    1.17780   1.19239   -1.000
 4401.00    1.18303   1.18536  205.195
 4402.00    1.21112   1.17301   -1.000
 4403.00    1.18368   1.13601   -1.000
 4404.00    1.11327   1.09515   -1.000
 4405.00    1.08348   1.08427  218.889
 4406.00    1.12095   1.10461   -1.000
 4407.00    1.14821   1.13650  214.148
 4408.00    1.15095   1.17156   -1.000
 4409.00    1.18298   1.21873   -1.000
 4410.00    1.23887   1.27624   -1.000
 4411.00    1.29331   1.31352   -1.000
 4412.00    1.31379   1.30671  193.849
 4413.00    1.28867   1.26214   -1.000
 4414.00    1.22288   1.20460   -1.000
 4415.00    1.15673   1.16856  210.677
 4416.00    1.14446   1.17986   -1.000
 4417.00    1.18601   1.23088   -1.000
 4418.00    1.23730   1.28966   -1.000
 4419.00    1.27801   1.32727   -1.000
 4420.00    1.29420   1.32748   -1.000
 4421.00    1.26629   1.30069   -1.000
 4422.00    1.22693   1.27395   -1.000
 4423.00    1.20643   1.26460   -1.000
 4424.00    1.21901   1.27026   -1.000
 4425.00    1.22589   1.27507   -1.000
 4426.00    1.21368   1.27611   -1.000
 4427.00    1.21744   1.28109   -1.000
 4428.00    1.23468   1.28580   -1.000
 4429.00    1.23212   1.28547   -1.000
 4430.00    1.21641   1.28281   -1.000
 4431.00    1.21786   1.28037   -1.000
 4432.00    1.23783   1.27145   -1.000
 4433.00    1.22595   1.24339   -1.000
 4434.00    1.18243   1.20911   -1.000
 4435.00    1.15102   1.20436   -1.000
 4436.00    1.17832   1.24538   -1.000
 4437.00    1.25597   1.31065   -1.000
 4438.00    1.32619   1.35794   -1.000
 4439.00    1.34460   1.36328   -1.000
 4440.00    1.31776   1.32715  200.108
 4441.00    1.25992   1.27344  208.385
 4442.00    1.21058   1.23915   -1.000
 4443.00    1.19145   1.24836   -1.000
 4444.00    1.22878   1.29496   -1.000
 4445.00    1.29514   1.34471   -1.000
 4446.00    1.32932   1.37289   -1.000
 4447.00    1.33255   1.37830   -1.000
 4448.00    1.33221   1.37458   -1.000
 4449.00    1.33618   1.37006   -1.000
 4450.00    1.32162   1.36337   -1.000
 4451.00    1.31063   1.35050   -1.000
 4452.00    1.31440   1.32268  200.543
 4453.00    1.29141   1.27449   -1.000
 4454.00    1.23037   1.22302  213.719
 4455.00    1.18952   1.19581  209.557
 4456.00    1.19919   1.19880  205.894
 4457.00    1.21691   1.21349  206.312
 4458.00    1.21704   1.22036  207.459
 4459.00    1.21064   1.21825  209.717
 4460.00    1.20473   1.21789  211.452
 4461.00    1.19341   1.22839   -1.000
 4462.00    1.21368   1.25499   -1.000
 4463.00    1.25598   1.29138   -1.000
 4464.00    1.29751   1.31949   -1.000
 4465.00    1.31163   1.32946   -1.000
 4466.00    1.30100   1.32356   -1.000
 4467.00    1.29649   1.31040  200.513
 4468.00    1.28114   1.29877   -1.000
 4469.00    1.26189   1.29938   -1.000
 4470.00    1.26841   1.32095   -1.000
 4471.00    1.30299   1.35854   -1.000
 4472.00    1.35190   1.39732   -1.000
 4473.00    1.38667   1.42587   -1.000
 4474.00    1.42003   1.43980   -1.000
 4475.00    1.42316   1.44728   -1.000
 4476.00    1.42511   1.45543   -1.000
 4477.00    1.44690   1.45504  178.674
 4478.00    1.44588   1.43080  185.717
 4479.00    1.39647   1.38177  194.224
 4480.00    1.32462   1.32831  199.303
 4481.00    1.28124   1.30418   -1.000
 4482.00    1.28079   1.32319   -1.000
 4483.00    1.33343   1.37280   -1.000
 4484.00    1.39470   1.42766   -1.000
 4485.00    1.43304   1.46336   -1.000
 4486.00    1.44598   1.46463   -1.000
 4487.00    1.42233   1.43382  189.371
 4488.00    1.37264   1.39113   -1.000
 4489.00    1.32558   1.36420   -1.000
 4490.00    1.31529   1.36763   -1.000
 4491.00    1.34757   1.39009   -1.000
 4492.00    1.38214   1.40530   -1.000
 4493.00    1.37301   1.39594   -1.000
 4494.00    1.33384   1.37306   -1.000
 4495.00    1.30572   1.36393   -1.000
 4496.00    1.30973   1.38023   -1.000
 4497.00    1.34665   1.40989   -1.000
 4498.00    1.38546   1.43423   -1.000
 4499.00    1.40017   1.44365   -1.000
 4500.00    1.38587   1.44152   -1.000
 4501.00    1.36681   1.44594   -1.000
 4502.00    1.39244   1.46904   -1.000
 4503.00    1.46273   1.50316   -1.000
 4504.00    1.51622   1.53409   -1.000
 4505.00    1.51591   1.54554   -1.000
 4506.00    1.49802   1.53638   -1.000
 4507.00    1.47989   1.52055   -1.000
 4508.00    1.46225   1.51258   -1.000
 4509.00    1.47592   1.51483   -1.000
 4510.00    1.48913   1.51811   -1.000
 4511.00    1.48040   1.51093   -1.000
 4512.00    1.46312   1.49112   -1.000
 4513.00    1.43127   1.46854   -1.000
 4514.00    1.40776   1.45225   -1.000
 4515.00    1.40408   1.44567   -1.000
 4516.00    1.41391   1.44644   -1.000
 4517.00    1.41118   1.44634   -1.000
 4518.00    1.40551   1.44589   -1.000
 4519.00    1.42029   1.45389   -1.000
 4520.00    1.44471   1.46806   -1.000
 4521.00    1.45559   1.47558   -1.000
 4522.00    1.42388   1.46595   -1.000
 4523.00    1.39054   1.44238   -1.000
 4524.00    1.38547   1.41526   -1.000
 4525.00    1.36297   1.38488   -1.000
 4526.00    1.32728   1.34668   -1.000
 4527.00    1.28989   1.30623   -1.000
 4528.00    1.25415   1.27857   -1.000
 4529.00    1.25888   1.27542   -1.000
 4530.00    1.27579   1.29334   -1.000
 4531.00    1.30550   1.31718  195.100
 4532.00    1.32917   1.32726  201.064
 4533.00    1.31805   1.31827  207.646
 4534.00    1.28311   1.30643   -1.000
 4535.00    1.27225   1.31656   -1.000
 4536.00    1.32322   1.36053   -1.000
 4537.00    1.41381   1.42142  176.394
 4538.00    1.46487   1.46697  178.602
 4539.00    1.45476   1.47728   -1.000
 4540.00    1.42203   1.46311   -1.000
 4541.00    1.40036   1.44960   -1.000
 4542.00    1.41225   1.44943   -1.000
 4543.00    1.42604   1.45365   -1.000
 4544.00    1.38722   1.44869   -1.000
 4545.00    0.32652   1.43506   -1.000
 4546.00   -0.05794   1.42206    0.000
 4547.00    0.04525   1.40933   -1.000
 4548.00    1.05504   1.39227   -1.000
 4549.00    0.45064   1.37871   -1.000
 4550.00    0.88775   1.38192   -1.000
 4551.00    1.44676   1.39869   -1.000
 4552.00    1.37657   1.40818   -1.000
 4553.00    1.36223   1.40042   -1.000
 4554.00    1.34092   1.38906   -1.000
 4555.00    1.34798   1.39309   -1.000
 4556.00    1.38457   1.42222   -1.000
 4557.00    1.44170   1.46668   -1.000
 4558.00    1.48477   1.50484   -1.000
 4559.00    1.49369   1.52680   -1.000
 4560.00    1.49058   1.53497   -1.000
 4561.00    1.49084   1.53165   -1.000
 4562.00    1.48277   1.51502   -1.000
 4563.00    1.44897   1.48543   -1.000
 4564.00    1.40769   1.45656   -1.000
 4565.00    1.39790   1.44717   -1.000
 4566.00    1.43083   1.46554   -1.000
 4567.00    1.47691   1.50005   -1.000
 4568.00    1.50215   1.52528   -1.000
 4569.00    1.50350   1.52503   -1.000
 4570.00    1.47032   1.50280   -1.000
 4571.00    1.42329   1.47746   -1.000
 4572.00    1.42064   1.47132   -1.000
 4573.00    1.45871   1.49076   -1.000
 4574.00    1.49274   1.51741   -1.000
 4575.00    1.49618   1.53090   -1.000
 4576.00    1.48959   1.52901   -1.000
 4577.00    1.48125   1.51588   -1.000
 4578.00    1.45918   1.49081   -1.000
 4579.00    1.42440   1.45600   -1.000
 4580.00    1.39389   1.42436   -1.000
 4581.00    1.38533   1.40918   -1.000
 4582.00    1.39609   1.41238   -1.000
 4583.00    1.40857   1.42303   -1.000
 4584.00    1.40574   1.42929   -1.000
 4585.00    1.40603   1.43091   -1.000
 4586.00    1.41882   1.44065   -1.000
 4587.00    1.45018   1.46451  174.475
 4588.00    1.48495   1.49360  174.548
 4589.00    1.49833   1.51192  177.306
 4590.00    1.49001   1.50919   -1.000
 4591.00    1.45881   1.48930   -1.000
 4592.00    1.43164   1.46688   -1.000
 4593.00    1.42495   1.45463   -1.000
 4594.00    1.42762   1.45375   -1.000
 4595.00    1.42967   1.45827   -1.000
 4596.00    1.43261   1.46471   -1.000
 4597.00    1.45180   1.47280   -1.000
 4598.00    1.45623   1.47926   -1.000
 4599.00    1.45342   1.47917   -1.000
 4600.00    1.44307   1.47350   -1.000
 4601.00    1.43047   1.46819   -1.000
 4602.00    1.43782   1.46804   -1.000
 4603.00    1.45561   1.47135   -1.000
 4604.00    1.46383   1.47564  179.007
 4605.00    1.46393   1.48339   -1.000
 4606.00    1.46994   1.49972   -1.000
 4607.00    1.50732   1.52635   -1.000
 4608.00    1.54898   1.55725  167.868
 4609.00    1.58011   1.57931  168.858
 4610.00    1.57930   1.58035  171.257
 4611.00    1.55037   1.56423  173.088
 4612.00    1.53026   1.54766   -1.000
 4613.00    1.52057   1.54025   -1.000
 4614.00    1.52859   1.54287  171.509
 4615.00    1.53694   1.55023  170.973
 4616.00    1.53681   1.55512   -1.000
 4617.00    1.53509   1.55431   -1.000
 4618.00    1.52947   1.55062   -1.000
 4619.00    1.52311   1.55030   -1.000
 4620.00    1.53298   1.55795   -1.000
 4621.00    1.55381   1.57142   -1.000
 4622.00    1.56621   1.58080  169.237
 4623.00    1.56123   1.57964   -1.000
 4624.00    1.56025   1.57312  171.208
 4625.00    1.55192   1.56699  171.526
 4626.00    1.54685   1.56183  171.477
 4627.00    1.54961   1.55918  172.621
 4628.00    1.54497   1.55891  172.871
 4629.00    1.53071   1.56101   -1.000
 4630.00    1.53465   1.56601   -1.000
 4631.00    1.55970   1.57255  170.995
 4632.00    1.56372   1.57227  173.569
 4633.00    1.53548   1.55996   -1.000
 4634.00    1.51429   1.54382   -1.000
 4635.00    1.51689   1.53203  176.712
 4636.00    1.51086   1.52251  179.019
 4637.00    1.49730   1.51111  179.595
 4638.00    1.48406   1.50159   -1.000
 4639.00    1.48150   1.50028   -1.000
 4640.00    1.49834   1.51082  171.548
 4641.00    1.53066   1.52981  169.491
 4642.00    1.55461   1.54567  170.506
 4643.00    1.55504   1.54415  173.940
 4644.00    1.54235   1.52238   -1.000
 4645.00    1.50042   1.48907  183.647
 4646.00    1.44937   1.45406  183.924
 4647.00    1.42898   1.43347  180.367
 4648.00    1.44217   1.44149  176.196
 4649.00    1.47643   1.47303  174.015
 4650.00    1.50862   1.50970  173.828
 4651.00    1.52654   1.53490  173.612
 4652.00    1.53186   1.54331  175.956
 4653.00    1.52737   1.53647  180.043
 4654.00    1.50334   1.51872  181.750
 4655.00    1.47918   1.50378   -1.000
 4656.00    1.47553   1.50756   -1.000
 4657.00    1.50508   1.53614   -1.000
 4658.00    1.56295   1.58150   -1.000
 4659.00    1.61727   1.62233  163.920
 4660.00    1.63137   1.63696  166.221
 4661.00    1.60655   1.62291  170.388
 4662.00    1.56368   1.59205   -1.000
 4663.00    1.53709   1.55777   -1.000
 4664.00    1.52279   1.52458  177.208
 4665.00    1.50133   1.48646  185.138
 4666.00    1.44505   1.44112  192.327
 4667.00    1.37868   1.40323   -1.000
 4668.00    1.35912   1.39555   -1.000
 4669.00    1.40469   1.42557   -1.000
 4670.00    1.46922   1.47494  173.178
 4671.00    1.52230   1.51793  172.441
 4672.00    1.54937   1.54051  172.615
 4673.00    1.53724   1.54793  172.268
 4674.00    1.53849   1.55445  169.873
 4675.00    1.56047   1.56702  167.528
 4676.00    1.58560   1.57703  168.770
 4677.00    1.59023   1.56930   -1.000
 4678.00    1.56110   1.54350   -1.000
 4679.00    1.52673   1.51314  178.742
 4680.00    1.49446   1.49218  180.116
 4681.00    1.48540   1.48640  177.469
 4682.00    1.50347   1.49488  173.001
 4683.00    1.52958   1.51333  171.067
 4684.00    1.56333   1.53194   -1.000
 4685.00    1.57433   1.54250   -1.000
 4686.00    1.55946   1.54420  172.850
 4687.00    1.54978   1.54125  172.797
 4688.00    1.54801   1.53750  172.906
 4689.00    1.54799   1.53463  174.168
 4690.00    1.54240   1.53251  174.293
 4691.00    1.53740   1.53033  172.038
 4692.00    1.54894   1.53304  169.349
 4693.00    1.57322   1.54417   -1.000
 4694.00    1.60158   1.55927   -1.000
 4695.00    1.62150   1.57078   -1.000
 4696.00    1.62322   1.57168   -1.000
 4697.00    1.59945   1.55583   -1.000
 4698.00    1.55345   1.52729   -1.000
 4699.00    1.51847   1.49970   -1.000
 4700.00    1.51052   1.48048   -1.000
 4701.00    1.50785   1.46750   -1.000
 4702.00    1.49576   1.45884   -1.000
 4703.00    1.49358   1.46080   -1.000
 4704.00    1.50970   1.47668   -1.000
 4705.00    1.53194   1.49429   -1.000
 4706.00    1.53025   1.49687   -1.000
 4707.00    1.50277   1.48448   -1.000
 4708.00    1.47822   1.47397  180.852
 4709.00    1.46998   1.48005  175.294
 4710.00    1.50213   1.50103  170.754
 4711.00    1.55104   1.52487   -1.000
 4712.00    1.58383   1.53922   -1.000
 4713.00    1.56799   1.53712   -1.000
 4714.00    1.54460   1.52902  174.063
 4715.00    1.53736   1.53329  170.412
 4716.00    1.56727   1.55598  167.323
 4717.00    1.59329   1.58715  166.453
 4718.00    1.60891   1.61229  165.887
 4719.00    1.62106   1.62641  165.476
 4720.00    1.62983   1.63042  166.993
 4721.00    1.61832   1.62756  167.987
 4722.00    1.60212   1.62375   -1.000
 4723.00    1.60422   1.62541   -1.000
 4724.00    1.62139   1.62976  165.794
 4725.00    1.62155   1.62381  170.246
 4726.00    1.59191   1.59758  176.673
 4727.00    1.53526   1.55428   -1.000
 4728.00    1.49516   1.51356   -1.000
 4729.00    1.48668   1.49425  177.190
 4730.00    1.49953   1.49766  175.761
 4731.00    1.52811   1.51429  173.643
 4732.00    1.54560   1.53536  172.217
 4733.00    1.55784   1.55382  171.268
 4734.00    1.58320   1.56304   -1.000
 4735.00    1.58614   1.56347   -1.000
 4736.00    1.57342   1.56205  172.327
 4737.00    1.56402   1.56510  170.143
 4738.00    1.57789   1.57533  170.437
 4739.00    1.59209   1.58777  171.418
 4740.00    1.58629   1.59362  171.458
 4741.00    1.57860   1.59377  169.944
 4742.00    1.58882   1.59711  168.246
 4743.00    1.60562   1.60445  168.702
 4744.00    1.61227   1.61141  168.712
 4745.00    1.60929   1.61722  167.327
 4746.00    1.60972   1.62434  165.722
 4747.00    1.62534   1.63460  165.506
 4748.00    1.63578   1.64587  165.780
 4749.00    1.63415   1.65510   -1.000
 4750.00    1.63269   1.66072   -1.000
 4751.00    1.62696   1.65729   -1.000
 4752.00    1.61111   1.64201   -1.000
 4753.00    1.58767   1.61988   -1.000
 4754.00    1.57314   1.60077   -1.000
 4755.00    1.56589   1.59275   -1.000
 4756.00    1.56726   1.59570   -1.000
 4757.00    1.56556   1.60575   -1.000
 4758.00    1.56511   1.61976   -1.000
 4759.00    1.57599   1.63274   -1.000
 4760.00    1.57531   1.63459   -1.000
 4761.00    1.55051   1.61783   -1.000
 4762.00    1.51291   1.58491   -1.000
 4763.00    1.49968   1.55063   -1.000
 4764.00    1.49488   1.52895   -1.000
 4765.00    1.49217   1.51925   -1.000
 4766.00    1.50364   1.52047   -1.000
 4767.00    1.52460   1.53879  172.672
 4768.00    1.55190   1.57573   -1.000
 4769.00    1.59015   1.61396   -1.000
 4770.00    1.60774   1.63307   -1.000
 4771.00    1.59302   1.63111   -1.000
 4772.00    1.58496   1.62552   -1.000
 4773.00    1.59477   1.63311   -1.000
 4774.00    1.62074   1.65510   -1.000
 4775.00    1.63911   1.67751   -1.000
 4776.00    1.64199   1.68942   -1.000
 4777.00    1.63619   1.69134   -1.000
 4778.00    1.62299   1.68681   -1.000
 4779.00    1.61250   1.67767   -1.000
 4780.00    1.60880   1.66611   -1.000
 4781.00    1.60825   1.65407   -1.000
 4782.00    1.60112   1.63911   -1.000
 4783.00    1.58379   1.62317   -1.000
 4784.00    1.57925   1.61266   -1.000
 4785.00    1.57443   1.60712   -1.000
 4786.00    1.55693   1.60256   -1.000
 4787.00    1.54378   1.59952   -1.000
 4788.00    1.55041   1.60059   -1.000
 4789.00    1.55469   1.60515   -1.000
 4790.00    1.55594   1.61426   -1.000
 4791.00    1.57474   1.63203   -1.000
 4792.00    1.60677   1.66070   -1.000
 4793.00    1.64339   1.69564   -1.000
 4794.00    1.67247   1.72740   -1.000
 4795.00    1.68627   1.74561   -1.000
 4796.00    1.68125   1.74184   -1.000
 4797.00    1.65389   1.71853   -1.000
 4798.00    1.61583   1.68813   -1.000
 4799.00    1.58876   1.66490   -1.000
 4800.00    1.58709   1.66047   -1.000
 4801.00    1.61225   1.67780   -1.000
 4802.00    1.64233   1.70391   -1.000
 4803.00    1.65311   1.71838   -1.000
 4804.00    1.63754   1.71193   -1.000
 4805.00    1.61308   1.69195   -1.000
 4806.00    1.60047   1.67272   -1.000
 4807.00    1.59602   1.66121   -1.000
 4808.00    1.60046   1.65914   -1.000
 4809.00    1.60976   1.66782   -1.000
 4810.00    1.62269   1.68228   -1.000
 4811.00    1.63104   1.69392   -1.000
 4812.00    1.63664   1.70012   -1.000
 4813.00    1.63940   1.70461   -1.000
 4814.00    1.64693   1.71130   -1.000
 4815.00    1.65806   1.72194   -1.000
 4816.00    1.67360   1.73532   -1.000
 4817.00    1.67951   1.74809   -1.000
 4818.00    1.68717   1.75716   -1.000
 4819.00    1.69256   1.76223   -1.000
 4820.00    1.68976   1.76032   -1.000
 4821.00    1.67366   1.74367   -1.000
 4822.00    1.64304   1.71028   -1.000
 4823.00    1.59999   1.67158   -1.000
 4824.00    1.57993   1.64900   -1.000
 4825.00    1.61196   1.65720   -1.000
 4826.00    1.64938   1.68215   -1.000
 4827.00    1.66095   1.69790   -1.000
 4828.00    1.64073   1.69655   -1.000
 4829.00    1.62512   1.68785   -1.000
 4830.00    1.61961   1.67914   -1.000
 4831.00    1.61342   1.66693   -1.000
 4832.00    1.60671   1.65566   -1.000
 4833.00    1.61806   1.65663   -1.000
 4834.00    1.64193   1.67109   -1.000
 4835.00    1.65188   1.68944   -1.000
 4836.00    1.65262   1.69944   -1.000
 4837.00    1.64909   1.69657   -1.000
 4838.00    1.63956   1.68197   -1.000
 4839.00    1.60756   1.66026   -1.000
 4840.00    1.58784   1.64169   -1.000
 4841.00    1.59301   1.63397   -1.000
 4842.00    1.60267   1.63654   -1.000
 4843.00    1.60609   1.64377   -1.000
 4844.00    1.61924   1.65603   -1.000
 4845.00    1.64682   1.67538   -1.000
 4846.00    1.66116   1.69070   -1.000
 4847.00    1.64324   1.68718   -1.000
 4848.00    1.61331   1.67014   -1.000
 4849.00    1.60186   1.65935   -1.000
 4850.00    1.61878   1.66336   -1.000
 4851.00    1.63465   1.67178   -1.000
 4852.00    1.63152   1.66871   -1.000
 4853.00    1.61192   1.64536   -1.000
 4854.00    1.56895   1.60256   -1.000
 4855.00    1.52373   1.55667   -1.000
 4856.00    1.49887   1.52739   -1.000
 4857.00    1.50630   1.51345  185.693
 4858.00    1.49326   1.48305  202.928
 4859.00    1.40664   1.40190  225.738
 4860.00    1.26521   1.28709   -1.000
 4861.00    1.15764   1.20243   -1.000
 4862.00    1.18862   1.20236   -1.000
 4863.00    1.30757   1.28172   -1.000
 4864.00    1.41272   1.38455   -1.000
 4865.00    1.47543   1.47078  177.586
 4866.00    1.51388   1.53097   -1.000
 4867.00    1.53561   1.56973   -1.000
 4868.00    1.55250   1.58858   -1.000
 4869.00    1.55316   1.58258   -1.000
 4870.00    1.51705   1.54983   -1.000
 4871.00    1.46350   1.50586   -1.000
 4872.00    1.44840   1.48540   -1.000
 4873.00    1.48740   1.51116   -1.000
 4874.00    1.53042   1.56198   -1.000
 4875.00    1.55000   1.60315   -1.000
 4876.00    1.55384   1.62226   -1.000
 4877.00    1.56512   1.63365   -1.000
 4878.00    1.59202   1.65314   -1.000
 4879.00    1.61889   1.67854   -1.000
 4880.00    1.62681   1.69523   -1.000
 4881.00    1.59933   1.69189   -1.000
 4882.00    1.57786   1.67591   -1.000
 4883.00    1.58192   1.66264   -1.000
 4884.00    1.57682   1.64826   -1.000
 4885.00    1.54910   1.62580   -1.000
 4886.00    1.53370   1.60489   -1.000
 4887.00    1.54033   1.59640   -1.000
 4888.00    1.54801   1.59384   -1.000
 4889.00    1.53532   1.57925   -1.000
 4890.00    1.50333   1.55086   -1.000
 4891.00    1.48672   1.53596   -1.000
 4892.00    1.52836   1.56549   -1.000
 4893.00    1.61959   1.64220   -1.000
 4894.00    1.69756   1.73130   -1.000
 4895.00    1.73214   1.79184   -1.000
 4896.00    1.74639   1.81642   -1.000
 4897.00    1.74568   1.81598   -1.000
 4898.00    1.72985   1.80064   -1.000
 4899.00    1.69810   1.77757   -1.000
 4900.00    1.66569   1.75626   -1.000
 4901.00    1.66178   1.74196   -1.000
 4902.00    1.66290   1.73085   -1.000
 4903.00    1.65266   1.71992   -1.000
 4904.00    1.65605   1.72041   -1.000
 4905.00    1.68325   1.74316   -1.000
 4906.00    1.71703   1.77165   -1.000
 4907.00    1.71457   1.77671   -1.000
 4908.00    1.67529   1.74974   -1.000
 4909.00    1.63477   1.70390   -1.000
 4910.00    1.59782   1.66443   -1.000
 4911.00    1.59712   1.65257   -1.000
 4912.00    1.63197   1.67304   -1.000
 4913.00    1.67066   1.71033   -1.000
 4914.00    1.69913   1.74657   -1.000
 4915.00    1.72022   1.77009   -1.000
 4916.00    1.72520   1.76566   -1.000
 4917.00    1.67505   1.71669   -1.000
 4918.00    1.58746   1.62875   -1.000
 4919.00    1.49889   1.53580   -1.000
 4920.00    1.45358   1.48167   -1.000
 4921.00    1.48834   1.48793  177.353
 4922.00    1.54832   1.53674  175.157
 4923.00    1.59279   1.58953  174.804
 4924.00    1.60278   1.62356   -1.000
 4925.00    1.61947   1.65047   -1.000
 4926.00    1.65830   1.68669   -1.000
 4927.00    1.69763   1.73068   -1.000
 4928.00    1.72377   1.77125   -1.000
 4929.00    1.74170   1.79980   -1.000
 4930.00    1.75413   1.81164   -1.000
 4931.00    1.75010   1.80005   -1.000
 4932.00    1.71491   1.76315   -1.000
 4933.00    1.65810   1.71610   -1.000
 4934.00    1.62927   1.68554   -1.000
 4935.00    1.64465   1.68129   -1.000
 4936.00    1.65870   1.68283   -1.000
 4937.00    1.63104   1.66035   -1.000
 4938.00    1.58260   1.62093   -1.000
 4939.00    1.57093   1.60520   -1.000
 4940.00    1.61972   1.63630  167.134
 4941.00    1.68697   1.69961  164.319
 4942.00    1.72974   1.75926   -1.000
 4943.00    1.74465   1.79234   -1.000
 4944.00    1.74861   1.79987   -1.000
 4945.00    1.73912   1.79237   -1.000
 4946.00    1.72720   1.78372   -1.000
 4947.00    1.73517   1.78678   -1.000
 4948.00    1.75835   1.80383   -1.000
 4949.00    1.77849   1.82261   -1.000
 4950.00    1.77980   1.83161   -1.000
 4951.00    1.77714   1.82943   -1.000
 4952.00    1.77109   1.82008   -1.000
 4953.00    1.75614   1.80689   -1.000
 4954.00    1.73695   1.78631   -1.000
 4955.00    1.70228   1.74333   -1.000
 4956.00    1.62450   1.66731   -1.000
 4957.00    1.54799   1.58844   -1.000
 4958.00    1.53804   1.56545   -1.000
 4959.00    1.62011   1.61790  166.047
 4960.00    1.70746   1.70417  165.167
 4961.00    1.73328   1.76750   -1.000
 4962.00    1.73334   1.79057   -1.000
 4963.00    1.72916   1.78626   -1.000
 4964.00    1.71559   1.76432   -1.000
 4965.00    1.67719   1.73172   -1.000
 4966.00    1.64806   1.70222   -1.000
 4967.00    1.63951   1.68639   -1.000
 4968.00    1.65290   1.68428   -1.000
 4969.00    1.66030   1.69280   -1.000
 4970.00    1.67120   1.71020   -1.000
 4971.00    1.69304   1.73392   -1.000
 4972.00    1.72151   1.75976   -1.000
 4973.00    1.74063   1.78139   -1.000
 4974.00    1.75304   1.79364   -1.000
 4975.00    1.75420   1.79401   -1.000
 4976.00    1.73737   1.78276   -1.000
 4977.00    1.71146   1.76135   -1.000
 4978.00    1.68533   1.73525   -1.000
 4979.00    1.66199   1.70918   -1.000
 4980.00    1.64103   1.67898   -1.000
 4981.00    1.59904   1.63321   -1.000
 4982.00    1.53950   1.57416   -1.000
 4983.00    1.50632   1.52886   -1.000
 4984.00    1.52351   1.52553  180.011
 4985.00    1.57056   1.56689  174.446
 4986.00    1.62452   1.63022  170.778
 4987.00    1.67436   1.68843  171.378
 4988.00    1.69430   1.72230   -1.000
 4989.00    1.68529   1.72447   -1.000
 4990.00    1.66627   1.70853   -1.000
 4991.00    1.66078   1.69585   -1.000
 4992.00    1.67266   1.69653   -1.000
 4993.00    1.67901   1.70558   -1.000
 4994.00    1.67961   1.71529   -1.000
 4995.00    1.69181   1.72525   -1.000
 4996.00    1.70643   1.73552   -1.000
 4997.00    1.70178   1.73628   -1.000
 4998.00    1.68531   1.71688   -1.000
 4999.00    1.65070   1.67961   -1.000
 5000.00    1.62311   1.64003  180.305
 5001.00    1.61551   1.61614  178.617
 5002.00    1.62699   1.61406  177.983
 5003.00    1.63401   1.62062  180.931
 5004.00    1.62820   1.61389   -1.000
 5005.00    1.59329   1.58656  185.223
 5006.00    1.56346   1.56042  180.366
 5007.00    1.58406   1.56846  175.346
 5008.00    1.64393   1.61277   -1.000
 5009.00    1.68607   1.66070   -1.000
 5010.00    1.68173   1.67830  182.598
 5011.00    1.63623   1.65418  189.143
 5012.00    1.58074   1.60322   -1.000
 5013.00    1.53928   1.55376  191.129
 5014.00    1.52368   1.53222  186.835
 5015.00    1.55559   1.54097  183.386
 5016.00    1.59245   1.56133   -1.000
 5017.00    1.59966   1.57548   -1.000
 5018.00    1.59097   1.58365  180.507
 5019.00    1.60086   1.59750  179.382
 5020.00    1.62714   1.61500  180.184
 5021.00    1.63496   1.62428  180.358
 5022.00    1.62542   1.62567  179.152
 5023.00    1.63411   1.63319  177.331
 5024.00    1.65845   1.65627  176.463
 5025.00    1.67551   1.67988  177.366
 5026.00    1.67279   1.68275  177.844
 5027.00    1.65498   1.67066  175.882
 5028.00    1.64968   1.66585  172.634
 5029.00    1.68222   1.68020  170.140
 5030.00    1.71750   1.71042  167.484
 5031.00    1.73947   1.74567  165.908
 5032.00    1.76489   1.77635  166.989
 5033.00    1.77866   1.78985  172.706
 5034.00    1.74962   1.77174   -1.000
 5035.00    1.68870   1.72650   -1.000
 5036.00    1.63899   1.68108   -1.000
 5037.00    1.62958   1.65391   -1.000
 5038.00    1.62942   1.63321  192.899
 5039.00    1.58326   1.59078  199.595
 5040.00    1.50812   1.53035   -1.000
 5041.00    1.47103   1.49660   -1.000
 5042.00    1.52431   1.52494  176.541
 5043.00    1.63205   1.60855   -1.000
 5044.00    1.72136   1.70573  166.041
 5045.00    1.77601   1.77608  161.310
 5046.00    1.66543   1.80439   -1.000
 5047.00    1.30862   1.79066   -1.000
 5048.00    0.73937   1.74571   -1.000
 5049.00    0.48876   1.69144   -1.000
 5050.00    1.51530   1.65363   -1.000
 5051.00    1.56203   1.64465   -1.000
 5052.00    1.67105   1.66292  170.058
 5053.00    1.72025   1.70104   -1.000
 5054.00    1.75675   1.74331  165.846
 5055.00    1.78666   1.77270  165.475
 5056.00    1.79753   1.78911  165.807
 5057.00    1.80038   1.79968  166.055
 5058.00    1.80194   1.80982  165.807
 5059.00    1.80201   1.82209   -1.000
 5060.00    1.80537   1.83442   -1.000
 5061.00    1.82035   1.84195   -1.000
 5062.00    1.81893   1.83378  173.183
 5063.00    1.78052   1.79718  178.757
 5064.00    1.71066   1.74150   -1.000
 5065.00    1.66822   1.69653   -1.000
 5066.00    1.67016   1.68064  175.211
 5067.00    1.69468   1.68784  174.679
 5068.00    1.70512   1.70073  173.785
 5069.00    1.72205   1.71274  173.035
 5070.00    1.74324   1.72302   -1.000
 5071.00    1.73447   1.72390  175.326
 5072.00    1.71808   1.71343  173.171
 5073.00    1.71840   1.70549  172.027
 5074.00    1.73506   1.71108   -1.000
 5075.00    1.74336   1.72362   -1.000
 5076.00    1.74347   1.73017  174.440
 5077.00    1.73489   1.71937   -1.000
 5078.00    1.69149   1.68239  188.744
 5079.00    1.62177   1.62696  189.665
 5080.00    1.57826   1.58628  185.445
 5081.00    1.59615   1.58299  181.725
 5082.00    1.63947   1.60684   -1.000
 5083.00    1.66725   1.63818   -1.000
 5084.00    1.69799   1.66876   -1.000
 5085.00    1.73449   1.70118   -1.000
 5086.00    1.75859   1.73111   -1.000
 5087.00    1.76807   1.75045   -1.000
 5088.00    1.76868   1.76043  169.607
 5089.00    1.77737   1.76744  168.692
 5090.00    1.78809   1.77566  167.638
 5091.00    1.79247   1.78840  165.732
 5092.00    1.81148   1.80664  164.757
 5093.00    1.83060   1.82358  166.697
 5094.00    1.83486   1.82468  170.283
 5095.00    1.80631   1.79953  174.045
 5096.00    1.76531   1.75268  178.194
 5097.00    1.71899   1.69925   -1.000
 5098.00    1.66579   1.65645  180.969
 5099.00    1.64545   1.64202  176.199
 5100.00    1.68177   1.66425   -1.000
 5101.00    1.73359   1.71009   -1.000
 5102.00    1.76757   1.74911   -1.000
 5103.00    1.76884   1.76102  174.328
 5104.00    1.75325   1.75128  176.519
 5105.00    1.73022   1.73136  178.688
 5106.00    1.70813   1.70694  180.506
 5107.00    1.68554   1.68222  179.982
 5108.00    1.67437   1.66415  178.771
 5109.00    1.67403   1.65997  177.258
 5110.00    1.68989   1.67294   -1.000
 5111.00    1.71971   1.70085   -1.000
 5112.00    1.74905   1.73430  170.586
 5113.00    1.77381   1.76138  169.176
 5114.00    1.78840   1.78116  168.139
 5115.00    1.80366   1.79902  166.388
 5116.00    1.82032   1.81721  165.338
 5117.00    1.84114   1.83175  166.192
 5118.00    1.84823   1.83620  168.496
 5119.00    1.83250   1.82597  171.093
 5120.00    1.80118   1.80119  174.204
 5121.00    1.76705   1.76675  178.899
 5122.00    1.72780   1.72716  183.616
 5123.00    1.68498   1.68724  184.209
 5124.00    1.65821   1.65620  182.587
 5125.00    1.66105   1.64450   -1.000
 5126.00    1.68320   1.64958   -1.000
 5127.00    1.69043   1.65817   -1.000
 5128.00    1.68623   1.66235   -1.000
 5129.00    1.68955   1.66710   -1.000
 5130.00    1.69978   1.67980   -1.000
 5131.00    1.71962   1.70053   -1.000
 5132.00    1.74314   1.72204   -1.000
 5133.00    1.76375   1.73933   -1.000
 5134.00    1.77552   1.75331   -1.000
 5135.00    1.78999   1.76166   -1.000
 5136.00    1.77929   1.75419   -1.000
 5137.00    1.74080   1.72523   -1.000
 5138.00    1.69881   1.68937  180.584
 5139.00    1.67788   1.66745  179.413
 5140.00    1.68783   1.66459   -1.000
 5141.00    1.69771   1.66869   -1.000
 5142.00    1.68430   1.67004   -1.000
 5143.00    1.67150   1.67358  179.142
 5144.00    1.69224   1.68438  179.040
 5145.00    1.70850   1.69164   -1.000
 5146.00    1.70154   1.68366   -1.000
 5147.00    1.69626   1.67028   -1.000
 5148.00    1.70170   1.67072   -1.000
 5149.00    1.71642   1.68333   -1.000
 5150.00    1.71622   1.68821   -1.000
 5151.00    1.69046   1.67884  184.242
 5152.00    1.67152   1.66531  182.735
 5153.00    1.67236   1.65866  178.911
 5154.00    1.69670   1.66691   -1.000
 5155.00    1.73757   1.69403   -1.000
 5156.00    1.78570   1.73491   -1.000
 5157.00    1.82615   1.77475   -1.000
 5158.00    1.84676   1.80215   -1.000
 5159.00    1.85077   1.81430   -1.000
 5160.00    1.84600   1.81350   -1.000
 5161.00    1.82902   1.80039   -1.000
 5162.00    1.81205   1.77364   -1.000
 5163.00    1.79335   1.73349   -1.000
 5164.00    1.74640   1.67763   -1.000
 5165.00    1.64678   1.59061   -1.000
 5166.00    1.50330   1.47057   -1.000
 5167.00    1.38841   1.36299   -1.000
 5168.00    1.37161   1.32783   -1.000
 5169.00    1.44362   1.36914   -1.000
 5170.00    1.50586   1.41110   -1.000
 5171.00    1.46809   1.38947   -1.000
 5172.00    1.37901   1.33334   -1.000
 5173.00    1.37609   1.32518   -1.000
 5174.00    1.50669   1.41115   -1.000
 5175.00    1.65314   1.54648   -1.000
 5176.00    1.73756   1.65507   -1.000
 5177.00    1.77207   1.71139   -1.000
 5178.00    1.77935   1.72935   -1.000
 5179.00    1.76900   1.72250   -1.000
 5180.00    1.73614   1.68089   -1.000
 5181.00    1.66342   1.58663   -1.000
 5182.00    1.53151   1.45240   -1.000
 5183.00    1.39729   1.33773   -1.000
 5184.00    1.37990   1.31705   -1.000
 5185.00    1.50916   1.40610   -1.000
 5186.00    1.66640   1.54432   -1.000
 5187.00    1.74837   1.65534   -1.000
 5188.00    1.76858   1.70969   -1.000
 5189.00    1.77046   1.72666   -1.000
 5190.00    1.76339   1.71786   -1.000
 5191.00    1.72008   1.68217   -1.000
 5192.00    1.65514   1.63917   -1.000
 5193.00    1.64981   1.62089   -1.000
 5194.00    1.68194   1.63282   -1.000
 5195.00    1.70359   1.65699   -1.000
 5196.00    1.72135   1.68245   -1.000
 5197.00    1.75060   1.71328   -1.000
 5198.00    1.78234   1.75040   -1.000
 5199.00    1.81007   1.78334   -1.000
 5200.00    1.82522   1.80121   -1.000
 5201.00    1.82276   1.79866   -1.000
 5202.00    1.80161   1.77357   -1.000
 5203.00    1.76149   1.72639   -1.000
 5204.00    1.70319   1.66295   -1.000
 5205.00    1.64425   1.60072   -1.000
 5206.00    1.61937   1.55899   -1.000
 5207.00    1.61992   1.54326   -1.000
 5208.00    1.61464   1.54659   -1.000
 5209.00    1.62931   1.56895   -1.000
 5210.00    1.68330   1.61751   -1.000
 5211.00    1.75513   1.68893   -1.000
 5212.00    1.82193   1.76205   -1.000
 5213.00    1.86138   1.80739   -1.000
 5214.00    1.85382   1.80848   -1.000
 5215.00    1.80781   1.77609   -1.000
 5216.00    1.77528   1.74518   -1.000
 5217.00    1.78442   1.74653   -1.000
 5218.00    1.82680   1.78180   -1.000
 5219.00    1.86743   1.82943   -1.000
 5220.00    1.89066   1.86621   -1.000
 5221.00    1.90454   1.88146   -1.000
 5222.00    1.89199   1.87050   -1.000
 5223.00    1.84175   1.83147  181.113
 5224.00    1.77487   1.76408  188.981
 5225.00    1.69347   1.67684   -1.000
 5226.00    1.62395   1.60217   -1.000
 5227.00    1.62351   1.58296   -1.000
 5228.00    1.70850   1.63315   -1.000
 5229.00    1.80230   1.72058   -1.000
 5230.00    1.85293   1.78786   -1.000
 5231.00    1.86401   1.80468   -1.000
 5232.00    1.84240   1.78102   -1.000
 5233.00    1.79979   1.74816   -1.000
 5234.00    1.78239   1.73977   -1.000
 5235.00    1.81256   1.76897   -1.000
 5236.00    1.86285   1.82039   -1.000
 5237.00    1.90664   1.86858   -1.000
 5238.00    1.92641   1.89676   -1.000
 5239.00    1.92459   1.90395   -1.000
 5240.00    1.92136   1.89970   -1.000
 5241.00    1.92037   1.89210   -1.000
 5242.00    1.92327   1.88783   -1.000
 5243.00    1.92061   1.89267   -1.000
 5244.00    1.92572   1.90155   -1.000
 5245.00    1.92021   1.89514   -1.000
 5246.00    1.87291   1.86296  175.195
 5247.00    1.81454   1.81948  175.419
 5248.00    1.79402   1.78721  175.917
 5249.00    1.79550   1.77349   -1.000
 5250.00    1.78542   1.77123  175.385
 5251.00    1.78380   1.77816  173.010
 5252.00    1.81086   1.79348   -1.000
 5253.00    1.83561   1.80615   -1.000
 5254.00    1.83297   1.80919   -1.000
 5255.00    1.83365   1.81658  165.395
 5256.00    1.86854   1.84686   -1.000
 5257.00    1.92690   1.89385   -1.000
 5258.00    1.97005   1.93063   -1.000
 5259.00    1.96591   1.93419   -1.000
 5260.00    1.92497   1.89786   -1.000
 5261.00    1.85376   1.82821   -1.000
 5262.00    1.77170   1.74092   -1.000
 5263.00    1.69544   1.65601   -1.000
 5264.00    1.64124   1.59115   -1.000
 5265.00    1.62257   1.56019   -1.000
 5266.00    1.63889   1.56525   -1.000
 5267.00    1.67992   1.58187   -1.000
 5268.00    1.66657   1.57443   -1.000
 5269.00    1.59926   1.53965   -1.000
 5270.00    1.58155   1.52242   -1.000
 5271.00    1.66713   1.56853   -1.000
 5272.00    1.77269   1.65651   -1.000
 5273.00    1.81090   1.72349   -1.000
 5274.00    1.80701   1.74905   -1.000
 5275.00    1.80701   1.76245   -1.000
 5276.00    1.83805   1.79539   -1.000
 5277.00    1.91077   1.85073   -1.000
 5278.00    1.96704   1.90125   -1.000
 5279.00    1.97265   1.91616   -1.000
 5280.00    1.93397   1.88943   -1.000
 5281.00    1.88371   1.84135   -1.000
 5282.00    1.84479   1.79596   -1.000
 5283.00    1.82296   1.77394   -1.000
 5284.00    1.83778   1.79278   -1.000
 5285.00    1.87990   1.85211   -1.000
 5286.00    1.97178   1.92247   -1.000
 5287.00    2.01498   1.96885   -1.000
 5288.00    2.00936   1.98442   -1.000
 5289.00    2.01192   1.98778   -1.000
 5290.00    2.02435   1.99279   -1.000
 5291.00    2.02868   1.99528   -1.000
 5292.00    2.01273   1.98962   -1.000
 5293.00    1.99511   1.97829  163.870
 5294.00    1.97528   1.95935  168.868
 5295.00    1.93774   1.92150   -1.000
 5296.00    1.87400   1.85926   -1.000
 5297.00    1.80450   1.79347  176.112
 5298.00    1.78240   1.76193   -1.000
 5299.00    1.82119   1.77790   -1.000
 5300.00    1.87463   1.81691   -1.000
 5301.00    1.89942   1.85142   -1.000
 5302.00    1.91624   1.87905   -1.000
 5303.00    1.96077   1.91556   -1.000
 5304.00    2.00423   1.95949   -1.000
 5305.00    2.02703   1.98795   -1.000
 5306.00    2.02132   1.99045   -1.000
 5307.00    2.00141   1.98034   -1.000
 5308.00    2.00680   1.97866   -1.000
 5309.00    2.02935   1.99351   -1.000
 5310.00    2.04421   2.01208   -1.000
 5311.00    2.04580   2.01928   -1.000
 5312.00    2.03942   2.01220   -1.000
 5313.00    2.03088   1.99580   -1.000
 5314.00    2.01854   1.97478   -1.000
 5315.00    1.99829   1.95082   -1.000
 5316.00    1.97801   1.92888   -1.000
 5317.00    1.96660   1.92082   -1.000
 5318.00    1.97306   1.93142   -1.000
 5319.00    1.99018   1.94912   -1.000
 5320.00    1.99404   1.95672   -1.000
 5321.00    1.98172   1.94736   -1.000
 5322.00    1.96548   1.92111   -1.000
 5323.00    1.93247   1.88239   -1.000
 5324.00    1.90142   1.84408   -1.000
 5325.00    1.89049   1.81020   -1.000
 5326.00    1.85982   1.76361   -1.000
 5327.00    1.76631   1.69276   -1.000
 5328.00    1.68090   1.63290   -1.000
 5329.00    1.70271   1.63997   -1.000
 5330.00    1.81903   1.71983   -1.000
 5331.00    1.91891   1.81705   -1.000
 5332.00    1.95483   1.87938   -1.000
 5333.00    1.96690   1.90841   -1.000
 5334.00    1.98692   1.93152   -1.000
 5335.00    2.00690   1.95446   -1.000
 5336.00    2.00610   1.96404   -1.000
 5337.00    1.99227   1.95348   -1.000
 5338.00    1.97053   1.92296   -1.000
 5339.00    1.92954   1.87576   -1.000
 5340.00    1.88679   1.83044   -1.000
 5341.00    1.87907   1.81765   -1.000
 5342.00    1.92255   1.84770   -1.000
 5343.00    1.97846   1.89366   -1.000
 5344.00    1.99590   1.91990   -1.000
 5345.00    1.97933   1.91788   -1.000
 5346.00    1.96447   1.90107   -1.000
 5347.00    1.95930   1.88309   -1.000
 5348.00    1.94779   1.87055   -1.000
 5349.00    1.93310   1.86991   -1.000
 5350.00    1.95837   1.88935   -1.000
 5351.00    2.00454   1.92591   -1.000
 5352.00    2.03391   1.96421   -1.000
 5353.00    2.04556   1.99150   -1.000
 5354.00    2.06240   2.01209   -1.000
 5355.00    2.08168   2.03419   -1.000
 5356.00    2.09943   2.05279   -1.000
 5357.00    2.11032   2.06116   -1.000
 5358.00    2.10700   2.06000   -1.000
 5359.00    2.10250   2.05209   -1.000
 5360.00    2.07835   2.03577   -1.000
 5361.00    2.04054   2.01005   -1.000
 5362.00    2.00559   1.98024   -1.000
 5363.00    1.98569   1.95220   -1.000
 5364.00    1.97644   1.92891   -1.000
 5365.00    1.97131   1.91307   -1.000
 5366.00    1.97268   1.90654   -1.000
 5367.00    1.97134   1.90412   -1.000
 5368.00    1.95863   1.88821   -1.000
 5369.00    1.91740   1.84641   -1.000
 5370.00    1.85736   1.79161   -1.000
 5371.00    1.82929   1.75955   -1.000
 5372.00    1.87510   1.78083   -1.000
 5373.00    1.96760   1.85097   -1.000
 5374.00    2.04378   1.93217   -1.000
 5375.00    2.07571   1.98583   -1.000
 5376.00    2.07845   2.00407   -1.000
 5377.00    2.07382   2.00315   -1.000
 5378.00    2.07023   1.99910   -1.000
 5379.00    2.06251   1.99451   -1.000
 5380.00    2.04515   1.98430   -1.000
 5381.00    2.03028   1.96713   -1.000
 5382.00    2.01910   1.94961   -1.000
 5383.00    2.01057   1.94137   -1.000
 5384.00    2.02052   1.94915   -1.000
 5385.00    2.04277   1.97022   -1.000
 5386.00    2.05647   1.99041   -1.000
 5387.00    2.05434   1.99427   -1.000
 5388.00    2.03513   1.97842   -1.000
 5389.00    1.99794   1.95000   -1.000
 5390.00    1.97291   1.92019   -1.000
 5391.00    1.96027   1.89810   -1.000
 5392.00    1.95655   1.88578   -1.000
 5393.00    1.95384   1.88110   -1.000
 5394.00    1.94328   1.87673   -1.000
 5395.00    1.92481   1.85984   -1.000
 5396.00    1.88735   1.82960   -1.000
 5397.00    1.86599   1.80616   -1.000
 5398.00    1.89890   1.81403   -1.000
 5399.00    1.95793   1.85405   -1.000
 5400.00    1.99026   1.89830   -1.000
 5401.00    1.99679   1.92258   -1.000
 5402.00    1.99284   1.91779   -1.000
 5403.00    1.94642   1.87869   -1.000
 5404.00    1.87019   1.81327   -1.000
 5405.00    1.81973   1.75647   -1.000
 5406.00    1.82849   1.74497   -1.000
 5407.00    1.87528   1.77598   -1.000
 5408.00    1.90529   1.81199   -1.000
 5409.00    1.89686   1.82485   -1.000
 5410.00    1.90082   1.82907   -1.000
 5411.00    1.94523   1.85490   -1.000
 5412.00    1.99784   1.90024   -1.000
 5413.00    2.02735   1.93799   -1.000
 5414.00    2.03277   1.95405   -1.000
 5415.00    2.02826   1.96246   -1.000
 5416.00    2.04484   1.98002   -1.000
 5417.00    2.06102   2.00026   -1.000
 5418.00    2.05445   2.00754   -1.000
 5419.00    2.03607   1.99886   -1.000
 5420.00    2.02342   1.98499   -1.000
 5421.00    2.02980   1.97549   -1.000
 5422.00    2.03509   1.96609   -1.000
 5423.00    2.01431   1.95017   -1.000
 5424.00    1.99043   1.93821   -1.000
 5425.00    2.00545   1.94930   -1.000
 5426.00    2.04611   1.98120   -1.000
 5427.00    2.06122   1.99673   -1.000
 5428.00    2.02075   1.96467   -1.000
 5429.00    1.95024   1.90553   -1.000
 5430.00    1.92263   1.86755   -1.000
 5431.00    1.94980   1.87095   -1.000
 5432.00    1.96446   1.88726   -1.000
 5433.00    1.94233   1.88131   -1.000
 5434.00    1.91402   1.85893   -1.000
 5435.00    1.90621   1.85146   -1.000
 5436.00    1.93911   1.87877   -1.000
 5437.00    1.99823   1.93503   -1.000
 5438.00    2.05468   1.99663   -1.000
 5439.00    2.10356   2.04218   -1.000
 5440.00    2.13203   2.06562   -1.000
 5441.00    2.13643   2.07538   -1.000
 5442.00    2.12326   2.07563   -1.000
 5443.00    2.10563   2.05900   -1.000
 5444.00    2.05751   2.01401   -1.000
 5445.00    1.97870   1.94253   -1.000
 5446.00    1.90589   1.87374   -1.000
 5447.00    1.89318   1.84611   -1.000
 5448.00    1.94242   1.87521   -1.000
 5449.00    2.01756   1.93741   -1.000
 5450.00    2.05952   1.98904   -1.000
 5451.00    2.06330   2.00914   -1.000
 5452.00    2.05537   1.99969   -1.000
 5453.00    2.02680   1.96379   -1.000
 5454.00    1.96747   1.90920   -1.000
 5455.00    1.91321   1.86173   -1.000
 5456.00    1.91909   1.85714   -1.000
 5457.00    1.98789   1.90639   -1.000
 5458.00    2.05759   1.97362   -1.000
 5459.00    2.08182   2.01337   -1.000
 5460.00    2.06407   2.01056   -1.000
 5461.00    2.02654   1.97758   -1.000
 5462.00    1.99068   1.93845   -1.000
 5463.00    1.97426   1.91695   -1.000
 5464.00    1.98969   1.92361   -1.000
 5465.00    2.02467   1.94923   -1.000
 5466.00    2.04715   1.97602   -1.000
 5467.00    2.05623   1.99391   -1.000
 5468.00    2.06266   2.00292   -1.000
 5469.00    2.05860   2.00297   -1.000
 5470.00    2.04649   1.99375   -1.000
 5471.00    2.03328   1.98014   -1.000
 5472.00    2.02034   1.96678   -1.000
 5473.00    2.00334   1.95074   -1.000
 5474.00    1.98301   1.92400   -1.000
 5475.00    1.95273   1.88407   -1.000
 5476.00    1.90950   1.84594   -1.000
 5477.00    1.90314   1.83774   -1.000
 5478.00    1.95067   1.86976   -1.000
 5479.00    2.00267   1.91403   -1.000
 5480.00    2.00247   1.93305   -1.000
 5481.00    1.97172   1.92427   -1.000
 5482.00    1.96318   1.91994   -1.000
 5483.00    1.98948   1.94321   -1.000
 5484.00    2.03493   1.98305   -1.000
 5485.00    2.05837   2.01056   -1.000
 5486.00    2.04663   2.00828   -1.000
 5487.00    2.01442   1.98476   -1.000
 5488.00    2.00529   1.96413   -1.000
 5489.00    2.02525   1.96355   -1.000
 5490.00    2.04345   1.97891   -1.000
 5491.00    2.05022   1.99346   -1.000
 5492.00    2.05793   1.99878   -1.000
 5493.00    2.05815   1.99748   -1.000
 5494.00    2.05481   1.99562   -1.000
 5495.00    2.05765   1.99285   -1.000
 5496.00    2.05040   1.98475   -1.000
 5497.00    2.03405   1.97631   -1.000
 5498.00    2.04205   1.97806   -1.000
 5499.00    2.06521   1.98746   -1.000
 5500.00    2.06640   1.98686   -1.000
 5501.00    2.04120   1.96671   -1.000
 5502.00    2.01824   1.94475   -1.000
 5503.00    2.02551   1.94036   -1.000
 5504.00    2.03616   1.94401   -1.000
 5505.00    2.01604   1.93814   -1.000
 5506.00    1.98898   1.92407   -1.000
 5507.00    1.99453   1.92124   -1.000
 5508.00    2.03031   1.94060   -1.000
 5509.00    2.05837   1.96477   -1.000
 5510.00    2.04817   1.96909   -1.000
 5511.00    2.01455   1.94785   -1.000
 5512.00    1.98381   1.91570   -1.000
 5513.00    1.96803   1.89417   -1.000
 5514.00    1.97844   1.89603   -1.000
 5515.00    2.00689   1.91754   -1.000
 5516.00    2.04180   1.94827   -1.000
 5517.00    2.07523   1.98214   -1.000
 5518.00    2.10668   2.01502   -1.000
 5519.00    2.13062   2.03959   -1.000
 5520.00    2.13277   2.04914   -1.000
 5521.00    2.12408   2.04741   -1.000
 5522.00    2.11944   2.04408   -1.000
 5523.00    2.11334   2.04198   -1.000
 5524.00    2.09861   2.03359   -1.000
 5525.00    2.07850   2.00875   -1.000
 5526.00    2.03833   1.96537   -1.000
 5527.00    1.99386   1.91592   -1.000
 5528.00    1.97435   1.88714   -1.000
 5529.00    2.00013   1.90089   -1.000
 5530.00    2.04855   1.94856   -1.000
 5531.00    2.08130   1.99522   -1.000
 5532.00    2.07624   2.01468   -1.000
 5533.00    2.06193   2.00923   -1.000
 5534.00    2.04827   1.99493   -1.000
 5535.00    2.04146   1.98536   -1.000
 5536.00    2.05239   1.98714   -1.000
 5537.00    2.06783   1.99855   -1.000
 5538.00    2.08145   2.01227   -1.000
 5539.00    2.10151   2.02677   -1.000
 5540.00    2.13224   2.04300   -1.000
 5541.00    2.14153   2.05234   -1.000
 5542.00    2.11758   2.04607   -1.000
 5543.00    2.09320   2.02997   -1.000
 5544.00    2.08964   2.01779   -1.000
 5545.00    2.09240   2.01683   -1.000
 5546.00    2.10360   2.02454   -1.000
 5547.00    2.12067   2.03854   -1.000
 5548.00    2.13751   2.05912   -1.000
 5549.00    2.16105   2.07901   -1.000
 5550.00    2.17220   2.08860   -1.000
 5551.00    2.16383   2.08589   -1.000
 5552.00    2.14595   2.07247   -1.000
 5553.00    2.12370   2.05334   -1.000
 5554.00    2.10429   2.03871   -1.000
 5555.00    2.09999   2.03555   -1.000
 5556.00    2.10721   2.04047   -1.000
 5557.00    2.11120   2.04504   -1.000
 5558.00    2.11437   2.04734   -1.000
 5559.00    2.12029   2.04961   -1.000
 5560.00    2.12482   2.04828   -1.000
 5561.00    2.11579   2.03778   -1.000
 5562.00    2.09819   2.02103   -1.000
 5563.00    2.08159   2.00734   -1.000
 5564.00    2.07226   2.00027   -1.000
 5565.00    2.06546   1.99580   -1.000
 5566.00    2.05793   1.99037   -1.000
 5567.00    2.05890   1.98527   -1.000
 5568.00    2.05966   1.98307   -1.000
 5569.00    2.05618   1.98416   -1.000
 5570.00    2.06211   1.98656   -1.000
 5571.00    2.06904   1.98619   -1.000
 5572.00    2.06533   1.98063   -1.000
 5573.00    2.05208   1.97637   -1.000
 5574.00    2.00984   1.98538   -1.000
 5575.00    1.95191   2.00464   -1.000
 5576.00    1.92835   2.01866   -1.000
 5577.00    1.99722   2.02659   -1.000
 5578.00    2.10404   2.03659   -1.000
 5579.00    2.12588   2.04669   -1.000
 5580.00    2.12689   2.05044   -1.000
 5581.00    2.12272   2.04712   -1.000
 5582.00    2.11119   2.04058   -1.000
 5583.00    2.10860   2.03380   -1.000
 5584.00    2.10009   2.02031   -1.000
 5585.00    2.06396   1.98698   -1.000
 5586.00    2.00717   1.93161   -1.000
 5587.00    1.95357   1.87492   -1.000
 5588.00    1.93222   1.84487   -1.000
 5589.00    1.94814   1.85060   -1.000
 5590.00    1.98537   1.88185   -1.000
 5591.00    2.02153   1.91903   -1.000
 5592.00    2.03745   1.94425   -1.000
 5593.00    2.03156   1.95480   -1.000
 5594.00    2.03263   1.96436   -1.000
 5595.00    2.06065   1.98380   -1.000
 5596.00    2.09070   2.00453   -1.000
 5597.00    2.08189   2.00618   -1.000
 5598.00    2.04730   1.98286   -1.000
 5599.00    2.02435   1.95273   -1.000
 5600.00    2.01624   1.93065   -1.000
 5601.00    2.00545   1.91454   -1.000
 5602.00    1.99369   1.91010   -1.000
 5603.00    2.01406   1.93342   -1.000
 5604.00    2.06761   1.98527   -1.000
 5605.00    2.12481   2.04501   -1.000
 5606.00    2.16235   2.08945   -1.000
 5607.00    2.17091   2.11075   -1.000
 5608.00    2.16624   2.11563   -1.000
 5609.00    2.16773   2.11466   -1.000
 5610.00    2.17431   2.11637   -1.000
 5611.00    2.17791   2.12085   -1.000
 5612.00    2.16822   2.11403   -1.000
 5613.00    2.13765   2.07670   -1.000
 5614.00    2.07400   2.00872   -1.000
 5615.00    2.00609   1.94124   -1.000
 5616.00    1.99658   1.91558   -1.000
 5617.00    2.04219   1.94191   -1.000
 5618.00    2.08255   1.98621   -1.000
 5619.00    2.09231   2.01652   -1.000
 5620.00    2.10191   2.03399   -1.000
 5621.00    2.11774   2.04634   -1.000
 5622.00    2.11756   2.04481   -1.000
 5623.00    2.08786   2.02018   -1.000
 5624.00    2.04494   1.98485   -1.000
 5625.00    2.03122   1.96721   -1.000
 5626.00    2.05494   1.98217   -1.000
 5627.00    2.09697   2.01690   -1.000
 5628.00    2.12632   2.05133   -1.000
 5629.00    2.15036   2.07655   -1.000
 5630.00    2.16960   2.09232   -1.000
 5631.00    2.17557   2.09776   -1.000
 5632.00    2.16940   2.09282   -1.000
 5633.00    2.15663   2.08061   -1.000
 5634.00    2.14031   2.06387   -1.000
 5635.00    2.12212   2.04494   -1.000
 5636.00    2.10385   2.02823   -1.000
 5637.00    2.08537   2.01815   -1.000
 5638.00    2.08292   2.01695   -1.000
 5639.00    2.08905   2.02076   -1.000
 5640.00    2.08769   2.02041   -1.000
 5641.00    2.08122   2.01399   -1.000
 5642.00    2.08062   2.01192   -1.000
 5643.00    2.09641   2.01966   -1.000
 5644.00    2.11113   2.03114   -1.000
 5645.00    2.11855   2.04203   -1.000
 5646.00    2.13041   2.05113   -1.000
 5647.00    2.13495   2.05540   -1.000
 5648.00    2.13049   2.05341   -1.000
 5649.00    2.12958   2.04886   -1.000
 5650.00    2.12964   2.04940   -1.000
 5651.00    2.13742   2.05832   -1.000
 5652.00    2.14854   2.06603   -1.000
 5653.00    2.14187   2.06144   -1.000
 5654.00    2.12602   2.04651   -1.000
 5655.00    2.10147   2.02848   -1.000
 5656.00    2.07325   2.00531   -1.000
 5657.00    2.02768   1.97093   -1.000
 5658.00    1.98556   1.93564   -1.000
 5659.00    1.99066   1.92544   -1.000
 5660.00    2.03349   1.94594   -1.000
 5661.00    2.05756   1.97137   -1.000
 5662.00    2.05600   1.98536   -1.000
 5663.00    2.06738   1.99840   -1.000
 5664.00    2.09778   2.02087   -1.000
 5665.00    2.12315   2.04271   -1.000
 5666.00    2.11653   2.04849   -1.000
 5667.00    2.09577   2.03976   -1.000
 5668.00    2.08415   2.03138   -1.000
 5669.00    2.09004   2.03281   -1.000
 5670.00    2.10686   2.04345   -1.000
 5671.00    2.12586   2.06085   -1.000
 5672.00    2.15456   2.08183   -1.000
 5673.00    2.17522   2.09911   -1.000
 5674.00    2.18046   2.10684   -1.000
 5675.00    2.17460   2.10661   -1.000
 5676.00    2.17538   2.10570   -1.000
 5677.00    2.17821   2.10707   -1.000
 5678.00    2.17265   2.10501   -1.000
 5679.00    2.16211   2.09481   -1.000
 5680.00    2.15286   2.07724   -1.000
 5681.00    2.13406   2.05309   -1.000
 5682.00    2.10614   2.02709   -1.000
 5683.00    2.08994   2.01217   -1.000
 5684.00    2.09626   2.01535   -1.000
 5685.00    2.10707   2.02546   -1.000
 5686.00    2.09692   2.02647   -1.000
 5687.00    2.07854   2.01768   -1.000
 5688.00    2.07605   2.01243   -1.000
 5689.00    2.09545   2.02226   -1.000
 5690.00    2.13369   2.04683   -1.000
 5691.00    2.16707   2.07537   -1.000
 5692.00    2.18069   2.09657   -1.000
 5693.00    2.18253   2.10616   -1.000
 5694.00    2.17940   2.10722   -1.000
 5695.00    2.17325   2.10470   -1.000
 5696.00    2.16608   2.09930   -1.000
 5697.00    2.15318   2.08847   -1.000
 5698.00    2.13053   2.07097   -1.000
 5699.00    2.10346   2.05040   -1.000
 5700.00    2.07830   2.03114   -1.000
 5701.00    2.06232   2.01783   -1.000
 5702.00    2.05820   2.01742   -1.000
 5703.00    2.06952   2.02906   -1.000
 5704.00    2.08640   2.03972   -1.000
 5705.00    2.08295   2.03527   -1.000
 5706.00    2.05674   2.01314   -1.000
 5707.00    2.02640   1.98284   -1.000
 5708.00    2.00622   1.95382   -1.000
 5709.00    1.99037   1.93277   -1.000
 5710.00    1.99423   1.92788   -1.000
 5711.00    2.01730   1.94250   -1.000
 5712.00    2.05140   1.97476   -1.000
 5713.00    2.09974   2.01859   -1.000
 5714.00    2.14098   2.05905   -1.000
 5715.00    2.15920   2.08441   -1.000
 5716.00    2.16533   2.09687   -1.000
 5717.00    2.16435   2.10486   -1.000
 5718.00    2.17382   2.11351   -1.000
 5719.00    2.19020   2.12525   -1.000
 5720.00    2.21065   2.13959   -1.000
 5721.00    2.22241   2.15335   -1.000
 5722.00    2.22675   2.16383   -1.000
 5723.00    2.23042   2.16901   -1.000
 5724.00    2.22212   2.16594   -1.000
 5725.00    2.20158   2.15189   -1.000
 5726.00    2.17672   2.13074   -1.000
 5727.00    2.16232   2.11554   -1.000
 5728.00    2.16864   2.11567   -1.000
 5729.00    2.18386   2.12374   -1.000
 5730.00    2.18416   2.12524   -1.000
 5731.00    2.17178   2.11836   -1.000
 5732.00    2.17660   2.11644   -1.000
 5733.00    2.20139   2.12916   -1.000
 5734.00    2.22009   2.14825   -1.000
 5735.00    2.21973   2.15854   -1.000
 5736.00    2.20960   2.15628   -1.000
 5737.00    2.19945   2.14892   -1.000
 5738.00    2.19567   2.14504   -1.000
 5739.00    2.19685   2.14605   -1.000
 5740.00    2.19548   2.14681   -1.000
 5741.00    2.18691   2.14356   -1.000
 5742.00    2.17923   2.13925   -1.000
 5743.00    2.18542   2.14152   -1.000
 5744.00    2.19791   2.15191   -1.000
 5745.00    2.20934   2.16123   -1.000
 5746.00    2.21209   2.15770   -1.000
 5747.00    2.20035   2.14266   -1.000
 5748.00    2.18601   2.13267   -1.000
 5749.00    2.18841   2.13750   -1.000
 5750.00    2.20277   2.14528   -1.000
 5751.00    2.19121   2.13598   -1.000
 5752.00    2.15753   2.10614   -1.000
 5753.00    2.12740   2.07589   -1.000
 5754.00    2.12538   2.06959   -1.000
 5755.00    2.15840   2.09462   -1.000
 5756.00    2.20005   2.13468   -1.000
 5757.00    2.22984   2.16554   -1.000
 5758.00    2.23174   2.17423   -1.000
 5759.00    2.21377   2.16045   -1.000
 5760.00    2.18066   2.13123   -1.000
 5761.00    2.15026   2.09879   -1.000
 5762.00    2.13250   2.07967   -1.000
 5763.00    2.14392   2.08815   -1.000
 5764.00    2.18345   2.12235   -1.000
 5765.00    2.21809   2.16199   -1.000
 5766.00    2.22960   2.18747   -1.000
 5767.00    2.23351   2.19597   -1.000
 5768.00    2.22902   2.19414   -1.000
 5769.00    2.22425   2.18776   -1.000
 5770.00    2.21304   2.17979   -1.000
 5771.00    2.19571   2.17033   -1.000
 5772.00    2.18419   2.15892   -1.000
 5773.00    2.17590   2.14874   -1.000
 5774.00    2.16913   2.14400   -1.000
 5775.00    2.15956   2.14657  162.420
 5776.00    2.14391   2.15532  162.576
 5777.00    2.11050   2.16094   -1.000
 5778.00    2.06625   2.15017   -1.000
 5779.00    2.03068   2.11876   -1.000
 5780.00    2.01598   2.07584   -1.000
 5781.00    2.02511   2.03869  170.656
 5782.00    2.05151   2.02161   -1.000
 5783.00    2.07650   2.02238   -1.000
 5784.00    2.08840   2.02755   -1.000
 5785.00    2.09610   2.03486   -1.000
 5786.00    2.11775   2.05419   -1.000
 5787.00    2.15331   2.08564   -1.000
 5788.00    2.18139   2.11392   -1.000
 5789.00    2.18913   2.12551   -1.000
 5790.00    2.18286   2.12176   -1.000
 5791.00    2.17525   2.11705   -1.000
 5792.00    2.17859   2.12580   -1.000
 5793.00    2.19239   2.14805   -1.000
 5794.00    2.20197   2.17124   -1.000
 5795.00    2.19821   2.18281  162.208
 5796.00    2.19010   2.17716  162.579
 5797.00    2.18966   2.16179   -1.000
 5798.00    2.20231   2.15566   -1.000
 5799.00    2.23329   2.17066   -1.000
 5800.00    2.27119   2.19750   -1.000
 5801.00    2.29148   2.21658   -1.000
 5802.00    2.28282   2.21739   -1.000
 5803.00    2.25523   2.20149   -1.000
 5804.00    2.22689   2.17867   -1.000
 5805.00    2.21046   2.16242   -1.000
 5806.00    2.21393   2.15983   -1.000
 5807.00    2.22026   2.16703   -1.000
 5808.00    2.22718   2.17649   -1.000
 5809.00    2.23877   2.18536   -1.000
 5810.00    2.24947   2.19415   -1.000
 5811.00    2.26090   2.20028   -1.000
 5812.00    2.26353   2.19950   -1.000
 5813.00    2.25548   2.19020   -1.000
 5814.00    2.24010   2.17325   -1.000
 5815.00    2.22408   2.15446   -1.000
 5816.00    2.21938   2.14719   -1.000
 5817.00    2.23484   2.16090   -1.000
 5818.00    2.26128   2.18818   -1.000
 5819.00    2.28261   2.21130   -1.000
 5820.00    2.29430   2.21971   -1.000
 5821.00    2.29038   2.21684   -1.000
 5822.00    2.28420   2.21122   -1.000
 5823.00    2.28385   2.20860   -1.000
 5824.00    2.28784   2.20940   -1.000
 5825.00    2.28773   2.21143   -1.000
 5826.00    2.28502   2.21400   -1.000
 5827.00    2.28768   2.21715   -1.000
 5828.00    2.29605   2.22099   -1.000
 5829.00    2.29979   2.22436   -1.000
 5830.00    2.30397   2.22541   -1.000
 5831.00    2.30602   2.22340   -1.000
 5832.00    2.29897   2.21829   -1.000
 5833.00    2.28485   2.21024   -1.000
 5834.00    2.27726   2.20185   -1.000
 5835.00    2.27349   2.19829   -1.000
 5836.00    2.28022   2.20099   -1.000
 5837.00    2.28471   2.20495   -1.000
 5838.00    2.27752   2.20745   -1.000
 5839.00    2.27709   2.21241   -1.000
 5840.00    2.28512   2.22237   -1.000
 5841.00    2.29253   2.23325   -1.000
 5842.00    2.29854   2.23790   -1.000
 5843.00    2.29630   2.23376   -1.000
 5844.00    2.28948   2.22286   -1.000
 5845.00    2.28020   2.20747   -1.000
 5846.00    2.26164   2.19099   -1.000
 5847.00    2.24147   2.17961   -1.000
 5848.00    2.23863   2.17748   -1.000
 5849.00    2.24973   2.18035   -1.000
 5850.00    2.24886   2.17773   -1.000
 5851.00    2.23115   2.16378   -1.000
 5852.00    2.20871   2.14341   -1.000
 5853.00    2.19050   2.12731   -1.000
 5854.00    2.18754   2.11937   -1.000
 5855.00    2.19207   2.11026   -1.000
 5856.00    2.17505   2.08796   -1.000
 5857.00    2.14885   2.05929   -1.000
 5858.00    2.15003   2.04922   -1.000
 5859.00    2.17572   2.06916   -1.000
 5860.00    2.20031   2.10265   -1.000
 5861.00    2.21787   2.12831   -1.000
 5862.00    2.22374   2.14061   -1.000
 5863.00    2.22918   2.14708   -1.000
 5864.00    2.23399   2.15182   -1.000
 5865.00    2.22889   2.14912   -1.000
 5866.00    2.21781   2.13933   -1.000
 5867.00    2.21804   2.13551   -1.000
 5868.00    2.23521   2.14747   -1.000
 5869.00    2.26067   2.16933   -1.000
 5870.00    2.27784   2.18740   -1.000
 5871.00    2.27506   2.19337   -1.000
 5872.00    2.26533   2.18906   -1.000
 5873.00    2.26356   2.18252   -1.000
 5874.00    2.26455   2.17940   -1.000
 5875.00    2.26043   2.17794   -1.000
 5876.00    2.25371   2.17252   -1.000
 5877.00    2.24179   2.16112   -1.000
 5878.00    2.22799   2.14593   -1.000
 5879.00    2.20735   2.13113   -1.000
 5880.00    2.19335   2.12166   -1.000
 5881.00    2.19337   2.11900   -1.000
 5882.00    2.19651   2.11751   -1.000
 5883.00    2.18182   2.11116   -1.000
 5884.00    2.14163   2.10252   -1.000
 5885.00    2.05686   2.09258   -1.000
 5886.00    1.87773   2.06336   -1.000
 5887.00    1.61653   1.98500   -1.000
 5888.00    1.40445   1.85042   -1.000
 5889.00    1.37156   1.70292   -1.000
 5890.00    1.50317   1.62158   -1.000
 5891.00    1.65918   1.64894  184.753
 5892.00    1.70793   1.73503   -1.000
 5893.00    1.62739   1.79481   -1.000
 5894.00    1.53494   1.78819   -1.000
 5895.00    1.54769   1.74066   -1.000
 5896.00    1.68506   1.72053   -1.000
 5897.00    1.87282   1.77119   -1.000
 5898.00    2.01759   1.86627   -1.000
 5899.00    2.09708   1.95492   -1.000
 5900.00    2.14113   2.01927   -1.000
 5901.00    2.17719   2.06491   -1.000
 5902.00    2.20251   2.09487   -1.000
 5903.00    2.20973   2.11063   -1.000
 5904.00    2.21095   2.11595   -1.000
 5905.00    2.20726   2.11669   -1.000
 5906.00    2.19977   2.11980   -1.000
 5907.00    2.20391   2.12774   -1.000
 5908.00    2.21516   2.13733   -1.000
 5909.00    2.21903   2.14576   -1.000
 5910.00    2.22273   2.15187   -1.000
 5911.00    2.22121   2.15206   -1.000
 5912.00    2.20289   2.14034   -1.000
 5913.00    2.17907   2.11586   -1.000
 5914.00    2.15821   2.09062   -1.000
 5915.00    2.15051   2.08007   -1.000
 5916.00    2.15553   2.08751   -1.000
 5917.00    2.16795   2.10629   -1.000
 5918.00    2.18404   2.12797   -1.000
 5919.00    2.20261   2.14427   -1.000
 5920.00    2.21430   2.15077   -1.000
 5921.00    2.20729   2.14899   -1.000
 5922.00    2.20413   2.14454   -1.000
 5923.00    2.21254   2.14463   -1.000
 5924.00    2.22455   2.15233   -1.000
 5925.00    2.23679   2.16335   -1.000
 5926.00    2.23952   2.16900   -1.000
 5927.00    2.23254   2.16176   -1.000
 5928.00    2.21971   2.14305   -1.000
 5929.00    2.20907   2.12477   -1.000
 5930.00    2.20550   2.12015   -1.000
 5931.00    2.21134   2.13156   -1.000
 5932.00    2.22525   2.14527   -1.000
 5933.00    2.22555   2.14705   -1.000
 5934.00    2.21803   2.14074   -1.000
 5935.00    2.21680   2.14198   -1.000
 5936.00    2.22719   2.15585   -1.000
 5937.00    2.23509   2.17128   -1.000
 5938.00    2.23244   2.17733   -1.000
 5939.00    2.22010   2.17151   -1.000
 5940.00    2.20249   2.15666   -1.000
 5941.00    2.19371   2.14165   -1.000
 5942.00    2.19829   2.13733   -1.000
 5943.00    2.21435   2.14588   -1.000
 5944.00    2.22906   2.16004   -1.000
 5945.00    2.23871   2.16998   -1.000
 5946.00    2.23645   2.16847   -1.000
 5947.00    2.22538   2.15491   -1.000
 5948.00    2.20813   2.13902   -1.000
 5949.00    2.20149   2.13405   -1.000
 5950.00    2.21108   2.14031   -1.000
 5951.00    2.22279   2.14482   -1.000
 5952.00    2.22204   2.14018   -1.000
 5953.00    2.21584   2.13507   -1.000
 5954.00    2.21352   2.13827   -1.000
 5955.00    2.20896   2.14160   -1.000
 5956.00    2.19674   2.13652   -1.000
 5957.00    2.19624   2.13141   -1.000
 5958.00    2.21687   2.13762   -1.000
 5959.00    2.24190   2.15560   -1.000
 5960.00    2.26028   2.17671   -1.000
 5961.00    2.27742   2.19141   -1.000
 5962.00    2.28460   2.19636   -1.000
 5963.00    2.27810   2.19301   -1.000
 5964.00    2.26438   2.18405   -1.000
 5965.00    2.24764   2.17456   -1.000
 5966.00    2.24379   2.17155   -1.000
 5967.00    2.25272   2.17738   -1.000
 5968.00    2.26769   2.18727   -1.000
 5969.00    2.28269   2.19714   -1.000
 5970.00    2.29251   2.20626   -1.000
 5971.00    2.29356   2.21231   -1.000
 5972.00    2.28516   2.21256   -1.000
 5973.00    2.27496   2.20526   -1.000
 5974.00    2.25611   2.18883   -1.000
 5975.00    2.23443   2.16555   -1.000
 5976.00    2.21890   2.14442   -1.000
 5977.00    2.21581   2.13544   -1.000
 5978.00    2.22759   2.14203   -1.000
 5979.00    2.24544   2.15947   -1.000
 5980.00    2.25740   2.17662   -1.000
 5981.00    2.25959   2.17995   -1.000
 5982.00    2.24370   2.16327   -1.000
 5983.00    2.21763   2.13534   -1.000
 5984.00    2.19914   2.11565   -1.000
 5985.00    2.20255   2.11786   -1.000
 5986.00    2.22632   2.13604   -1.000
 5987.00    2.24612   2.15559   -1.000
 5988.00    2.25688   2.17010   -1.000
 5989.00    2.26434   2.17872   -1.000
 5990.00    2.26843   2.18128   -1.000
 5991.00    2.26439   2.18239   -1.000
 5992.00    2.26790   2.19012   -1.000
 5993.00    2.28198   2.20526   -1.000
 5994.00    2.29374   2.21553   -1.000
 5995.00    2.29302   2.20964   -1.000
 5996.00    2.27765   2.19080   -1.000
 5997.00    2.25638   2.17201   -1.000
 5998.00    2.25443   2.16504   -1.000
 5999.00    2.26510   2.17052   -1.000
 6000.00    2.26662   2.17819   -1.000
 6001.00    2.26207   2.17865   -1.000
 6002.00    2.25256   2.17172   -1.000
 6003.00    2.24581   2.16649   -1.000
 6004.00    2.24385   2.16787   -1.000
 6005.00    2.23638   2.16536   -1.000
 6006.00    2.21404   2.14889   -1.000
 6007.00    2.18719   2.12686   -1.000
 6008.00    2.17764   2.12007   -1.000
 6009.00    2.19196   2.13802   -1.000
 6010.00    2.22421   2.16425   -1.000
 6011.00    2.24754   2.17513   -1.000
 6012.00    2.24331   2.16708   -1.000
 6013.00    2.23149   2.15483   -1.000
 6014.00    2.22896   2.15021   -1.000
 6015.00    2.23383   2.15093   -1.000
 6016.00    2.23599   2.15034   -1.000
 6017.00    2.23210   2.14897   -1.000
 6018.00    2.22702   2.14629   -1.000
 6019.00    2.22157   2.13766   -1.000
 6020.00    2.22040   2.12698   -1.000
 6021.00    2.22057   2.12453   -1.000
 6022.00    2.22740   2.13241   -1.000
 6023.00    2.23684   2.14450   -1.000
 6024.00    2.24266   2.15815   -1.000
 6025.00    2.25928   2.17451   -1.000
 6026.00    2.27592   2.19017   -1.000
 6027.00    2.27961   2.20249   -1.000
 6028.00    2.28781   2.21422   -1.000
 6029.00    2.30000   2.22532   -1.000
 6030.00    2.30605   2.23262   -1.000
 6031.00    2.30715   2.23697   -1.000
 6032.00    2.30963   2.24244   -1.000
 6033.00    2.31509   2.25216   -1.000
 6034.00    2.31723   2.26386   -1.000
 6035.00    2.31435   2.26999   -1.000
 6036.00    2.31324   2.26746   -1.000
 6037.00    2.31286   2.25922   -1.000
 6038.00    2.30651   2.24836   -1.000
 6039.00    2.30364   2.23739   -1.000
 6040.00    2.29835   2.23002   -1.000
 6041.00    2.29170   2.22988   -1.000
 6042.00    2.30034   2.23700   -1.000
 6043.00    2.31737   2.24759   -1.000
 6044.00    2.32620   2.25625   -1.000
 6045.00    2.33144   2.26103   -1.000
 6046.00    2.33562   2.26438   -1.000
 6047.00    2.33518   2.26815   -1.000
 6048.00    2.33705   2.27194   -1.000
 6049.00    2.34251   2.27451   -1.000
 6050.00    2.34291   2.27404   -1.000
 6051.00    2.33806   2.26856   -1.000
 6052.00    2.33439   2.25737   -1.000
 6053.00    2.32320   2.24225   -1.000
 6054.00    2.31049   2.22629   -1.000
 6055.00    2.30182   2.21330   -1.000
 6056.00    2.29544   2.20895   -1.000
 6057.00    2.29356   2.21589   -1.000
 6058.00    2.30564   2.22964   -1.000
 6059.00    2.31520   2.24222   -1.000
 6060.00    2.31098   2.24745   -1.000
 6061.00    2.33657   2.24227   -1.000
 6062.00    2.29091   2.22634   -1.000
 6063.00    2.17904   2.20240   -1.000
 6064.00    2.06857   2.17874   -1.000
 6065.00    1.27678   2.17087   -1.000
 6066.00    0.64062   2.18905   -1.000
 6067.00    1.47453   2.22235   -1.000
 6068.00    2.32872   2.25127   -1.000
 6069.00    2.43861   2.26826   -1.000
 6070.00    2.31299   2.27691   -1.000
 6071.00    2.28554   2.28183  162.568
 6072.00    2.35221   2.28444   -1.000
 6073.00    2.36228   2.28459   -1.000
 6074.00    2.35113   2.28131   -1.000
 6075.00    2.34567   2.27275   -1.000
 6076.00    2.33072   2.25835   -1.000
 6077.00    2.31001   2.23978   -1.000
 6078.00    2.29337   2.22214   -1.000
 6079.00    2.28317   2.21160   -1.000
 6080.00    2.28348   2.20688   -1.000
 6081.00    2.27788   2.20216   -1.000
 6082.00    2.26535   2.19791   -1.000
 6083.00    2.26549   2.19712   -1.000
 6084.00    2.27127   2.19891   -1.000
 6085.00    2.27640   2.20349   -1.000
 6086.00    2.28283   2.21192   -1.000
 6087.00    2.28992   2.21984   -1.000
 6088.00    2.28719   2.21994   -1.000
 6089.00    2.27219   2.21083   -1.000
 6090.00    2.26384   2.19961   -1.000
 6091.00    2.26020   2.19495   -1.000
 6092.00    2.26392   2.20022   -1.000
 6093.00    2.28054   2.21328   -1.000
 6094.00    2.30108   2.22852   -1.000
 6095.00    2.31222   2.23952   -1.000
 6096.00    2.31562   2.24469   -1.000
 6097.00    2.31292   2.24846   -1.000
 6098.00    2.31005   2.25177   -1.000
 6099.00    2.30470   2.24469   -1.000
 6100.00    2.28255   2.21534   -1.000
 6101.00    2.24076   2.16613   -1.000
 6102.00    2.19660   2.12240   -1.000
 6103.00    2.18870   2.11534   -1.000
 6104.00    2.22684   2.14690   -1.000
 6105.00    2.27027   2.18861   -1.000
 6106.00    2.28924   2.21751   -1.000
 6107.00    2.29121   2.23297   -1.000
 6108.00    2.29137   2.24359   -1.000
 6109.00    2.29631   2.25136   -1.000
 6110.00    2.29725   2.25307   -1.000
 6111.00    2.29309   2.25216   -1.000
 6112.00    2.29926   2.25556   -1.000
 6113.00    2.31325   2.26303   -1.000
 6114.00    2.32083   2.26757   -1.000
 6115.00    2.31588   2.26457   -1.000
 6116.00    2.30159   2.25777   -1.000
 6117.00    2.28994   2.25115   -1.000
 6118.00    2.28161   2.23956   -1.000
 6119.00    2.26321   2.21434   -1.000
 6120.00    2.23443   2.17510   -1.000
 6121.00    2.20632   2.13656   -1.000
 6122.00    2.20029   2.12152   -1.000
 6123.00    2.22600   2.13823   -1.000
 6124.00    2.26029   2.17056   -1.000
 6125.00    2.27876   2.19640   -1.000
 6126.00    2.27036   2.20780   -1.000
 6127.00    2.25484   2.21057   -1.000
 6128.00    2.25321   2.21550   -1.000
 6129.00    2.27025   2.22924   -1.000
 6130.00    2.29128   2.24859   -1.000
 6131.00    2.30186   2.26507   -1.000
 6132.00    2.30145   2.26985   -1.000
 6133.00    2.27628   2.25246   -1.000
 6134.00    2.23053   2.20528   -1.000
 6135.00    2.17206   2.13643   -1.000
 6136.00    2.11224   2.07640   -1.000
 6137.00    2.09152   2.06028   -1.000
 6138.00    2.12860   2.09129   -1.000
 6139.00    2.19681   2.13420   -1.000
 6140.00    2.23549   2.16097   -1.000
 6141.00    2.23827   2.17754   -1.000
 6142.00    2.24142   2.19923   -1.000
 6143.00    2.26140   2.22754   -1.000
 6144.00    2.28734   2.25037   -1.000
 6145.00    2.29783   2.25805   -1.000
 6146.00    2.28650   2.25149   -1.000
 6147.00    2.26414   2.23644   -1.000
 6148.00    2.24407   2.21933   -1.000
 6149.00    2.23026   2.20563   -1.000
 6150.00    2.22798   2.20078   -1.000
 6151.00    2.23658   2.20725   -1.000
 6152.00    2.24622   2.21721   -1.000
 6153.00    2.25001   2.21772   -1.000
 6154.00    2.24529   2.20701   -1.000
 6155.00    2.23025   2.19575   -1.000
 6156.00    2.22078   2.19061   -1.000
 6157.00    2.21028   2.18622   -1.000
 6158.00    2.19014   2.16977   -1.000
 6159.00    2.15589   2.12851   -1.000
 6160.00    2.10269   2.06225   -1.000
 6161.00    2.03619   1.99374   -1.000
 6162.00    1.99991   1.95764   -1.000
 6163.00    2.01836   1.96990   -1.000
 6164.00    2.06548   2.01449   -1.000
 6165.00    2.10467   2.06284   -1.000
 6166.00    2.12227   2.09342   -1.000
 6167.00    2.12015   2.09504   -1.000
 6168.00    2.09702   2.07237   -1.000
 6169.00    2.07361   2.05205   -1.000
 6170.00    2.07602   2.06052  177.432
 6171.00    2.10679   2.09397  176.301
 6172.00    2.13918   2.12914  176.659
 6173.00    2.15303   2.15221  176.492
 6174.00    2.15643   2.16344  176.062
 6175.00    2.16033   2.16746  175.674
 6176.00    2.16254   2.17045  174.996
 6177.00    2.16983   2.17742  174.208
 6178.00    2.18193   2.18661  173.638
 6179.00    2.19218   2.19411  172.964
 6180.00    2.19772   2.20152  172.310
 6181.00    2.20436   2.21126  172.281
 6182.00    2.21181   2.21916  172.814
 6183.00    2.21398   2.21911  173.804
 6184.00    2.20703   2.20961  175.507
 6185.00    2.19184   2.19313  177.415
 6186.00    2.17347   2.17388  179.164
 6187.00    2.15226   2.15655  180.664
 6188.00    2.13365   2.14060  182.446
 6189.00    2.12028   2.11865  184.360
 6190.00    2.09668   2.09132  183.855
 6191.00    2.07418   2.07792  180.322
 6192.00    2.09027   2.09483  176.409
 6193.00    2.13266   2.13208  174.551
 6194.00    2.16888   2.16819  173.993
 6195.00    2.19001   2.19242  174.455
 6196.00    2.19804   2.20269  176.141
 6197.00    2.18950   2.19840  177.960
 6198.00    2.16322   2.18305   -1.000
 6199.00    2.13177   2.16898   -1.000
 6200.00    2.11383   2.16991   -1.000
 6201.00    2.12412   2.18601   -1.000
 6202.00    2.15482   2.20632   -1.000
 6203.00    2.18344   2.22211   -1.000
 6204.00    2.19761   2.23184   -1.000
 6205.00    2.20717   2.23751   -1.000
 6206.00    2.21534   2.24098   -1.000
 6207.00    2.21846   2.24246   -1.000
 6208.00    2.22035   2.24008   -1.000
 6209.00    2.20845   2.23161   -1.000
 6210.00    2.18774   2.21521   -1.000
 6211.00    2.17165   2.18868  181.210
 6212.00    2.14585   2.15367  183.606
 6213.00    2.11219   2.11961  184.691
 6214.00    2.09293   2.09889  183.646
 6215.00    2.09156   2.09657  181.749
 6216.00    2.10356   2.10605  182.148
 6217.00    2.12037   2.11394  182.697
 6218.00    2.12512   2.11173  181.478
 6219.00    2.11468   2.10540  181.313
 6220.00    2.12065   2.10727  188.530
 6221.00    2.07399   2.12001   -1.000
 6222.00    1.91588   2.13468   -1.000
 6223.00    1.96834   2.14400   -1.000
 6224.00    2.16109   2.14913  180.044
 6225.00    2.15284   2.15303  180.535
 6226.00    2.15448   2.15342  182.352
 6227.00    2.14479   2.14290  185.223
 6228.00    2.12136   2.11548  187.988
 6229.00    2.09359   2.07649   -1.000
 6230.00    2.06302   2.04482   -1.000
 6231.00    2.04815   2.03938  183.523
 6232.00    2.07221   2.06372  180.237
 6233.00    2.11560   2.10554  178.382
 6234.00    2.15293   2.14507  178.711
 6235.00    2.17071   2.16583  180.355
 6236.00    2.16934   2.16360  182.215
 6237.00    2.15645   2.14609  184.109
 6238.00    2.13123   2.12505  185.497
 6239.00    2.10571   2.10880  185.752
 6240.00    2.08882   2.09907  186.332
 6241.00    2.07858   2.09143  187.762
 6242.00    2.07450   2.08058  188.300
 6243.00    2.06818   2.06763  187.542
 6244.00    2.06620   2.05877  185.946
 6245.00    2.07790   2.05974   -1.000
 6246.00    2.09621   2.07515   -1.000
 6247.00    2.11308   2.10360  180.613
 6248.00    2.13441   2.13330  181.470
 6249.00    2.14319   2.14841  184.109
 6250.00    2.12724   2.14006  187.088
 6251.00    2.10360   2.11245  188.779
 6252.00    2.07422   2.08040  189.630
 6253.00    2.05163   2.05853  189.809
 6254.00    2.04328   2.04946  190.576
 6255.00    2.04008   2.04499  192.448
 6256.00    2.02949   2.03794  192.888
 6257.00    2.01821   2.03222  190.840
 6258.00    2.02331   2.03765  187.836
 6259.00    2.05352   2.05895  185.171
 6260.00    2.08836   2.09211  182.496
 6261.00    2.12045   2.12755  180.580
 6262.00    2.14242   2.15468  180.976
 6263.00    2.15070   2.16620  182.460
 6264.00    2.14514   2.16442   -1.000
 6265.00    2.13283   2.16100   -1.000
 6266.00    2.12859   2.16459   -1.000
 6267.00    2.13264   2.17093   -1.000
 6268.00    2.13180   2.17160   -1.000
 6269.00    2.12814   2.16767   -1.000
 6270.00    2.13484   2.16716   -1.000
 6271.00    2.14352   2.17315   -1.000
 6272.00    2.14852   2.18013   -1.000
 6273.00    2.13813   2.17887   -1.000
 6274.00    2.10829   2.16509   -1.000
 6275.00    2.06844   2.14270   -1.000
 6276.00    2.02860   2.11872   -1.000
 6277.00    2.00566   2.09828   -1.000
 6278.00    1.99206   2.08242   -1.000
 6279.00    1.97180   2.07251   -1.000
 6280.00    1.94504   2.07409   -1.000
 6281.00    1.93095   2.09104   -1.000
 6282.00    1.94477   2.11954   -1.000
 6283.00    1.98686   2.14993   -1.000
 6284.00    2.03764   2.17376   -1.000
 6285.00    2.08488   2.18965   -1.000
 6286.00    2.12067   2.20148   -1.000
 6287.00    2.14826   2.21055   -1.000
 6288.00    2.16183   2.21221   -1.000
 6289.00    2.16338   2.20281   -1.000
 6290.00    2.15517   2.18683   -1.000
 6291.00    2.13810   2.17332   -1.000
 6292.00    2.12831   2.16715   -1.000
 6293.00    2.13125   2.16636   -1.000
 6294.00    2.13157   2.16384   -1.000
 6295.00    2.12177   2.15272   -1.000
 6296.00    2.10695   2.13524   -1.000
 6297.00    2.09033   2.12205   -1.000
 6298.00    2.08242   2.11869   -1.000
 6299.00    2.09046   2.11796   -1.000
 6300.00    2.09309   2.11139   -1.000
 6301.00    2.09021   2.10434  188.484
 6302.00    2.09291   2.10960   -1.000
 6303.00    2.10535   2.12985   -1.000
 6304.00    2.12345   2.15576   -1.000
 6305.00    2.13848   2.17899   -1.000
 6306.00    2.15550   2.19795   -1.000
 6307.00    2.17271   2.21153   -1.000
 6308.00    2.17681   2.21642   -1.000
 6309.00    2.16801   2.21224   -1.000
 6310.00    2.15665   2.20319   -1.000
 6311.00    2.14457   2.19367   -1.000
 6312.00    2.13540   2.18411   -1.000
 6313.00    2.12492   2.17117   -1.000
 6314.00    2.10776   2.15495   -1.000
 6315.00    2.09322   2.13979   -1.000
 6316.00    2.08718   2.12747   -1.000
 6317.00    2.08887   2.11913   -1.000
 6318.00    2.09427   2.12180   -1.000
 6319.00    2.10927   2.14016   -1.000
 6320.00    2.13401   2.16543   -1.000
 6321.00    2.15191   2.18581   -1.000
 6322.00    2.15834   2.20095   -1.000
 6323.00    2.16275   2.21646   -1.000
 6324.00    2.17667   2.23110   -1.000
 6325.00    2.19426   2.23955   -1.000
 6326.00    2.19783   2.24147   -1.000
 6327.00    2.19330   2.24099   -1.000
 6328.00    2.19345   2.24081   -1.000
 6329.00    2.19456   2.24077   -1.000
 6330.00    2.19212   2.24257   -1.000
 6331.00    2.19247   2.24703   -1.000
 6332.00    2.19684   2.24680   -1.000
 6333.00    2.18351   2.23156   -1.000
 6334.00    2.15094   2.20121   -1.000
 6335.00    2.12638   2.17069   -1.000
 6336.00    2.11728   2.15786   -1.000
 6337.00    2.12594   2.16639   -1.000
 6338.00    2.14988   2.18698   -1.000
 6339.00    2.17237   2.21008   -1.000
 6340.00    2.18387   2.22754   -1.000
 6341.00    2.18716   2.23163   -1.000
 6342.00    2.18172   2.22196   -1.000
 6343.00    2.16442   2.20821   -1.000
 6344.00    2.15232   2.20278   -1.000
 6345.00    2.16016   2.20990   -1.000
 6346.00    2.17523   2.22542   -1.000
 6347.00    2.18777   2.24445   -1.000
 6348.00    2.19754   2.26245   -1.000
 6349.00    2.20149   2.27522   -1.000
 6350.00    2.20238   2.28089   -1.000
 6351.00    2.19949   2.27859   -1.000
 6352.00    2.18780   2.26720   -1.000
 6353.00    2.17330   2.24880   -1.000
 6354.00    2.15446   2.23075   -1.000
 6355.00    2.13420   2.21898   -1.000
 6356.00    2.12550   2.20985   -1.000
 6357.00    2.11795   2.19609   -1.000
 6358.00    2.10029   2.17871   -1.000
 6359.00    2.08281   2.16364   -1.000
 6360.00    2.08090   2.15220   -1.000
 6361.00    2.08713   2.14418   -1.000
 6362.00    2.08875   2.14355   -1.000
 6363.00    2.09299   2.15394   -1.000
 6364.00    2.10626   2.17330   -1.000
 6365.00    2.12575   2.19623   -1.000
 6366.00    2.14155   2.21901   -1.000
 6367.00    2.15050   2.23817   -1.000
 6368.00    2.15866   2.24915   -1.000
 6369.00    2.16439   2.25224   -1.000
 6370.00    2.16658   2.25447   -1.000
 6371.00    2.16929   2.26214   -1.000
 6372.00    2.17527   2.27369   -1.000
 6373.00    2.17773   2.28227   -1.000
 6374.00    2.17243   2.28453   -1.000
 6375.00    2.16563   2.28190   -1.000
 6376.00    2.15896   2.27500   -1.000
 6377.00    2.14811   2.26450   -1.000
 6378.00    2.13341   2.25371   -1.000
 6379.00    2.12307   2.24591   -1.000
 6380.00    2.11933   2.24262   -1.000
 6381.00    2.12230   2.24339   -1.000
 6382.00    2.12700   2.24597   -1.000
 6383.00    2.12517   2.24875   -1.000
 6384.00    2.12193   2.25327   -1.000
 6385.00    2.12211   2.26114   -1.000
 6386.00    2.11647   2.26949   -1.000
 6387.00    2.10528   2.27425   -1.000
 6388.00    2.09559   2.27512   -1.000
 6389.00    2.08563   2.27193   -1.000
 6390.00    2.06843   2.25979   -1.000
 6391.00    2.04505   2.23528   -1.000
 6392.00    2.01828   2.20705   -1.000
 6393.00    1.99466   2.19342   -1.000
 6394.00    1.99313   2.20478   -1.000
 6395.00    2.01209   2.23186   -1.000
 6396.00    2.02300   2.25308   -1.000
 6397.00    2.01256   2.25060   -1.000
 6398.00    1.98537   2.22398   -1.000
 6399.00    1.94457   2.19445   -1.000
 6400.00    1.92033   2.18891   -1.000
 6401.00    1.93175   2.21328   -1.000
 6402.00    1.95920   2.24977   -1.000
 6403.00    1.97885   2.27800   -1.000
 6404.00    1.97960   2.28741   -1.000
 6405.00    1.96400   2.27708   -1.000
 6406.00    1.94102   2.25593   -1.000
 6407.00    1.91203   2.23921   -1.000
 6408.00    1.88894   2.23558   -1.000
 6409.00    1.88049   2.23856   -1.000
 6410.00    1.86836   2.23744   -1.000
 6411.00    1.84525   2.23312   -1.000
 6412.00    1.82916   2.23412   -1.000
 6413.00    1.82464   2.24224   -1.000
 6414.00    1.81927   2.25263   -1.000
 6415.00    1.81323   2.26150   -1.000
 6416.00    1.80559   2.26555   -1.000
 6417.00    1.78746   2.25989   -1.000
 6418.00    1.76369   2.24235   -1.000
 6419.00    1.73411   2.21936   -1.000
 6420.00    1.70009   2.20545   -1.000
 6421.00    1.68270   2.21349   -1.000
 6422.00    1.68490   2.24068   -1.000
 6423.00    1.69275   2.27048   -1.000
 6424.00    1.69503   2.29197   -1.000
 6425.00    1.68727   2.30581   -1.000
 6426.00    1.67456   2.31338   -1.000
 6427.00    1.65980   2.30943   -1.000
 6428.00    1.63505   2.28814   -1.000
