###################################################################
## OUTPUT of StarlightChains_v04.for    [Cid@UFSC - 01/Apr/2007] ##
###################################################################

## Some input info
NGC6218_a_1.cxt                          [arq_obs]
Base.BC03.N                              [arq_base]
NGC6218_a_1.msk                          [arq_masks]
StCv04.C99.config                        [arq_config]
   45                                    [N_base]
    0                                    [N_YAV_components = # of components with extra extinction!]
    0                                    [i_FitPowerLaw (1/0 = Yes/No)]
-9.99                                    [alpha_PowerLaw]
CCM                                      [red_law_option]
 1.458241                                [q_norm = A(l_norm)/A(V)]

## (Re)Sampling Parameters
 3359.00                                 [l_ini (A)]
 6428.00                                 [l_fin (A)]
    1.00                                 [dl    (A)]     (OBS: dl_cushion =    50.00 A)

## Normalization info
 4020.00                                 [l_norm (A) - for base]
 4010.00                                 [llow_norm (A) - window for f_obs]
 4060.00                                 [lupp_norm (A) - window for f_obs]
1.427242E-14                             [fobs_norm (in input units)]

## S/N
 4730.00                                 [llow_SN (A) - window for S/N]
 4780.00                                 [lupp_SN (A) - window for S/N]
  89.798                                 [S/N in S/N window]
  81.145                                 [S/N in norm. window]
  59.740                                 [S/N_err in S/N window]
  53.984                                 [S/N_err in norm. window]
  1.0000                                 [fscale_chi2]

## etc...
  2147483625                             [idum_orig]
  3068                                   [NOl_eff]
  2429                                   [Nl_eff]
   639    NSIGMA                         [Ntot_cliped & clip_method]
  1286600                                [Nglobal_steps]
   7                                     [N_chains]
   7                                     [NEX0s_base = N_base in EX0s-fits]
 0   0   1      282   2.0   8.248E+02    [Clip-Bug, RC-Crash & Burn-In warning-flags, n_censored_weights, wei_nsig_threshold & wei_limit]
    21     20.791     20.791      0.000  [idt_all, wdt_TotTime, wdt_UsrTime & wdt_SysTime (sec)]

## Synthesis Results - Best model ##

 1.74830E+00                             [chi2/Nl_eff]
     1.77730                             [adev (%)]

   101.23203                             [sum-of-x (%)]
 3.23119E-14                             [Flux_tot (units of input spectrum!)]
 3.43566E-10                             [Mini_tot (???)]
 1.81707E-10                             [Mcor_tot (???)]

  -1.80                                  [v0_min  (km/s)]
  88.25                                  [vd_min  (km/s)]
 0.5993                                  [AV_min  (mag)]
 0.0000                                  [YAV_min (mag)]

# j     x_j(%)      Mini_j(%)     Mcor_j(%)     age_j(yr)     Z_j      (L/M)_j    YAV?  Mstars   component_j        a/Fe...       SSP_chi2r SSP_adev(%)   SSP_AV   SSP_x(%)
  1      0.0000     0.0000E+00    0.0000E+00    1.000000E+06  0.00400  1.114E-02    0   1.0000   age020_m42            0.0000     1.1255E+02    11.1986   4.0000    70.0258
  2      8.3437     1.9032E-02    3.5981E-02    3.160000E+06  0.00400  4.073E-02    0   0.9999   age045_m42            0.0000     2.6151E+01     4.5898   2.8183    90.1444
  3      0.0000     0.0000E+00    0.0000E+00    5.010000E+06  0.00400  2.534E-02    0   0.9488   age055_m42            0.0000     5.2299E+01     7.9118   3.3496    80.0431
  4     12.6193     9.2240E-02    1.5456E-01    1.000000E+07  0.00400  1.271E-02    0   0.8862   age070_m42            0.0000     4.4411E+01     7.7349   2.5557    84.1548
  5      0.0000     0.0000E+00    0.0000E+00    2.512000E+07  0.00400  5.070E-03    0   0.8174   age090_m42            0.0000     3.7406E+01     7.0445   2.4013    86.5582
  6      0.0000     0.0000E+00    0.0000E+00    4.000000E+07  0.00400  3.505E-03    0   0.7851   age104_m42            0.0000     2.4301E+01     4.9376   2.0125    92.0445
  7     13.2320     5.4202E-01    7.3860E-01    1.015200E+08  0.00400  2.268E-03    0   0.7207   age116_m42            0.0000     1.4949E+02    10.4296   1.4694   121.5318
  8      0.0000     0.0000E+00    0.0000E+00    2.861200E+08  0.00400  1.079E-03    0   0.6613   age125_m42            0.0000     1.4647E+02    11.7734   0.9079   126.7500
  9      3.0535     5.5876E-01    6.5471E-01    6.405400E+08  0.00400  5.077E-04    0   0.6197   age132_m42            0.0000     1.6136E+02    12.2988   0.5169   132.7323
 10     11.5603     3.0382E+00    3.4605E+00    9.047900E+08  0.00400  3.535E-04    0   0.6024   age135_m42            0.0000     8.8973E+01     9.5786   0.4173   126.0925
 11      0.0000     0.0000E+00    0.0000E+00    1.434000E+09  0.00400  1.910E-04    0   0.5716   age139_m42            0.0000     3.7095E+01     7.5794   0.0000   118.8223
 12      7.3115     6.9186E+00    7.1464E+00    2.500000E+09  0.00400  9.818E-05    0   0.5463   age150_m42            0.0000     1.5703E+01     4.4606  -0.0626   106.6120
 13     45.1118     8.8831E+01    8.7809E+01    5.000000E+09  0.00400  4.718E-05    0   0.5228   age161_m42            0.0000     2.4580E+01     4.0813  -0.1456   100.0993
 14      0.0000     0.0000E+00    0.0000E+00    1.100000E+10  0.00400  2.205E-05    0   0.4980   age185_m42            0.0000     5.5590E+01     5.4626  -0.3781    96.8368
 15      0.0000     0.0000E+00    0.0000E+00    1.300000E+10  0.00400  1.883E-05    0   0.4927   age193_m42            0.0000     6.3205E+01     5.6338  -0.3908    96.5027
 16      0.0000     0.0000E+00    0.0000E+00    1.000000E+06  0.02000  1.989E-02    0   1.0000   age020_m62            0.0000     1.1566E+02    11.2678   3.9689    70.6245
 17      0.0000     0.0000E+00    0.0000E+00    3.160000E+06  0.02000  3.772E-02    0   0.9858   age045_m62            0.0000     9.8004E+01    10.6288   3.8123    73.1628
 18      0.0000     0.0000E+00    0.0000E+00    5.010000E+06  0.02000  3.227E-02    0   0.9342   age055_m62            0.0000     3.7294E+01     6.1087   3.1426    84.9585
 19      0.0000     0.0000E+00    0.0000E+00    1.000000E+07  0.02000  1.011E-02    0   0.8751   age070_m62            0.0000     1.0525E+02    12.3469   2.7082    76.9348
 20      0.0000     0.0000E+00    0.0000E+00    2.512000E+07  0.02000  4.206E-03    0   0.8099   age090_m62            0.0000     8.3605E+01    10.0112   2.5808    79.8189
 21      0.0000     0.0000E+00    0.0000E+00    4.000000E+07  0.02000  3.373E-03    0   0.7799   age104_m62            0.0000     2.8132E+01     4.2880   2.1573    96.1819
 22      0.0000     0.0000E+00    0.0000E+00    1.015200E+08  0.02000  1.878E-03    0   0.7221   age116_m62            0.0000     1.1443E+02     8.8924   1.5704   119.5992
 23      0.0000     0.0000E+00    0.0000E+00    2.861200E+08  0.02000  8.869E-04    0   0.6700   age125_m62            0.0000     2.9156E+02    16.6232   0.6690   142.9607
 24      0.0000     0.0000E+00    0.0000E+00    6.405400E+08  0.02000  3.657E-04    0   0.6322   age132_m62            0.0000     1.5861E+02    13.8867   0.1561   139.5720
 25      0.0000     0.0000E+00    0.0000E+00    9.047900E+08  0.02000  2.312E-04    0   0.6152   age135_m62            0.0000     7.9836E+01    10.3070  -0.0170   129.8389
 26      0.0000     0.0000E+00    0.0000E+00    1.434000E+09  0.02000  1.168E-04    0   0.5865   age139_m62            0.0000     2.6668E+01     5.9588  -0.1844   113.3527
 27      0.0000     0.0000E+00    0.0000E+00    2.500000E+09  0.02000  5.505E-05    0   0.5610   age150_m62            0.0000     4.6626E+01     6.1327  -0.4680   106.7472
 28      0.0000     0.0000E+00    0.0000E+00    5.000000E+09  0.02000  2.596E-05    0   0.5353   age161_m62            0.0000     1.0519E+02     7.9776  -0.7910   106.1683
 29      0.0000     0.0000E+00    0.0000E+00    1.100000E+10  0.02000  1.169E-05    0   0.5103   age185_m62            0.0000     2.0330E+02    10.0978  -1.0000   107.1372
 30      0.0000     0.0000E+00    0.0000E+00    1.300000E+10  0.02000  9.691E-06    0   0.5047   age193_m62            0.0000     2.3190E+02    11.1590  -1.0000   107.0643
 31      0.0000     0.0000E+00    0.0000E+00    1.000000E+06  0.05000  2.651E-02    0   0.9998   age020_m72            0.0000     1.1051E+02    10.7478   3.9593    71.7912
 32      0.0000     0.0000E+00    0.0000E+00    3.160000E+06  0.05000  4.817E-02    0   0.9577   age045_m72            0.0000     6.7529E+01     8.6586   3.6113    77.9386
 33      0.0000     0.0000E+00    0.0000E+00    5.010000E+06  0.05000  3.101E-02    0   0.9147   age055_m72            0.0000     5.9812E+01     8.3283   3.2443    80.7933
 34      0.0000     0.0000E+00    0.0000E+00    1.000000E+07  0.05000  8.954E-03    0   0.8524   age070_m72            0.0000     7.4715E+01     8.4960   3.4916    79.3901
 35      0.0000     0.0000E+00    0.0000E+00    2.512000E+07  0.05000  4.207E-03    0   0.7902   age090_m72            0.0000     3.7666E+01     5.2398   2.9298    89.0000
 36      0.0000     0.0000E+00    0.0000E+00    4.000000E+07  0.05000  3.198E-03    0   0.7618   age104_m72            0.0000     5.6068E+01     5.7414   2.1020   108.6883
 37      0.0000     0.0000E+00    0.0000E+00    1.015200E+08  0.05000  1.716E-03    0   0.7092   age116_m72            0.0000     1.4444E+02    10.3210   1.5877   122.4276
 38      0.0000     0.0000E+00    0.0000E+00    2.861200E+08  0.05000  7.047E-04    0   0.6618   age125_m72            0.0000     2.8286E+02    16.8408   0.4618   143.2191
 39      0.0000     0.0000E+00    0.0000E+00    6.405400E+08  0.05000  2.633E-04    0   0.6253   age132_m72            0.0000     1.1741E+02    12.3424  -0.1285   134.5863
 40      0.0000     0.0000E+00    0.0000E+00    9.047900E+08  0.05000  1.484E-04    0   0.6088   age135_m72            0.0000     4.6717E+01     8.1063  -0.3503   118.0223
 41      0.0000     0.0000E+00    0.0000E+00    1.434000E+09  0.05000  7.827E-05    0   0.5847   age139_m72            0.0000     6.4903E+01     7.6535  -0.6087   109.0066
 42      0.0000     0.0000E+00    0.0000E+00    2.500000E+09  0.05000  3.759E-05    0   0.5583   age150_m72            0.0000     1.1716E+02     8.4144  -0.8761   106.0229
 43      0.0000     0.0000E+00    0.0000E+00    5.000000E+09  0.05000  1.548E-05    0   0.5320   age161_m72            0.0000     2.1803E+02    12.7832  -1.0000   104.0965
 44      0.0000     0.0000E+00    0.0000E+00    1.100000E+10  0.05000  6.532E-06    0   0.5070   age185_m72            0.0000     5.1957E+02    23.5913  -1.0000   100.9634
 45      0.0000     0.0000E+00    0.0000E+00    1.300000E+10  0.05000  5.316E-06    0   0.5018   age193_m72            0.0000     6.7631E+02    26.8646  -1.0000    99.6323


## Synthesis Results - Average & Chains ##

# j      x_j: min, <> & last-chain-values for 1 ...  7 chains
  1      0.0000      0.0057      0.0000      0.0000      0.0000      0.0000      0.0000      0.0000      0.0000
  2      8.3437      6.1914      6.2971      6.4121      6.6844      6.4397      6.2428      6.5053      6.3224
  3      0.0000      0.1116      0.0603      0.0000      0.0000      0.1236      0.2115      0.0668      0.1172
  4     12.6193     12.7405     13.0559     12.5781     13.0520     12.8376     12.8928     12.8940     12.7613
  5      0.0000      0.0637      0.0000      0.0000      0.0000      0.0854      0.0000      0.0000      0.0000
  6      0.0000      0.0169      0.0000      0.0570      0.0000      0.0000      0.0000      0.0000      0.0000
  7     13.2320     13.3880     13.3849     13.4414     13.2420     13.4019     13.4833     13.3847     13.4044
  8      0.0000      0.0299      0.1072      0.0000      0.0000      0.0000      0.0000      0.0000      0.0000
  9      3.0535      4.6816      4.1891      4.2675      4.5642      4.4902      4.4765      4.6124      4.4138
 10     11.5603      9.7450     10.2276      9.8047      9.7189      9.9140      9.2868      9.7686      9.9297
 11      0.0000      0.0855      0.0000      0.0000      0.1739      0.0000      0.6198      0.0670      0.0000
 12      7.3115      8.1081      8.0014      8.6037      8.0811      7.6174      8.3408      8.2894      8.2332
 13     45.1118     44.7369     44.6959     44.7316     44.8187     45.3977     44.8577     44.6607     44.8224
 14      0.0000      0.0683      0.1796      0.2974      0.1267      0.0000      0.0000      0.0000      0.0000
 15      0.0000      0.0343      0.1045      0.0000      0.0000      0.0000      0.0000      0.0000      0.0000
 16      0.0000      0.0053      0.0000      0.0000      0.0000      0.0689      0.0000      0.0000      0.0000
 17      0.0000      0.0055      0.0000      0.0000      0.0000      0.0000      0.0000      0.0000      0.0000
 18      0.0000      0.7612      0.7571      1.0444      0.7339      0.7642      0.7174      0.7451      1.0881
 19      0.0000      0.0161      0.0855      0.0000      0.0000      0.0000      0.0000      0.0000      0.0000
 20      0.0000      0.0049      0.0000      0.0320      0.0085      0.0000      0.0000      0.0000      0.0000
 21      0.0000      0.0147      0.0000      0.0000      0.0000      0.0000      0.0000      0.0000      0.0000
 22      0.0000      0.0261      0.0000      0.0000      0.0000      0.0000      0.0000      0.0000      0.0000
 23      0.0000      0.0127      0.0000      0.0000      0.0000      0.0000      0.0000      0.0000      0.0000
 24      0.0000      0.0099      0.0000      0.0000      0.0000      0.0000      0.0000      0.0000      0.0000
 25      0.0000      0.0243      0.0000      0.0000      0.0000      0.0000      0.0000      0.0000      0.0000
 26      0.0000      0.0383      0.0345      0.0000      0.0000      0.0000      0.0000      0.0000      0.1430
 27      0.0000      0.0436      0.0000      0.0000      0.0393      0.0000      0.0000      0.0000      0.0000
 28      0.0000      0.0237      0.0000      0.0000      0.0000      0.0000      0.0000      0.0000      0.0970
 29      0.0000      0.0167      0.0017      0.0000      0.0000      0.0000      0.0000      0.1513      0.0000
 30      0.0000      0.0114      0.0000      0.0425      0.0000      0.0000      0.0000      0.0000      0.0000
 31      0.0000      0.0083      0.0000      0.0000      0.0000      0.0000      0.0000      0.0000      0.0000
 32      0.0000      0.0133      0.0000      0.0000      0.0000      0.0000      0.0000      0.0000      0.0000
 33      0.0000      0.0285      0.0040      0.0000      0.0240      0.0000      0.0000      0.0000      0.0000
 34      0.0000      0.0052      0.0000      0.0000      0.0000      0.0000      0.0000      0.0000      0.0000
 35      0.0000      0.0109      0.0000      0.0000      0.0000      0.0000      0.0000      0.0000      0.0000
 36      0.0000      0.0144      0.0000      0.0000      0.0000      0.0000      0.0000      0.0000      0.0000
 37      0.0000      0.0202      0.0000      0.0000      0.0000      0.0000      0.0000      0.0000      0.0000
 38      0.0000      0.0076      0.0000      0.0000      0.0000      0.0000      0.0000      0.0000      0.0022
 39      0.0000      0.0168      0.0000      0.0000      0.0000      0.0000      0.0000      0.0000      0.0116
 40      0.0000      0.0319      0.0000      0.0000      0.0000      0.0000      0.0000      0.0000      0.0000
 41      0.0000      0.0443      0.0000      0.0000      0.0000      0.1656      0.2323      0.0000      0.0000
 42      0.0000      0.0458      0.1505      0.0000      0.0000      0.0003      0.0123      0.2040      0.0000
 43      0.0000      0.0234      0.0000      0.0231      0.0000      0.0000      0.0000      0.0714      0.0000
 44      0.0000      0.0388      0.0000      0.0000      0.0000      0.0000      0.0000      0.0000      0.0000
 45      0.0000      0.1355      0.0000      0.0000      0.0000      0.0000      0.0000      0.0000      0.0000

# j      m_j: min, <> & last-chain-values for 1 ...  7 chains
  1  0.0000E+00  8.6070E-05  0.0000E+00  0.0000E+00  0.0000E+00  0.0000E+00  0.0000E+00  0.0000E+00  0.0000E+00
  2  3.5981E-02  2.5693E-02  2.6791E-02  2.7115E-02  2.8647E-02  2.7522E-02  2.6704E-02  2.7492E-02  2.7093E-02
  3  0.0000E+00  7.0665E-04  3.9142E-04  0.0000E+00  0.0000E+00  8.0570E-04  1.3796E-03  4.3065E-04  7.6629E-04
  4  1.5456E-01  1.5016E-01  1.5776E-01  1.5107E-01  1.5887E-01  1.5583E-01  1.5664E-01  1.5476E-01  1.5532E-01
  5  0.0000E+00  1.7357E-03  0.0000E+00  0.0000E+00  0.0000E+00  2.3967E-03  0.0000E+00  0.0000E+00  0.0000E+00
  6  0.0000E+00  6.3818E-04  0.0000E+00  2.1990E-03  0.0000E+00  0.0000E+00  0.0000E+00  0.0000E+00  0.0000E+00
  7  7.3860E-01  7.1913E-01  7.3711E-01  7.3574E-01  7.3459E-01  7.4141E-01  7.4656E-01  7.3217E-01  7.4352E-01
  8  0.0000E+00  3.1016E-03  1.1383E-02  0.0000E+00  0.0000E+00  0.0000E+00  0.0000E+00  0.0000E+00  0.0000E+00
  9  6.5471E-01  9.6594E-01  8.8613E-01  8.9726E-01  9.7258E-01  9.5416E-01  9.5208E-01  9.6917E-01  9.4041E-01
 10  3.4605E+00  2.8071E+00  3.0205E+00  2.8780E+00  2.8913E+00  2.9412E+00  2.7575E+00  2.8656E+00  2.9537E+00
 11  0.0000E+00  4.3258E-02  0.0000E+00  0.0000E+00  9.0850E-02  0.0000E+00  3.2320E-01  3.4534E-02  0.0000E+00
 12  7.1464E+00  7.6263E+00  7.7157E+00  8.2464E+00  7.8499E+00  7.3789E+00  8.0868E+00  7.9400E+00  7.9967E+00
 13  8.7809E+01  8.3797E+01  8.5832E+01  8.5381E+01  8.6700E+01  8.7577E+01  8.6611E+01  8.5192E+01  8.6697E+01
 14  0.0000E+00  2.6094E-01  7.0308E-01  1.1569E+00  4.9941E-01  0.0000E+00  0.0000E+00  0.0000E+00  0.0000E+00
 15  0.0000E+00  1.5185E-01  4.7375E-01  0.0000E+00  0.0000E+00  0.0000E+00  0.0000E+00  0.0000E+00  0.0000E+00
 16  0.0000E+00  4.4784E-05  0.0000E+00  0.0000E+00  0.0000E+00  6.0265E-04  0.0000E+00  0.0000E+00  0.0000E+00
 17  0.0000E+00  2.4413E-05  0.0000E+00  0.0000E+00  0.0000E+00  0.0000E+00  0.0000E+00  0.0000E+00  0.0000E+00
 18  0.0000E+00  3.7249E-03  3.7981E-03  5.2080E-03  3.7092E-03  3.8514E-03  3.6186E-03  3.7131E-03  5.4983E-03
 19  0.0000E+00  2.3538E-04  1.2822E-03  0.0000E+00  0.0000E+00  0.0000E+00  0.0000E+00  0.0000E+00  0.0000E+00
 20  0.0000E+00  1.6106E-04  0.0000E+00  1.0600E-03  2.8445E-04  0.0000E+00  0.0000E+00  0.0000E+00  0.0000E+00
 21  0.0000E+00  5.7629E-04  0.0000E+00  0.0000E+00  0.0000E+00  0.0000E+00  0.0000E+00  0.0000E+00  0.0000E+00
 22  0.0000E+00  1.6992E-03  0.0000E+00  0.0000E+00  0.0000E+00  0.0000E+00  0.0000E+00  0.0000E+00  0.0000E+00
 23  0.0000E+00  1.6154E-03  0.0000E+00  0.0000E+00  0.0000E+00  0.0000E+00  0.0000E+00  0.0000E+00  0.0000E+00
 24  0.0000E+00  2.8960E-03  0.0000E+00  0.0000E+00  0.0000E+00  0.0000E+00  0.0000E+00  0.0000E+00  0.0000E+00
 25  0.0000E+00  1.0923E-02  0.0000E+00  0.0000E+00  0.0000E+00  0.0000E+00  0.0000E+00  0.0000E+00  0.0000E+00
 26  0.0000E+00  3.2475E-02  3.0026E-02  0.0000E+00  0.0000E+00  0.0000E+00  0.0000E+00  0.0000E+00  1.2532E-01
 27  0.0000E+00  7.5066E-02  0.0000E+00  0.0000E+00  6.9931E-02  0.0000E+00  0.0000E+00  0.0000E+00  0.0000E+00
 28  0.0000E+00  8.2505E-02  0.0000E+00  0.0000E+00  0.0000E+00  0.0000E+00  0.0000E+00  0.0000E+00  3.4913E-01
 29  0.0000E+00  1.2349E-01  1.2620E-02  0.0000E+00  0.0000E+00  0.0000E+00  0.0000E+00  1.1369E+00  0.0000E+00
 30  0.0000E+00  9.9986E-02  0.0000E+00  3.8171E-01  0.0000E+00  0.0000E+00  0.0000E+00  0.0000E+00  0.0000E+00
 31  0.0000E+00  5.2790E-05  0.0000E+00  0.0000E+00  0.0000E+00  0.0000E+00  0.0000E+00  0.0000E+00  0.0000E+00
 32  0.0000E+00  4.4547E-05  0.0000E+00  0.0000E+00  0.0000E+00  0.0000E+00  0.0000E+00  0.0000E+00  0.0000E+00
 33  0.0000E+00  1.4194E-04  2.0600E-05  0.0000E+00  1.2356E-04  0.0000E+00  0.0000E+00  0.0000E+00  0.0000E+00
 34  0.0000E+00  8.2942E-05  0.0000E+00  0.0000E+00  0.0000E+00  0.0000E+00  0.0000E+00  0.0000E+00  0.0000E+00
 35  0.0000E+00  3.4593E-04  0.0000E+00  0.0000E+00  0.0000E+00  0.0000E+00  0.0000E+00  0.0000E+00  0.0000E+00
 36  0.0000E+00  5.8181E-04  0.0000E+00  0.0000E+00  0.0000E+00  0.0000E+00  0.0000E+00  0.0000E+00  0.0000E+00
 37  0.0000E+00  1.4117E-03  0.0000E+00  0.0000E+00  0.0000E+00  0.0000E+00  0.0000E+00  0.0000E+00  0.0000E+00
 38  0.0000E+00  1.2015E-03  0.0000E+00  0.0000E+00  0.0000E+00  0.0000E+00  0.0000E+00  0.0000E+00  3.5771E-04
 39  0.0000E+00  6.7496E-03  0.0000E+00  0.0000E+00  0.0000E+00  0.0000E+00  0.0000E+00  0.0000E+00  4.8249E-03
 40  0.0000E+00  2.2151E-02  0.0000E+00  0.0000E+00  0.0000E+00  0.0000E+00  0.0000E+00  0.0000E+00  0.0000E+00
 41  0.0000E+00  5.6003E-02  0.0000E+00  0.0000E+00  0.0000E+00  2.1543E-01  3.0236E-01  0.0000E+00  0.0000E+00
 42  0.0000E+00  1.1508E-01  3.8728E-01  0.0000E+00  0.0000E+00  8.4507E-04  3.1762E-02  5.2148E-01  0.0000E+00
 43  0.0000E+00  1.3581E-01  0.0000E+00  1.3677E-01  0.0000E+00  0.0000E+00  0.0000E+00  4.2214E-01  0.0000E+00
 44  0.0000E+00  5.0875E-01  0.0000E+00  0.0000E+00  0.0000E+00  0.0000E+00  0.0000E+00  0.0000E+00  0.0000E+00
 45  0.0000E+00  2.1628E+00  0.0000E+00  0.0000E+00  0.0000E+00  0.0000E+00  0.0000E+00  0.0000E+00  0.0000E+00

# AV, chi2 & Mass for <> & i_chain = 1 ...  7 solutions
AV       0.5993      0.5731      0.5839      0.5789      0.5896      0.5869      0.5785      0.5786      0.5868
chi2 1.7483E+00  1.7766E+00  1.7629E+00  1.7653E+00  1.7580E+00  1.7613E+00  1.7668E+00  1.7667E+00  1.7613E+00
Mass 1.8171E-10  1.8230E-10  1.8042E-10  1.8031E-10  1.8047E-10  1.8033E-10  1.7814E-10  1.8034E-10  1.7981E-10
  -1.45                                  [v0_min (km/s) before EX0s...]
  87.82                                  [vd_min (km/s) before EX0s...]


## Synthetic spectrum (Best Model) ##l_obs f_obs f_syn wei
 3070    [Nl_obs]
 3359.00    0.00000   0.53417   -2.000
 3360.00    0.10799   0.51416   -1.000
 3361.00    0.32086   0.51048   -1.000
 3362.00    0.32403   0.52536   -1.000
 3363.00    0.32655   0.54895   -1.000
 3364.00    0.34596   0.56708   -1.000
 3365.00    0.38333   0.57066   -1.000
 3366.00    0.38068   0.55978   -1.000
 3367.00    0.35427   0.54197   -1.000
 3368.00    0.36601   0.52665   -1.000
 3369.00    0.36056   0.51856   -1.000
 3370.00    0.35571   0.51561   -1.000
 3371.00    0.36856   0.51366   -1.000
 3372.00    0.37096   0.51380   -1.000
 3373.00    0.38309   0.52230   -1.000
 3374.00    0.39355   0.54192   -1.000
 3375.00    0.41034   0.56629   -1.000
 3376.00    0.42969   0.58112   -1.000
 3377.00    0.43808   0.57755   -1.000
 3378.00    0.42669   0.56070   -1.000
 3379.00    0.43123   0.54313   -1.000
 3380.00    0.43217   0.53614   -1.000
 3381.00    0.42023   0.54250   -1.000
 3382.00    0.42045   0.55702   -1.000
 3383.00    0.42652   0.57123   -1.000
 3384.00    0.44431   0.58149   -1.000
 3385.00    0.45393   0.58865   -1.000
 3386.00    0.45888   0.59219   -1.000
 3387.00    0.47321   0.59151   -1.000
 3388.00    0.48498   0.58892   -1.000
 3389.00    0.47169   0.58675   -1.000
 3390.00    0.47979   0.58412   -1.000
 3391.00    0.46619   0.57858   -1.000
 3392.00    0.46231   0.57107   -1.000
 3393.00    0.47294   0.56767   -1.000
 3394.00    0.48560   0.57368   -1.000
 3395.00    0.46995   0.58773   -1.000
 3396.00    0.48645   0.60385   -1.000
 3397.00    0.51017   0.61629   -1.000
 3398.00    0.51604   0.62121   -1.000
 3399.00    0.51858   0.61777   -1.000
 3400.00    0.51928   0.60902   -1.000
 3401.00    0.50674   0.59833   -1.000
 3402.00    0.51001   0.58734   -1.000
 3403.00    0.51813   0.57867   -1.000
 3404.00    0.50722   0.57358   -1.000
 3405.00    0.50178   0.56975   -1.000
 3406.00    0.50456   0.56464   -1.000
 3407.00    0.50663   0.55987   -1.000
 3408.00    0.50048   0.55919   -1.000
 3409.00    0.48122   0.56386   -1.000
 3410.00    0.48803   0.57028   -1.000
 3411.00    0.49534   0.57304   -1.000
 3412.00    0.49475   0.57081   -1.000
 3413.00    0.50106   0.56659   -1.000
 3414.00    0.50534   0.56491   -1.000
 3415.00    0.49482   0.56811   -1.000
 3416.00    0.48185   0.57641   -1.000
 3417.00    0.49311   0.58824   -1.000
 3418.00    0.52533   0.60148   -1.000
 3419.00    0.54456   0.61266   -1.000
 3420.00    0.54094   0.61771   -1.000
 3421.00    0.53900   0.61526   -1.000
 3422.00    0.55471   0.60855   -1.000
 3423.00    0.54262   0.60208   -1.000
 3424.00    0.52824   0.59894   -1.000
 3425.00    0.52274   0.59952   -1.000
 3426.00    0.53935   0.60387   -1.000
 3427.00    0.56620   0.61262   -1.000
 3428.00    0.56503   0.62463   -1.000
 3429.00    0.56039   0.63345   -1.000
 3430.00    0.56259   0.63319   -1.000
 3431.00    0.55976   0.62422   -1.000
 3432.00    0.55854   0.61259   -1.000
 3433.00    0.55663   0.60527   -1.000
 3434.00    0.56931   0.60474   -1.000
 3435.00    0.57314   0.60826   -1.000
 3436.00    0.57099   0.60950   -1.000
 3437.00    0.55733   0.60383   -1.000
 3438.00    0.54052   0.58932   -1.000
 3439.00    0.51619   0.56766   -1.000
 3440.00    0.49335   0.54382   -1.000
 3441.00    0.48838   0.52651   -1.000
 3442.00    0.50318   0.52176  180.023
 3443.00    0.50868   0.52787  179.917
 3444.00    0.52146   0.53883  177.003
 3445.00    0.52652   0.55171   -1.000
 3446.00    0.53266   0.56759   -1.000
 3447.00    0.55524   0.58666   -1.000
 3448.00    0.56379   0.60458   -1.000
 3449.00    0.55479   0.61394   -1.000
 3450.00    0.56013   0.61034   -1.000
 3451.00    0.59423   0.59728  824.769
 3452.00    0.59484   0.58266   -1.000
 3453.00    0.57793   0.57482   -1.000
 3454.00    0.58789   0.57621   -1.000
 3455.00    0.59872   0.58197   -1.000
 3456.00    0.59911   0.58445   -1.000
 3457.00    0.59880   0.57935   -1.000
 3458.00    0.59557   0.56934   -1.000
 3459.00    0.58065   0.55900   -1.000
 3460.00    0.57554   0.55198   -1.000
 3461.00    0.56165   0.55246  146.334
 3462.00    0.55888   0.56192  203.805
 3463.00    0.59403   0.57441   -1.000
 3464.00    0.60032   0.58223   -1.000
 3465.00    0.60573   0.58476   -1.000
 3466.00    0.60142   0.58607   -1.000
 3467.00    0.58581   0.59005  824.769
 3468.00    0.58925   0.59630   -1.000
 3469.00    0.58995   0.60208   -1.000
 3470.00    0.60717   0.60445   -1.000
 3471.00    0.61633   0.60108   -1.000
 3472.00    0.61014   0.59119   -1.000
 3473.00    0.60169   0.57593   -1.000
 3474.00    0.58254   0.55863   -1.000
 3475.00    0.56944   0.54629   -1.000
 3476.00    0.55044   0.54492  147.589
 3477.00    0.56075   0.55398  150.331
 3478.00    0.57956   0.56756  205.831
 3479.00    0.58965   0.57973   -1.000
 3480.00    0.60561   0.58678   -1.000
 3481.00    0.61539   0.58749   -1.000
 3482.00    0.61861   0.58300   -1.000
 3483.00    0.63148   0.57778   -1.000
 3484.00    0.63273   0.57823   -1.000
 3485.00    0.62555   0.58727   -1.000
 3486.00    0.63185   0.60005   -1.000
 3487.00    0.64306   0.60612   -1.000
 3488.00    0.63656   0.59980   -1.000
 3489.00    0.62178   0.58500   -1.000
 3490.00    0.60098   0.57203   -1.000
 3491.00    0.58606   0.56786   -1.000
 3492.00    0.59328   0.57038   -1.000
 3493.00    0.58645   0.57248   -1.000
 3494.00    0.57705   0.56946   -1.000
 3495.00    0.57971   0.56341   -1.000
 3496.00    0.58474   0.56117   -1.000
 3497.00    0.57774   0.56834   -1.000
 3498.00    0.57823   0.58229  824.769
 3499.00    0.59501   0.59338  824.769
 3500.00    0.60829   0.59752   -1.000
 3501.00    0.61456   0.59909   -1.000
 3502.00    0.62855   0.60187   -1.000
 3503.00    0.63089   0.60412   -1.000
 3504.00    0.62114   0.60157   -1.000
 3505.00    0.61470   0.59481   -1.000
 3506.00    0.60579   0.58899   -1.000
 3507.00    0.62105   0.58705   -1.000
 3508.00    0.62373   0.58705   -1.000
 3509.00    0.61197   0.58512   -1.000
 3510.00    0.62029   0.57994   -1.000
 3511.00    0.61300   0.57297   -1.000
 3512.00    0.60466   0.56566   -1.000
 3513.00    0.60157   0.56006   -1.000
 3514.00    0.59046   0.56157   -1.000
 3515.00    0.59083   0.57295   -1.000
 3516.00    0.59935   0.59032   -1.000
 3517.00    0.61294   0.60553   -1.000
 3518.00    0.63364   0.61093   -1.000
 3519.00    0.63551   0.60486   -1.000
 3520.00    0.60727   0.59122   -1.000
 3521.00    0.57237   0.57638  824.769
 3522.00    0.57704   0.56344   -1.000
 3523.00    0.58253   0.55189   -1.000
 3524.00    0.56535   0.54287   -1.000
 3525.00    0.54583   0.53988  146.184
 3526.00    0.54259   0.54647  149.550
 3527.00    0.55700   0.56229  204.652
 3528.00    0.58675   0.58117   -1.000
 3529.00    0.60407   0.59531   -1.000
 3530.00    0.62143   0.60129   -1.000
 3531.00    0.63073   0.60178   -1.000
 3532.00    0.61551   0.60218   -1.000
 3533.00    0.61182   0.60552   -1.000
 3534.00    0.63369   0.61058   -1.000
 3535.00    0.63373   0.61474   -1.000
 3536.00    0.61782   0.61740  824.769
 3537.00    0.61764   0.62068   -1.000
 3538.00    0.62623   0.62569  824.769
 3539.00    0.64478   0.62990   -1.000
 3540.00    0.64140   0.63049   -1.000
 3541.00    0.61680   0.62911   -1.000
 3542.00    0.61021   0.62996   -1.000
 3543.00    0.60995   0.63357   -1.000
 3544.00    0.61306   0.63730   -1.000
 3545.00    0.63074   0.63818   -1.000
 3546.00    0.64439   0.63618   -1.000
 3547.00    0.62616   0.63385   -1.000
 3548.00    0.63460   0.63314  824.769
 3549.00    0.63038   0.63426   -1.000
 3550.00    0.62056   0.63542   -1.000
 3551.00    0.60116   0.63411   -1.000
 3552.00    0.61489   0.62901   -1.000
 3553.00    0.60757   0.62218   -1.000
 3554.00    0.59359   0.61729   -1.000
 3555.00    0.59495   0.61633   -1.000
 3556.00    0.59996   0.61743   -1.000
 3557.00    0.59878   0.61710   -1.000
 3558.00    0.61150   0.61473  824.769
 3559.00    0.61219   0.61350  824.769
 3560.00    0.60694   0.61720   -1.000
 3561.00    0.61835   0.62520   -1.000
 3562.00    0.62616   0.62987   -1.000
 3563.00    0.61700   0.62183   -1.000
 3564.00    0.60504   0.59971   -1.000
 3565.00    0.58789   0.57580   -1.000
 3566.00    0.55534   0.56198  147.837
 3567.00    0.54198   0.55783  151.560
 3568.00    0.53910   0.55460  150.021
 3569.00    0.53511   0.54637  150.952
 3570.00    0.53637   0.53754  155.465
 3571.00    0.54309   0.53565  155.928
 3572.00    0.55555   0.54132  150.327
 3573.00    0.55767   0.54925  198.222
 3574.00    0.56837   0.55493   -1.000
 3575.00    0.56313   0.55823   -1.000
 3576.00    0.55629   0.56046  824.769
 3577.00    0.57316   0.56001   -1.000
 3578.00    0.57173   0.55338   -1.000
 3579.00    0.55313   0.53979   -1.000
 3580.00    0.53169   0.52406  154.379
 3581.00    0.51126   0.51313  165.642
 3582.00    0.51227   0.51004  172.313
 3583.00    0.53240   0.51094   -1.000
 3584.00    0.53489   0.50883   -1.000
 3585.00    0.52155   0.50284   -1.000
 3586.00    0.49919   0.49881  184.849
 3587.00    0.49099   0.50202  183.741
 3588.00    0.50454   0.51378  174.189
 3589.00    0.52140   0.53173  165.163
 3590.00    0.54777   0.55163  155.031
 3591.00    0.57686   0.56797  196.483
 3592.00    0.58979   0.57746   -1.000
 3593.00    0.58907   0.58196   -1.000
 3594.00    0.58919   0.58684  824.769
 3595.00    0.59717   0.59578  824.769
 3596.00    0.60739   0.60726  824.769
 3597.00    0.61539   0.61811   -1.000
 3598.00    0.62516   0.62614  824.769
 3599.00    0.62593   0.62902   -1.000
 3600.00    0.62841   0.62446  824.769
 3601.00    0.62073   0.61215   -1.000
 3602.00    0.60174   0.59556   -1.000
 3603.00    0.58110   0.58067  824.769
 3604.00    0.57602   0.57244   -1.000
 3605.00    0.56428   0.57096   -1.000
 3606.00    0.57540   0.57110   -1.000
 3607.00    0.57273   0.56805   -1.000
 3608.00    0.56926   0.56218   -1.000
 3609.00    0.55810   0.55903  824.769
 3610.00    0.55639   0.56282   -1.000
 3611.00    0.56302   0.57060   -1.000
 3612.00    0.56718   0.57802   -1.000
 3613.00    0.58084   0.58475  824.769
 3614.00    0.58191   0.59193   -1.000
 3615.00    0.59295   0.59683   -1.000
 3616.00    0.59318   0.59221  824.769
 3617.00    0.57979   0.57612   -1.000
 3618.00    0.56567   0.56006   -1.000
 3619.00    0.56444   0.55672   -1.000
 3620.00    0.57037   0.56796  193.548
 3621.00    0.58269   0.58620  824.769
 3622.00    0.60362   0.60293  824.769
 3623.00    0.61972   0.61509   -1.000
 3624.00    0.61938   0.62631   -1.000
 3625.00    0.61872   0.64075   -1.000
 3626.00    0.64204   0.65628   -1.000
 3627.00    0.64926   0.66542   -1.000
 3628.00    0.63496   0.65933   -1.000
 3629.00    0.61132   0.63580   -1.000
 3630.00    0.59240   0.60497   -1.000
 3631.00    0.57823   0.58187  824.769
 3632.00    0.56355   0.57533   -1.000
 3633.00    0.56971   0.58221   -1.000
 3634.00    0.58449   0.59272   -1.000
 3635.00    0.60449   0.59979   -1.000
 3636.00    0.62356   0.60477   -1.000
 3637.00    0.62677   0.61340   -1.000
 3638.00    0.62694   0.62639  824.769
 3639.00    0.64002   0.63852  824.769
 3640.00    0.64223   0.64269  824.769
 3641.00    0.62758   0.63626   -1.000
 3642.00    0.62229   0.62247  824.769
 3643.00    0.62026   0.60743   -1.000
 3644.00    0.60666   0.59626   -1.000
 3645.00    0.59705   0.58950   -1.000
 3646.00    0.59883   0.58468   -1.000
 3647.00    0.59121   0.58147   -1.000
 3648.00    0.59374   0.58183   -1.000
 3649.00    0.58570   0.58743  824.769
 3650.00    0.59979   0.59839  824.769
 3651.00    0.62076   0.61296   -1.000
 3652.00    0.63099   0.62756  824.769
 3653.00    0.64460   0.63928  824.769
 3654.00    0.64596   0.64713   -1.000
 3655.00    0.63228   0.65294   -1.000
 3656.00    0.64084   0.65929   -1.000
 3657.00    0.64955   0.66564   -1.000
 3658.00    0.64023   0.66976   -1.000
 3659.00    0.64202   0.67027   -1.000
 3660.00    0.64337   0.66702   -1.000
 3661.00    0.64328   0.66069   -1.000
 3662.00    0.64144   0.65295   -1.000
 3663.00    0.64026   0.64622   -1.000
 3664.00    0.62982   0.64273   -1.000
 3665.00    0.63543   0.64222   -1.000
 3666.00    0.65781   0.64175   -1.000
 3667.00    0.65390   0.63825   -1.000
 3668.00    0.63171   0.63244  824.769
 3669.00    0.62057   0.62994   -1.000
 3670.00    0.60605   0.63463   -1.000
 3671.00    0.61764   0.64430   -1.000
 3672.00    0.64346   0.65283   -1.000
 3673.00    0.65063   0.65545   -1.000
 3674.00    0.63309   0.65153   -1.000
 3675.00    0.62299   0.64231   -1.000
 3676.00    0.62827   0.63013   -1.000
 3677.00    0.62465   0.61799   -1.000
 3678.00    0.61402   0.60861   -1.000
 3679.00    0.61859   0.60420   -1.000
 3680.00    0.62206   0.60500   -1.000
 3681.00    0.62160   0.60970   -1.000
 3682.00    0.62505   0.61549   -1.000
 3683.00    0.63413   0.61820   -1.000
 3684.00    0.61770   0.61377  824.769
 3685.00    0.59855   0.60204   -1.000
 3686.00    0.58875   0.59029  824.769
 3687.00    0.58171   0.58782   -1.000
 3688.00    0.58930   0.59844   -1.000
 3689.00    0.61571   0.61731  824.769
 3690.00    0.63377   0.63539  824.769
 3691.00    0.64528   0.64589  824.769
 3692.00    0.65346   0.64914  824.769
 3693.00    0.65060   0.64907  824.769
 3694.00    0.65241   0.64713   -1.000
 3695.00    0.65363   0.64346   -1.000
 3696.00    0.63542   0.64114   -1.000
 3697.00    0.62833   0.64629   -1.000
 3698.00    0.65235   0.66120   -1.000
 3699.00    0.66154   0.67939   -1.000
 3700.00    0.67299   0.68844   -1.000
 3701.00    0.67702   0.67811  824.769
 3702.00    0.65112   0.64771  824.769
 3703.00    0.61265   0.60849  824.769
 3704.00    0.59010   0.57640   -1.000
 3705.00    0.58772   0.56286   -1.000
 3706.00    0.59400   0.56751   -1.000
 3707.00    0.60902   0.58081   -1.000
 3708.00    0.62467   0.59274   -1.000
 3709.00    0.61955   0.59786   -1.000
 3710.00    0.60792   0.59863   -1.000
 3711.00    0.61233   0.60370   -1.000
 3712.00    0.62098   0.62009  824.769
 3713.00    0.64534   0.64652   -1.000
 3714.00    0.66946   0.67480   -1.000
 3715.00    0.68042   0.69507   -1.000
 3716.00    0.69251   0.70042   -1.000
 3717.00    0.68961   0.68725  824.769
 3718.00    0.65323   0.65370  824.769
 3719.00    0.60197   0.60424  824.769
 3720.00    0.55673   0.55598  824.769
 3721.00    0.53065   0.52888  428.290
 3722.00    0.54355   0.53337  192.781
 3723.00    0.58488   0.56614   -1.000
 3724.00    0.63430   0.61163   -1.000
 3725.00    0.66178   0.64985   -1.000
 3726.00    0.67396   0.67158  824.769
 3727.00    0.67242   0.68236   -1.000
 3728.00    0.67940   0.68877   -1.000
 3729.00    0.68219   0.68861   -1.000
 3730.00    0.67741   0.67312   -1.000
 3731.00    0.65274   0.63636   -1.000
 3732.00    0.60447   0.58373   -1.000
 3733.00    0.54398   0.53001   -1.000
 3734.00    0.50283   0.49225  148.386
 3735.00    0.48692   0.48319  163.198
 3736.00    0.51197   0.50552  165.263
 3737.00    0.55092   0.55200  154.794
 3738.00    0.60813   0.60993  187.951
 3739.00    0.66273   0.66381  824.769
 3740.00    0.69790   0.70039  824.769
 3741.00    0.71245   0.71444  824.769
 3742.00    0.69536   0.70824   -1.000
 3743.00    0.68453   0.68812  824.769
 3744.00    0.67061   0.66113   -1.000
 3745.00    0.63564   0.63075   -1.000
 3746.00    0.60028   0.59613   -1.000
 3747.00    0.57921   0.55620   -1.000
 3748.00    0.53533   0.51645   -1.000
 3749.00    0.50023   0.49260  156.133
 3750.00    0.51568   0.49916   -1.000
 3751.00    0.55037   0.53674   -1.000
 3752.00    0.60816   0.59299   -1.000
 3753.00    0.66774   0.65169   -1.000
 3754.00    0.70945   0.69828   -1.000
 3755.00    0.73308   0.72288   -1.000
 3756.00    0.73307   0.72242   -1.000
 3757.00    0.69991   0.70412   -1.000
 3758.00    0.67832   0.68341   -1.000
 3759.00    0.67176   0.67361   -1.000
 3760.00    0.68470   0.67718  824.769
 3761.00    0.70457   0.68759   -1.000
 3762.00    0.71156   0.69758   -1.000
 3763.00    0.70828   0.70218   -1.000
 3764.00    0.70548   0.69815   -1.000
 3765.00    0.69845   0.68406   -1.000
 3766.00    0.68059   0.66127   -1.000
 3767.00    0.66411   0.63237   -1.000
 3768.00    0.64039   0.60049   -1.000
 3769.00    0.61481   0.57163   -1.000
 3770.00    0.58630   0.55610   -1.000
 3771.00    0.59502   0.56391   -1.000
 3772.00    0.62786   0.59439   -1.000
 3773.00    0.67075   0.63425   -1.000
 3774.00    0.70129   0.67064  100.150
 3775.00    0.69976   0.70053   99.900
 3776.00    0.72070   0.72687   99.767
 3777.00    0.73656   0.75279   99.502
 3778.00    0.77028   0.77824   98.931
 3779.00    0.79836   0.80110   97.003
 3780.00    0.80553   0.81916   93.968
 3781.00    0.81272   0.83133   92.202
 3782.00    0.82085   0.83764   91.622
 3783.00    0.82738   0.83702   91.224
 3784.00    0.82467   0.82721   91.817
 3785.00    0.81256   0.80786   94.682
 3786.00    0.79562   0.78370  100.325
 3787.00    0.77269   0.76192  107.312
 3788.00    0.75488   0.74707  111.759
 3789.00    0.75290   0.73867  113.214
 3790.00    0.74655   0.73272  112.586
 3791.00    0.73585   0.72310  110.761
 3792.00    0.72356   0.70443  110.371
 3793.00    0.69659   0.67512  112.754
 3794.00    0.66982   0.63699   -1.000
 3795.00    0.63277   0.59381   -1.000
 3796.00    0.58933   0.55059   -1.000
 3797.00    0.54660   0.51674   -1.000
 3798.00    0.53781   0.50744   -1.000
 3799.00    0.56334   0.53194   -1.000
 3800.00    0.60628   0.58315  127.017
 3801.00    0.66601   0.64412  115.944
 3802.00    0.71686   0.69857  107.770
 3803.00    0.74064   0.73760  103.721
 3804.00    0.76309   0.75990  101.901
 3805.00    0.76725   0.76869  101.897
 3806.00    0.77409   0.77199  104.092
 3807.00    0.77577   0.78012  107.632
 3808.00    0.78810   0.79720  108.411
 3809.00    0.81685   0.81814  105.116
 3810.00    0.83052   0.83255  101.742
 3811.00    0.82228   0.83118  101.448
 3812.00    0.80617   0.81252  104.367
 3813.00    0.78411   0.78440  110.317
 3814.00    0.76218   0.75971  117.150
 3815.00    0.75287   0.74887  123.757
 3816.00    0.76014   0.75159  127.353
 3817.00    0.78036   0.75663  124.299
 3818.00    0.78056   0.75251  121.221
 3819.00    0.76634   0.73805  124.992
 3820.00    0.73487   0.72359  133.406
 3821.00    0.71947   0.71893  137.712
 3822.00    0.74109   0.72009  133.536
 3823.00    0.74589   0.71487   -1.000
 3824.00    0.71865   0.69824  133.112
 3825.00    0.69051   0.67647   46.258
 3826.00    0.67663   0.65833   15.191
 3827.00    0.67253   0.64648   15.398
 3828.00    0.66703   0.63715   15.227
 3829.00    0.66067   0.62441   14.978
 3830.00    0.63669   0.60360   14.839
 3831.00    0.61273   0.57264   15.153
 3832.00    0.58039   0.53337   15.983
 3833.00    0.54028   0.49245   17.087
 3834.00    0.50851   0.46095   17.375
 3835.00    0.49013   0.44805   16.923
 3836.00    0.50906   0.45496   16.310
 3837.00    0.53109   0.47637   16.133
 3838.00    0.54938   0.50641   16.503
 3839.00    0.56848   0.54320   16.729
 3840.00    0.61020   0.58705   16.245
 3841.00    0.66303   0.63533   19.827
 3842.00    0.71030   0.68223   -1.000
 3843.00    0.73017   0.72154  125.170
 3844.00    0.75683   0.75019  118.708
 3845.00    0.77128   0.77058  117.143
 3846.00    0.77935   0.78631  117.162
 3847.00    0.80007   0.79750  117.164
 3848.00    0.81906   0.80224  118.038
 3849.00    0.80860   0.80273  121.409
 3850.00    0.79489   0.80459  125.535
 3851.00    0.79785   0.81099  126.202
 3852.00    0.80964   0.81865  123.061
 3853.00    0.82227   0.82075  120.785
 3854.00    0.81728   0.81451  122.255
 3855.00    0.80323   0.80315  125.568
 3856.00    0.78171   0.79050  128.845
 3857.00    0.77292   0.77809  131.246
 3858.00    0.76624   0.76767   44.572
 3859.00    0.75643   0.76383   14.520
 3860.00    0.75212   0.77115   15.136
 3861.00    0.77808   0.78781   18.879
 3862.00    0.80741   0.80569  129.525
 3863.00    0.83946   0.81665  118.156
 3864.00    0.84099   0.81966  114.424
 3865.00    0.83489   0.81895  115.677
 3866.00    0.82076   0.81839  117.887
 3867.00    0.81762   0.81883  119.779
 3868.00    0.81430   0.81717  122.724
 3869.00    0.81288   0.80864  128.048
 3870.00    0.80265   0.79189  135.172
 3871.00    0.76321   0.77192   45.933
 3872.00    0.74118   0.75892   18.414
 3873.00    0.75711   0.76063  137.057
 3874.00    0.77534   0.77413  124.200
 3875.00    0.78833   0.78512  114.609
 3876.00    0.78548   0.78153  112.276
 3877.00    0.75982   0.76524  117.330
 3878.00    0.73050   0.74794  126.937
 3879.00    0.72513   0.73773  133.618
 3880.00    0.73136   0.73243  134.201
 3881.00    0.72389   0.72522  134.964
 3882.00    0.70658   0.71263  136.751
 3883.00    0.69398   0.69405  130.893
 3884.00    0.68340   0.66700  120.113
 3885.00    0.65753   0.62819   -1.000
 3886.00    0.62061   0.58043   -1.000
 3887.00    0.58388   0.53611   -1.000
 3888.00    0.55230   0.51026   -1.000
 3889.00    0.54457   0.51327   -1.000
 3890.00    0.58823   0.54497   -1.000
 3891.00    0.64679   0.59313   -1.000
 3892.00    0.68268   0.63974   -1.000
 3893.00    0.71146   0.67431   -1.000
 3894.00    0.71966   0.69870   98.131
 3895.00    0.73225   0.71994   99.414
 3896.00    0.75301   0.74095   98.603
 3897.00    0.76350   0.75853   95.809
 3898.00    0.77364   0.77016   94.217
 3899.00    0.78274   0.77866   95.952
 3900.00    0.79073   0.78826   96.662
 3901.00    0.80291   0.79850   95.336
 3902.00    0.81630   0.80465   94.893
 3903.00    0.81911   0.80346   96.585
 3904.00    0.80674   0.79804  100.409
 3905.00    0.79934   0.79610  102.944
 3906.00    0.80127   0.80431  105.143
 3907.00    0.82817   0.82406  102.867
 3908.00    0.86235   0.84939   96.490
 3909.00    0.87315   0.87100   90.968
 3910.00    0.89012   0.88421   89.203
 3911.00    0.89232   0.88932   88.414
 3912.00    0.87829   0.88785   87.644
 3913.00    0.87514   0.88200   87.496
 3914.00    0.86134   0.87491   88.751
 3915.00    0.84479   0.86883   -1.000
 3916.00    0.85346   0.86372   92.591
 3917.00    0.85198   0.85743   93.757
 3918.00    0.83261   0.84810   95.359
 3919.00    0.81975   0.83670   98.519
 3920.00    0.80366   0.82694   -1.000
 3921.00    0.80421   0.82267   -1.000
 3922.00    0.81301   0.82396  108.709
 3923.00    0.82579   0.82612  107.413
 3924.00    0.83270   0.82246  106.059
 3925.00    0.80987   0.80825  107.970
 3926.00    0.77517   0.78239  114.596
 3927.00    0.73999   0.74663  126.436
 3928.00    0.69100   0.70429   50.640
 3929.00    0.63600   0.65727   16.551
 3930.00    0.57310   0.60535   19.400
 3931.00    0.51241   0.55035   22.747
 3932.00    0.44440   0.50022   26.864
 3933.00    0.40737   0.47020   30.974
 3934.00    0.39404   0.47343   32.823
 3935.00    0.43629   0.50944   30.647
 3936.00    0.51215   0.56547   26.235
 3937.00    0.58973   0.62678   21.642
 3938.00    0.65253   0.68260   17.878
 3939.00    0.70492   0.72815   19.559
 3940.00    0.73148   0.76127   -1.000
 3941.00    0.75089   0.78088   -1.000
 3942.00    0.77161   0.78928   -1.000
 3943.00    0.78273   0.79219  122.699
 3944.00    0.80042   0.79668  121.201
 3945.00    0.81515   0.80614  113.756
 3946.00    0.83292   0.81755  104.154
 3947.00    0.83208   0.82643   99.300
 3948.00    0.83067   0.83237   98.383
 3949.00    0.84198   0.83700   96.993
 3950.00    0.84680   0.83990   93.459
 3951.00    0.85925   0.84059   91.196
 3952.00    0.85537   0.84119   91.889
 3953.00    0.85612   0.84307   92.581
 3954.00    0.86189   0.84310   90.726
 3955.00    0.85027   0.83733   89.168
 3956.00    0.82538   0.82754   90.715
 3957.00    0.82179   0.81874   93.690
 3958.00    0.83569   0.81011   94.447
 3959.00    0.82224   0.79400   93.569
 3960.00    0.79011   0.76493   97.470
 3961.00    0.74138   0.72632  108.564
 3962.00    0.69669   0.68641  122.225
 3963.00    0.66317   0.64744  133.685
 3964.00    0.61467   0.60325   49.519
 3965.00    0.55719   0.54637   15.559
 3966.00    0.47455   0.47719   18.450
 3967.00    0.38364   0.40923   22.750
 3968.00    0.32128   0.36122   27.274
 3969.00    0.30480   0.34662   28.962
 3970.00    0.34180   0.36843   26.064
 3971.00    0.41774   0.41902   21.440
 3972.00    0.50708   0.48489   17.694
 3973.00    0.58000   0.55419   19.115
 3974.00    0.64785   0.61921   -1.000
 3975.00    0.70549   0.67634   -1.000
 3976.00    0.74998   0.72514  104.118
 3977.00    0.78490   0.76686   96.453
 3978.00    0.81433   0.80263   90.946
 3979.00    0.84256   0.83050   86.156
 3980.00    0.85465   0.84757   82.313
 3981.00    0.86883   0.85491   81.741
 3982.00    0.86805   0.85863   82.569
 3983.00    0.87485   0.86506   83.709
 3984.00    0.88732   0.87542   82.800
 3985.00    0.90361   0.88699   81.066
 3986.00    0.91568   0.89799   79.534
 3987.00    0.92119   0.90869   78.200
 3988.00    0.94293   0.91917   76.857
 3989.00    0.95152   0.92861   76.360
 3990.00    0.93809   0.93718   76.497
 3991.00    0.95341   0.94572   75.703
 3992.00    0.96260   0.95295   73.893
 3993.00    0.97197   0.95533   72.678
 3994.00    0.96387   0.95062   73.811
 3995.00    0.94962   0.94064   75.605
 3996.00    0.93949   0.93081   77.282
 3997.00    0.93450   0.92714   78.577
 3998.00    0.93909   0.93215   78.675
 3999.00    0.94670   0.94362   76.422
 4000.00    0.96628   0.95672   73.061
 4001.00    0.98319   0.96560   70.896
 4002.00    0.99373   0.96540   69.819
 4003.00    0.98627   0.95448   69.334
 4004.00    0.95962   0.93672   71.466
 4005.00    0.93956   0.92228   76.209
 4006.00    0.93838   0.92185   79.132
 4007.00    0.95453   0.93618   77.503
 4008.00    0.97369   0.95619   73.229
 4009.00    0.98791   0.97236   70.787
 4010.00    0.99154   0.98117   69.936
 4011.00    0.97514   0.98445   69.296
 4012.00    1.00612   0.98568   69.236
 4013.00    1.02635   0.98725   69.728
 4014.00    1.00503   0.98944   69.908
 4015.00    1.01381   0.99142   69.258
 4016.00    1.00515   0.99317   68.597
 4017.00    0.99736   0.99590   69.288
 4018.00    0.99657   1.00035   69.899
 4019.00    1.00392   1.00516   69.368
 4020.00    1.01410   1.00764   68.535
 4021.00    1.01388   1.00598   68.912
 4022.00    1.00810   1.00031   69.821
 4023.00    0.99432   0.99259   70.225
 4024.00    0.97732   0.98690   70.706
 4025.00    0.97972   0.98786   70.759
 4026.00    1.00096   0.99568   68.772
 4027.00    1.01551   1.00335   66.521
 4028.00    1.01942   1.00163   65.613
 4029.00    1.00515   0.98797   66.697
 4030.00    0.96920   0.96830   69.896
 4031.00    0.94955   0.95164   74.385
 4032.00    0.95132   0.94439   77.000
 4033.00    0.95802   0.94821   77.460
 4034.00    0.96314   0.96167   76.090
 4035.00    0.98415   0.98234   73.274
 4036.00    1.01053   1.00662   69.613
 4037.00    1.02685   1.02775   66.389
 4038.00    1.02968   1.03828   64.517
 4039.00    1.01818   1.03693   64.661
 4040.00    1.01082   1.02943   66.122
 4041.00    1.00730   1.02004   67.531
 4042.00    1.00431   1.00594   68.158
 4043.00    0.99400   0.98194   69.079
 4044.00    0.95929   0.95202   73.190
 4045.00    0.91597   0.93178   80.204
 4046.00    0.90946   0.93401   -1.000
 4047.00    0.95759   0.95693   79.554
 4048.00    0.99332   0.98727   72.330
 4049.00    1.00719   1.01129   68.495
 4050.00    1.01666   1.02256   66.834
 4051.00    1.01746   1.02173   66.345
 4052.00    1.01063   1.01279   67.117
 4053.00    1.00000   1.00134   68.988
 4054.00    0.98998   0.99246   70.628
 4055.00    0.98637   0.98725   71.596
 4056.00    0.98426   0.98439   72.134
 4057.00    0.98295   0.98456   72.676
 4058.00    0.98679   0.98954   73.109
 4059.00    0.99689   0.99690   71.818
 4060.00    1.00359   0.99825   69.404
 4061.00    1.00501   0.98658   68.582
 4062.00    0.97638   0.96433   70.592
 4063.00    0.94092   0.94181   75.861
 4064.00    0.93527   0.92904   79.784
 4065.00    0.94892   0.92904   77.794
 4066.00    0.96065   0.93845   74.282
 4067.00    0.97114   0.95176   72.479
 4068.00    0.98576   0.96276   70.429
 4069.00    0.99974   0.96485   68.424
 4070.00    0.99321   0.95623   68.300
 4071.00    0.97203   0.94413   71.200
 4072.00    0.96900   0.93844   73.714
 4073.00    0.97718   0.94006   72.622
 4074.00    0.97727   0.93951   70.346
 4075.00    0.96795   0.92877   70.775
 4076.00    0.92795   0.91132   74.840
 4077.00    0.90956   0.89923   80.531
 4078.00    0.91729   0.90262   81.790
 4079.00    0.93613   0.92156   78.325
 4080.00    0.96923   0.94558   72.854
 4081.00    0.98414   0.96117   68.408
 4082.00    0.98666   0.96215   67.045
 4083.00    0.97233   0.95321   68.501
 4084.00    0.95934   0.94496   70.638
 4085.00    0.95636   0.94558   71.247
 4086.00    0.97039   0.95570   69.847
 4087.00    0.98679   0.96910   67.373
 4088.00    0.98936   0.97749   64.857
 4089.00    0.99341   0.97629   63.255
 4090.00    0.98434   0.96706   63.811
 4091.00    0.95784   0.95464   65.143
 4092.00    0.94670   0.94156   66.263
 4093.00    0.94497   0.92609   66.859
 4094.00    0.92577   0.90508   67.131
 4095.00    0.90455   0.87774   68.766
 4096.00    0.87944   0.84585   71.835
 4097.00    0.85310   0.80978   73.842
 4098.00    0.82563   0.76663   -1.000
 4099.00    0.78854   0.71469   -1.000
 4100.00    0.71675   0.66161   -1.000
 4101.00    0.64838   0.62577   88.424
 4102.00    0.64266   0.62439   92.922
 4103.00    0.69520   0.65987   89.524
 4104.00    0.76123   0.71711   -1.000
 4105.00    0.80890   0.77466   75.961
 4106.00    0.84926   0.81923   72.278
 4107.00    0.87778   0.84909   70.480
 4108.00    0.88993   0.86811   70.383
 4109.00    0.89832   0.88159   71.226
 4110.00    0.90938   0.89420   72.581
 4111.00    0.92498   0.90833   73.253
 4112.00    0.93696   0.92408   72.132
 4113.00    0.94545   0.94078   70.553
 4114.00    0.96293   0.95679   69.377
 4115.00    0.97543   0.96864   68.391
 4116.00    0.98282   0.97302   67.930
 4117.00    0.97879   0.97000   68.513
 4118.00    0.96204   0.96352   70.179
 4119.00    0.95610   0.95875   72.292
 4120.00    0.96775   0.95839   72.746
 4121.00    0.96865   0.96163   71.813
 4122.00    0.96636   0.96670   71.233
 4123.00    0.98098   0.97304   71.166
 4124.00    0.99096   0.97960   70.276
 4125.00    1.00116   0.98301   69.206
 4126.00    0.99631   0.98049   69.227
 4127.00    0.97891   0.97365   70.308
 4128.00    0.98079   0.96692   71.671
 4129.00    0.96822   0.96180   72.190
 4130.00    0.96987   0.95555   72.652
 4131.00    0.96551   0.94677   73.850
 4132.00    0.95575   0.93983   76.237
 4133.00    0.93742   0.94172   78.226
 4134.00    0.94315   0.95514   77.817
 4135.00    0.96692   0.97645   74.893
 4136.00    0.99342   0.99897   71.322
 4137.00    1.01235   1.01753   69.264
 4138.00    1.01983   1.02950   68.186
 4139.00    1.02638   1.03221   67.273
 4140.00    1.02464   1.02252   67.341
 4141.00    0.99595   1.00108   69.180
 4142.00    0.96031   0.97533   73.316
 4143.00    0.93965   0.95726   79.200
 4144.00    0.94505   0.95604   81.927
 4145.00    0.96540   0.96991   78.332
 4146.00    0.98970   0.98748   73.899
 4147.00    1.00403   0.99836   71.571
 4148.00    0.99235   1.00106   71.278
 4149.00    0.97983   1.00069   72.826
 4150.00    0.98571   1.00109   74.685
 4151.00    0.99842   1.00096   75.298
 4152.00    0.98472   0.99716   74.725
 4153.00    0.98061   0.98984   74.511
 4154.00    0.97142   0.98331   75.346
 4155.00    0.99457   0.98223   76.008
 4156.00    1.20501   0.98786   -1.000
 4157.00    1.25755   0.99814   -1.000
 4158.00    0.76898   1.00972   -1.000
 4159.00    0.76591   1.01955   -1.000
 4160.00    1.05229   1.02633   72.118
 4161.00    1.04351   1.03113   71.293
 4162.00    1.00446   1.03553   -1.000
 4163.00    1.00932   1.03930   -1.000
 4164.00    1.01435   1.04019   69.387
 4165.00    1.01336   1.03621   70.542
 4166.00    1.01183   1.02821   71.690
 4167.00    0.99886   1.01983   73.237
 4168.00    0.99512   1.01318   74.029
 4169.00    0.99790   1.00493   73.275
 4170.00    0.99420   0.98971   72.347
 4171.00    0.98193   0.96798   73.808
 4172.00    0.95812   0.94855   78.382
 4173.00    0.94530   0.94177   82.337
 4174.00    0.94243   0.94945   81.818
 4175.00    0.95545   0.96324   78.764
 4176.00    0.96805   0.97389   76.425
 4177.00    0.96683   0.97988   76.543
 4178.00    0.97353   0.98539   76.870
 4179.00    0.97708   0.99205   76.347
 4180.00    0.98139   0.99684   75.201
 4181.00    0.98490   0.99761   74.636
 4182.00    0.98204   0.99706   74.563
 4183.00    0.97328   0.99880   73.600
 4184.00    0.97261   1.00161   -1.000
 4185.00    0.98452   1.00077   71.107
 4186.00    0.97287   0.99485   71.671
 4187.00    0.95570   0.98803   -1.000
 4188.00    0.96015   0.98561   75.729
 4189.00    0.97474   0.98890   74.768
 4190.00    0.98513   0.99581   73.257
 4191.00    0.99189   1.00422   72.758
 4192.00    0.99326   1.01194   71.654
 4193.00    0.99770   1.01499   70.184
 4194.00    0.99714   1.00950   69.803
 4195.00    0.98663   0.99519   72.248
 4196.00    0.96854   0.97614   75.890
 4197.00    0.94564   0.95804   78.136
 4198.00    0.94062   0.94501   79.254
 4199.00    0.94491   0.93866   79.193
 4200.00    0.95232   0.93853   78.211
 4201.00    0.95248   0.94287   77.125
 4202.00    0.96076   0.95047   76.904
 4203.00    0.96281   0.96134   76.264
 4204.00    0.96632   0.97530   75.150
 4205.00    0.97207   0.99086   74.468
 4206.00    0.97655   1.00552   -1.000
 4207.00    0.99011   1.01628   71.134
 4208.00    0.99526   1.02141   69.950
 4209.00    0.99314   1.02242   -1.000
 4210.00    0.98706   1.02308   -1.000
 4211.00    0.98876   1.02511   -1.000
 4212.00    0.99286   1.02513   -1.000
 4213.00    0.98951   1.01797   70.184
 4214.00    0.97426   1.00360   -1.000
 4215.00    0.95350   0.98929   -1.000
 4216.00    0.94513   0.98423   -1.000
 4217.00    0.96713   0.99213   73.866
 4218.00    0.99034   1.00824   69.327
 4219.00    1.00285   1.02318   66.513
 4220.00    1.00816   1.02949   64.902
 4221.00    1.01156   1.02331   64.469
 4222.00    1.00324   1.00279   65.458
 4223.00    0.97656   0.96886   68.573
 4224.00    0.93200   0.92759   73.811
 4225.00    0.89523   0.89080   81.658
 4226.00    0.85184   0.87313   92.101
 4227.00    0.84480   0.88410   -1.000
 4228.00    0.90206   0.91877   89.063
 4229.00    0.96016   0.95870   77.373
 4230.00    0.98794   0.98581   70.247
 4231.00    0.99951   0.99369   67.252
 4232.00    0.99516   0.98751   67.188
 4233.00    0.97537   0.97677   68.834
 4234.00    0.96135   0.96821   70.464
 4235.00    0.95249   0.96373   71.277
 4236.00    0.94686   0.96314   72.938
 4237.00    0.94125   0.96680   73.919
 4238.00    0.95172   0.97485   73.082
 4239.00    0.97422   0.98545   71.437
 4240.00    0.98020   0.99567   70.389
 4241.00    0.98248   1.00381   69.083
 4242.00    0.97982   1.01027   68.280
 4243.00    0.97830   1.01545   -1.000
 4244.00    0.99445   1.01717   66.599
 4245.00    0.99769   1.01167   65.539
 4246.00    0.97514   0.99835   66.709
 4247.00    0.95521   0.98217   69.825
 4248.00    0.93623   0.97027   -1.000
 4249.00    0.93235   0.96666   -1.000
 4250.00    0.93662   0.97061   -1.000
 4251.00    0.94710   0.97777   -1.000
 4252.00    0.96979   0.98245   71.718
 4253.00    0.97086   0.98154   70.109
 4254.00    0.95720   0.97838   70.869
 4255.00    0.95771   0.97905   72.394
 4256.00    0.98023   0.98335   70.995
 4257.00    0.99231   0.98386   68.503
 4258.00    0.97660   0.97522   68.564
 4259.00    0.95236   0.96204   71.547
 4260.00    0.93560   0.95591   75.236
 4261.00    0.94538   0.96478   76.280
 4262.00    0.97154   0.98606   72.880
 4263.00    0.98445   1.00953   68.434
 4264.00    0.99585   1.02592   65.517
 4265.00    1.00851   1.03161   64.282
 4266.00    1.00346   1.02753   64.383
 4267.00    0.98600   1.01560   65.673
 4268.00    0.97421   0.99664   67.885
 4269.00    0.96250   0.97185   70.028
 4270.00    0.93294   0.94502   73.068
 4271.00    0.90198   0.92259   77.961
 4272.00    0.90082   0.91085   82.106
 4273.00    0.90196   0.91222   82.331
 4274.00    0.90652   0.92495   80.329
 4275.00    0.92846   0.94608   78.027
 4276.00    0.96097   0.97113   74.180
 4277.00    0.98038   0.99214   69.521
 4278.00    0.98271   1.00159   66.871
 4279.00    0.96389   0.99895   -1.000
 4280.00    0.94223   0.99096   -1.000
 4281.00    0.93893   0.98487   -1.000
 4282.00    0.95532   0.98237   72.453
 4283.00    0.95880   0.98011   71.433
 4284.00    0.95251   0.97480   71.058
 4285.00    0.94162   0.96578   72.242
 4286.00    0.92513   0.95325   74.391
 4287.00    0.91934   0.93711   76.117
 4288.00    0.90685   0.91856   77.455
 4289.00    0.87515   0.90302   80.683
 4290.00    0.87187   0.89847   -1.000
 4291.00    0.89636   0.90736   83.393
 4292.00    0.91067   0.92245   78.813
 4293.00    0.92433   0.93300   74.314
 4294.00    0.92228   0.93331   73.391
 4295.00    0.92402   0.92411   74.250
 4296.00    0.91529   0.90767   75.579
 4297.00    0.88792   0.88478   77.661
 4298.00    0.85548   0.85752   82.141
 4299.00    0.82094   0.83197   89.305
 4300.00    0.80133   0.81517   95.033
 4301.00    0.80854   0.81014   95.302
 4302.00    0.81390   0.81507   92.513
 4303.00    0.81418   0.82553   91.174
 4304.00    0.82457   0.83545   89.832
 4305.00    0.83021   0.83826   88.993
 4306.00    0.82695   0.83111   89.868
 4307.00    0.81177   0.81869   93.405
 4308.00    0.78762   0.81075   98.135
 4309.00    0.77627   0.81470   -1.000
 4310.00    0.79900   0.82990   -1.000
 4311.00    0.82282   0.85027   -1.000
 4312.00    0.84513   0.87230   85.599
 4313.00    0.90114   0.89831   81.477
 4314.00    0.98705   0.93195   -1.000
 4315.00    0.92949   0.97191   -1.000
 4316.00    0.97463   1.00997   -1.000
 4317.00    1.01907   1.03628   62.133
 4318.00    1.02524   1.04605   60.403
 4319.00    1.00814   1.04101   60.646
 4320.00    1.00003   1.02521   61.711
 4321.00    0.98613   1.00063   63.242
 4322.00    0.96127   0.96811   65.579
 4323.00    0.92859   0.93186   69.114
 4324.00    0.88304   0.90169   74.498
 4325.00    0.86304   0.88943   80.735
 4326.00    0.87227   0.90084   82.397
 4327.00    0.92079   0.92911   76.118
 4328.00    0.95295   0.95835   68.318
 4329.00    0.96825   0.97613   64.093
 4330.00    0.97120   0.98127   63.261
 4331.00    0.96590   0.97973   63.508
 4332.00    0.95994   0.97574   62.998
 4333.00    0.94784   0.96757   61.923
 4334.00    0.94408   0.94942   61.394
 4335.00    0.92528   0.91525   61.469
 4336.00    0.88812   0.86234   63.021
 4337.00    0.82441   0.79566   67.566
 4338.00    0.76453   0.72909   74.244
 4339.00    0.70090   0.68078   81.019
 4340.00    0.65273   0.66564   86.969
 4341.00    0.66935   0.68796   87.427
 4342.00    0.74533   0.73740   80.208
 4343.00    0.80924   0.79532   72.667
 4344.00    0.85388   0.84757   68.677
 4345.00    0.89274   0.89011   66.658
 4346.00    0.90909   0.92434   64.962
 4347.00    0.92933   0.95076   63.961
 4348.00    0.94331   0.96627   63.250
 4349.00    0.95238   0.96695   62.370
 4350.00    0.93975   0.95438   63.095
 4351.00    0.91011   0.93901   66.986
 4352.00    0.89112   0.93417   -1.000
 4353.00    0.91722   0.94563   71.642
 4354.00    0.94585   0.96784   68.458
 4355.00    0.96579   0.99029   65.492
 4356.00    0.98018   1.00591   63.629
 4357.00    0.98885   1.01391   62.541
 4358.00    0.98207   1.01750   62.842
 4359.00    0.97788   1.02138   -1.000
 4360.00    0.98311   1.02890   -1.000
 4361.00    1.00253   1.03975   63.176
 4362.00    1.01248   1.05091   61.390
 4363.00    1.01885   1.05973   -1.000
 4364.00    1.02442   1.06419   -1.000
 4365.00    1.02366   1.06170   59.937
 4366.00    1.01164   1.05151   -1.000
 4367.00    0.99743   1.03723   -1.000
 4368.00    0.98795   1.02416   -1.000
 4369.00    0.98652   1.01492   64.722
 4370.00    0.98842   1.00831   64.045
 4371.00    0.99082   1.00092   63.717
 4372.00    0.99249   0.98977   63.782
 4373.00    0.97662   0.97568   64.746
 4374.00    0.95968   0.96471   67.519
 4375.00    0.95616   0.96451   69.810
 4376.00    0.96327   0.97710   69.250
 4377.00    0.98723   0.99597   66.133
 4378.00    1.01345   1.01082   63.096
 4379.00    1.01969   1.01345   62.317
 4380.00    1.00678   0.99929   62.879
 4381.00    0.99323   0.96819   64.310
 4382.00    0.96333   0.92731   68.028
 4383.00    0.91303   0.89237   75.912
 4384.00    0.88673   0.87990   83.413
 4385.00    0.91264   0.89396   82.454
 4386.00    0.95952   0.92216   74.398
 4387.00    0.98074   0.94781   68.052
 4388.00    0.98657   0.96305   66.401
 4389.00    0.98834   0.97025   66.660
 4390.00    0.98701   0.97532   67.353
 4391.00    0.99520   0.98140   67.310
 4392.00    1.00244   0.98690   65.884
 4393.00    0.99568   0.98891   64.664
 4394.00    0.98518   0.98905   65.363
 4395.00    0.98001   0.99290   66.637
 4396.00    0.99207   1.00194   65.862
 4397.00    1.01833   1.00999   62.841
 4398.00    1.02218   1.01020   61.466
 4399.00    1.00255   1.00329   62.690
 4400.00    0.98455   0.99588   65.045
 4401.00    0.99166   0.99180   66.556
 4402.00    1.00576   0.98793   65.551
 4403.00    1.00188   0.97973   64.826
 4404.00    0.97899   0.96898   67.546
 4405.00    0.96369   0.96265   71.138
 4406.00    0.98306   0.96479   71.063
 4407.00    0.99472   0.97391   68.697
 4408.00    0.99436   0.98769   67.841
 4409.00    0.99693   1.00589   66.963
 4410.00    1.02182   1.02630   64.229
 4411.00    1.04172   1.04166   61.543
 4412.00    1.06268   1.04407   59.681
 4413.00    1.05000   1.03130   59.375
 4414.00    1.01178   1.00913   61.378
 4415.00    0.99472   0.98957   64.878
 4416.00    0.99078   0.98431   66.745
 4417.00    0.99796   0.99681   65.919
 4418.00    1.01560   1.02034   63.435
 4419.00    1.04061   1.04305   60.894
 4420.00    1.05400   1.05510   59.513
 4421.00    1.03533   1.05470   60.154
 4422.00    1.02282   1.04803   61.761
 4423.00    1.02982   1.04204   62.637
 4424.00    1.02805   1.03884   62.201
 4425.00    1.01396   1.03690   61.976
 4426.00    1.00661   1.03548   62.253
 4427.00    1.00469   1.03585   62.447
 4428.00    1.01470   1.03847   61.994
 4429.00    1.01725   1.04191   61.874
 4430.00    1.01328   1.04421   62.501
 4431.00    1.02447   1.04345   62.550
 4432.00    1.02046   1.03774   61.787
 4433.00    1.01807   1.02691   61.657
 4434.00    0.99582   1.01550   64.009
 4435.00    0.98093   1.01225   66.893
 4436.00    0.99004   1.02296   66.997
 4437.00    1.02749   1.04381   63.913
 4438.00    1.05711   1.06334   60.063
 4439.00    1.06009   1.07067   57.929
 4440.00    1.04952   1.06206   58.168
 4441.00    1.02829   1.04302   60.272
 4442.00    1.00887   1.02559   63.197
 4443.00    0.99716   1.02097   65.516
 4444.00    0.99898   1.03195   65.213
 4445.00    1.01972   1.05147   62.565
 4446.00    1.03492   1.06889   60.082
 4447.00    1.04157   1.07816   59.183
 4448.00    1.04204   1.07996   59.289
 4449.00    1.04400   1.07778   59.476
 4450.00    1.03107   1.07379   -1.000
 4451.00    1.02467   1.06736   -1.000
 4452.00    1.03579   1.05582   60.201
 4453.00    1.03281   1.03785   60.903
 4454.00    1.00861   1.01768   63.354
 4455.00    0.99334   1.00334   66.116
 4456.00    0.99748   0.99963   67.045
 4457.00    1.01242   1.00433   65.753
 4458.00    1.02040   1.01153   64.742
 4459.00    1.01343   1.01731   64.897
 4460.00    1.01395   1.02151   65.294
 4461.00    1.00468   1.02598   65.990
 4462.00    1.01645   1.03255   66.321
 4463.00    1.03466   1.04140   64.715
 4464.00    1.04265   1.04991   62.220
 4465.00    1.04283   1.05418   60.998
 4466.00    1.03437   1.05205   61.007
 4467.00    1.03612   1.04501   61.137
 4468.00    1.02813   1.03786   61.941
 4469.00    1.01630   1.03629   63.068
 4470.00    1.02207   1.04353   63.230
 4471.00    1.03791   1.05850   62.123
 4472.00    1.05723   1.07694   60.074
 4473.00    1.07911   1.09372   58.044
 4474.00    1.08131   1.10515   56.633
 4475.00    1.07669   1.11057   56.291
 4476.00    1.07637   1.11136   56.354
 4477.00    1.08526   1.10776   55.841
 4478.00    1.08112   1.09751   55.631
 4479.00    1.06222   1.07936   56.379
 4480.00    1.04658   1.05787   58.637
 4481.00    1.02355   1.04319   61.215
 4482.00    1.02408   1.04371   62.571
 4483.00    1.04235   1.05926   61.470
 4484.00    1.06777   1.08185   58.791
 4485.00    1.08696   1.10085   56.713
 4486.00    1.08466   1.10839   55.717
 4487.00    1.08541   1.10324   56.023
 4488.00    1.06631   1.09091   57.486
 4489.00    1.04892   1.07978   59.653
 4490.00    1.04818   1.07606   60.714
 4491.00    1.05636   1.08007   59.809
 4492.00    1.07500   1.08661   58.228
 4493.00    1.07218   1.08979   57.563
 4494.00    1.05713   1.08826   58.649
 4495.00    1.04858   1.08620   60.448
 4496.00    1.05025   1.08776   61.471
 4497.00    1.06913   1.09275   60.499
 4498.00    1.08231   1.09790   58.371
 4499.00    1.08580   1.10043   56.881
 4500.00    1.07749   1.10099   56.519
 4501.00    1.06376   1.10375   57.222
 4502.00    1.07621   1.11254   57.284
 4503.00    1.08573   1.12623   55.632
 4504.00    1.09760   1.13947   53.801
 4505.00    1.10528   1.14682   53.066
 4506.00    1.10740   1.14670   53.592
 4507.00    1.10248   1.14196   54.672
 4508.00    1.08714   1.13742   -1.000
 4509.00    1.09439   1.13593   55.069
 4510.00    1.10048   1.13614   54.622
 4511.00    1.09783   1.13458   54.345
 4512.00    1.09104   1.12924   54.933
 4513.00    1.08123   1.12110   56.051
 4514.00    1.08502   1.11278   56.968
 4515.00    1.08756   1.10658   57.205
 4516.00    1.07593   1.10322   56.913
 4517.00    1.07020   1.10139   56.974
 4518.00    1.07553   1.09980   57.676
 4519.00    1.07954   1.09894   57.831
 4520.00    1.07782   1.09912   56.750
 4521.00    1.08228   1.09872   55.771
 4522.00    1.07307   1.09562   56.153
 4523.00    1.05964   1.08933   57.538
 4524.00    1.05843   1.08080   58.613
 4525.00    1.06528   1.07021   59.128
 4526.00    1.05294   1.05691   60.248
 4527.00    1.03326   1.04206   62.136
 4528.00    1.02814   1.02968   63.766
 4529.00    1.01933   1.02416   64.325
 4530.00    1.02332   1.02573   63.707
 4531.00    1.03694   1.02960   62.543
 4532.00    1.04626   1.02980   61.495
 4533.00    1.02745   1.02520   61.470
 4534.00    1.01626   1.02171   63.366
 4535.00    1.01403   1.02745   65.200
 4536.00    1.03051   1.04562   63.825
 4537.00    1.06222   1.07110   60.013
 4538.00    1.09044   1.09384   56.689
 4539.00    1.08980   1.10598   55.501
 4540.00    1.08253   1.10724   56.247
 4541.00    1.07751   1.10349   57.497
 4542.00    1.08190   1.10028   57.309
 4543.00    1.08104   1.09844   56.895
 4544.00    1.04522   1.09560   -1.000
 4545.00    0.36795   1.09033   -1.000
 4546.00   -0.00499   1.08291    0.000
 4547.00    0.06742   1.07336   -1.000
 4548.00    0.70643   1.06228   -1.000
 4549.00    0.48722   1.05330   -1.000
 4550.00    0.59293   1.05122   -1.000
 4551.00    1.10387   1.05609   65.543
 4552.00    1.05584   1.06182   59.163
 4553.00    1.04995   1.06282   59.598
 4554.00    1.04030   1.06042   60.522
 4555.00    1.04001   1.06096   60.895
 4556.00    1.04996   1.06954   59.748
 4557.00    1.06970   1.08545   57.466
 4558.00    1.08504   1.10318   55.283
 4559.00    1.09210   1.11755   54.521
 4560.00    1.09366   1.12600   54.858
 4561.00    1.10157   1.12748   54.808
 4562.00    1.09650   1.12191   54.967
 4563.00    1.07346   1.11147   56.334
 4564.00    1.06469   1.10137   57.699
 4565.00    1.06902   1.09738   58.484
 4566.00    1.08023   1.10172   57.658
 4567.00    1.08771   1.11126   56.141
 4568.00    1.09574   1.11917   54.751
 4569.00    1.09830   1.11986   54.374
 4570.00    1.08088   1.11271   55.120
 4571.00    1.06296   1.10276   56.573
 4572.00    1.05930   1.09749   57.864
 4573.00    1.07691   1.10085   57.192
 4574.00    1.08833   1.10981   55.488
 4575.00    1.09567   1.11777   54.834
 4576.00    1.09990   1.12060   54.933
 4577.00    1.09189   1.11747   55.204
 4578.00    1.08621   1.10877   55.593
 4579.00    1.07188   1.09561   56.656
 4580.00    1.05986   1.08097   58.348
 4581.00    1.04969   1.06877   59.379
 4582.00    1.04755   1.06184   59.069
 4583.00    1.05467   1.06054   58.240
 4584.00    1.05312   1.06360   57.895
 4585.00    1.06822   1.06941   58.120
 4586.00    1.07117   1.07713   58.375
 4587.00    1.07724   1.08611   57.426
 4588.00    1.08724   1.09476   55.909
 4589.00    1.08286   1.10049   54.850
 4590.00    1.08786   1.10126   54.916
 4591.00    1.08042   1.09758   55.792
 4592.00    1.07512   1.09273   56.841
 4593.00    1.07045   1.09050   57.740
 4594.00    1.08176   1.09246   57.687
 4595.00    1.08706   1.09724   57.170
 4596.00    1.08371   1.10246   56.753
 4597.00    1.09191   1.10622   56.622
 4598.00    1.09753   1.10718   56.503
 4599.00    1.09476   1.10487   56.437
 4600.00    1.08354   1.10040   56.971
 4601.00    1.07359   1.09596   57.449
 4602.00    1.07031   1.09367   57.513
 4603.00    1.07589   1.09433   56.857
 4604.00    1.09066   1.09739   56.289
 4605.00    1.09520   1.10213   56.405
 4606.00    1.09345   1.10832   56.247
 4607.00    1.09903   1.11594   55.556
 4608.00    1.09985   1.12411   54.420
 4609.00    1.10620   1.13075   53.301
 4610.00    1.11108   1.13343   52.785
 4611.00    1.09984   1.13140   53.116
 4612.00    1.09438   1.12706   53.863
 4613.00    1.09919   1.12327   54.428
 4614.00    1.09984   1.12110   54.707
 4615.00    1.09658   1.11955   54.381
 4616.00    1.09159   1.11709   53.910
 4617.00    1.09848   1.11352   53.765
 4618.00    1.10107   1.11040   54.162
 4619.00    1.09680   1.11016   54.522
 4620.00    1.09639   1.11426   54.400
 4621.00    1.10317   1.12170   53.820
 4622.00    1.11314   1.12912   53.024
 4623.00    1.12203   1.13326   53.069
 4624.00    1.11312   1.13349   53.208
 4625.00    1.09656   1.13125   53.346
 4626.00    1.09853   1.12788   53.827
 4627.00    1.10410   1.12445   53.922
 4628.00    1.10551   1.12171   53.921
 4629.00    1.09967   1.12053   54.271
 4630.00    1.10035   1.12162   54.336
 4631.00    1.10507   1.12436   54.008
 4632.00    1.10765   1.12614   53.443
 4633.00    1.09825   1.12440   53.783
 4634.00    1.09979   1.11977   54.584
 4635.00    1.10708   1.11494   55.114
 4636.00    1.10207   1.11165   55.073
 4637.00    1.10210   1.10997   55.577
 4638.00    1.09878   1.11020   56.285
 4639.00    1.10427   1.11311   56.457
 4640.00    1.10439   1.11903   56.279
 4641.00    1.11440   1.12649   55.234
 4642.00    1.11681   1.13228   53.910
 4643.00    1.11596   1.13272   53.292
 4644.00    1.10833   1.12623   53.632
 4645.00    1.09547   1.11443   54.724
 4646.00    1.08827   1.10117   56.299
 4647.00    1.08114   1.09161   57.738
 4648.00    1.08639   1.09010   57.792
 4649.00    1.09906   1.09656   56.668
 4650.00    1.09986   1.10643   55.374
 4651.00    1.09442   1.11413   54.705
 4652.00    1.09619   1.11664   54.644
 4653.00    1.08937   1.11433   54.596
 4654.00    1.08376   1.10936   55.346
 4655.00    1.08091   1.10531   56.615
 4656.00    1.08486   1.10633   57.125
 4657.00    1.08598   1.11502   56.450
 4658.00    1.10373   1.12981   54.545
 4659.00    1.12968   1.14507   52.509
 4660.00    1.13772   1.15409   51.477
 4661.00    1.13384   1.15395   51.546
 4662.00    1.13149   1.14617   52.282
 4663.00    1.11736   1.13402   53.585
 4664.00    1.11574   1.11949   54.545
 4665.00    1.10943   1.10292   54.683
 4666.00    1.09629   1.08495   55.753
 4667.00    1.07355   1.06944   58.244
 4668.00    1.05281   1.06223   60.461
 4669.00    1.06515   1.06659   60.214
 4670.00    1.09185   1.08006   58.201
 4671.00    1.10165   1.09654   55.799
 4672.00    1.11193   1.11036   54.439
 4673.00    1.10873   1.11964   54.212
 4674.00    1.10361   1.12565   54.265
 4675.00    1.11194   1.12984   54.146
 4676.00    1.12070   1.13123   53.393
 4677.00    1.11750   1.12729   52.671
 4678.00    1.10800   1.11791   53.073
 4679.00    1.09697   1.10644   54.274
 4680.00    1.09172   1.09727   55.325
 4681.00    1.08896   1.09292   56.198
 4682.00    1.09364   1.09335   56.615
 4683.00    1.10997   1.09723   55.776
 4684.00    1.11671   1.10249   54.380
 4685.00    1.11694   1.10714   53.782
 4686.00    1.11651   1.11023   54.004
 4687.00    1.11484   1.11200   54.037
 4688.00    1.11361   1.11292   54.339
 4689.00    1.11448   1.11320   54.323
 4690.00    1.11357   1.11300   54.361
 4691.00    1.10740   1.11282   54.755
 4692.00    1.11082   1.11378   54.788
 4693.00    1.11824   1.11651   54.079
 4694.00    1.12913   1.12001   53.231
 4695.00    1.12893   1.12231   52.061
 4696.00    1.12229   1.12165   51.500
 4697.00    1.12018   1.11682   51.905
 4698.00    1.11724   1.10808   53.488
 4699.00    1.10408   1.09758   55.032
 4700.00    1.10341   1.08722   55.525
 4701.00    1.09861   1.07809   55.083
 4702.00    1.08789   1.07121   55.595
 4703.00    1.07087   1.06864   56.562
 4704.00    1.08009   1.07129   56.703
 4705.00    1.09410   1.07634   55.566
 4706.00    1.10092   1.07894   54.885
 4707.00    1.08756   1.07735   55.773
 4708.00    1.07850   1.07479   56.870
 4709.00    1.07755   1.07593   57.317
 4710.00    1.09153   1.08218   56.857
 4711.00    1.11955   1.09097   55.109
 4712.00    1.12118   1.09840   53.681
 4713.00    1.11888   1.10173   53.285
 4714.00    1.11486   1.10195   53.894
 4715.00    1.10855   1.10310   54.871
 4716.00    1.11491   1.10811   54.725
 4717.00    1.12939   1.11627   53.577
 4718.00    1.12926   1.12412   52.603
 4719.00    1.12480   1.12916   52.330
 4720.00    1.13110   1.13113   52.151
 4721.00    1.12227   1.13147   52.019
 4722.00    1.11401   1.13172   52.497
 4723.00    1.12135   1.13242   52.813
 4724.00    1.13251   1.13259   52.443
 4725.00    1.12640   1.13003   51.906
 4726.00    1.11417   1.12284   52.112
 4727.00    1.10406   1.11139   53.505
 4728.00    1.09561   1.09909   55.532
 4729.00    1.09657   1.09013   56.616
 4730.00    1.09071   1.08644   56.294
 4731.00    1.09377   1.08736   55.708
 4732.00    1.10247   1.09138   55.262
 4733.00    1.10625   1.09638   54.594
 4734.00    1.10279   1.09999   54.144
 4735.00    1.10477   1.10111   53.846
 4736.00    1.10608   1.10068   53.608
 4737.00    1.09840   1.10057   54.204
 4738.00    1.10496   1.10232   54.185
 4739.00    1.11860   1.10585   53.488
 4740.00    1.11748   1.10965   53.577
 4741.00    1.10613   1.11259   53.889
 4742.00    1.10363   1.11526   53.908
 4743.00    1.11173   1.11833   53.435
 4744.00    1.11780   1.12144   52.890
 4745.00    1.11711   1.12406   53.035
 4746.00    1.12073   1.12653   53.046
 4747.00    1.12791   1.12991   52.612
 4748.00    1.12381   1.13450   52.100
 4749.00    1.12362   1.13904   52.029
 4750.00    1.12039   1.14201   52.117
 4751.00    1.11562   1.14177   52.171
 4752.00    1.11353   1.13742   52.588
 4753.00    1.10652   1.12994   53.188
 4754.00    1.09813   1.12214   53.619
 4755.00    1.09293   1.11723   53.951
 4756.00    1.09667   1.11665   53.848
 4757.00    1.10013   1.11975   54.091
 4758.00    1.10633   1.12438   54.482
 4759.00    1.10150   1.12779   54.486
 4760.00    1.11190   1.12694   54.026
 4761.00    1.10062   1.11992   54.012
 4762.00    1.09280   1.10781   54.948
 4763.00    1.07671   1.09470   56.315
 4764.00    1.07385   1.08562   56.955
 4765.00    1.08041   1.08271   56.990
 4766.00    1.09085   1.08577   56.843
 4767.00    1.10083   1.09370   56.400
 4768.00    1.10410   1.10479   55.564
 4769.00    1.11069   1.11575   54.303
 4770.00    1.11154   1.12304   53.633
 4771.00    1.11173   1.12563   53.795
 4772.00    1.10291   1.12623   54.274
 4773.00    1.10078   1.12837   54.684
 4774.00    1.11574   1.13353   53.951
 4775.00    1.12600   1.13961   52.814
 4776.00    1.12449   1.14337   52.525
 4777.00    1.12692   1.14323   52.596
 4778.00    1.11366   1.13975   52.769
 4779.00    1.10593   1.13500   53.140
 4780.00    1.10541   1.13073   53.738
 4781.00    1.10593   1.12745   54.026
 4782.00    1.10001   1.12419   54.159
 4783.00    1.10163   1.12025   54.443
 4784.00    1.10119   1.11599   54.865
 4785.00    1.10340   1.11203   54.827
 4786.00    1.10471   1.10907   55.048
 4787.00    1.08785   1.10782   55.605
 4788.00    1.08254   1.10896   55.888
 4789.00    1.09569   1.11256   55.798
 4790.00    1.09895   1.11844   55.506
 4791.00    1.10736   1.12647   55.146
 4792.00    1.11614   1.13619   54.536
 4793.00    1.11846   1.14648   53.602
 4794.00    1.12346   1.15541   52.404
 4795.00    1.12259   1.16087   51.563
 4796.00    1.12265   1.16117   51.455
 4797.00    1.12546   1.15649   52.044
 4798.00    1.11280   1.14935   53.124
 4799.00    1.09626   1.14335   54.093
 4800.00    1.10669   1.14154   54.650
 4801.00    1.10832   1.14424   54.070
 4802.00    1.11633   1.14856   52.959
 4803.00    1.11787   1.15062   52.265
 4804.00    1.11266   1.14896   52.425
 4805.00    1.11519   1.14490   53.162
 4806.00    1.11314   1.14110   53.829
 4807.00    1.11013   1.13922   54.278
 4808.00    1.11264   1.13941   54.229
 4809.00    1.11012   1.14117   54.081
 4810.00    1.11442   1.14363   53.817
 4811.00    1.10842   1.14593   53.320
 4812.00    1.11898   1.14821   52.951
 4813.00    1.12597   1.15133   52.698
 4814.00    1.12381   1.15561   52.654
 4815.00    1.12250   1.16062   52.517
 4816.00    1.12314   1.16539   52.317
 4817.00    1.12243   1.16879   51.979
 4818.00    1.12339   1.17021   51.663
 4819.00    1.13036   1.16961   51.470
 4820.00    1.13384   1.16655   51.463
 4821.00    1.13060   1.15954   51.490
 4822.00    1.11459   1.14801   52.018
 4823.00    1.09832   1.13476   53.430
 4824.00    1.10005   1.12520   54.366
 4825.00    1.10341   1.12366   54.155
 4826.00    1.10839   1.12880   53.156
 4827.00    1.11693   1.13517   52.397
 4828.00    1.11682   1.13846   52.693
 4829.00    1.11867   1.13772   53.325
 4830.00    1.11123   1.13443   53.621
 4831.00    1.10198   1.12984   53.615
 4832.00    1.11215   1.12549   54.122
 4833.00    1.11850   1.12347   54.140
 4834.00    1.11855   1.12448   53.227
 4835.00    1.11703   1.12727   52.556
 4836.00    1.10886   1.12944   52.403
 4837.00    1.11046   1.12890   52.512
 4838.00    1.10521   1.12498   52.795
 4839.00    1.09071   1.11841   53.556
 4840.00    1.09381   1.11140   54.485
 4841.00    1.09826   1.10634   54.458
 4842.00    1.09849   1.10450   54.328
 4843.00    1.09810   1.10533   54.040
 4844.00    1.09784   1.10765   53.623
 4845.00    1.10395   1.11038   53.064
 4846.00    1.10400   1.11163   52.240
 4847.00    1.09642   1.10922   52.064
 4848.00    1.07835   1.10379   53.183
 4849.00    1.06803   1.09855   53.922
 4850.00    1.08012   1.09522   53.839
 4851.00    1.07770   1.09200   53.073
 4852.00    1.07233   1.08481   53.003
 4853.00    1.06237   1.07084   53.335
 4854.00    1.04543   1.05000   53.849
 4855.00    1.02741   1.02532   55.522
 4856.00    1.00896   1.00009   57.015
 4857.00    0.99764   0.97293   56.779
 4858.00    0.97367   0.93770   56.273
 4859.00    0.90820   0.88935   58.069
 4860.00    0.81791   0.83497   63.352
 4861.00    0.74387   0.79347   -1.000
 4862.00    0.75950   0.78308   73.579
 4863.00    0.84685   0.80852   68.630
 4864.00    0.92711   0.85703   -1.000
 4865.00    0.97273   0.91112   -1.000
 4866.00    0.99437   0.95831   57.001
 4867.00    1.01696   0.99362   55.861
 4868.00    1.03298   1.01600   55.394
 4869.00    1.03872   1.02571   55.199
 4870.00    1.03616   1.02489   55.759
 4871.00    1.01795   1.01916   57.385
 4872.00    1.01859   1.01685   58.700
 4873.00    1.03048   1.02428   58.059
 4874.00    1.04837   1.03957   56.373
 4875.00    1.06619   1.05582   55.448
 4876.00    1.06302   1.06774   55.048
 4877.00    1.05274   1.07616   54.757
 4878.00    1.06632   1.08497   54.554
 4879.00    1.07910   1.09542   53.737
 4880.00    1.08482   1.10471   53.217
 4881.00    1.07664   1.10935   53.755
 4882.00    1.07028   1.10837   54.644
 4883.00    1.07314   1.10414   54.923
 4884.00    1.07690   1.09881   54.732
 4885.00    1.07105   1.09341   55.072
 4886.00    1.07186   1.08856   55.931
 4887.00    1.07586   1.08436   56.181
 4888.00    1.07823   1.07982   55.862
 4889.00    1.07346   1.07345   55.831
 4890.00    1.04705   1.06650   56.716
 4891.00    1.04128   1.06494   57.937
 4892.00    1.06718   1.07510   57.404
 4893.00    1.09347   1.09790   55.005
 4894.00    1.11430   1.12646   52.460
 4895.00    1.12324   1.15065   50.970
 4896.00    1.12539   1.16535   50.061
 4897.00    1.12570   1.17028   49.861
 4898.00    1.12158   1.16788   50.018
 4899.00    1.11015   1.16119   51.153
 4900.00    1.10390   1.15351   52.349
 4901.00    1.10602   1.14686   52.870
 4902.00    1.10203   1.14185   52.589
 4903.00    1.10052   1.13864   52.698
 4904.00    1.10340   1.13876   53.333
 4905.00    1.11080   1.14350   52.682
 4906.00    1.11679   1.15010   51.551
 4907.00    1.12519   1.15263   51.209
 4908.00    1.12474   1.14752   51.744
 4909.00    1.09322   1.13569   53.040
 4910.00    1.08268   1.12287   54.563
 4911.00    1.08963   1.11542   55.174
 4912.00    1.10235   1.11705   54.383
 4913.00    1.10833   1.12598   53.393
 4914.00    1.11521   1.13695   52.672
 4915.00    1.12736   1.14390   51.994
 4916.00    1.12827   1.14127   51.565
 4917.00    1.11010   1.12547   51.887
 4918.00    1.08475   1.09850   53.803
 4919.00    1.05577   1.06822   56.799
 4920.00    1.04545   1.04525   59.435
 4921.00    1.04997   1.03677   59.957
 4922.00    1.06907   1.04226   57.903
 4923.00    1.07927   1.05574   55.828
 4924.00    1.08084   1.07128   55.067
 4925.00    1.07752   1.08786   55.021
 4926.00    1.08905   1.10609   54.273
 4927.00    1.11569   1.12491   52.835
 4928.00    1.12278   1.14169   51.921
 4929.00    1.12883   1.15319   51.452
 4930.00    1.12843   1.15736   51.106
 4931.00    1.12391   1.15311   50.822
 4932.00    1.11915   1.14118   51.380
 4933.00    1.10556   1.12550   52.832
 4934.00    1.09026   1.11252   54.731
 4935.00    1.09232   1.10561   54.770
 4936.00    1.10523   1.10272   53.769
 4937.00    1.09968   1.09877   53.813
 4938.00    1.07794   1.09282   55.464
 4939.00    1.07376   1.09077   56.938
 4940.00    1.08829   1.09782   56.332
 4941.00    1.11085   1.11377   54.360
 4942.00    1.12873   1.13232   52.638
 4943.00    1.13151   1.14634   51.704
 4944.00    1.13250   1.15309   51.261
 4945.00    1.12034   1.15407   51.324
 4946.00    1.12232   1.15333   51.697
 4947.00    1.12903   1.15449   51.785
 4948.00    1.12937   1.15880   51.293
 4949.00    1.13641   1.16412   50.689
 4950.00    1.13078   1.16727   50.551
 4951.00    1.13607   1.16672   50.347
 4952.00    1.13539   1.16317   50.630
 4953.00    1.12546   1.15724   50.987
 4954.00    1.13111   1.14734   51.589
 4955.00    1.11612   1.13082   52.252
 4956.00    1.08980   1.10760   53.710
 4957.00    1.05465   1.08493   56.531
 4958.00    1.04926   1.07489   58.712
 4959.00    1.08606   1.08326   57.361
 4960.00    1.13129   1.10518   54.027
 4961.00    1.13518   1.12826   52.240
 4962.00    1.14506   1.14328   51.896
 4963.00    1.13103   1.14806   52.164
 4964.00    1.12840   1.14468   52.592
 4965.00    1.11827   1.13665   53.234
 4966.00    1.11237   1.12757   54.377
 4967.00    1.10784   1.12042   55.053
 4968.00    1.10680   1.11672   55.040
 4969.00    1.11196   1.11682   54.868
 4970.00    1.10749   1.12061   54.449
 4971.00    1.11299   1.12720   53.860
 4972.00    1.12836   1.13518   53.281
 4973.00    1.13272   1.14283   52.644
 4974.00    1.13149   1.14852   52.157
 4975.00    1.13130   1.15066   51.965
 4976.00    1.12812   1.14888   52.351
 4977.00    1.13109   1.14340   52.913
 4978.00    1.11408   1.13467   53.641
 4979.00    1.10751   1.12263   54.519
 4980.00    1.09702   1.10653   55.186
 4981.00    1.07386   1.08613   55.991
 4982.00    1.06403   1.06423   57.877
 4983.00    1.05707   1.04764   59.724
 4984.00    1.05462   1.04323   59.644
 4985.00    1.07129   1.05309   58.475
 4986.00    1.09309   1.07228   56.811
 4987.00    1.10078   1.09243   55.006
 4988.00    1.10671   1.10671   53.678
 4989.00    1.11027   1.11184   53.780
 4990.00    1.09905   1.10973   54.596
 4991.00    1.09706   1.10532   55.142
 4992.00    1.10177   1.10320   55.141
 4993.00    1.09545   1.10486   54.635
 4994.00    1.10530   1.10914   54.416
 4995.00    1.11103   1.11396   54.393
 4996.00    1.11071   1.11723   54.104
 4997.00    1.11103   1.11673   53.844
 4998.00    1.11419   1.11074   54.197
 4999.00    1.09941   1.09946   54.943
 5000.00    1.08320   1.08640   56.063
 5001.00    1.08673   1.07629   56.743
 5002.00    1.08912   1.07182   56.754
 5003.00    1.09361   1.07112   56.199
 5004.00    1.09792   1.06939   55.850
 5005.00    1.08137   1.06416   56.699
 5006.00    1.06403   1.05820   58.156
 5007.00    1.06288   1.05793   58.422
 5008.00    1.07977   1.06576   56.931
 5009.00    1.09571   1.07690   55.196
 5010.00    1.10281   1.08319   54.658
 5011.00    1.09913   1.07889   55.428
 5012.00    1.06701   1.06554   57.134
 5013.00    1.05446   1.04954   59.290
 5014.00    1.05250   1.03822   60.626
 5015.00    1.06758   1.03412   60.268
 5016.00    1.07580   1.03525   58.900
 5017.00    1.07571   1.03840   57.680
 5018.00    1.07046   1.04231   57.470
 5019.00    1.07053   1.04828   57.483
 5020.00    1.07801   1.05626   56.808
 5021.00    1.08850   1.06408   56.357
 5022.00    1.08792   1.07048   56.629
 5023.00    1.08760   1.07609   56.746
 5024.00    1.09598   1.08246   56.403
 5025.00    1.10326   1.08875   55.798
 5026.00    1.09967   1.09196   55.437
 5027.00    1.09028   1.09216   55.723
 5028.00    1.09379   1.09237   55.983
 5029.00    1.10655   1.09527   55.440
 5030.00    1.11031   1.10181   54.378
 5031.00    1.11243   1.11058   53.610
 5032.00    1.11655   1.11845   52.736
 5033.00    1.11817   1.12164   52.142
 5034.00    1.11527   1.11734   52.264
 5035.00    1.09549   1.10581   54.004
 5036.00    1.07451   1.09129   56.162
 5037.00    1.07613   1.07709   57.045
 5038.00    1.07868   1.06340   57.225
 5039.00    1.07275   1.04783   57.964
 5040.00    1.04330   1.03158   60.306
 5041.00    1.03119   1.02272   62.756
 5042.00    1.04289   1.02868   62.678
 5043.00    1.07385   1.05014   59.538
 5044.00    1.09452   1.07943   55.830
 5045.00    1.14588   1.10563   53.601
 5046.00    0.98874   1.12155   -1.000
 5047.00    0.27065   1.12437   -1.000
 5048.00    0.16669   1.11570   -1.000
 5049.00    0.14769   1.10046   -1.000
 5050.00    1.06447   1.08580  103.136
 5051.00    1.10576   1.07791   55.247
 5052.00    1.08067   1.07992   56.304
 5053.00    1.10685   1.09056   55.000
 5054.00    1.12884   1.10498   53.605
 5055.00    1.12729   1.11744   52.645
 5056.00    1.12958   1.12646   52.161
 5057.00    1.13171   1.13295   52.006
 5058.00    1.13621   1.13799   52.111
 5059.00    1.12515   1.14183   52.207
 5060.00    1.12001   1.14388   52.181
 5061.00    1.13148   1.14296   51.813
 5062.00    1.13145   1.13778   51.859
 5063.00    1.11844   1.12721   52.588
 5064.00    1.10149   1.11276   54.160
 5065.00    1.08679   1.09966   56.107
 5066.00    1.09644   1.09169   56.699
 5067.00    1.10584   1.08985   55.959
 5068.00    1.11133   1.09145   55.105
 5069.00    1.11843   1.09353   54.956
 5070.00    1.12318   1.09474   54.690
 5071.00    1.11818   1.09435   54.325
 5072.00    1.11357   1.09244   54.799
 5073.00    1.11144   1.09084   55.232
 5074.00    1.11411   1.09152   54.506
 5075.00    1.11654   1.09386   54.090
 5076.00    1.11146   1.09466   54.032
 5077.00    1.11367   1.09021   53.990
 5078.00    1.10459   1.07956   54.540
 5079.00    1.07741   1.06523   56.508
 5080.00    1.05963   1.05327   59.243
 5081.00    1.07062   1.04870   59.840
 5082.00    1.08596   1.05193   58.501
 5083.00    1.08994   1.06087   57.251
 5084.00    1.10235   1.07256   56.500
 5085.00    1.11205   1.08536   55.418
 5086.00    1.11678   1.09743   54.472
 5087.00    1.12386   1.10683   54.105
 5088.00    1.12748   1.11327   54.043
 5089.00    1.12571   1.11774   53.762
 5090.00    1.13040   1.12151   53.368
 5091.00    1.12947   1.12537   53.077
 5092.00    1.12551   1.12937   52.803
 5093.00    1.14484   1.13222   52.179
 5094.00    1.16858   1.13118   51.715
 5095.00    1.13823   1.12369   52.227
 5096.00    1.12678   1.10967   53.346
 5097.00    1.11560   1.09291   54.501
 5098.00    1.09990   1.07887   55.830
 5099.00    1.09621   1.07244   56.994
 5100.00    1.09928   1.07492   57.136
 5101.00    1.11041   1.08420   55.669
 5102.00    1.12707   1.09493   54.044
 5103.00    1.12746   1.10163   53.613
 5104.00    1.12210   1.10216   53.960
 5105.00    1.12159   1.09690   54.689
 5106.00    1.11071   1.08809   55.380
 5107.00    1.09307   1.07885   56.057
 5108.00    1.08829   1.07242   56.763
 5109.00    1.08717   1.07111   56.644
 5110.00    1.09964   1.07544   56.270
 5111.00    1.11730   1.08430   55.865
 5112.00    1.12533   1.09555   55.044
 5113.00    1.12807   1.10656   54.375
 5114.00    1.13384   1.11618   53.712
 5115.00    1.13444   1.12400   53.234
 5116.00    1.13496   1.13001   52.956
 5117.00    1.14083   1.13373   52.385
 5118.00    1.14587   1.13428   51.952
 5119.00    1.14565   1.13106   52.129
 5120.00    1.13464   1.12377   52.834
 5121.00    1.12322   1.11313   53.634
 5122.00    1.11699   1.10041   54.523
 5123.00    1.10077   1.08743   55.951
 5124.00    1.08464   1.07588   57.653
 5125.00    1.09008   1.06793   58.002
 5126.00    1.09436   1.06403   57.451
 5127.00    1.09856   1.06322   57.180
 5128.00    1.10432   1.06402   56.836
 5129.00    1.10771   1.06609   56.935
 5130.00    1.10740   1.06990   56.878
 5131.00    1.10822   1.07550   56.108
 5132.00    1.11092   1.08214   55.141
 5133.00    1.11485   1.08844   54.712
 5134.00    1.11660   1.09325   54.187
 5135.00    1.12616   1.09525   53.711
 5136.00    1.11934   1.09326   53.585
 5137.00    1.10765   1.08674   54.596
 5138.00    1.09888   1.07770   55.942
 5139.00    1.07951   1.06903   56.817
 5140.00    1.08381   1.06356   56.864
 5141.00    1.09404   1.06183   56.330
 5142.00    1.07978   1.06266   56.786
 5143.00    1.08781   1.06497   57.734
 5144.00    1.09932   1.06781   57.349
 5145.00    1.10282   1.06999   56.357
 5146.00    1.10133   1.07050   56.191
 5147.00    1.10403   1.06961   56.746
 5148.00    1.10323   1.06916   56.871
 5149.00    1.11047   1.06984   56.139
 5150.00    1.10864   1.06938   55.839
 5151.00    1.09670   1.06651   56.570
 5152.00    1.09225   1.06250   57.619
 5153.00    1.09737   1.06006   57.973
 5154.00    1.10216   1.06238   57.654
 5155.00    1.11410   1.07074   56.521
 5156.00    1.12346   1.08413   55.070
 5157.00    1.13463   1.09877   53.670
 5158.00    1.14032   1.11110   52.678
 5159.00    1.13871   1.11858   52.311
 5160.00    1.14672   1.12048   52.317
 5161.00    1.14632   1.11701   52.499
 5162.00    1.13502   1.10805   52.806
 5163.00    1.12973   1.09215   53.413
 5164.00    1.11945   1.06682   -1.000
 5165.00    1.08507   1.03040   -1.000
 5166.00    1.02588   0.98651   61.142
 5167.00    0.97276   0.94723   67.607
 5168.00    0.96717   0.92340   -1.000
 5169.00    0.99943   0.91844   -1.000
 5170.00    1.02278   0.92213   -1.000
 5171.00    1.00983   0.92222   -1.000
 5172.00    0.97510   0.92053   -1.000
 5173.00    0.96563   0.92708   -1.000
 5174.00    1.01344   0.95248   -1.000
 5175.00    1.09019   0.99292   -1.000
 5176.00    1.12891   1.03412   -1.000
 5177.00    1.14076   1.06498   -1.000
 5178.00    1.13942   1.07982   -1.000
 5179.00    1.13316   1.07823   -1.000
 5180.00    1.12683   1.06025   -1.000
 5181.00    1.09612   1.02626   -1.000
 5182.00    1.03416   0.98407   -1.000
 5183.00    0.98120   0.94734   69.722
 5184.00    0.96262   0.93291   75.103
 5185.00    1.01426   0.94691   -1.000
 5186.00    1.07762   0.98078   -1.000
 5187.00    1.10581   1.01856   -1.000
 5188.00    1.10815   1.04613   -1.000
 5189.00    1.11084   1.06063   -1.000
 5190.00    1.10996   1.06415   55.377
 5191.00    1.09048   1.06003   56.004
 5192.00    1.07214   1.05256   57.834
 5193.00    1.06787   1.04710   59.426
 5194.00    1.08467   1.04625   58.901
 5195.00    1.09473   1.05063   57.866
 5196.00    1.10003   1.05849   57.016
 5197.00    1.11529   1.06889   56.184
 5198.00    1.12155   1.08131   55.040
 5199.00    1.12188   1.09341   54.111
 5200.00    1.12162   1.10151   53.685
 5201.00    1.12339   1.10234   53.646
 5202.00    1.13234   1.09396   54.097
 5203.00    1.11804   1.07725   55.101
 5204.00    1.08988   1.05565   56.373
 5205.00    1.07217   1.03428   58.170
 5206.00    1.06525   1.01770   -1.000
 5207.00    1.07873   1.00874   -1.000
 5208.00    1.08007   1.00795   -1.000
 5209.00    1.07305   1.01535   -1.000
 5210.00    1.08745   1.03127   -1.000
 5211.00    1.11501   1.05374   -1.000
 5212.00    1.13784   1.07819   -1.000
 5213.00    1.14030   1.09703   53.370
 5214.00    1.14462   1.10534   52.298
 5215.00    1.12322   1.10331   52.939
 5216.00    1.10821   1.09749   54.219
 5217.00    1.11212   1.09611   54.857
 5218.00    1.12634   1.10278   54.363
 5219.00    1.13979   1.11588   53.160
 5220.00    1.14670   1.12933   52.367
 5221.00    1.16037   1.13791   51.978
 5222.00    1.15477   1.13748   51.776
 5223.00    1.14624   1.12603   52.479
 5224.00    1.12944   1.10383   54.119
 5225.00    1.09906   1.07500   56.379
 5226.00    1.06637   1.04837   59.038
 5227.00    1.05786   1.03520   60.636
 5228.00    1.08077   1.03965   59.249
 5229.00    1.10788   1.05783   -1.000
 5230.00    1.13571   1.07755   -1.000
 5231.00    1.13767   1.08932   52.706
 5232.00    1.12435   1.09061   52.653
 5233.00    1.10874   1.08625   53.763
 5234.00    1.11152   1.08429   54.717
 5235.00    1.12306   1.09021   54.559
 5236.00    1.14233   1.10381   53.268
 5237.00    1.15128   1.11989   51.993
 5238.00    1.14310   1.13343   51.431
 5239.00    1.15423   1.14150   51.403
 5240.00    1.16426   1.14471   51.574
 5241.00    1.15530   1.14500   51.473
 5242.00    1.15969   1.14458   51.160
 5243.00    1.16409   1.14461   51.253
 5244.00    1.15544   1.14451   51.140
 5245.00    1.14533   1.14174   51.060
 5246.00    1.13839   1.13426   52.127
 5247.00    1.13035   1.12340   53.786
 5248.00    1.12689   1.11233   55.023
 5249.00    1.12761   1.10440   55.125
 5250.00    1.11626   1.10052   55.227
 5251.00    1.11130   1.10023   55.592
 5252.00    1.12413   1.10227   55.307
 5253.00    1.13454   1.10541   54.521
 5254.00    1.12920   1.10906   53.989
 5255.00    1.12766   1.11428   54.016
 5256.00    1.13611   1.12275   53.614
 5257.00    1.15585   1.13290   52.329
 5258.00    1.16723   1.14084   50.908
 5259.00    1.16462   1.14103   50.490
 5260.00    1.14936   1.13016   50.993
 5261.00    1.12489   1.10845   52.426
 5262.00    1.09790   1.07967   54.681
 5263.00    1.07653   1.04988   57.299
 5264.00    1.07409   1.02540   -1.000
 5265.00    1.06412   1.01031   -1.000
 5266.00    1.06163   1.00471   -1.000
 5267.00    1.07401   1.00383   -1.000
 5268.00    1.08438   1.00167   -1.000
 5269.00    1.04955   0.99805   -1.000
 5270.00    1.03586   0.99745   62.236
 5271.00    1.06590   1.00668   -1.000
 5272.00    1.10043   1.02505   -1.000
 5273.00    1.11747   1.04527   -1.000
 5274.00    1.11446   1.06235   -1.000
 5275.00    1.11636   1.07567   54.464
 5276.00    1.12171   1.08925   54.331
 5277.00    1.13530   1.10498   53.257
 5278.00    1.15865   1.11973   51.408
 5279.00    1.16383   1.12805   50.476
 5280.00    1.15231   1.12579   50.820
 5281.00    1.13852   1.11540   52.076
 5282.00    1.12364   1.10285   53.437
 5283.00    1.11015   1.09537   54.402
 5284.00    1.11982   1.09751   54.649
 5285.00    1.13370   1.11025   53.502
 5286.00    1.15389   1.12884   51.847
 5287.00    1.17489   1.14701   50.212
 5288.00    1.16915   1.15990   49.869
 5289.00    1.16327   1.16685   50.152
 5290.00    1.16696   1.16974   50.136
 5291.00    1.17318   1.16998   49.833
 5292.00    1.17855   1.16812   49.733
 5293.00    1.16905   1.16404   50.038
 5294.00    1.16354   1.15612   50.517
 5295.00    1.15557   1.14300   51.195
 5296.00    1.13628   1.12564   52.609
 5297.00    1.11692   1.10792   54.654
 5298.00    1.10594   1.09604   56.103
 5299.00    1.11751   1.09372   55.701
 5300.00    1.13458   1.09930   54.255
 5301.00    1.13713   1.10933   53.257
 5302.00    1.14030   1.12042   52.936
 5303.00    1.14817   1.13176   52.274
 5304.00    1.16039   1.14265   50.841
 5305.00    1.16405   1.15057   49.919
 5306.00    1.15684   1.15443   49.812
 5307.00    1.14698   1.15553   50.316
 5308.00    1.15397   1.15666   50.752
 5309.00    1.16607   1.16033   50.399
 5310.00    1.16757   1.16542   49.864
 5311.00    1.17509   1.16928   49.551
 5312.00    1.17649   1.16925   49.610
 5313.00    1.16837   1.16443   49.897
 5314.00    1.16008   1.15566   50.110
 5315.00    1.14956   1.14531   50.479
 5316.00    1.14405   1.13646   50.983
 5317.00    1.13647   1.13293   51.434
 5318.00    1.15333   1.13555   51.439
 5319.00    1.16325   1.14171   51.046
 5320.00    1.16094   1.14584   50.834
 5321.00    1.15797   1.14374   51.031
 5322.00    1.14870   1.13510   51.396
 5323.00    1.14201   1.12159   52.008
 5324.00    1.12901   1.10624   52.930
 5325.00    1.12600   1.08988   53.409
 5326.00    1.12261   1.07204   -1.000
 5327.00    1.08796   1.05368   54.885
 5328.00    1.05757   1.03936   58.493
 5329.00    1.06803   1.03803   60.317
 5330.00    1.10196   1.05145   -1.000
 5331.00    1.13243   1.07502   -1.000
 5332.00    1.14249   1.09866   52.671
 5333.00    1.14276   1.11602   52.143
 5334.00    1.15200   1.12686   51.644
 5335.00    1.15696   1.13258   51.041
 5336.00    1.15000   1.13378   50.830
 5337.00    1.14336   1.13046   51.171
 5338.00    1.14488   1.12265   51.502
 5339.00    1.13531   1.11215   52.073
 5340.00    1.11719   1.10242   53.412
 5341.00    1.11646   1.09864   54.340
 5342.00    1.13806   1.10242   53.859
 5343.00    1.15076   1.11159   52.374
 5344.00    1.15949   1.11962   51.448
 5345.00    1.15240   1.12235   51.467
 5346.00    1.15025   1.11995   51.812
 5347.00    1.14238   1.11545   52.145
 5348.00    1.13951   1.11257   52.399
 5349.00    1.13546   1.11335   52.879
 5350.00    1.13999   1.11856   52.997
 5351.00    1.15686   1.12717   52.153
 5352.00    1.16201   1.13720   50.930
 5353.00    1.15959   1.14642   50.309
 5354.00    1.16058   1.15424   50.159
 5355.00    1.17120   1.16150   49.758
 5356.00    1.17096   1.16789   49.115
 5357.00    1.17133   1.17265   48.752
 5358.00    1.17508   1.17450   48.806
 5359.00    1.17813   1.17282   48.881
 5360.00    1.17162   1.16743   49.062
 5361.00    1.16418   1.15838   49.649
 5362.00    1.16167   1.14678   50.490
 5363.00    1.14900   1.13497   51.228
 5364.00    1.13255   1.12511   51.579
 5365.00    1.13631   1.11865   51.877
 5366.00    1.13184   1.11483   52.190
 5367.00    1.13389   1.11144   52.017
 5368.00    1.13789   1.10510   52.019
 5369.00    1.12416   1.09452   52.563
 5370.00    1.11014   1.08185   53.894
 5371.00    1.10142   1.07307   55.544
 5372.00    1.10954   1.07489   55.681
 5373.00    1.13263   1.08862   53.591
 5374.00    1.15103   1.11054   51.104
 5375.00    1.16605   1.13183   49.881
 5376.00    1.17699   1.14700   49.529
 5377.00    1.17873   1.15385   49.688
 5378.00    1.17230   1.15414   49.704
 5379.00    1.16512   1.15036   49.804
 5380.00    1.16172   1.14455   50.098
 5381.00    1.15422   1.13827   50.600
 5382.00    1.14310   1.13309   51.099
 5383.00    1.14342   1.13072   51.343
 5384.00    1.15066   1.13266   51.302
 5385.00    1.16641   1.13835   51.054
 5386.00    1.17767   1.14530   50.497
 5387.00    1.16521   1.14956   50.409
 5388.00    1.16387   1.14908   50.644
 5389.00    1.16145   1.14383   51.143
 5390.00    1.15393   1.13560   51.935
 5391.00    1.14705   1.12658   52.512
 5392.00    1.14290   1.11841   52.738
 5393.00    1.14321   1.11136   52.758
 5394.00    1.14535   1.10492   52.924
 5395.00    1.13076   1.09776   53.323
 5396.00    1.12455   1.08978   54.037
 5397.00    1.11448   1.08433   55.145
 5398.00    1.12099   1.08435   55.156
 5399.00    1.14308   1.09152   -1.000
 5400.00    1.15197   1.10189   -1.000
 5401.00    1.14836   1.10945   51.658
 5402.00    1.15216   1.10926   51.763
 5403.00    1.13894   1.10020   52.183
 5404.00    1.12037   1.08528   53.804
 5405.00    1.10133   1.07118   55.561
 5406.00    1.09907   1.06417   56.376
 5407.00    1.11815   1.06491   -1.000
 5408.00    1.12945   1.07064   -1.000
 5409.00    1.12480   1.07645   -1.000
 5410.00    1.11971   1.08161   54.581
 5411.00    1.12657   1.08843   54.301
 5412.00    1.14285   1.09749   52.831
 5413.00    1.16128   1.10753   -1.000
 5414.00    1.15992   1.11608   51.085
 5415.00    1.14758   1.12278   51.129
 5416.00    1.14819   1.12938   51.152
 5417.00    1.15346   1.13567   50.757
 5418.00    1.15472   1.14060   50.437
 5419.00    1.15292   1.14282   50.658
 5420.00    1.15303   1.14201   51.170
 5421.00    1.15461   1.13876   51.471
 5422.00    1.15166   1.13390   51.250
 5423.00    1.14451   1.12821   51.046
 5424.00    1.13763   1.12450   51.786
 5425.00    1.13712   1.12426   52.252
 5426.00    1.14370   1.12678   51.672
 5427.00    1.15233   1.12799   50.787
 5428.00    1.14134   1.12287   50.974
 5429.00    1.11224   1.11322   52.416
 5430.00    1.11056   1.10336   54.108
 5431.00    1.13359   1.09783   54.167
 5432.00    1.14119   1.09638   53.169
 5433.00    1.13172   1.09546   53.168
 5434.00    1.11358   1.09488   53.948
 5435.00    1.11877   1.09723   54.567
 5436.00    1.12506   1.10557   54.348
 5437.00    1.15015   1.12027   53.245
 5438.00    1.15964   1.13693   51.766
 5439.00    1.16215   1.15169   50.691
 5440.00    1.17296   1.16124   49.990
 5441.00    1.17157   1.16578   49.581
 5442.00    1.17221   1.16480   49.504
 5443.00    1.16240   1.15716   49.503
 5444.00    1.15155   1.14272   50.039
 5445.00    1.13756   1.12343   51.396
 5446.00    1.10834   1.10569   53.543
 5447.00    1.10293   1.09626   55.304
 5448.00    1.12407   1.09858   54.854
 5449.00    1.14762   1.11088   53.054
 5450.00    1.16223   1.12571   51.577
 5451.00    1.16724   1.13662   51.105
 5452.00    1.16846   1.13872   51.123
 5453.00    1.15863   1.13181   51.570
 5454.00    1.13133   1.11896   52.792
 5455.00    1.11164   1.10737   54.322
 5456.00    1.11308   1.10306   55.494
 5457.00    1.12672   1.10978   54.651
 5458.00    1.15307   1.12274   52.728
 5459.00    1.16873   1.13500   51.299
 5460.00    1.16349   1.14001   51.031
 5461.00    1.15873   1.13679   51.651
 5462.00    1.15081   1.12884   52.635
 5463.00    1.14434   1.12168   53.341
 5464.00    1.14637   1.11964   53.625
 5465.00    1.14850   1.12321   52.937
 5466.00    1.15415   1.13035   52.321
 5467.00    1.16195   1.13771   52.082
 5468.00    1.16625   1.14331   51.493
 5469.00    1.16587   1.14616   51.286
 5470.00    1.16505   1.14583   51.784
 5471.00    1.16387   1.14259   52.327
 5472.00    1.15730   1.13684   52.505
 5473.00    1.14573   1.12858   52.777
 5474.00    1.13932   1.11776   53.323
 5475.00    1.13565   1.10565   54.087
 5476.00    1.12201   1.09506   55.256
 5477.00    1.11890   1.09061   56.113
 5478.00    1.12615   1.09380   55.574
 5479.00    1.14236   1.10251   53.846
 5480.00    1.14459   1.11202   52.836
 5481.00    1.14184   1.11842   53.267
 5482.00    1.14382   1.12309   53.935
 5483.00    1.14995   1.12790   53.817
 5484.00    1.15382   1.13388   52.858
 5485.00    1.15454   1.13918   51.771
 5486.00    1.15862   1.14108   51.332
 5487.00    1.14730   1.13971   51.850
 5488.00    1.14016   1.13694   52.603
 5489.00    1.14923   1.13562   52.900
 5490.00    1.15126   1.13673   52.905
 5491.00    1.15183   1.13921   52.523
 5492.00    1.15160   1.14180   52.140
 5493.00    1.15076   1.14323   51.952
 5494.00    1.15176   1.14314   52.073
 5495.00    1.14493   1.14128   52.091
 5496.00    1.14235   1.13779   52.082
 5497.00    1.14324   1.13377   52.473
 5498.00    1.13538   1.13055   52.842
 5499.00    1.13980   1.12813   52.545
 5500.00    1.14977   1.12568   51.942
 5501.00    1.13931   1.12231   52.377
 5502.00    1.13430   1.11862   53.233
 5503.00    1.14759   1.11643   53.310
 5504.00    1.15018   1.11480   52.860
 5505.00    1.13597   1.11274   52.756
 5506.00    1.12474   1.11025   53.489
 5507.00    1.12518   1.10877   54.016
 5508.00    1.13900   1.11070   53.503
 5509.00    1.15314   1.11440   52.632
 5510.00    1.15142   1.11707   52.417
 5511.00    1.14397   1.11591   52.774
 5512.00    1.13236   1.11134   53.826
 5513.00    1.12549   1.10684   54.714
 5514.00    1.13018   1.10586   55.193
 5515.00    1.14163   1.11046   54.520
 5516.00    1.15419   1.11918   53.557
 5517.00    1.16454   1.12992   52.748
 5518.00    1.16180   1.13981   51.753
 5519.00    1.16781   1.14746   50.896
 5520.00    1.18227   1.15181   50.780
 5521.00    1.17349   1.15340   50.861
 5522.00    1.15866   1.15263   50.963
 5523.00    1.15580   1.14956   51.142
 5524.00    1.15400   1.14343   51.228
 5525.00    1.14900   1.13295   51.540
 5526.00    1.13425   1.11957   52.248
 5527.00    1.11825   1.10605   53.465
 5528.00    1.11038   1.09829   54.853
 5529.00    1.12407   1.09909   55.150
 5530.00    1.13980   1.10818   53.937
 5531.00    1.14506   1.12019   52.499
 5532.00    1.15116   1.12902   51.828
 5533.00    1.15542   1.13223   51.944
 5534.00    1.14631   1.13102   52.439
 5535.00    1.13709   1.12939   52.693
 5536.00    1.14496   1.12979   52.508
 5537.00    1.15449   1.13292   52.071
 5538.00    1.15381   1.13728   51.947
 5539.00    1.15539   1.14166   51.719
 5540.00    1.15955   1.14508   51.210
 5541.00    1.16035   1.14689   50.804
 5542.00    1.15565   1.14609   50.833
 5543.00    1.15195   1.14358   51.366
 5544.00    1.15287   1.14096   51.887
 5545.00    1.15534   1.14020   52.017
 5546.00    1.14842   1.14201   51.868
 5547.00    1.15027   1.14581   51.751
 5548.00    1.16471   1.15058   51.422
 5549.00    1.16898   1.15521   50.909
 5550.00    1.16656   1.15822   50.483
 5551.00    1.16235   1.15887   50.370
 5552.00    1.15534   1.15714   50.644
 5553.00    1.15440   1.15393   51.089
 5554.00    1.15894   1.15089   51.680
 5555.00    1.15100   1.14917   51.925
 5556.00    1.15475   1.14932   51.845
 5557.00    1.15524   1.15053   51.679
 5558.00    1.15203   1.15187   51.592
 5559.00    1.15390   1.15240   51.527
 5560.00    1.16647   1.15123   51.472
 5561.00    1.16011   1.14810   51.584
 5562.00    1.14924   1.14341   51.852
 5563.00    1.14689   1.13837   52.385
 5564.00    1.15085   1.13407   52.750
 5565.00    1.14737   1.13080   52.898
 5566.00    1.14114   1.12838   53.005
 5567.00    1.15260   1.12631   53.059
 5568.00    1.14365   1.12438   52.946
 5569.00    1.14118   1.12236   52.834
 5570.00    1.13713   1.12029   52.991
 5571.00    1.14279   1.11806   52.950
 5572.00    1.14007   1.11642   52.956
 5573.00    1.13359   1.11608   53.114
 5574.00    1.13393   1.11774   52.883
 5575.00    1.10291   1.12130   52.312
 5576.00    1.08374   1.12572   51.873
 5577.00    1.21679   1.13064   -1.000
 5578.00    2.08267   1.13548   -1.000
 5579.00    2.19661   1.13949   -1.000
 5580.00    2.65870   1.14187   -1.000
 5581.00    2.48254   1.14242   -1.000
 5582.00    1.47015   1.14142   -1.000
 5583.00    1.12352   1.13887   52.282
 5584.00    1.16809   1.13319   52.172
 5585.00    1.14836   1.12282   52.477
 5586.00    1.12871   1.10774   53.658
 5587.00    1.11169   1.09087   55.024
 5588.00    1.10418   1.07833   56.259
 5589.00    1.10983   1.07340   56.683
 5590.00    1.12264   1.07732   -1.000
 5591.00    1.13070   1.08606   -1.000
 5592.00    1.13607   1.09574   54.216
 5593.00    1.13641   1.10293   54.055
 5594.00    1.13132   1.10779   54.278
 5595.00    1.13320   1.11145   53.950
 5596.00    1.14192   1.11395   53.164
 5597.00    1.14369   1.11443   52.724
 5598.00    1.13445   1.11181   53.229
 5599.00    1.12868   1.10683   54.171
 5600.00    1.13194   1.10150   54.746
 5601.00    1.12683   1.09753   54.707
 5602.00    1.11802   1.09721   55.019
 5603.00    1.11720   1.10306   55.286
 5604.00    1.13130   1.11515   54.373
 5605.00    1.15347   1.13118   52.872
 5606.00    1.17017   1.14695   51.663
 5607.00    1.17175   1.15884   51.049
 5608.00    1.16826   1.16610   50.943
 5609.00    1.16766   1.16929   51.022
 5610.00    1.16513   1.16990   51.127
 5611.00    1.16953   1.16772   51.075
 5612.00    1.16042   1.16137   50.913
 5613.00    1.15284   1.14950   51.157
 5614.00    1.13173   1.13301   52.223
 5615.00    1.11529   1.11750   54.056
 5616.00    1.11899   1.10798   55.312
 5617.00    1.13324   1.10885   54.855
 5618.00    1.14491   1.11679   53.525
 5619.00    1.16181   1.12748   52.787
 5620.00    1.16221   1.13614   52.667
 5621.00    1.15983   1.14080   52.429
 5622.00    1.15557   1.14078   52.166
 5623.00    1.14847   1.13716   52.392
 5624.00    1.13921   1.13188   53.440
 5625.00    1.14306   1.12875   54.435
 5626.00    1.15302   1.13009   54.197
 5627.00    1.16393   1.13599   53.271
 5628.00    1.16383   1.14442   52.501
 5629.00    1.16579   1.15232   51.893
 5630.00    1.16835   1.15786   51.511
 5631.00    1.16726   1.15996   51.368
 5632.00    1.16588   1.15884   51.161
 5633.00    1.16710   1.15529   51.215
 5634.00    1.16266   1.15073   51.622
 5635.00    1.16211   1.14593   51.993
 5636.00    1.16394   1.14167   52.320
 5637.00    1.15509   1.13835   52.707
 5638.00    1.15466   1.13618   53.064
 5639.00    1.15629   1.13499   53.068
 5640.00    1.15310   1.13445   53.010
 5641.00    1.14984   1.13421   53.192
 5642.00    1.14669   1.13475   53.221
 5643.00    1.15645   1.13620   53.006
 5644.00    1.16153   1.13833   52.758
 5645.00    1.15981   1.14077   52.676
 5646.00    1.16465   1.14295   52.305
 5647.00    1.16801   1.14439   52.159
 5648.00    1.16535   1.14484   52.023
 5649.00    1.16531   1.14465   51.947
 5650.00    1.15704   1.14426   52.076
 5651.00    1.16648   1.14422   52.072
 5652.00    1.17542   1.14381   51.654
 5653.00    1.17140   1.14207   51.517
 5654.00    1.15810   1.13791   51.718
 5655.00    1.14220   1.13070   52.137
 5656.00    1.14194   1.12088   52.640
 5657.00    1.13025   1.11012   53.657
 5658.00    1.11495   1.10136   55.322
 5659.00    1.11268   1.09750   56.224
 5660.00    1.12719   1.09921   55.408
 5661.00    1.13585   1.10429   54.185
 5662.00    1.14454   1.11076   53.977
 5663.00    1.14304   1.11720   54.071
 5664.00    1.15432   1.12354   53.465
 5665.00    1.15272   1.12928   52.700
 5666.00    1.14748   1.13297   52.491
 5667.00    1.15278   1.13431   52.775
 5668.00    1.14933   1.13444   53.093
 5669.00    1.14348   1.13496   53.158
 5670.00    1.14527   1.13723   53.020
 5671.00    1.15330   1.14079   52.675
 5672.00    1.15725   1.14499   52.215
 5673.00    1.16205   1.14843   51.689
 5674.00    1.16317   1.15090   51.191
 5675.00    1.16739   1.15199   51.206
 5676.00    1.16897   1.15241   51.379
 5677.00    1.16572   1.15216   51.216
 5678.00    1.16733   1.15102   51.134
 5679.00    1.16244   1.14806   51.398
 5680.00    1.16308   1.14275   51.608
 5681.00    1.15558   1.13538   51.914
 5682.00    1.14764   1.12741   52.524
 5683.00    1.14855   1.12119   53.151
 5684.00    1.14429   1.11801   53.268
 5685.00    1.14702   1.11772   52.955
 5686.00    1.14988   1.11846   52.718
 5687.00    1.14294   1.11859   52.970
 5688.00    1.14467   1.11873   53.602
 5689.00    1.15165   1.12035   53.778
 5690.00    1.14944   1.12477   53.171
 5691.00    1.15609   1.13146   52.182
 5692.00    1.16401   1.13839   51.690
 5693.00    1.16105   1.14418   51.362
 5694.00    1.16442   1.14774   51.270
 5695.00    1.16251   1.14941   51.335
 5696.00    1.15976   1.14894   51.374
 5697.00    1.15690   1.14667   51.522
 5698.00    1.15152   1.14252   52.034
 5699.00    1.14739   1.13704   52.641
 5700.00    1.14324   1.13158   53.105
 5701.00    1.14018   1.12718   53.677
 5702.00    1.14015   1.12512   53.922
 5703.00    1.14560   1.12463   53.517
 5704.00    1.14602   1.12460   52.953
 5705.00    1.14422   1.12285   52.826
 5706.00    1.13937   1.11821   53.184
 5707.00    1.12912   1.11070   53.942
 5708.00    1.12847   1.10181   54.954
 5709.00    1.11563   1.09400   55.812
 5710.00    1.10924   1.09020   56.134
 5711.00    1.11398   1.09226   55.999
 5712.00    1.12484   1.09993   55.421
 5713.00    1.14681   1.11157   54.273
 5714.00    1.15796   1.12359   52.924
 5715.00    1.15112   1.13387   52.116
 5716.00    1.15013   1.14087   51.931
 5717.00    1.15490   1.14581   51.820
 5718.00    1.16319   1.14958   51.657
 5719.00    1.15600   1.15339   51.402
 5720.00    1.16477   1.15728   51.068
 5721.00    1.16505   1.16097   50.830
 5722.00    1.16348   1.16376   50.709
 5723.00    1.16506   1.16522   50.631
 5724.00    1.17155   1.16484   50.570
 5725.00    1.16772   1.16269   50.692
 5726.00    1.16702   1.15915   51.122
 5727.00    1.16215   1.15550   51.665
 5728.00    1.15496   1.15308   52.076
 5729.00    1.15565   1.15207   51.795
 5730.00    1.15703   1.15222   51.482
 5731.00    1.15147   1.15252   51.624
 5732.00    1.15162   1.15337   51.890
 5733.00    1.15913   1.15519   51.695
 5734.00    1.15794   1.15796   51.187
 5735.00    1.15758   1.16098   50.863
 5736.00    1.16763   1.16293   50.909
 5737.00    1.16765   1.16366   50.970
 5738.00    1.16028   1.16337   51.126
 5739.00    1.16689   1.16275   51.163
 5740.00    1.16831   1.16201   51.276
 5741.00    1.16096   1.16125   51.352
 5742.00    1.15830   1.16052   51.468
 5743.00    1.15765   1.16042   51.346
 5744.00    1.15928   1.16069   51.297
 5745.00    1.16227   1.16114   50.917
 5746.00    1.16123   1.16086   50.643
 5747.00    1.15478   1.15998   50.919
 5748.00    1.15378   1.15902   51.431
 5749.00    1.16216   1.15802   51.627
 5750.00    1.16732   1.15631   51.323
 5751.00    1.15855   1.15262   51.164
 5752.00    1.15424   1.14724   51.567
 5753.00    1.14985   1.14240   52.199
 5754.00    1.14117   1.14046   52.722
 5755.00    1.15076   1.14338   52.713
 5756.00    1.15843   1.14953   52.039
 5757.00    1.16043   1.15663   51.070
 5758.00    1.16616   1.16122   50.465
 5759.00    1.16377   1.16195   50.617
 5760.00    1.16482   1.15865   51.187
 5761.00    1.16153   1.15334   51.860
 5762.00    1.15449   1.14840   52.571
 5763.00    1.14551   1.14695   52.836
 5764.00    1.15143   1.14977   52.270
 5765.00    1.14958   1.15588   51.333
 5766.00    1.16140   1.16255   50.704
 5767.00    1.16940   1.16733   50.543
 5768.00    1.16790   1.16956   50.492
 5769.00    1.16096   1.16947   50.406
 5770.00    1.15966   1.16789   50.508
 5771.00    1.16510   1.16512   50.676
 5772.00    1.16298   1.16168   50.958
 5773.00    1.15331   1.15817   51.275
 5774.00    1.15376   1.15564   51.404
 5775.00    1.15805   1.15440   51.468
 5776.00    1.15922   1.15396   51.361
 5777.00    1.15139   1.15288   51.103
 5778.00    1.15069   1.14945   51.053
 5779.00    1.13638   1.14313   51.212
 5780.00    1.11939   1.13531   51.953
 5781.00    1.11142   1.12802   53.129
 5782.00    1.11433   1.12352   53.830
 5783.00    1.12461   1.12218   53.745
 5784.00    1.13122   1.12354   53.534
 5785.00    1.13623   1.12671   53.342
 5786.00    1.14426   1.13105   53.147
 5787.00    1.15631   1.13630   52.559
 5788.00    1.15661   1.14114   51.860
 5789.00    1.15455   1.14426   51.457
 5790.00    1.15495   1.14570   51.507
 5791.00    1.15095   1.14631   51.739
 5792.00    1.15497   1.14807   51.668
 5793.00    1.15910   1.15136   51.245
 5794.00    1.15919   1.15550   50.893
 5795.00    1.16145   1.15902   50.585
 5796.00    1.15614   1.16079   50.544
 5797.00    1.15857   1.16096   50.842
 5798.00    1.15829   1.16066   51.169
 5799.00    1.16887   1.16147   50.938
 5800.00    1.17433   1.16347   50.293
 5801.00    1.17056   1.16580   49.601
 5802.00    1.17186   1.16701   49.472
 5803.00    1.17172   1.16627   49.877
 5804.00    1.17151   1.16399   50.269
 5805.00    1.16363   1.16138   50.680
 5806.00    1.16781   1.15982   50.910
 5807.00    1.17232   1.15976   50.801
 5808.00    1.16557   1.16096   50.610
 5809.00    1.17906   1.16263   50.458
 5810.00    1.17574   1.16433   50.452
 5811.00    1.17460   1.16544   50.405
 5812.00    1.17739   1.16556   50.217
 5813.00    1.18322   1.16434   50.068
 5814.00    1.17990   1.16213   50.161
 5815.00    1.17514   1.15967   50.574
 5816.00    1.18226   1.15837   50.813
 5817.00    1.18173   1.15914   50.566
 5818.00    1.17620   1.16199   50.217
 5819.00    1.18023   1.16547   49.941
 5820.00    1.18281   1.16840   49.694
 5821.00    1.18831   1.17015   49.526
 5822.00    1.18474   1.17099   49.600
 5823.00    1.18301   1.17137   49.775
 5824.00    1.18388   1.17157   49.693
 5825.00    1.18585   1.17169   49.619
 5826.00    1.18378   1.17203   49.526
 5827.00    1.18232   1.17249   49.478
 5828.00    1.18537   1.17304   49.490
 5829.00    1.17615   1.17328   49.588
 5830.00    1.17125   1.17314   49.494
 5831.00    1.17821   1.17260   49.505
 5832.00    1.18537   1.17166   49.438
 5833.00    1.18667   1.17052   49.533
 5834.00    1.18527   1.16943   49.861
 5835.00    1.18340   1.16903   49.950
 5836.00    1.18594   1.16943   49.790
 5837.00    1.18515   1.17052   49.689
 5838.00    1.18111   1.17156   49.844
 5839.00    1.18309   1.17233   49.960
 5840.00    1.18121   1.17277   49.808
 5841.00    1.18093   1.17296   49.444
 5842.00    1.18390   1.17268   49.182
 5843.00    1.17895   1.17167   49.186
 5844.00    1.17817   1.16979   49.347
 5845.00    1.18168   1.16720   49.539
 5846.00    1.17440   1.16439   49.868
 5847.00    1.17078   1.16204   50.119
 5848.00    1.17395   1.16035   50.367
 5849.00    1.17662   1.15890   50.319
 5850.00    1.18009   1.15642   50.396
 5851.00    1.18306   1.15250   50.679
 5852.00    1.17615   1.14702   50.997
 5853.00    1.16604   1.14107   51.497
 5854.00    1.16213   1.13498   51.752
 5855.00    1.15004   1.12862   51.845
 5856.00    1.15337   1.12208   51.900
 5857.00    1.15263   1.11610   52.422
 5858.00    1.14114   1.11335   52.911
 5859.00    1.14942   1.11553   52.573
 5860.00    1.17032   1.12154   -1.000
 5861.00    1.17030   1.12935   -1.000
 5862.00    1.17725   1.13633   -1.000
 5863.00    1.17914   1.14128   51.086
 5864.00    1.17644   1.14409   51.012
 5865.00    1.16948   1.14448   51.146
 5866.00    1.16582   1.14352   51.325
 5867.00    1.16891   1.14291   51.576
 5868.00    1.17896   1.14402   51.533
 5869.00    1.17991   1.14748   51.055
 5870.00    1.18759   1.15173   50.622
 5871.00    1.18202   1.15496   50.395
 5872.00    1.17869   1.15582   50.380
 5873.00    1.17707   1.15442   50.513
 5874.00    1.18081   1.15174   50.524
 5875.00    1.17598   1.14891   50.450
 5876.00    1.17244   1.14648   50.591
 5877.00    1.17922   1.14448   50.808
 5878.00    1.17952   1.14245   50.887
 5879.00    1.17532   1.14004   51.277
 5880.00    1.17333   1.13695   51.611
 5881.00    1.17148   1.13317   51.628
 5882.00    1.16604   1.12850   51.481
 5883.00    1.16657   1.12293   -1.000
 5884.00    1.16519   1.11606   -1.000
 5885.00    1.15582   1.10593   -1.000
 5886.00    1.15107   1.08938   -1.000
 5887.00    1.13562   1.06310   -1.000
 5888.00    1.08560   1.02815   -1.000
 5889.00    1.02039   0.99324   57.911
 5890.00    1.01954   0.96813   -1.000
 5891.00    1.08758   0.96138   -1.000
 5892.00    1.19599   0.96677   -1.000
 5893.00    1.16089   0.97526   -1.000
 5894.00    1.07406   0.97833   -1.000
 5895.00    1.06251   0.97628   -1.000
 5896.00    1.03032   0.97690   -1.000
 5897.00    1.07438   0.98631   -1.000
 5898.00    1.15967   1.00701   -1.000
 5899.00    1.19907   1.03307   -1.000
 5900.00    1.17963   1.05930   -1.000
 5901.00    1.16293   1.08188   -1.000
 5902.00    1.15247   1.09919   -1.000
 5903.00    1.15313   1.11130   -1.000
 5904.00    1.15597   1.11909   51.847
 5905.00    1.15391   1.12371   51.836
 5906.00    1.15792   1.12686   51.916
 5907.00    1.16577   1.12928   51.893
 5908.00    1.16810   1.13139   51.796
 5909.00    1.16377   1.13294   51.673
 5910.00    1.15863   1.13359   51.844
 5911.00    1.15361   1.13265   51.924
 5912.00    1.16263   1.12991   51.978
 5913.00    1.15247   1.12553   52.170
 5914.00    1.14635   1.12101   52.914
 5915.00    1.14417   1.11813   53.324
 5916.00    1.15097   1.11784   53.236
 5917.00    1.15563   1.12027   52.924
 5918.00    1.16158   1.12421   52.731
 5919.00    1.15982   1.12843   52.510
 5920.00    1.15110   1.13143   52.384
 5921.00    1.14907   1.13322   52.189
 5922.00    1.15132   1.13394   52.202
 5923.00    1.14555   1.13462   52.252
 5924.00    1.15407   1.13565   52.048
 5925.00    1.15583   1.13688   51.882
 5926.00    1.15774   1.13740   51.786
 5927.00    1.16009   1.13626   51.747
 5928.00    1.16545   1.13336   51.841
 5929.00    1.15626   1.12990   52.212
 5930.00    1.14413   1.12772   52.623
 5931.00    1.14211   1.12759   52.587
 5932.00    1.15000   1.12927   52.078
 5933.00    1.15506   1.13121   51.828
 5934.00    1.14498   1.13280   52.196
 5935.00    1.15140   1.13453   52.563
 5936.00    1.15974   1.13650   52.652
 5937.00    1.15953   1.13841   52.328
 5938.00    1.15720   1.13933   51.883
 5939.00    1.15456   1.13846   51.682
 5940.00    1.15517   1.13640   51.861
 5941.00    1.15264   1.13402   52.392
 5942.00    1.14529   1.13275   52.689
 5943.00    1.14313   1.13275   52.661
 5944.00    1.14900   1.13362   52.357
 5945.00    1.15630   1.13423   52.049
 5946.00    1.15018   1.13383   51.842
 5947.00    1.14513   1.13230   51.979
 5948.00    1.13897   1.13029   52.440
 5949.00    1.13533   1.12899   52.996
 5950.00    1.14510   1.12844   53.126
 5951.00    1.14564   1.12851   52.865
 5952.00    1.14273   1.12826   52.664
 5953.00    1.14826   1.12768   52.792
 5954.00    1.15592   1.12721   52.754
 5955.00    1.16385   1.12673   52.657
 5956.00    1.15524   1.12629   52.664
 5957.00    1.14641   1.12679   52.878
 5958.00    1.14709   1.12863   52.958
 5959.00    1.14518   1.13208   52.759
 5960.00    1.14990   1.13629   52.160
 5961.00    1.15226   1.13987   51.654
 5962.00    1.15493   1.14205   51.443
 5963.00    1.14953   1.14244   51.383
 5964.00    1.14486   1.14142   51.498
 5965.00    1.14674   1.13974   51.781
 5966.00    1.14783   1.13832   51.958
 5967.00    1.14963   1.13788   52.147
 5968.00    1.15039   1.13878   52.035
 5969.00    1.14839   1.14063   51.643
 5970.00    1.14974   1.14293   51.509
 5971.00    1.15131   1.14465   51.493
 5972.00    1.14902   1.14491   51.383
 5973.00    1.15383   1.14324   51.324
 5974.00    1.15477   1.13963   51.594
 5975.00    1.14723   1.13494   52.003
 5976.00    1.14738   1.13061   52.401
 5977.00    1.14219   1.12813   52.776
 5978.00    1.14087   1.12843   53.017
 5979.00    1.14761   1.13069   52.794
 5980.00    1.14690   1.13334   52.346
 5981.00    1.14747   1.13421   52.138
 5982.00    1.14144   1.13245   52.254
 5983.00    1.14814   1.12870   52.674
 5984.00    1.14765   1.12492   53.138
 5985.00    1.13781   1.12315   53.408
 5986.00    1.14394   1.12400   53.231
 5987.00    1.14335   1.12684   52.682
 5988.00    1.14503   1.13021   52.357
 5989.00    1.14764   1.13315   52.179
 5990.00    1.15074   1.13518   51.927
 5991.00    1.14364   1.13697   51.995
 5992.00    1.14041   1.13888   52.117
 5993.00    1.13888   1.14119   51.873
 5994.00    1.14438   1.14292   51.442
 5995.00    1.14968   1.14294   51.287
 5996.00    1.14297   1.14155   51.627
 5997.00    1.14113   1.13934   51.990
 5998.00    1.13910   1.13762   52.223
 5999.00    1.14675   1.13655   52.336
 6000.00    1.15372   1.13578   52.249
 6001.00    1.14537   1.13462   52.293
 6002.00    1.13749   1.13290   52.597
 6003.00    1.13373   1.13100   52.777
 6004.00    1.13575   1.12919   52.766
 6005.00    1.13369   1.12722   52.625
 6006.00    1.13273   1.12456   52.652
 6007.00    1.12893   1.12152   53.021
 6008.00    1.12982   1.11985   53.553
 6009.00    1.13252   1.12059   53.571
 6010.00    1.13272   1.12359   52.977
 6011.00    1.13111   1.12704   52.421
 6012.00    1.13051   1.12882   52.422
 6013.00    1.13284   1.12900   52.815
 6014.00    1.13851   1.12788   53.100
 6015.00    1.13984   1.12662   52.858
 6016.00    1.13445   1.12543   52.836
 6017.00    1.12978   1.12410   53.061
 6018.00    1.13057   1.12229   53.172
 6019.00    1.13053   1.11990   53.043
 6020.00    1.12860   1.11745   53.191
 6021.00    1.12532   1.11566   53.526
 6022.00    1.12554   1.11557   53.347
 6023.00    1.13378   1.11712   52.986
 6024.00    1.13090   1.12013   52.861
 6025.00    1.12638   1.12456   52.793
 6026.00    1.13242   1.12979   52.486
 6027.00    1.13029   1.13475   52.322
 6028.00    1.12701   1.13919   51.998
 6029.00    1.13676   1.14288   51.766
 6030.00    1.14276   1.14568   51.689
 6031.00    1.14067   1.14770   51.699
 6032.00    1.13986   1.14925   51.816
 6033.00    1.14677   1.15050   51.733
 6034.00    1.14561   1.15150   51.506
 6035.00    1.14518   1.15202   51.371
 6036.00    1.14824   1.15175   51.344
 6037.00    1.14324   1.15074   51.251
 6038.00    1.13427   1.14900   51.300
 6039.00    1.13254   1.14676   51.584
 6040.00    1.13198   1.14453   51.700
 6041.00    1.12772   1.14290   51.860
 6042.00    1.13575   1.14250   51.763
 6043.00    1.14140   1.14342   51.689
 6044.00    1.13720   1.14539   51.433
 6045.00    1.13325   1.14792   51.027
 6046.00    1.13583   1.15033   51.034
 6047.00    1.13210   1.15256   51.051
 6048.00    1.13474   1.15429   50.971
 6049.00    1.13582   1.15524   51.013
 6050.00    1.13472   1.15529   51.188
 6051.00    1.13713   1.15433   51.307
 6052.00    1.13066   1.15239   51.356
 6053.00    1.13483   1.14936   51.451
 6054.00    1.12949   1.14582   51.657
 6055.00    1.12409   1.14261   51.818
 6056.00    1.12793   1.14089   52.100
 6057.00    1.13251   1.14103   52.266
 6058.00    1.13476   1.14274   52.190
 6059.00    1.13948   1.14478   51.921
 6060.00    1.13492   1.14595   51.652
 6061.00    1.13232   1.14521   51.695
 6062.00    1.14167   1.14185   51.812
 6063.00    1.10966   1.13636   52.520
 6064.00    1.10508   1.13036   53.541
 6065.00    1.01819   1.12615   -1.000
 6066.00    0.98631   1.12612   -1.000
 6067.00    1.05559   1.13030   18.284
 6068.00    1.09172   1.13669   38.453
 6069.00    1.10204   1.14340   53.240
 6070.00    1.12197   1.14863   51.797
 6071.00    0.50037   1.15212   -1.000
 6072.00    0.74452   1.15417   -1.000
 6073.00    1.11481   1.15518   50.765
 6074.00    1.13799   1.15524   51.188
 6075.00    1.13449   1.15404   51.248
 6076.00    1.13000   1.15137   51.412
 6077.00    1.11829   1.14763   51.675
 6078.00    1.11553   1.14331   51.970
 6079.00    1.11294   1.13948   52.368
 6080.00    1.11679   1.13668   52.695
 6081.00    1.12142   1.13445   52.743
 6082.00    1.12359   1.13260   52.787
 6083.00    1.11852   1.13126   52.933
 6084.00    1.11575   1.13071   52.941
 6085.00    1.11550   1.13139   52.902
 6086.00    1.11906   1.13312   52.847
 6087.00    1.12427   1.13518   52.700
 6088.00    1.11705   1.13647   52.491
 6089.00    1.11411   1.13659   52.570
 6090.00    1.11453   1.13595   52.879
 6091.00    1.11089   1.13533   53.112
 6092.00    1.11179   1.13566   53.102
 6093.00    1.11250   1.13712   52.781
 6094.00    1.11280   1.13951   52.509
 6095.00    1.11737   1.14215   52.215
 6096.00    1.12114   1.14440   51.983
 6097.00    1.11998   1.14540   51.984
 6098.00    1.12063   1.14398   52.109
 6099.00    1.11920   1.13914   52.151
 6100.00    1.10590   1.13035   52.156
 6101.00    1.09431   1.11918   52.731
 6102.00    1.08914   1.10904   53.985
 6103.00    1.08513   1.10384   54.898
 6104.00    1.09191   1.10600   54.598
 6105.00    1.10560   1.11343   53.589
 6106.00    1.11230   1.12291   52.758
 6107.00    1.10874   1.13160   52.529
 6108.00    1.10554   1.13796   52.706
 6109.00    1.10926   1.14222   52.846
 6110.00    1.11290   1.14467   52.835
 6111.00    1.11579   1.14592   52.726
 6112.00    1.11204   1.14673   52.502
 6113.00    1.11062   1.14742   52.472
 6114.00    1.11164   1.14806   52.217
 6115.00    1.11008   1.14830   52.075
 6116.00    1.11247   1.14750   52.252
 6117.00    1.11361   1.14519   52.591
 6118.00    1.11059   1.14046   52.689
 6119.00    1.10050   1.13242   52.926
 6120.00    1.09359   1.12160   53.655
 6121.00    1.08071   1.10979   54.366
 6122.00    1.07727   1.10075   54.898
 6123.00    1.08456   1.09758   54.982
 6124.00    1.09471   1.10054   54.163
 6125.00    1.09759   1.10789   53.439
 6126.00    1.09770   1.11607   53.367
 6127.00    1.09740   1.12321   53.659
 6128.00    1.09823   1.12854   53.628
 6129.00    1.10222   1.13320   53.509
 6130.00    1.10400   1.13790   53.099
 6131.00    1.10787   1.14180   52.599
 6132.00    1.10806   1.14320   52.455
 6133.00    1.10432   1.14000   52.543
 6134.00    1.08604   1.13077   53.008
 6135.00    1.07394   1.11667   54.153
 6136.00    1.05593   1.10128   55.739
 6137.00    1.04860   1.08890   57.169
 6138.00    1.05929   1.08320   57.449
 6139.00    1.07744   1.08365   56.134
 6140.00    1.08263   1.08819   54.540
 6141.00    1.07856   1.09657   53.851
 6142.00    1.08224   1.10684   53.895
 6143.00    1.08522   1.11740   53.992
 6144.00    1.09056   1.12620   53.502
 6145.00    1.09331   1.13132   52.860
 6146.00    1.09993   1.13271   52.729
 6147.00    1.09714   1.13103   52.951
 6148.00    1.08786   1.12768   53.284
 6149.00    1.08857   1.12432   53.667
 6150.00    1.08302   1.12204   53.988
 6151.00    1.07906   1.12146   54.019
 6152.00    1.08642   1.12244   53.835
 6153.00    1.08929   1.12327   53.471
 6154.00    1.08885   1.12279   53.376
 6155.00    1.09761   1.12107   53.787
 6156.00    1.09125   1.11836   54.087
 6157.00    1.08694   1.11433   54.144
 6158.00    1.08305   1.10746   54.350
 6159.00    1.07274   1.09626   54.899
 6160.00    1.06230   1.08058   55.911
 6161.00    1.04786   1.06349   57.559
 6162.00    1.03208   1.04977   59.248
 6163.00    1.03477   1.04380   59.925
 6164.00    1.04990   1.04628   59.156
 6165.00    1.05927   1.05378   57.567
 6166.00    1.06264   1.06192   56.613
 6167.00    1.06760   1.06701   56.324
 6168.00    1.05694   1.06853   56.442
 6169.00    1.05030   1.06843   57.131
 6170.00    1.04964   1.07071   57.733
 6171.00    1.06301   1.07645   57.397
 6172.00    1.07172   1.08462   56.330
 6173.00    1.07021   1.09337   55.508
 6174.00    1.07615   1.10077   55.490
 6175.00    1.07362   1.10617   55.546
 6176.00    1.06350   1.10976   55.424
 6177.00    1.06776   1.11245   55.313
 6178.00    1.07619   1.11473   55.168
 6179.00    1.07892   1.11692   54.905
 6180.00    1.07588   1.11925   54.698
 6181.00    1.07045   1.12169   54.523
 6182.00    1.07578   1.12380   54.275
 6183.00    1.08310   1.12476   54.127
 6184.00    1.08024   1.12396   54.215
 6185.00    1.07869   1.12140   54.403
 6186.00    1.07616   1.11727   54.817
 6187.00    1.07288   1.11186   55.408
 6188.00    1.07117   1.10537   55.985
 6189.00    1.06368   1.09826   56.521
 6190.00    1.05433   1.09156   56.940
 6191.00    1.04741   1.08719   57.659
 6192.00    1.04984   1.08762   58.067
 6193.00    1.06166   1.09262   57.504
 6194.00    1.06798   1.09990   56.125
 6195.00    1.06895   1.10739   55.160
 6196.00    1.06970   1.11289   54.778
 6197.00    1.06459   1.11557   54.680
 6198.00    1.06519   1.11569   55.001
 6199.00    1.06406   1.11439   55.625
 6200.00    1.05927   1.11338   56.098
 6201.00    1.06047   1.11419   56.088
 6202.00    1.06749   1.11688   55.557
 6203.00    1.06443   1.12087   54.864
 6204.00    1.06435   1.12504   54.661
 6205.00    1.06502   1.12848   54.660
 6206.00    1.06608   1.13074   54.577
 6207.00    1.06692   1.13173   54.565
 6208.00    1.06932   1.13120   54.760
 6209.00    1.07439   1.12875   54.777
 6210.00    1.07618   1.12407   54.994
 6211.00    1.07170   1.11729   55.481
 6212.00    1.06478   1.10928   55.924
 6213.00    1.05586   1.10158   56.461
 6214.00    1.04943   1.09566   57.300
 6215.00    1.04678   1.09202   57.908
 6216.00    1.04814   1.09010   58.095
 6217.00    1.04927   1.08907   57.408
 6218.00    1.05240   1.08829   57.077
 6219.00    1.04826   1.08832   57.457
 6220.00    1.04699   1.08965   57.312
 6221.00    1.05930   1.09252   56.895
 6222.00    1.03725   1.09603   57.176
 6223.00    0.97560   1.09898   -1.000
 6224.00    1.04502   1.10094   59.742
 6225.00    1.06950   1.10116   56.924
 6226.00    1.06322   1.09927   56.542
 6227.00    1.05960   1.09484   56.600
 6228.00    1.05117   1.08785   56.889
 6229.00    1.04798   1.07958   57.628
 6230.00    1.03858   1.07245   58.578
 6231.00    1.03274   1.06913   59.350
 6232.00    1.03266   1.07074   59.193
 6233.00    1.04257   1.07627   58.385
 6234.00    1.05370   1.08316   57.296
 6235.00    1.06311   1.08859   56.347
 6236.00    1.06224   1.09117   56.024
 6237.00    1.06403   1.09072   56.345
 6238.00    1.06673   1.08855   56.907
 6239.00    1.05762   1.08576   57.486
 6240.00    1.05603   1.08289   58.097
 6241.00    1.04863   1.07975   58.378
 6242.00    1.04604   1.07587   58.377
 6243.00    1.03858   1.07119   58.756
 6244.00    1.03986   1.06677   59.156
 6245.00    1.03914   1.06414   59.161
 6246.00    1.03068   1.06482   58.812
 6247.00    1.03314   1.06924   58.246
 6248.00    1.04029   1.07567   57.517
 6249.00    1.04542   1.08122   56.901
 6250.00    1.04800   1.08295   56.788
 6251.00    1.03294   1.08023   57.260
 6252.00    1.02019   1.07428   58.274
 6253.00    1.01519   1.06782   59.041
 6254.00    1.01323   1.06298   59.473
 6255.00    1.01574   1.06042   59.661
 6256.00    1.01369   1.05988   59.655
 6257.00    1.01459   1.06067   60.131
 6258.00    1.01968   1.06287   60.679
 6259.00    1.03095   1.06674   60.510
 6260.00    1.03901   1.07239   59.657
 6261.00    1.04438   1.07906   58.752
 6262.00    1.03854   1.08572   57.947
 6263.00    1.03815   1.09120   57.062
 6264.00    1.03631   1.09501   56.706
 6265.00    1.03786   1.09768   57.081
 6266.00    1.03728   1.09962   57.481
 6267.00    1.04150   1.10090   57.297
 6268.00    1.03939   1.10120   56.887
 6269.00    1.03612   1.10044   57.013
 6270.00    1.02919   1.09932   57.303
 6271.00    1.02799   1.09814   57.272
 6272.00    1.03306   1.09653   57.082
 6273.00    1.03394   1.09338   56.939
 6274.00    1.03208   1.08755   57.056
 6275.00    1.03104   1.07954   57.444
 6276.00    1.01180   1.07054   57.907
 6277.00    0.99167   1.06258   58.780
 6278.00    0.96700   1.05731   -1.000
 6279.00    0.94487   1.05532   -1.000
 6280.00    0.93860   1.05713   -1.000
 6281.00    0.94241   1.06246   -1.000
 6282.00    0.95273   1.07004   -1.000
 6283.00    0.95652   1.07860   -1.000
 6284.00    0.96430   1.08655   -1.000
 6285.00    0.97137   1.09291   -1.000
 6286.00    0.98539   1.09710   -1.000
 6287.00    0.99979   1.09916   -1.000
 6288.00    1.01254   1.09932   -1.000
 6289.00    1.01660   1.09788   -1.000
 6290.00    1.01294   1.09574   -1.000
 6291.00    1.01409   1.09375   -1.000
 6292.00    1.01290   1.09219   -1.000
 6293.00    1.00713   1.09089   -1.000
 6294.00    1.00457   1.08925   -1.000
 6295.00    1.00656   1.08671   -1.000
 6296.00    1.00535   1.08309   -1.000
 6297.00    0.98879   1.07897   -1.000
 6298.00    0.97247   1.07518   -1.000
 6299.00    0.96029   1.07218   -1.000
 6300.00    0.93426   1.07027   -1.000
 6301.00    0.90789   1.07005   -1.000
 6302.00    0.92431   1.07249   -1.000
 6303.00    0.97369   1.07797   -1.000
 6304.00    1.00585   1.08521   -1.000
 6305.00    1.01732   1.09238   -1.000
 6306.00    1.01929   1.09814   -1.000
 6307.00    1.02360   1.10185   -1.000
 6308.00    1.03065   1.10351   56.370
 6309.00    1.03122   1.10386   56.220
 6310.00    1.02549   1.10326   -1.000
 6311.00    1.01744   1.10161   -1.000
 6312.00    1.01141   1.09902   -1.000
 6313.00    1.00993   1.09530   -1.000
 6314.00    1.00937   1.09086   -1.000
 6315.00    1.00156   1.08654   -1.000
 6316.00    0.99578   1.08309   -1.000
 6317.00    0.99933   1.08139   -1.000
 6318.00    1.00132   1.08205   -1.000
 6319.00    1.00165   1.08523   -1.000
 6320.00    1.00571   1.09032   -1.000
 6321.00    1.01129   1.09599   -1.000
 6322.00    1.01569   1.10138   -1.000
 6323.00    1.01895   1.10644   -1.000
 6324.00    1.02103   1.11069   -1.000
 6325.00    1.02151   1.11364   -1.000
 6326.00    1.02549   1.11529   -1.000
 6327.00    1.03167   1.11578   -1.000
 6328.00    1.02630   1.11576   -1.000
 6329.00    1.01982   1.11560   -1.000
 6330.00    1.02419   1.11528   -1.000
 6331.00    1.02895   1.11443   -1.000
 6332.00    1.03304   1.11221   -1.000
 6333.00    1.03136   1.10801   55.257
 6334.00    1.03512   1.10226   55.374
 6335.00    1.03040   1.09649   55.519
 6336.00    1.00652   1.09274   -1.000
 6337.00    1.00556   1.09250   -1.000
 6338.00    1.01819   1.09547   -1.000
 6339.00    1.02535   1.10035   55.995
 6340.00    1.02810   1.10563   55.383
 6341.00    1.03270   1.10951   55.061
 6342.00    1.02998   1.11107   -1.000
 6343.00    1.02599   1.11062   -1.000
 6344.00    1.02951   1.10919   -1.000
 6345.00    1.02623   1.10824   -1.000
 6346.00    1.02606   1.10890   -1.000
 6347.00    1.02907   1.11169   -1.000
 6348.00    1.03003   1.11612   -1.000
 6349.00    1.03681   1.12061   -1.000
 6350.00    1.03663   1.12375   -1.000
 6351.00    1.02957   1.12478   -1.000
 6352.00    1.02681   1.12354   -1.000
 6353.00    1.02623   1.12060   -1.000
 6354.00    1.02450   1.11681   -1.000
 6355.00    1.02513   1.11298   -1.000
 6356.00    1.02628   1.10962   -1.000
 6357.00    1.02765   1.10648   -1.000
 6358.00    1.02407   1.10349   -1.000
 6359.00    1.01708   1.10086   -1.000
 6360.00    1.01392   1.09854   -1.000
 6361.00    1.01513   1.09650   -1.000
 6362.00    1.00809   1.09526   -1.000
 6363.00    0.99720   1.09523   -1.000
 6364.00    0.99296   1.09661   -1.000
 6365.00    0.99177   1.09912   -1.000
 6366.00    0.99996   1.10209   -1.000
 6367.00    1.01388   1.10481   -1.000
 6368.00    1.01983   1.10661   -1.000
 6369.00    1.02307   1.10754   -1.000
 6370.00    1.01652   1.10834   -1.000
 6371.00    1.01495   1.10977   -1.000
 6372.00    1.01897   1.11200   -1.000
 6373.00    1.02401   1.11437   -1.000
 6374.00    1.02146   1.11593   -1.000
 6375.00    1.01274   1.11608   -1.000
 6376.00    1.01231   1.11478   -1.000
 6377.00    1.00990   1.11244   -1.000
 6378.00    1.00422   1.10977   -1.000
 6379.00    1.00456   1.10711   -1.000
 6380.00    1.00309   1.10476   -1.000
 6381.00    1.00072   1.10297   -1.000
 6382.00    0.99715   1.10206   -1.000
 6383.00    0.99932   1.10224   -1.000
 6384.00    0.99599   1.10349   -1.000
 6385.00    0.98957   1.10548   -1.000
 6386.00    0.99150   1.10749   -1.000
 6387.00    0.99217   1.10872   -1.000
 6388.00    0.98462   1.10879   -1.000
 6389.00    0.98048   1.10743   -1.000
 6390.00    0.97421   1.10459   -1.000
 6391.00    0.96889   1.10046   -1.000
 6392.00    0.95823   1.09615   -1.000
 6393.00    0.94409   1.09342   -1.000
 6394.00    0.93930   1.09324   -1.000
 6395.00    0.94307   1.09517   -1.000
 6396.00    0.94279   1.09718   -1.000
 6397.00    0.94220   1.09736   -1.000
 6398.00    0.93943   1.09518   -1.000
 6399.00    0.93065   1.09210   -1.000
 6400.00    0.91793   1.09083   -1.000
 6401.00    0.91214   1.09278   -1.000
 6402.00    0.92333   1.09752   -1.000
 6403.00    0.93014   1.10303   -1.000
 6404.00    0.92607   1.10704   -1.000
 6405.00    0.91497   1.10821   -1.000
 6406.00    0.91005   1.10673   -1.000
 6407.00    0.90034   1.10403   -1.000
 6408.00    0.88790   1.10162   -1.000
 6409.00    0.88778   1.10023   -1.000
 6410.00    0.88238   1.09956   -1.000
 6411.00    0.86797   1.09959   -1.000
 6412.00    0.86226   1.10062   -1.000
 6413.00    0.86911   1.10231   -1.000
 6414.00    0.86660   1.10405   -1.000
 6415.00    0.86217   1.10528   -1.000
 6416.00    0.85250   1.10563   -1.000
 6417.00    0.84707   1.10460   -1.000
 6418.00    0.84143   1.10203   -1.000
 6419.00    0.83638   1.09886   -1.000
 6420.00    0.81834   1.09668   -1.000
 6421.00    0.80785   1.09701   -1.000
 6422.00    0.80103   1.10082   -1.000
 6423.00    0.80987   1.10699   -1.000
 6424.00    0.80626   1.11348   -1.000
 6425.00    0.79913   1.11887   -1.000
 6426.00    0.79170   1.12160   -1.000
 6427.00    0.77887   1.12091   -1.000
 6428.00    0.77017   1.11697   -1.000
