###################################################################
## OUTPUT of StarlightChains_v04.for    [Cid@UFSC - 01/Apr/2007] ##
###################################################################

## Some input info
NGC6356_a_1.cxt                          [arq_obs]
Base.BC03.N                              [arq_base]
NGC6356_a_1.msk                          [arq_masks]
StCv04.C99.config                        [arq_config]
   45                                    [N_base]
    0                                    [N_YAV_components = # of components with extra extinction!]
    0                                    [i_FitPowerLaw (1/0 = Yes/No)]
-9.99                                    [alpha_PowerLaw]
CCM                                      [red_law_option]
 1.458241                                [q_norm = A(l_norm)/A(V)]

## (Re)Sampling Parameters
 3359.00                                 [l_ini (A)]
 6428.00                                 [l_fin (A)]
    1.00                                 [dl    (A)]     (OBS: dl_cushion =    50.00 A)

## Normalization info
 4020.00                                 [l_norm (A) - for base]
 4010.00                                 [llow_norm (A) - window for f_obs]
 4060.00                                 [lupp_norm (A) - window for f_obs]
1.105556E-14                             [fobs_norm (in input units)]

## S/N
 4730.00                                 [llow_SN (A) - window for S/N]
 4780.00                                 [lupp_SN (A) - window for S/N]
  43.679                                 [S/N in S/N window]
  28.435                                 [S/N in norm. window]
  64.165                                 [S/N_err in S/N window]
  41.771                                 [S/N_err in norm. window]
  1.0000                                 [fscale_chi2]

## etc...
  2147483612                             [idum_orig]
  3068                                   [NOl_eff]
  1643                                   [Nl_eff]
  1425    NSIGMA                         [Ntot_cliped & clip_method]
  1603420                                [Nglobal_steps]
   7                                     [N_chains]
  10                                     [NEX0s_base = N_base in EX0s-fits]
 0   0   1      257   2.0   8.798E+02    [Clip-Bug, RC-Crash & Burn-In warning-flags, n_censored_weights, wei_nsig_threshold & wei_limit]
    22     21.848     21.844      0.004  [idt_all, wdt_TotTime, wdt_UsrTime & wdt_SysTime (sec)]

## Synthesis Results - Best model ##

 2.76516E+00                             [chi2/Nl_eff]
     1.81433                             [adev (%)]

   102.07759                             [sum-of-x (%)]
 2.99476E-14                             [Flux_tot (units of input spectrum!)]
 1.40322E-09                             [Mini_tot (???)]
 7.22040E-10                             [Mcor_tot (???)]

   8.38                                  [v0_min  (km/s)]
  71.85                                  [vd_min  (km/s)]
 0.7266                                  [AV_min  (mag)]
 0.0000                                  [YAV_min (mag)]

# j     x_j(%)      Mini_j(%)     Mcor_j(%)     age_j(yr)     Z_j      (L/M)_j    YAV?  Mstars   component_j        a/Fe...       SSP_chi2r SSP_adev(%)   SSP_AV   SSP_x(%)
  1      0.0000     0.0000E+00    0.0000E+00    1.000000E+06  0.00400  1.114E-02    0   1.0000   age020_m42            0.0000     1.4721E+03    30.9981   4.0000    77.5841
  2      5.4442     2.7946E-03    5.4306E-03    3.160000E+06  0.00400  4.073E-02    0   0.9999   age045_m42            0.0000     4.0349E+02     7.8216   4.0000    88.5540
  3      0.0000     0.0000E+00    0.0000E+00    5.010000E+06  0.00400  2.534E-02    0   0.9488   age055_m42            0.0000     6.4070E+02    16.7883   4.0000    84.4200
  4      9.2990     1.5297E-02    2.6345E-02    1.000000E+07  0.00400  1.271E-02    0   0.8862   age070_m42            0.0000     4.5337E+02    10.0120   3.6784    85.4470
  5      0.0000     0.0000E+00    0.0000E+00    2.512000E+07  0.00400  5.070E-03    0   0.8174   age090_m42            0.0000     4.2290E+02     9.5832   3.5396    87.1582
  6      0.0000     0.0000E+00    0.0000E+00    4.000000E+07  0.00400  3.505E-03    0   0.7851   age104_m42            0.0000     3.8213E+02     8.3403   3.2030    90.3214
  7      0.0000     0.0000E+00    0.0000E+00    1.015200E+08  0.00400  2.268E-03    0   0.7207   age116_m42            0.0000     1.0263E+03     8.3236   3.1271    98.6273
  8      0.0000     0.0000E+00    0.0000E+00    2.861200E+08  0.00400  1.079E-03    0   0.6613   age125_m42            0.0000     1.0300E+03     8.5679   2.5949   101.3835
  9      0.0000     0.0000E+00    0.0000E+00    6.405400E+08  0.00400  5.077E-04    0   0.6197   age132_m42            0.0000     1.0434E+03     8.9788   2.2277   105.2659
 10      0.3229     1.9095E-02    2.2355E-02    9.047900E+08  0.00400  3.535E-04    0   0.6024   age135_m42            0.0000     7.4776E+02     7.8925   1.9919   105.1049
 11      0.0000     0.0000E+00    0.0000E+00    1.434000E+09  0.00400  1.910E-04    0   0.5716   age139_m42            0.0000     3.9515E+02     5.7112   1.4580   105.5176
 12      0.0000     0.0000E+00    0.0000E+00    2.500000E+09  0.00400  9.818E-05    0   0.5463   age150_m42            0.0000     1.1900E+02     3.3781   1.1893   102.5267
 13      0.0000     0.0000E+00    0.0000E+00    5.000000E+09  0.00400  4.718E-05    0   0.5228   age161_m42            0.0000     3.6847E+01     2.4180   1.0335   100.0128
 14     25.0317     2.3735E+01    2.2971E+01    1.100000E+10  0.00400  2.205E-05    0   0.4980   age185_m42            0.0000     1.2629E+01     2.5488   0.7585    99.3957
 15      3.0699     3.4086E+00    3.2638E+00    1.300000E+10  0.00400  1.883E-05    0   0.4927   age193_m42            0.0000     1.4044E+01     2.6123   0.7408    99.4146
 16      0.0000     0.0000E+00    0.0000E+00    1.000000E+06  0.02000  1.989E-02    0   1.0000   age020_m62            0.0000     1.4030E+03    30.1670   4.0000    78.2897
 17      0.0000     0.0000E+00    0.0000E+00    3.160000E+06  0.02000  3.772E-02    0   0.9858   age045_m62            0.0000     1.1989E+03    26.9771   4.0000    80.3377
 18      0.0000     0.0000E+00    0.0000E+00    5.010000E+06  0.02000  3.227E-02    0   0.9342   age055_m62            0.0000     5.4829E+02    13.1317   4.0000    86.5278
 19      0.0000     0.0000E+00    0.0000E+00    1.000000E+07  0.02000  1.011E-02    0   0.8751   age070_m62            0.0000     5.8489E+02    13.3415   3.7296    81.9790
 20      0.0000     0.0000E+00    0.0000E+00    2.512000E+07  0.02000  4.206E-03    0   0.8099   age090_m62            0.0000     5.1291E+02    11.4308   3.6437    83.3235
 21      0.0000     0.0000E+00    0.0000E+00    4.000000E+07  0.02000  3.373E-03    0   0.7799   age104_m62            0.0000     4.7202E+02     8.5255   3.4094    91.2423
 22      0.0000     0.0000E+00    0.0000E+00    1.015200E+08  0.02000  1.878E-03    0   0.7221   age116_m62            0.0000     9.5496E+02     8.3996   3.1663    98.6180
 23      0.0000     0.0000E+00    0.0000E+00    2.861200E+08  0.02000  8.869E-04    0   0.6700   age125_m62            0.0000     1.4889E+03     9.9815   2.5831   106.1237
 24      0.0000     0.0000E+00    0.0000E+00    6.405400E+08  0.02000  3.657E-04    0   0.6322   age132_m62            0.0000     1.0050E+03     9.0578   1.8522   111.5438
 25      0.0000     0.0000E+00    0.0000E+00    9.047900E+08  0.02000  2.312E-04    0   0.6152   age135_m62            0.0000     6.0317E+02     7.4929   1.4849   111.4316
 26      0.0000     0.0000E+00    0.0000E+00    1.434000E+09  0.02000  1.168E-04    0   0.5865   age139_m62            0.0000     1.8489E+02     4.3692   1.0962   107.1645
 27      0.0000     0.0000E+00    0.0000E+00    2.500000E+09  0.02000  5.505E-05    0   0.5610   age150_m62            0.0000     5.3993E+01     3.5530   0.7235   105.9155
 28     31.7237     2.5550E+01    2.6579E+01    5.000000E+09  0.02000  2.596E-05    0   0.5353   age161_m62            0.0000     5.6364E+01     4.8322   0.3621   107.9164
 29     18.2929     3.2717E+01    3.2446E+01    1.100000E+10  0.02000  1.169E-05    0   0.5103   age185_m62            0.0000     1.3636E+02     6.6424  -0.0440   111.5160
 30      3.1503     6.7966E+00    6.6664E+00    1.300000E+10  0.02000  9.691E-06    0   0.5047   age193_m62            0.0000     1.5836E+02     6.9391  -0.0974   112.1488
 31      0.0000     0.0000E+00    0.0000E+00    1.000000E+06  0.05000  2.651E-02    0   0.9998   age020_m72            0.0000     1.3743E+03    29.9644   4.0000    79.2920
 32      0.0000     0.0000E+00    0.0000E+00    3.160000E+06  0.05000  4.817E-02    0   0.9577   age045_m72            0.0000     9.3165E+02    22.9757   4.0000    83.5504
 33      0.0000     0.0000E+00    0.0000E+00    5.010000E+06  0.05000  3.101E-02    0   0.9147   age055_m72            0.0000     6.0355E+02    13.8730   4.0000    85.1964
 34      0.0000     0.0000E+00    0.0000E+00    1.000000E+07  0.05000  8.954E-03    0   0.8524   age070_m72            0.0000     7.6677E+02    19.4054   4.0000    84.9747
 35      0.0000     0.0000E+00    0.0000E+00    2.512000E+07  0.05000  4.207E-03    0   0.7902   age090_m72            0.0000     4.4138E+02     8.8434   4.0000    88.7248
 36      0.0000     0.0000E+00    0.0000E+00    4.000000E+07  0.05000  3.198E-03    0   0.7618   age104_m72            0.0000     6.9461E+02     7.4567   3.5492    95.2494
 37      0.0000     0.0000E+00    0.0000E+00    1.015200E+08  0.05000  1.716E-03    0   0.7092   age116_m72            0.0000     1.0531E+03     8.6763   3.2432    98.8488
 38      0.0000     0.0000E+00    0.0000E+00    2.861200E+08  0.05000  7.047E-04    0   0.6618   age125_m72            0.0000     1.4024E+03     9.6099   2.3606   107.4011
 39      0.0000     0.0000E+00    0.0000E+00    6.405400E+08  0.05000  2.633E-04    0   0.6253   age132_m72            0.0000     7.5101E+02     8.0671   1.4657   111.9360
 40      0.0000     0.0000E+00    0.0000E+00    9.047900E+08  0.05000  1.484E-04    0   0.6088   age135_m72            0.0000     2.7288E+02     5.6536   0.9934   108.6724
 41      0.0000     0.0000E+00    0.0000E+00    1.434000E+09  0.05000  7.827E-05    0   0.5847   age139_m72            0.0000     8.6425E+01     4.8430   0.6061   107.1955
 42      0.0008     4.4263E-04    4.8026E-04    2.500000E+09  0.05000  3.759E-05    0   0.5583   age150_m72            0.0000     7.3129E+01     5.3048   0.2734   107.8924
 43      5.7422     7.7555E+00    8.0184E+00    5.000000E+09  0.05000  1.548E-05    0   0.5320   age161_m72            0.0000     1.4510E+02     6.7764  -0.1741   109.1887
 44      0.0000     0.0000E+00    0.0000E+00    1.100000E+10  0.05000  6.532E-06    0   0.5070   age185_m72            0.0000     2.6127E+02     9.5182  -0.6312   111.9544
 45      0.0000     0.0000E+00    0.0000E+00    1.300000E+10  0.05000  5.316E-06    0   0.5018   age193_m72            0.0000     3.2134E+02    10.6193  -0.7845   113.2441


## Synthesis Results - Average & Chains ##

# j      x_j: min, <> & last-chain-values for 1 ...  7 chains
  1      0.0000      0.1248      0.1688      0.0282      0.0979      0.1281      0.1328      0.0925      0.1070
  2      5.4442      3.9446      3.9410      4.3633      4.1505      4.0144      3.9442      3.9709      3.9322
  3      0.0000      0.0831      0.0338      0.0852      0.0303      0.0000      0.1887      0.0896      0.0712
  4      9.2990      8.7575      8.5589      8.7875      8.8754      8.6991      8.9399      8.7509      8.5357
  5      0.0000      0.0951      0.0069      0.1292      0.0000      0.0000      0.0000      0.0000      0.0000
  6      0.0000      0.0426      0.0000      0.0000      0.0228      0.0000      0.0000      0.0000      0.0000
  7      0.0000      0.0188      0.0000      0.0000      0.0000      0.0000      0.0000      0.0000      0.0000
  8      0.0000      0.0237      0.0000      0.0000      0.0000      0.0000      0.0000      0.0020      0.0000
  9      0.0000      0.0968      0.3318      0.3305      0.1308      0.0909      0.0753      0.0000      0.0000
 10      0.3229      0.3019      0.3814      0.0924      0.3192      0.5546      0.6668      0.4096      0.8089
 11      0.0000      0.1196      0.0000      0.0000      0.1633      0.1198      0.0000      0.1790      0.0919
 12      0.0000      0.1620      0.3543      0.0000      0.0000      0.1458      0.0586      0.2537      0.1555
 13      0.0000      0.3060      0.0000      0.0016      0.3284      0.0000      0.5309      0.5408      0.6917
 14     25.0317     28.2223     28.4285     28.3334     28.3372     28.2890     28.3255     28.5548     28.4825
 15      3.0699      0.6364      0.9091      0.5895      0.6670      0.8054      0.6800      0.3787      0.0916
 16      0.0000      0.0303      0.0000      0.0000      0.0000      0.1040      0.0000      0.0000      0.0123
 17      0.0000      0.1472      0.2188      0.1754      0.2481      0.1863      0.1773      0.0462      0.4093
 18      0.0000      0.0549      0.1511      0.0323      0.0000      0.0000      0.0807      0.0000      0.0000
 19      0.0000      0.3246      0.3209      0.3897      0.2866      0.4380      0.3429      0.3291      0.3934
 20      0.0000      0.0270      0.0000      0.0000      0.0000      0.0000      0.0000      0.0000      0.0000
 21      0.0000      0.0232      0.0000      0.1271      0.0000      0.0000      0.0020      0.0000      0.0000
 22      0.0000      0.0139      0.0000      0.0000      0.0000      0.0000      0.0000      0.0000      0.0000
 23      0.0000      0.0159      0.0000      0.0000      0.0000      0.0000      0.0000      0.0000      0.0000
 24      0.0000      0.0196      0.0000      0.0000      0.0000      0.0000      0.0000      0.0000      0.0000
 25      0.0000      0.0213      0.0000      0.0718      0.0000      0.0964      0.0000      0.0000      0.0000
 26      0.0000      0.0255      0.0000      0.0000      0.0000      0.0000      0.0000      0.0000      0.0000
 27      0.0000      0.0685      0.0000      0.0000      0.0000      0.0000      0.0000      0.0566      0.0000
 28     31.7237     32.5720     32.6335     32.7043     32.8533     32.5532     32.2644     32.0621     32.7464
 29     18.2929     19.3076     18.5662     19.4234     19.5357     19.5331     19.1426     19.0638     19.2846
 30      3.1503      3.3951      3.3857      3.8950      3.1995      3.4795      3.8420      3.6055      3.3720
 31      0.0000      0.0358      0.0144      0.0696      0.0688      0.0000      0.0552      0.0000      0.0848
 32      0.0000      0.0848      0.2691      0.0000      0.0000      0.1757      0.0000      0.0611      0.0350
 33      0.0000      0.0628      0.0508      0.0000      0.0000      0.0977      0.0307      0.4512      0.1033
 34      0.0000      0.0279      0.0000      0.0063      0.0377      0.0000      0.0000      0.0792      0.0550
 35      0.0000      0.0209      0.0603      0.0000      0.1127      0.0000      0.0000      0.0000      0.0000
 36      0.0000      0.0119      0.0000      0.0000      0.0000      0.0000      0.0000      0.0000      0.0000
 37      0.0000      0.0183      0.0000      0.0000      0.0000      0.0207      0.0000      0.0079      0.0000
 38      0.0000      0.0084      0.0000      0.0000      0.0000      0.0000      0.0000      0.0000      0.0000
 39      0.0000      0.0153      0.0000      0.0000      0.0000      0.0000      0.0000      0.0000      0.0000
 40      0.0000      0.0249      0.0000      0.0000      0.0000      0.0000      0.0000      0.0006      0.0000
 41      0.0000      0.0375      0.0000      0.0000      0.0000      0.0000      0.0000      0.1031      0.0256
 42      0.0008      0.2003      0.0000      0.6149      0.0175      0.4490      0.0000      0.0000      0.0744
 43      5.7422      1.5947      2.3557      1.5495      2.2113      2.0205      2.0114      2.3907      1.8465
 44      0.0000      0.7076      0.8553      0.3072      0.4145      0.0310      0.5787      0.6179      0.6692
 45      0.0000      0.2898      0.0651      0.0025      0.0000      0.0643      0.0144      0.0000      0.0000

# j      m_j: min, <> & last-chain-values for 1 ...  7 chains
  1  0.0000E+00  4.4922E-04  6.1031E-04  1.0249E-04  3.5605E-04  4.6887E-04  4.8025E-04  3.3539E-04  3.8951E-04
  2  5.4306E-03  3.8846E-03  3.8967E-03  4.3393E-03  4.1279E-03  4.0176E-03  3.9009E-03  3.9359E-03  3.9146E-03
  3  0.0000E+00  1.2479E-04  5.0985E-05  1.2919E-04  4.6020E-05  0.0000E+00  2.8458E-04  1.3542E-04  1.0806E-04
  4  2.6345E-02  2.4494E-02  2.4036E-02  2.4821E-02  2.5071E-02  2.4727E-02  2.5112E-02  2.4635E-02  2.4134E-02
  5  0.0000E+00  6.1514E-04  4.4813E-05  8.4411E-04  0.0000E+00  0.0000E+00  0.0000E+00  0.0000E+00  0.0000E+00
  6  0.0000E+00  3.8303E-04  0.0000E+00  0.0000E+00  2.0654E-04  0.0000E+00  0.0000E+00  0.0000E+00  0.0000E+00
  7  0.0000E+00  2.4009E-04  0.0000E+00  0.0000E+00  0.0000E+00  0.0000E+00  0.0000E+00  0.0000E+00  0.0000E+00
  8  0.0000E+00  5.8146E-04  0.0000E+00  0.0000E+00  0.0000E+00  0.0000E+00  0.0000E+00  4.8308E-05  0.0000E+00
  9  0.0000E+00  4.7398E-03  1.6311E-02  1.6343E-02  6.4687E-03  4.5217E-03  3.7047E-03  0.0000E+00  0.0000E+00
 10  2.2355E-02  2.0640E-02  2.6175E-02  6.3762E-03  2.2038E-02  3.8526E-02  4.5778E-02  2.8178E-02  5.5897E-02
 11  0.0000E+00  1.4353E-02  0.0000E+00  0.0000E+00  1.9793E-02  1.4619E-02  0.0000E+00  2.1627E-02  1.1156E-02
 12  0.0000E+00  3.6151E-02  7.9404E-02  0.0000E+00  0.0000E+00  3.3066E-02  1.3130E-02  5.6991E-02  3.5087E-02
 13  0.0000E+00  1.3601E-01  0.0000E+00  7.0242E-04  1.4744E-01  0.0000E+00  2.3702E-01  2.4194E-01  3.1082E-01
 14  2.2971E+01  2.5569E+01  2.5860E+01  2.5923E+01  2.5928E+01  2.6046E+01  2.5773E+01  2.6038E+01  2.6086E+01
 15  3.2638E+00  6.6802E-01  9.5803E-01  6.2491E-01  7.0702E-01  8.5912E-01  7.1683E-01  4.0011E-01  9.7189E-02
 16  0.0000E+00  6.1049E-05  0.0000E+00  0.0000E+00  0.0000E+00  2.1321E-04  0.0000E+00  0.0000E+00  2.5128E-05
 17  0.0000E+00  1.5430E-04  2.3035E-04  1.8567E-04  2.6268E-04  1.9852E-04  1.8663E-04  4.8703E-05  4.3379E-04
 18  0.0000E+00  6.3795E-05  1.7624E-04  3.7822E-05  0.0000E+00  0.0000E+00  9.4133E-05  0.0000E+00  0.0000E+00
 19  0.0000E+00  1.1272E-03  1.1188E-03  1.3666E-03  1.0049E-03  1.5456E-03  1.1956E-03  1.1502E-03  1.3807E-03
 20  0.0000E+00  2.0879E-04  0.0000E+00  0.0000E+00  0.0000E+00  0.0000E+00  0.0000E+00  0.0000E+00  0.0000E+00
 21  0.0000E+00  2.1523E-04  0.0000E+00  1.1905E-03  0.0000E+00  0.0000E+00  1.8775E-05  0.0000E+00  0.0000E+00
 22  0.0000E+00  2.1418E-04  0.0000E+00  0.0000E+00  0.0000E+00  0.0000E+00  0.0000E+00  0.0000E+00  0.0000E+00
 23  0.0000E+00  4.8068E-04  0.0000E+00  0.0000E+00  0.0000E+00  0.0000E+00  0.0000E+00  0.0000E+00  0.0000E+00
 24  0.0000E+00  1.3625E-03  0.0000E+00  0.0000E+00  0.0000E+00  0.0000E+00  0.0000E+00  0.0000E+00  0.0000E+00
 25  0.0000E+00  2.2779E-03  0.0000E+00  7.7372E-03  0.0000E+00  1.0452E-02  0.0000E+00  0.0000E+00  0.0000E+00
 26  0.0000E+00  5.1361E-03  0.0000E+00  0.0000E+00  0.0000E+00  0.0000E+00  0.0000E+00  0.0000E+00  0.0000E+00
 27  0.0000E+00  2.8005E-02  0.0000E+00  0.0000E+00  0.0000E+00  0.0000E+00  0.0000E+00  2.3283E-02  0.0000E+00
 28  2.6579E+01  2.6942E+01  2.7103E+01  2.7319E+01  2.7445E+01  2.7365E+01  2.6803E+01  2.6693E+01  2.7382E+01
 29  3.2446E+01  3.3809E+01  3.2643E+01  3.4348E+01  3.4549E+01  3.4761E+01  3.3665E+01  3.3599E+01  3.4137E+01
 30  6.6664E+00  7.0929E+00  7.1017E+00  8.2176E+00  6.7505E+00  7.3873E+00  8.0611E+00  7.5814E+00  7.1213E+00
 31  0.0000E+00  5.4224E-05  2.1853E-05  1.0633E-04  1.0517E-04  0.0000E+00  8.3856E-05  0.0000E+00  1.2963E-04
 32  0.0000E+00  6.7609E-05  2.1552E-04  0.0000E+00  0.0000E+00  1.4243E-04  0.0000E+00  4.9024E-05  2.8209E-05
 33  0.0000E+00  7.4286E-05  6.0307E-05  0.0000E+00  0.0000E+00  1.1752E-04  3.6492E-05  5.3730E-04  1.2360E-04
 34  0.0000E+00  1.0647E-04  0.0000E+00  2.4259E-05  1.4557E-04  0.0000E+00  0.0000E+00  3.0453E-04  2.1218E-04
 35  0.0000E+00  1.5720E-04  4.5585E-04  0.0000E+00  8.5768E-04  0.0000E+00  0.0000E+00  0.0000E+00  0.0000E+00
 36  0.0000E+00  1.1355E-04  0.0000E+00  0.0000E+00  0.0000E+00  0.0000E+00  0.0000E+00  0.0000E+00  0.0000E+00
 37  0.0000E+00  3.0386E-04  0.0000E+00  0.0000E+00  0.0000E+00  3.4888E-04  0.0000E+00  1.3213E-04  0.0000E+00
 38  0.0000E+00  3.1658E-04  0.0000E+00  0.0000E+00  0.0000E+00  0.0000E+00  0.0000E+00  0.0000E+00  0.0000E+00
 39  0.0000E+00  1.4584E-03  0.0000E+00  0.0000E+00  0.0000E+00  0.0000E+00  0.0000E+00  0.0000E+00  0.0000E+00
 40  0.0000E+00  4.1025E-03  0.0000E+00  0.0000E+00  0.0000E+00  0.0000E+00  0.0000E+00  9.2250E-05  0.0000E+00
 41  0.0000E+00  1.1234E-02  0.0000E+00  0.0000E+00  0.0000E+00  0.0000E+00  0.0000E+00  3.1091E-02  7.7582E-03
 42  4.8026E-04  1.1933E-01  0.0000E+00  3.6997E-01  1.0526E-02  2.7187E-01  0.0000E+00  0.0000E+00  4.4819E-02
 43  8.0184E+00  2.1985E+00  3.2607E+00  2.1573E+00  3.0788E+00  2.8308E+00  2.7849E+00  3.3172E+00  2.5734E+00
 44  0.0000E+00  2.2032E+00  2.6738E+00  9.6581E-01  1.3034E+00  9.7940E-02  1.8097E+00  1.9364E+00  2.1065E+00
 45  0.0000E+00  1.0975E+00  2.4751E-01  9.4699E-03  0.0000E+00  2.4737E-01  5.4831E-02  0.0000E+00  0.0000E+00

# AV, chi2 & Mass for <> & i_chain = 1 ...  7 solutions
AV       0.7266      0.7274      0.7286      0.7333      0.7299      0.7349      0.7306      0.7285      0.7331
chi2 2.7652E+00  2.7938E+00  2.7840E+00  2.7826E+00  2.7807E+00  2.7779E+00  2.7798E+00  2.7823E+00  2.7822E+00
Mass 7.2204E-10  7.3209E-10  7.3030E-10  7.3072E-10  7.2734E-10  7.2762E-10  7.3212E-10  7.2848E-10  7.2974E-10
   8.47                                  [v0_min (km/s) before EX0s...]
  70.54                                  [vd_min (km/s) before EX0s...]


## Synthetic spectrum (Best Model) ##l_obs f_obs f_syn wei
 3070    [Nl_obs]
 3359.00    0.08593   0.42926   -1.000
 3360.00    0.21175   0.39807   -1.000
 3361.00    0.21317   0.39537   -1.000
 3362.00    0.22768   0.42173   -1.000
 3363.00    0.26071   0.46122   -1.000
 3364.00    0.26928   0.49161   -1.000
 3365.00    0.25580   0.49779   -1.000
 3366.00    0.26151   0.47973   -1.000
 3367.00    0.26895   0.45101   -1.000
 3368.00    0.25245   0.42515   -1.000
 3369.00    0.23814   0.40917   -1.000
 3370.00    0.24378   0.40214   -1.000
 3371.00    0.25596   0.40086   -1.000
 3372.00    0.26374   0.40749   -1.000
 3373.00    0.28131   0.42681   -1.000
 3374.00    0.27829   0.45792   -1.000
 3375.00    0.28472   0.49226   -1.000
 3376.00    0.31282   0.51453   -1.000
 3377.00    0.32134   0.51236   -1.000
 3378.00    0.32390   0.48882   -1.000
 3379.00    0.31997   0.46085   -1.000
 3380.00    0.30559   0.44566   -1.000
 3381.00    0.29206   0.45005   -1.000
 3382.00    0.29591   0.46757   -1.000
 3383.00    0.31348   0.48684   -1.000
 3384.00    0.32830   0.50194   -1.000
 3385.00    0.32775   0.51391   -1.000
 3386.00    0.33356   0.52162   -1.000
 3387.00    0.34267   0.52307   -1.000
 3388.00    0.35768   0.52060   -1.000
 3389.00    0.36219   0.51627   -1.000
 3390.00    0.36794   0.50784   -1.000
 3391.00    0.36788   0.49349   -1.000
 3392.00    0.36323   0.47790   -1.000
 3393.00    0.35620   0.47182   -1.000
 3394.00    0.35906   0.48208   -1.000
 3395.00    0.37813   0.50493   -1.000
 3396.00    0.40147   0.53006   -1.000
 3397.00    0.42023   0.55150   -1.000
 3398.00    0.43271   0.56630   -1.000
 3399.00    0.44346   0.57164   -1.000
 3400.00    0.46085   0.56770   -1.000
 3401.00    0.46179   0.55650   -1.000
 3402.00    0.43186   0.54022   -1.000
 3403.00    0.42396   0.52398   -1.000
 3404.00    0.42341   0.51234   -1.000
 3405.00    0.40328   0.50447   -1.000
 3406.00    0.39058   0.49716   -1.000
 3407.00    0.39215   0.49115   -1.000
 3408.00    0.40010   0.49027   -1.000
 3409.00    0.40241   0.49590   -1.000
 3410.00    0.40223   0.50346   -1.000
 3411.00    0.40355   0.50321   -1.000
 3412.00    0.39625   0.49094   -1.000
 3413.00    0.38541   0.47347   -1.000
 3414.00    0.38410   0.46260   -1.000
 3415.00    0.39679   0.46655   -1.000
 3416.00    0.40580   0.48429   -1.000
 3417.00    0.40826   0.50933   -1.000
 3418.00    0.42104   0.53426   -1.000
 3419.00    0.43985   0.55384   -1.000
 3420.00    0.45686   0.56223   -1.000
 3421.00    0.45589   0.55615   -1.000
 3422.00    0.45440   0.54057   -1.000
 3423.00    0.45297   0.52681   -1.000
 3424.00    0.44583   0.52129   -1.000
 3425.00    0.43947   0.52278   -1.000
 3426.00    0.44394   0.52823   -1.000
 3427.00    0.46397   0.53884   -1.000
 3428.00    0.47341   0.55717   -1.000
 3429.00    0.48929   0.57596   -1.000
 3430.00    0.50439   0.58039   -1.000
 3431.00    0.48936   0.56581   -1.000
 3432.00    0.47700   0.54277   -1.000
 3433.00    0.46973   0.52793   -1.000
 3434.00    0.47720   0.52830   -1.000
 3435.00    0.48546   0.53534   -1.000
 3436.00    0.47328   0.53619   -1.000
 3437.00    0.46144   0.52403   -1.000
 3438.00    0.44937   0.49827   -1.000
 3439.00    0.42499   0.46252   -1.000
 3440.00    0.39351   0.42557   -1.000
 3441.00    0.36673   0.39905   -1.000
 3442.00    0.37197   0.39212  139.307
 3443.00    0.38969   0.40296  136.561
 3444.00    0.40546   0.42209  130.198
 3445.00    0.42767   0.44232  123.017
 3446.00    0.44179   0.46382  117.302
 3447.00    0.46450   0.48869   -1.000
 3448.00    0.47908   0.51584   -1.000
 3449.00    0.48511   0.53757   -1.000
 3450.00    0.48637   0.54364   -1.000
 3451.00    0.48783   0.53277   -1.000
 3452.00    0.48151   0.51676   -1.000
 3453.00    0.47950   0.50997   -1.000
 3454.00    0.48720   0.51601   -1.000
 3455.00    0.50255   0.52419   -1.000
 3456.00    0.50447   0.52197   -1.000
 3457.00    0.48881   0.50600   -1.000
 3458.00    0.47050   0.48326  233.042
 3459.00    0.46617   0.46430  112.710
 3460.00    0.46973   0.45404  113.271
 3461.00    0.47058   0.45664  181.172
 3462.00    0.47688   0.47398   -1.000
 3463.00    0.49616   0.49634  879.770
 3464.00    0.50648   0.50869  879.770
 3465.00    0.51467   0.50916   -1.000
 3466.00    0.51788   0.50751   -1.000
 3467.00    0.52205   0.51308   -1.000
 3468.00    0.53886   0.52653   -1.000
 3469.00    0.55206   0.54056   -1.000
 3470.00    0.54923   0.54665  879.770
 3471.00    0.54245   0.53946  879.770
 3472.00    0.52371   0.51909   -1.000
 3473.00    0.50829   0.48999   -1.000
 3474.00    0.49814   0.46034   -1.000
 3475.00    0.46912   0.44071   -1.000
 3476.00    0.44462   0.44066  116.161
 3477.00    0.45032   0.45908  184.085
 3478.00    0.47967   0.48482   -1.000
 3479.00    0.51211   0.50583   -1.000
 3480.00    0.53292   0.51597   -1.000
 3481.00    0.54593   0.51475   -1.000
 3482.00    0.55318   0.50562   -1.000
 3483.00    0.54391   0.49605   -1.000
 3484.00    0.53277   0.49570   -1.000
 3485.00    0.54088   0.50934   -1.000
 3486.00    0.54887   0.52881   -1.000
 3487.00    0.55695   0.53764   -1.000
 3488.00    0.55455   0.52570   -1.000
 3489.00    0.52895   0.49920   -1.000
 3490.00    0.50712   0.47490   -1.000
 3491.00    0.49934   0.46589   -1.000
 3492.00    0.50180   0.47201   -1.000
 3493.00    0.51213   0.48323   -1.000
 3494.00    0.51664   0.48904   -1.000
 3495.00    0.50534   0.48534   -1.000
 3496.00    0.49025   0.47936   -1.000
 3497.00    0.49293   0.48511   -1.000
 3498.00    0.52036   0.50806   -1.000
 3499.00    0.55287   0.53624   -1.000
 3500.00    0.58251   0.55519   -1.000
 3501.00    0.58879   0.56549   -1.000
 3502.00    0.58454   0.57330   -1.000
 3503.00    0.58750   0.57746   -1.000
 3504.00    0.58299   0.57306   -1.000
 3505.00    0.57231   0.56180   -1.000
 3506.00    0.57083   0.55136   -1.000
 3507.00    0.56908   0.54602   -1.000
 3508.00    0.57323   0.54191   -1.000
 3509.00    0.56729   0.53300   -1.000
 3510.00    0.55843   0.51988   -1.000
 3511.00    0.55724   0.50583   -1.000
 3512.00    0.54586   0.49208   -1.000
 3513.00    0.51702   0.48068   -1.000
 3514.00    0.50096   0.47994   -1.000
 3515.00    0.51398   0.49801   -1.000
 3516.00    0.53964   0.53087   -1.000
 3517.00    0.56940   0.56202   -1.000
 3518.00    0.58556   0.57519   -1.000
 3519.00    0.57408   0.56538   -1.000
 3520.00    0.54966   0.53944   -1.000
 3521.00    0.52366   0.50904   -1.000
 3522.00    0.50351   0.48255   -1.000
 3523.00    0.48822   0.45970   -1.000
 3524.00    0.46136   0.44188  113.732
 3525.00    0.43867   0.43653  115.742
 3526.00    0.45302   0.45003  186.818
 3527.00    0.48524   0.48018   -1.000
 3528.00    0.51360   0.51568  879.770
 3529.00    0.53912   0.54194  879.770
 3530.00    0.55429   0.55169  879.770
 3531.00    0.56010   0.54937   -1.000
 3532.00    0.56019   0.54697   -1.000
 3533.00    0.56428   0.55255   -1.000
 3534.00    0.56409   0.56403  879.770
 3535.00    0.57186   0.57403  879.770
 3536.00    0.58030   0.57941  879.770
 3537.00    0.58427   0.58479  879.770
 3538.00    0.59330   0.59330  879.770
 3539.00    0.60435   0.59930   -1.000
 3540.00    0.59877   0.59620  879.770
 3541.00    0.57629   0.58773   -1.000
 3542.00    0.56880   0.58482   -1.000
 3543.00    0.57428   0.59110   -1.000
 3544.00    0.58141   0.60020   -1.000
 3545.00    0.57756   0.60375   -1.000
 3546.00    0.57491   0.59959   -1.000
 3547.00    0.57181   0.59335   -1.000
 3548.00    0.56147   0.59061   -1.000
 3549.00    0.56529   0.59128   -1.000
 3550.00    0.56962   0.59046   -1.000
 3551.00    0.55663   0.58320   -1.000
 3552.00    0.54248   0.56951   -1.000
 3553.00    0.53637   0.55581   -1.000
 3554.00    0.52716   0.54974   -1.000
 3555.00    0.53067   0.55248   -1.000
 3556.00    0.53653   0.55747   -1.000
 3557.00    0.52921   0.55783   -1.000
 3558.00    0.52740   0.55364   -1.000
 3559.00    0.52670   0.55208   -1.000
 3560.00    0.52238   0.55920   -1.000
 3561.00    0.52439   0.57230   -1.000
 3562.00    0.53622   0.57922   -1.000
 3563.00    0.53732   0.56479   -1.000
 3564.00    0.51374   0.52662  228.483
 3565.00    0.47810   0.48454  115.142
 3566.00    0.45390   0.46189  117.204
 3567.00    0.45198   0.45816  116.121
 3568.00    0.45201   0.45610  117.474
 3569.00    0.44064   0.44601  120.723
 3570.00    0.42996   0.43611  120.244
 3571.00    0.43273   0.43948  115.703
 3572.00    0.45426   0.45597  184.688
 3573.00    0.47312   0.47483  879.770
 3574.00    0.48588   0.48882  879.770
 3575.00    0.50254   0.49654   -1.000
 3576.00    0.51270   0.49729   -1.000
 3577.00    0.50222   0.48837   -1.000
 3578.00    0.48043   0.46766   -1.000
 3579.00    0.45641   0.43750  120.872
 3580.00    0.42344   0.40832  129.263
 3581.00    0.39645   0.39130  133.587
 3582.00    0.38934   0.38978  134.271
 3583.00    0.39268   0.39552  136.063
 3584.00    0.38468   0.39612  139.990
 3585.00    0.37256   0.38970  143.466
 3586.00    0.37183   0.38596  141.254
 3587.00    0.38218   0.39387  133.868
 3588.00    0.40178   0.41567  127.027
 3589.00    0.42554   0.44834  118.452
 3590.00    0.46628   0.48366   -1.000
 3591.00    0.51405   0.51128  879.770
 3592.00    0.52486   0.52512  879.770
 3593.00    0.51818   0.53065   -1.000
 3594.00    0.52537   0.53970   -1.000
 3595.00    0.55043   0.55766   -1.000
 3596.00    0.57367   0.57907   -1.000
 3597.00    0.58599   0.59669   -1.000
 3598.00    0.59676   0.60998   -1.000
 3599.00    0.60710   0.61822   -1.000
 3600.00    0.60541   0.61471   -1.000
 3601.00    0.59374   0.59431  879.770
 3602.00    0.56900   0.56252   -1.000
 3603.00    0.53908   0.53173   -1.000
 3604.00    0.52780   0.51233   -1.000
 3605.00    0.52673   0.50507   -1.000
 3606.00    0.52037   0.50096   -1.000
 3607.00    0.50733   0.49114   -1.000
 3608.00    0.49104   0.47689   -1.000
 3609.00    0.48023   0.47003   -1.000
 3610.00    0.48962   0.47989   -1.000
 3611.00    0.51040   0.50090   -1.000
 3612.00    0.52923   0.52069   -1.000
 3613.00    0.53507   0.53669  879.770
 3614.00    0.54248   0.55171   -1.000
 3615.00    0.56529   0.56104   -1.000
 3616.00    0.56459   0.55111   -1.000
 3617.00    0.53459   0.51664   -1.000
 3618.00    0.48694   0.47728  224.258
 3619.00    0.45961   0.46298  183.661
 3620.00    0.48302   0.48220  879.770
 3621.00    0.53119   0.52047   -1.000
 3622.00    0.56097   0.55771  879.770
 3623.00    0.57689   0.58538   -1.000
 3624.00    0.59674   0.60939   -1.000
 3625.00    0.61270   0.63791   -1.000
 3626.00    0.64242   0.66713   -1.000
 3627.00    0.65870   0.68288   -1.000
 3628.00    0.64675   0.67049   -1.000
 3629.00    0.60572   0.62609   -1.000
 3630.00    0.54710   0.56537   -1.000
 3631.00    0.50160   0.51760   -1.000
 3632.00    0.49017   0.50114   -1.000
 3633.00    0.50763   0.51260   -1.000
 3634.00    0.52842   0.53541   -1.000
 3635.00    0.53946   0.55634   -1.000
 3636.00    0.55189   0.57360   -1.000
 3637.00    0.57163   0.59407   -1.000
 3638.00    0.61255   0.61972   -1.000
 3639.00    0.64336   0.64265  809.349
 3640.00    0.64292   0.65251   -1.000
 3641.00    0.62052   0.64413   -1.000
 3642.00    0.59525   0.62196   -1.000
 3643.00    0.57451   0.59577   -1.000
 3644.00    0.55179   0.57233   -1.000
 3645.00    0.53638   0.55276   -1.000
 3646.00    0.53326   0.53536  879.770
 3647.00    0.52716   0.52195   -1.000
 3648.00    0.51859   0.51918  879.770
 3649.00    0.53323   0.53155  879.770
 3650.00    0.56070   0.55822  879.770
 3651.00    0.58501   0.59304   -1.000
 3652.00    0.61030   0.62649   -1.000
 3653.00    0.63532   0.64973   -1.000
 3654.00    0.64738   0.66272   -1.000
 3655.00    0.64858   0.67235   -1.000
 3656.00    0.65616   0.68511   -1.000
 3657.00    0.66532   0.70049   -1.000
 3658.00    0.67127   0.71250   -1.000
 3659.00    0.67628   0.71789   -1.000
 3660.00    0.67923   0.71542   -1.000
 3661.00    0.67307   0.70434   -1.000
 3662.00    0.65281   0.68788   -1.000
 3663.00    0.64293   0.67350   -1.000
 3664.00    0.64577   0.66647   -1.000
 3665.00    0.64888   0.66590   -1.000
 3666.00    0.65342   0.66503   -1.000
 3667.00    0.64605   0.65717   -1.000
 3668.00    0.63664   0.64346   -1.000
 3669.00    0.62816   0.63455   -1.000
 3670.00    0.62343   0.64052   -1.000
 3671.00    0.63975   0.65885   -1.000
 3672.00    0.65871   0.67734   -1.000
 3673.00    0.66620   0.68662   -1.000
 3674.00    0.66493   0.68465   -1.000
 3675.00    0.65497   0.67204   -1.000
 3676.00    0.64185   0.65039   -1.000
 3677.00    0.62753   0.62356  849.822
 3678.00    0.60179   0.59786  873.738
 3679.00    0.57262   0.58153   -1.000
 3680.00    0.57043   0.58082   -1.000
 3681.00    0.59924   0.59437   -1.000
 3682.00    0.62627   0.61225   -1.000
 3683.00    0.62843   0.62217   -1.000
 3684.00    0.61421   0.61524  863.384
 3685.00    0.59222   0.59120  879.770
 3686.00    0.56974   0.56303   -1.000
 3687.00    0.55649   0.55065   -1.000
 3688.00    0.56468   0.56477  879.770
 3689.00    0.59624   0.60098   -1.000
 3690.00    0.63654   0.64309   -1.000
 3691.00    0.66815   0.67181   -1.000
 3692.00    0.67288   0.67732   -1.000
 3693.00    0.65554   0.66689   -1.000
 3694.00    0.64638   0.65467   -1.000
 3695.00    0.65939   0.64878   -1.000
 3696.00    0.66451   0.65250   -1.000
 3697.00    0.66002   0.66777   -1.000
 3698.00    0.67745   0.69194   -1.000
 3699.00    0.71329   0.71454  736.246
 3700.00    0.72928   0.72313  737.423
 3701.00    0.71025   0.70892  760.819
 3702.00    0.67934   0.66946   -1.000
 3703.00    0.62769   0.61287   -1.000
 3704.00    0.56815   0.55715   -1.000
 3705.00    0.53936   0.51934   -1.000
 3706.00    0.54171   0.50660   -1.000
 3707.00    0.54568   0.51212   -1.000
 3708.00    0.54118   0.52628   -1.000
 3709.00    0.55979   0.54690   -1.000
 3710.00    0.59704   0.57587   -1.000
 3711.00    0.63002   0.61250   -1.000
 3712.00    0.66743   0.65299   -1.000
 3713.00    0.70741   0.68849   -1.000
 3714.00    0.73130   0.70879   -1.000
 3715.00    0.72290   0.70924   -1.000
 3716.00    0.69915   0.68900   -1.000
 3717.00    0.67539   0.64796   -1.000
 3718.00    0.62426   0.58860   -1.000
 3719.00    0.54108   0.52040   -1.000
 3720.00    0.47926   0.46440   -1.000
 3721.00    0.46981   0.44336   -1.000
 3722.00    0.49589   0.46312   -1.000
 3723.00    0.54485   0.51193   -1.000
 3724.00    0.59855   0.56740   -1.000
 3725.00    0.62666   0.60446   -1.000
 3726.00    0.62677   0.61318   -1.000
 3727.00    0.61688   0.60798   -1.000
 3728.00    0.61396   0.60655   -1.000
 3729.00    0.61581   0.60807   -1.000
 3730.00    0.60821   0.59848   -1.000
 3731.00    0.58546   0.56554   -1.000
 3732.00    0.54879   0.51103   -1.000
 3733.00    0.49479   0.45099   -1.000
 3734.00    0.44017   0.40307   -1.000
 3735.00    0.41289   0.38214   -1.000
 3736.00    0.42471   0.39554   -1.000
 3737.00    0.46296   0.43906   -1.000
 3738.00    0.51805   0.50037   -1.000
 3739.00    0.58102   0.56237   -1.000
 3740.00    0.62228   0.60475   -1.000
 3741.00    0.62760   0.61534   -1.000
 3742.00    0.60666   0.59653   -1.000
 3743.00    0.57304   0.56077   -1.000
 3744.00    0.53849   0.52272   -1.000
 3745.00    0.51058   0.49173   -1.000
 3746.00    0.48990   0.46552   -1.000
 3747.00    0.46629   0.43849   -1.000
 3748.00    0.43678   0.41472  121.182
 3749.00    0.42414   0.40951   -1.000
 3750.00    0.45903   0.43602   -1.000
 3751.00    0.53033   0.49020   -1.000
 3752.00    0.59379   0.55444   -1.000
 3753.00    0.64428   0.61399   -1.000
 3754.00    0.69083   0.65706   -1.000
 3755.00    0.70419   0.66857   -1.000
 3756.00    0.67128   0.64203   -1.000
 3757.00    0.61115   0.59178   -1.000
 3758.00    0.55414   0.54709   -1.000
 3759.00    0.53635   0.53059   -1.000
 3760.00    0.55333   0.54052   -1.000
 3761.00    0.58518   0.55806   -1.000
 3762.00    0.60859   0.56914   -1.000
 3763.00    0.60806   0.57293   -1.000
 3764.00    0.59750   0.57251   -1.000
 3765.00    0.59834   0.56803   -1.000
 3766.00    0.59838   0.56084   -1.000
 3767.00    0.59504   0.55544   -1.000
 3768.00    0.59787   0.55418   -1.000
 3769.00    0.59711   0.55627   -1.000
 3770.00    0.59805   0.56373   -1.000
 3771.00    0.62052   0.58154   -1.000
 3772.00    0.65800   0.60869   -1.000
 3773.00    0.68820   0.63539   -1.000
 3774.00    0.69381   0.65293   -1.000
 3775.00    0.68594   0.66248   -1.000
 3776.00    0.67894   0.67018   -1.000
 3777.00    0.67831   0.68072  764.089
 3778.00    0.68992   0.69576   -1.000
 3779.00    0.70877   0.71330   -1.000
 3780.00    0.72721   0.72970  713.273
 3781.00    0.73595   0.74189   -1.000
 3782.00    0.74062   0.74815   -1.000
 3783.00    0.74467   0.74547  714.641
 3784.00    0.73198   0.72782  741.383
 3785.00    0.69361   0.69340  788.855
 3786.00    0.64850   0.65127  839.487
 3787.00    0.61641   0.61444  868.857
 3788.00    0.59674   0.59204   -1.000
 3789.00    0.58822   0.58691  868.752
 3790.00    0.60081   0.59327   -1.000
 3791.00    0.61980   0.59941   -1.000
 3792.00    0.61328   0.59493   -1.000
 3793.00    0.58895   0.57785   -1.000
 3794.00    0.57520   0.55439   -1.000
 3795.00    0.56792   0.52995   -1.000
 3796.00    0.54898   0.50453   -1.000
 3797.00    0.52376   0.47953   -1.000
 3798.00    0.51191   0.46793   -1.000
 3799.00    0.53035   0.48538   -1.000
 3800.00    0.57261   0.53055   -1.000
 3801.00    0.60886   0.58652   -1.000
 3802.00    0.64065   0.63608  799.710
 3803.00    0.66660   0.66796  788.446
 3804.00    0.67629   0.67808  791.951
 3805.00    0.66686   0.66912  812.836
 3806.00    0.64710   0.65268   -1.000
 3807.00    0.63556   0.64600   -1.000
 3808.00    0.63939   0.65744   -1.000
 3809.00    0.65497   0.67832   -1.000
 3810.00    0.67353   0.69096   -1.000
 3811.00    0.66545   0.68191   -1.000
 3812.00    0.63540   0.65042   -1.000
 3813.00    0.59711   0.60713   -1.000
 3814.00    0.56302   0.56711  879.770
 3815.00    0.54478   0.54456  879.770
 3816.00    0.54036   0.54272  879.770
 3817.00    0.55213   0.54792   -1.000
 3818.00    0.55492   0.54168   -1.000
 3819.00    0.52896   0.52040   -1.000
 3820.00    0.49431   0.50062   -1.000
 3821.00    0.49376   0.49861  879.770
 3822.00    0.51419   0.50802   -1.000
 3823.00    0.51318   0.50764   -1.000
 3824.00    0.48208   0.48852  224.274
 3825.00    0.45255   0.46272  118.208
 3826.00    0.44304   0.44603  119.028
 3827.00    0.44044   0.44332  117.526
 3828.00    0.44272   0.44950  115.596
 3829.00    0.45506   0.45560  115.279
 3830.00    0.46064   0.45330  118.558
 3831.00    0.44325   0.43883  125.942
 3832.00    0.41460   0.41577  133.204
 3833.00    0.40000   0.39348  133.959
 3834.00    0.40505   0.38137   -1.000
 3835.00    0.42037   0.38196   -1.000
 3836.00    0.43281   0.38915   -1.000
 3837.00    0.42671   0.39522   -1.000
 3838.00    0.41350   0.39976  129.033
 3839.00    0.41264   0.41059  124.148
 3840.00    0.43209   0.43636  205.807
 3841.00    0.47744   0.47788  879.770
 3842.00    0.53037   0.52598   -1.000
 3843.00    0.56518   0.56782  879.770
 3844.00    0.58948   0.59510   -1.000
 3845.00    0.59639   0.60953   -1.000
 3846.00    0.58839   0.61770   -1.000
 3847.00    0.58679   0.62043   -1.000
 3848.00    0.57424   0.61457   -1.000
 3849.00    0.54860   0.60415   -1.000
 3850.00    0.54178   0.59965   -1.000
 3851.00    0.56136   0.60570   -1.000
 3852.00    0.58225   0.61496   -1.000
 3853.00    0.58111   0.61555   -1.000
 3854.00    0.56375   0.60366   -1.000
 3855.00    0.54386   0.58496   -1.000
 3856.00    0.52949   0.56454   -1.000
 3857.00    0.51382   0.54218   -1.000
 3858.00    0.48526   0.51968   -1.000
 3859.00    0.45942   0.50776   -1.000
 3860.00    0.46337   0.51850   -1.000
 3861.00    0.50184   0.55136   -1.000
 3862.00    0.55554   0.59040   -1.000
 3863.00    0.59414   0.61590   -1.000
 3864.00    0.60418   0.62138   -1.000
 3865.00    0.59127   0.61589   -1.000
 3866.00    0.57295   0.60997   -1.000
 3867.00    0.56614   0.60605   -1.000
 3868.00    0.55655   0.59953   -1.000
 3869.00    0.53468   0.58479   -1.000
 3870.00    0.50440   0.56236   -1.000
 3871.00    0.48574   0.54267   -1.000
 3872.00    0.49511   0.53932   -1.000
 3873.00    0.53526   0.55801   -1.000
 3874.00    0.58538   0.58955  879.770
 3875.00    0.60251   0.61218   -1.000
 3876.00    0.58876   0.60912   -1.000
 3877.00    0.55827   0.58627   -1.000
 3878.00    0.52683   0.56442   -1.000
 3879.00    0.51879   0.55630   -1.000
 3880.00    0.52294   0.55842   -1.000
 3881.00    0.51831   0.56265   -1.000
 3882.00    0.53004   0.56740   -1.000
 3883.00    0.56242   0.57207   -1.000
 3884.00    0.58762   0.56780   -1.000
 3885.00    0.58438   0.54604   -1.000
 3886.00    0.56173   0.51259   -1.000
 3887.00    0.55139   0.48476   -1.000
 3888.00    0.55308   0.47854   -1.000
 3889.00    0.56526   0.50040   -1.000
 3890.00    0.60931   0.54488   -1.000
 3891.00    0.66759   0.59657   -1.000
 3892.00    0.70807   0.63633   -1.000
 3893.00    0.71148   0.65364   -1.000
 3894.00    0.69380   0.65523   -1.000
 3895.00    0.69148   0.65595   -1.000
 3896.00    0.70634   0.66281   -1.000
 3897.00    0.72482   0.67067   -1.000
 3898.00    0.72458   0.67287   -1.000
 3899.00    0.71656   0.67203   -1.000
 3900.00    0.71758   0.67411   -1.000
 3901.00    0.71802   0.67722   -1.000
 3902.00    0.71413   0.67408   -1.000
 3903.00    0.69689   0.66173   -1.000
 3904.00    0.66969   0.64580   -1.000
 3905.00    0.64928   0.63772   -1.000
 3906.00    0.64704   0.64679  784.720
 3907.00    0.68417   0.67377   -1.000
 3908.00    0.73495   0.70934   -1.000
 3909.00    0.76032   0.74001   -1.000
 3910.00    0.76740   0.75932   -1.000
 3911.00    0.77996   0.76957   -1.000
 3912.00    0.78745   0.77295   -1.000
 3913.00    0.78217   0.76956   -1.000
 3914.00    0.77103   0.76074   -1.000
 3915.00    0.75518   0.74890   -1.000
 3916.00    0.74634   0.73569   -1.000
 3917.00    0.73436   0.71972   -1.000
 3918.00    0.70525   0.69754   -1.000
 3919.00    0.67502   0.66961   -1.000
 3920.00    0.64368   0.64301  835.324
 3921.00    0.62212   0.62709   -1.000
 3922.00    0.62476   0.62556  828.088
 3923.00    0.64375   0.63118   -1.000
 3924.00    0.64748   0.63098   -1.000
 3925.00    0.62156   0.61509   -1.000
 3926.00    0.57958   0.58125  879.770
 3927.00    0.51739   0.53443  230.395
 3928.00    0.44697   0.48255   -1.000
 3929.00    0.38597   0.43221   -1.000
 3930.00    0.32910   0.38530   -1.000
 3931.00    0.28116   0.34186   -1.000
 3932.00    0.24533   0.30499   -1.000
 3933.00    0.22201   0.28232   -1.000
 3934.00    0.22500   0.28294   -1.000
 3935.00    0.24976   0.30896   -1.000
 3936.00    0.28940   0.35330   -1.000
 3937.00    0.35224   0.40712   -1.000
 3938.00    0.42091   0.46294   -1.000
 3939.00    0.47160   0.51297   -1.000
 3940.00    0.51317   0.55092   -1.000
 3941.00    0.54239   0.57298   -1.000
 3942.00    0.55299   0.58132   -1.000
 3943.00    0.55838   0.58623   -1.000
 3944.00    0.57794   0.59985   -1.000
 3945.00    0.62062   0.62537   -1.000
 3946.00    0.66829   0.65397   -1.000
 3947.00    0.69444   0.67640   -1.000
 3948.00    0.69712   0.69375  743.901
 3949.00    0.71349   0.71118  717.740
 3950.00    0.74337   0.72623   -1.000
 3951.00    0.75771   0.73327   -1.000
 3952.00    0.75852   0.73565   -1.000
 3953.00    0.76039   0.74072   -1.000
 3954.00    0.76740   0.74696   -1.000
 3955.00    0.76213   0.74603   -1.000
 3956.00    0.74172   0.73687  728.689
 3957.00    0.73001   0.72743  728.019
 3958.00    0.72958   0.71841   -1.000
 3959.00    0.72021   0.69650   -1.000
 3960.00    0.67146   0.65243   -1.000
 3961.00    0.59237   0.59578  879.770
 3962.00    0.53260   0.54475   -1.000
 3963.00    0.50178   0.50712  216.655
 3964.00    0.47156   0.47344  125.596
 3965.00    0.41569   0.42977  150.815
 3966.00    0.34440   0.37383   -1.000
 3967.00    0.27778   0.31842   -1.000
 3968.00    0.24422   0.28231   -1.000
 3969.00    0.25933   0.27765  191.486
 3970.00    0.30392   0.30481  157.417
 3971.00    0.36128   0.35566  130.581
 3972.00    0.42821   0.41887  208.636
 3973.00    0.50465   0.48531   -1.000
 3974.00    0.57190   0.55031   -1.000
 3975.00    0.63242   0.61066   -1.000
 3976.00    0.68701   0.66512   -1.000
 3977.00    0.72641   0.71450   -1.000
 3978.00    0.76587   0.75884   -1.000
 3979.00    0.81253   0.79455   -1.000
 3980.00    0.84806   0.81502   -1.000
 3981.00    0.84408   0.81890   -1.000
 3982.00    0.82834   0.81424   -1.000
 3983.00    0.83265   0.81274   -1.000
 3984.00    0.84644   0.82042   -1.000
 3985.00    0.85803   0.83539   -1.000
 3986.00    0.86976   0.85383   -1.000
 3987.00    0.88711   0.87182   -1.000
 3988.00    0.90194   0.88471   -1.000
 3989.00    0.91136   0.89110   -1.000
 3990.00    0.90982   0.89556   -1.000
 3991.00    0.91947   0.90378   -1.000
 3992.00    0.94278   0.91481   -1.000
 3993.00    0.94645   0.92070   -1.000
 3994.00    0.93206   0.91496   -1.000
 3995.00    0.91675   0.89924   -1.000
 3996.00    0.90063   0.88309   -1.000
 3997.00    0.87287   0.87852   -1.000
 3998.00    0.87814   0.89149   -1.000
 3999.00    0.92555   0.91707   -1.000
 4000.00    0.96231   0.94438   -1.000
 4001.00    0.98337   0.96343   -1.000
 4002.00    1.00182   0.96545   -1.000
 4003.00    0.98518   0.94471   -1.000
 4004.00    0.92443   0.90659   -1.000
 4005.00    0.87022   0.87220  611.353
 4006.00    0.86189   0.86496  590.137
 4007.00    0.90617   0.88870   -1.000
 4008.00    0.95717   0.92540   -1.000
 4009.00    0.98482   0.95522   -1.000
 4010.00    0.98879   0.97203   -1.000
 4011.00    1.00366   0.98008   -1.000
 4012.00    1.01349   0.98516   -1.000
 4013.00    1.00243   0.99070   -1.000
 4014.00    1.00310   0.99616  534.291
 4015.00    1.00112   0.99837  532.752
 4016.00    0.99542   0.99670  538.587
 4017.00    0.98855   0.99598   -1.000
 4018.00    0.99197   1.00097   -1.000
 4019.00    1.00654   1.00938  531.324
 4020.00    1.00743   1.01431   -1.000
 4021.00    1.00032   1.01201   -1.000
 4022.00    0.99742   1.00441   -1.000
 4023.00    0.99398   0.99525  548.912
 4024.00    0.98963   0.98946  544.052
 4025.00    0.99574   0.99376  527.171
 4026.00    1.01714   1.01031  512.373
 4027.00    1.04472   1.02826   -1.000
 4028.00    1.05552   1.02688   -1.000
 4029.00    1.02018   0.99401   -1.000
 4030.00    0.95692   0.94016   -1.000
 4031.00    0.90966   0.88963   -1.000
 4032.00    0.90107   0.86079   -1.000
 4033.00    0.91038   0.85944   -1.000
 4034.00    0.93187   0.88463   -1.000
 4035.00    0.97532   0.93133   -1.000
 4036.00    1.02195   0.98799   -1.000
 4037.00    1.06506   1.03698   -1.000
 4038.00    1.08504   1.06126   -1.000
 4039.00    1.06852   1.05847   -1.000
 4040.00    1.04799   1.04339  524.668
 4041.00    1.04255   1.02704   -1.000
 4042.00    1.03826   1.00108   -1.000
 4043.00    1.00000   0.95077   -1.000
 4044.00    0.90835   0.88139   -1.000
 4045.00    0.82728   0.82816  644.608
 4046.00    0.83327   0.82721  597.608
 4047.00    0.91138   0.87817   -1.000
 4048.00    0.99129   0.94841   -1.000
 4049.00    1.03893   1.00534   -1.000
 4050.00    1.05571   1.03477   -1.000
 4051.00    1.04912   1.03827   -1.000
 4052.00    1.02848   1.02383  538.362
 4053.00    1.00450   1.00132  549.496
 4054.00    0.98105   0.97966  555.834
 4055.00    0.96891   0.96173  559.854
 4056.00    0.96186   0.94661   -1.000
 4057.00    0.95208   0.93831   -1.000
 4058.00    0.95686   0.94436   -1.000
 4059.00    0.98112   0.96238   -1.000
 4060.00    1.01079   0.97291   -1.000
 4061.00    1.01024   0.95486   -1.000
 4062.00    0.95610   0.91114   -1.000
 4063.00    0.89131   0.86891   -1.000
 4064.00    0.87881   0.85270   -1.000
 4065.00    0.91093   0.86567   -1.000
 4066.00    0.94304   0.89519   -1.000
 4067.00    0.97109   0.92807   -1.000
 4068.00    1.00803   0.95382   -1.000
 4069.00    1.02611   0.96021   -1.000
 4070.00    1.00293   0.94266   -1.000
 4071.00    0.96466   0.91758   -1.000
 4072.00    0.95424   0.90951   -1.000
 4073.00    0.97837   0.92216   -1.000
 4074.00    0.99221   0.93209   -1.000
 4075.00    0.97477   0.91699   -1.000
 4076.00    0.92216   0.88387   -1.000
 4077.00    0.87030   0.86198   -1.000
 4078.00    0.87787   0.87452  593.516
 4079.00    0.93333   0.92000   -1.000
 4080.00    1.00176   0.97470   -1.000
 4081.00    1.04641   1.01078   -1.000
 4082.00    1.03826   1.01552   -1.000
 4083.00    1.00891   0.99904   -1.000
 4084.00    0.99197   0.98449   -1.000
 4085.00    0.99432   0.98989  535.298
 4086.00    1.03087   1.01662   -1.000
 4087.00    1.07781   1.05182   -1.000
 4088.00    1.10646   1.07877   -1.000
 4089.00    1.11636   1.08624   -1.000
 4090.00    1.10255   1.07514   -1.000
 4091.00    1.07649   1.05716   -1.000
 4092.00    1.06246   1.04206   -1.000
 4093.00    1.06018   1.02758   -1.000
 4094.00    1.05293   1.00582   -1.000
 4095.00    1.02443   0.97464   -1.000
 4096.00    0.98509   0.94098   -1.000
 4097.00    0.95945   0.91114   -1.000
 4098.00    0.94566   0.88008   -1.000
 4099.00    0.91454   0.83856   -1.000
 4100.00    0.84678   0.78954   -1.000
 4101.00    0.78760   0.75372   -1.000
 4102.00    0.79037   0.75397   -1.000
 4103.00    0.84550   0.79441   -1.000
 4104.00    0.90962   0.85734   -1.000
 4105.00    0.95877   0.91803   -1.000
 4106.00    0.99780   0.96059   -1.000
 4107.00    1.01723   0.98199   -1.000
 4108.00    1.01669   0.98633   -1.000
 4109.00    1.00560   0.98107   -1.000
 4110.00    0.98563   0.97600   -1.000
 4111.00    0.97745   0.97872  554.707
 4112.00    0.99151   0.99123  543.610
 4113.00    1.01614   1.01088  534.831
 4114.00    1.03061   1.03167  528.177
 4115.00    1.03624   1.04530   -1.000
 4116.00    1.04592   1.04491  534.304
 4117.00    1.04311   1.03051   -1.000
 4118.00    1.02067   1.01082   -1.000
 4119.00    1.00027   0.99728  561.120
 4120.00    0.99847   0.99496  554.475
 4121.00    1.00509   0.99998  552.032
 4122.00    1.00494   1.00664  549.318
 4123.00    1.01327   1.01416  541.244
 4124.00    1.03297   1.02316   -1.000
 4125.00    1.04327   1.02897   -1.000
 4126.00    1.03385   1.02537   -1.000
 4127.00    1.01490   1.01329  556.525
 4128.00    0.99885   0.99923  560.059
 4129.00    0.99378   0.98526   -1.000
 4130.00    0.98781   0.96676   -1.000
 4131.00    0.96451   0.94237   -1.000
 4132.00    0.93522   0.92187   -1.000
 4133.00    0.92182   0.92059  596.123
 4134.00    0.94113   0.94479  570.422
 4135.00    0.98230   0.98495  546.779
 4136.00    1.02008   1.02533   -1.000
 4137.00    1.04794   1.05552   -1.000
 4138.00    1.06323   1.07279   -1.000
 4139.00    1.06422   1.07562   -1.000
 4140.00    1.05870   1.05723  544.899
 4141.00    1.01976   1.01335  582.916
 4142.00    0.94868   0.95719   -1.000
 4143.00    0.89491   0.91701   -1.000
 4144.00    0.89690   0.91441   -1.000
 4145.00    0.95268   0.94561  565.611
 4146.00    1.00681   0.98502   -1.000
 4147.00    1.01916   1.00854   -1.000
 4148.00    1.00421   1.01117   -1.000
 4149.00    0.98306   1.00377   -1.000
 4150.00    0.96736   0.99747   -1.000
 4151.00    0.97198   0.99363   -1.000
 4152.00    0.97903   0.98777   -1.000
 4153.00    0.96077   0.97792   -1.000
 4154.00    0.99932   0.96813   -1.000
 4155.00    1.16561   0.96570   -1.000
 4156.00    1.14839   0.97501   -1.000
 4157.00    0.86111   0.99493   -1.000
 4158.00    0.81735   1.02095   -1.000
 4159.00    0.99820   1.04667   -1.000
 4160.00    1.05248   1.06700   -1.000
 4161.00    1.05073   1.08190   -1.000
 4162.00    1.06562   1.09243   -1.000
 4163.00    1.06890   1.09625   -1.000
 4164.00    1.05337   1.08934   -1.000
 4165.00    1.02467   1.07091   -1.000
 4166.00    0.99627   1.04834   -1.000
 4167.00    0.98068   1.03350   -1.000
 4168.00    0.99334   1.03040   -1.000
 4169.00    1.01186   1.02890   -1.000
 4170.00    1.00117   1.01350   -1.000
 4171.00    0.95651   0.98066   -1.000
 4172.00    0.90419   0.94556   -1.000
 4173.00    0.88786   0.92861   -1.000
 4174.00    0.91538   0.93633   -1.000
 4175.00    0.95036   0.95670   -1.000
 4176.00    0.96397   0.97440   -1.000
 4177.00    0.96150   0.98640   -1.000
 4178.00    0.96197   0.99792   -1.000
 4179.00    0.97169   1.00874   -1.000
 4180.00    0.98234   1.01258   -1.000
 4181.00    0.98418   1.00944   -1.000
 4182.00    0.98261   1.00978   -1.000
 4183.00    0.99562   1.02114   -1.000
 4184.00    1.01889   1.03525   -1.000
 4185.00    1.01740   1.03652   -1.000
 4186.00    0.99400   1.02176   -1.000
 4187.00    0.96843   1.00494   -1.000
 4188.00    0.96111   1.00157   -1.000
 4189.00    0.98691   1.01299   -1.000
 4190.00    1.00924   1.02998   -1.000
 4191.00    1.01343   1.04629   -1.000
 4192.00    1.03865   1.06019   -1.000
 4193.00    1.06627   1.06548  546.286
 4194.00    1.04487   1.05230   -1.000
 4195.00    0.99345   1.01988   -1.000
 4196.00    0.95443   0.98072   -1.000
 4197.00    0.93523   0.94926   -1.000
 4198.00    0.93001   0.93174  611.026
 4199.00    0.93929   0.92653   -1.000
 4200.00    0.95064   0.92958   -1.000
 4201.00    0.95420   0.93818   -1.000
 4202.00    0.95943   0.95279  587.470
 4203.00    0.97247   0.97580   -1.000
 4204.00    0.98921   1.00647   -1.000
 4205.00    1.00930   1.03929   -1.000
 4206.00    1.02930   1.06766   -1.000
 4207.00    1.04642   1.08691   -1.000
 4208.00    1.05751   1.09479   -1.000
 4209.00    1.06076   1.09398   -1.000
 4210.00    1.06550   1.09196   -1.000
 4211.00    1.07013   1.09249   -1.000
 4212.00    1.06489   1.08865   -1.000
 4213.00    1.05335   1.06982   -1.000
 4214.00    1.01418   1.03883   -1.000
 4215.00    0.97198   1.01591   -1.000
 4216.00    0.97851   1.02155   -1.000
 4217.00    1.02858   1.05663   -1.000
 4218.00    1.08863   1.10220   -1.000
 4219.00    1.12536   1.13693   -1.000
 4220.00    1.14363   1.14843   -1.000
 4221.00    1.14293   1.13172   -1.000
 4222.00    1.10838   1.08544   -1.000
 4223.00    1.04536   1.01071   -1.000
 4224.00    0.95974   0.91750   -1.000
 4225.00    0.84793   0.83149   -1.000
 4226.00    0.76230   0.78653   -1.000
 4227.00    0.78213   0.80583   -1.000
 4228.00    0.89424   0.88280   -1.000
 4229.00    1.00799   0.97814   -1.000
 4230.00    1.06967   1.04806   -1.000
 4231.00    1.09826   1.07576   -1.000
 4232.00    1.09549   1.07012   -1.000
 4233.00    1.06510   1.04852   -1.000
 4234.00    1.04893   1.02609   -1.000
 4235.00    1.03213   1.01109   -1.000
 4236.00    1.01027   1.00627  570.839
 4237.00    1.01569   1.01244  561.237
 4238.00    1.03347   1.02931  550.688
 4239.00    1.04411   1.05286   -1.000
 4240.00    1.06072   1.07787   -1.000
 4241.00    1.07724   1.10163   -1.000
 4242.00    1.09005   1.12437   -1.000
 4243.00    1.10998   1.14664   -1.000
 4244.00    1.13405   1.16285   -1.000
 4245.00    1.12702   1.16090   -1.000
 4246.00    1.09625   1.13422   -1.000
 4247.00    1.06112   1.09037   -1.000
 4248.00    1.02854   1.04655   -1.000
 4249.00    1.00497   1.01891   -1.000
 4250.00    0.99468   1.01380   -1.000
 4251.00    1.02388   1.02446  549.903
 4252.00    1.05609   1.03511   -1.000
 4253.00    1.05581   1.03420   -1.000
 4254.00    1.02822   1.02880  557.757
 4255.00    1.02951   1.03674   -1.000
 4256.00    1.07392   1.05841   -1.000
 4257.00    1.09620   1.06980   -1.000
 4258.00    1.07366   1.05145   -1.000
 4259.00    1.02108   1.01466  587.882
 4260.00    0.97647   0.99380   -1.000
 4261.00    0.98868   1.01388   -1.000
 4262.00    1.04785   1.06952   -1.000
 4263.00    1.11166   1.13240   -1.000
 4264.00    1.15249   1.17506   -1.000
 4265.00    1.16621   1.18844   -1.000
 4266.00    1.15675   1.17681   -1.000
 4267.00    1.12979   1.14488   -1.000
 4268.00    1.09730   1.09535  549.929
 4269.00    1.05766   1.03273   -1.000
 4270.00    0.99696   0.96740   -1.000
 4271.00    0.93478   0.91587   -1.000
 4272.00    0.91111   0.89238   -1.000
 4273.00    0.92508   0.89956   -1.000
 4274.00    0.94866   0.93174   -1.000
 4275.00    0.98117   0.98248  560.385
 4276.00    1.03903   1.04281  529.429
 4277.00    1.09691   1.09497  518.318
 4278.00    1.11828   1.11970  531.301
 4279.00    1.09020   1.11361   -1.000
 4280.00    1.04934   1.09407   -1.000
 4281.00    1.04209   1.08167   -1.000
 4282.00    1.05095   1.08095   -1.000
 4283.00    1.05952   1.08128   -1.000
 4284.00    1.05924   1.07321   -1.000
 4285.00    1.03313   1.05752   -1.000
 4286.00    1.00355   1.03803   -1.000
 4287.00    0.98365   1.01283   -1.000
 4288.00    0.95328   0.97902   -1.000
 4289.00    0.92221   0.94486   -1.000
 4290.00    0.90861   0.93056   -1.000
 4291.00    0.93270   0.94836   -1.000
 4292.00    0.99306   0.98483   -1.000
 4293.00    1.02897   1.01336   -1.000
 4294.00    1.02307   1.01924  578.706
 4295.00    1.00947   1.00437   -1.000
 4296.00    0.98930   0.97380   -1.000
 4297.00    0.94314   0.92833   -1.000
 4298.00    0.87578   0.87260  710.010
 4299.00    0.81806   0.82203  738.664
 4300.00    0.78593   0.79348   -1.000
 4301.00    0.78837   0.79074  712.782
 4302.00    0.80712   0.80319   -1.000
 4303.00    0.82718   0.81769   -1.000
 4304.00    0.84946   0.82556   -1.000
 4305.00    0.84987   0.81958   -1.000
 4306.00    0.82697   0.79624   -1.000
 4307.00    0.79024   0.76540   -1.000
 4308.00    0.76071   0.74747   -1.000
 4309.00    0.76230   0.75811   -1.000
 4310.00    0.80094   0.79768   -1.000
 4311.00    0.85367   0.85457  650.438
 4312.00    0.90055   0.91855   -1.000
 4313.00    0.94649   0.98928   -1.000
 4314.00    1.00445   1.07008   -1.000
 4315.00    1.09305   1.15724   -1.000
 4316.00    1.18897   1.23681   -1.000
 4317.00    1.25146   1.28953   -1.000
 4318.00    1.26526   1.30518   -1.000
 4319.00    1.25051   1.29100   -1.000
 4320.00    1.22691   1.25835   -1.000
 4321.00    1.18167   1.20849   -1.000
 4322.00    1.12133   1.13717   -1.000
 4323.00    1.05114   1.05026  596.171
 4324.00    0.97293   0.97360  634.079
 4325.00    0.92559   0.94381   -1.000
 4326.00    0.95114   0.97973   -1.000
 4327.00    1.05114   1.06504   -1.000
 4328.00    1.15550   1.15765  493.404
 4329.00    1.19890   1.22018   -1.000
 4330.00    1.19690   1.24629   -1.000
 4331.00    1.19839   1.25475   -1.000
 4332.00    1.21424   1.26369   -1.000
 4333.00    1.22842   1.27420   -1.000
 4334.00    1.23860   1.27280   -1.000
 4335.00    1.23401   1.24301   -1.000
 4336.00    1.18757   1.17577   -1.000
 4337.00    1.09639   1.07907   -1.000
 4338.00    0.99298   0.98008   -1.000
 4339.00    0.90720   0.91312   -1.000
 4340.00    0.87244   0.89953   -1.000
 4341.00    0.91213   0.93863   99.597
 4342.00    0.99811   1.01069   54.971
 4343.00    1.07956   1.08625   52.581
 4344.00    1.13526   1.14558   51.092
 4345.00    1.17086   1.18877   50.003
 4346.00    1.18898   1.22369   49.351
 4347.00    1.20634   1.25256   48.672
 4348.00    1.23515   1.26845   48.388
 4349.00    1.23859   1.25681   49.961
 4350.00    1.18178   1.21212   53.374
 4351.00    1.09482   1.15479   -1.000
 4352.00    1.05643   1.12021   -1.000
 4353.00    1.09187   1.12749   52.072
 4354.00    1.14198   1.16592   50.137
 4355.00    1.18338   1.20977   48.897
 4356.00    1.21935   1.23905   48.479
 4357.00    1.22729   1.24882   49.115
 4358.00    1.21381   1.24655   49.960
 4359.00    1.20057   1.24591   49.658
 4360.00    1.20808   1.25820   48.331
 4361.00    1.23628   1.28269   47.373
 4362.00    1.26112   1.30914   47.065
 4363.00    1.27454   1.32953   46.688
 4364.00    1.28137   1.34085   46.425
 4365.00    1.28269   1.33726   47.231
 4366.00    1.25554   1.31381   48.899
 4367.00    1.20660   1.27917   -1.000
 4368.00    1.18510   1.25044   -1.000
 4369.00    1.19763   1.23564   49.496
 4370.00    1.20293   1.22862   49.346
 4371.00    1.20348   1.21704   49.614
 4372.00    1.20347   1.19271   50.990
 4373.00    1.16713   1.15848   53.102
 4374.00    1.11432   1.12880   54.033
 4375.00    1.10035   1.12289   52.691
 4376.00    1.13558   1.14859   50.174
 4377.00    1.19021   1.19053   48.574
 4378.00    1.22726   1.22090   48.414
 4379.00    1.22745   1.21980   49.063
 4380.00    1.20660   1.17947   50.770
 4381.00    1.16630   1.10164   -1.000
 4382.00    1.06500   1.00489   -1.000
 4383.00    0.94816   0.92735   64.709
 4384.00    0.90995   0.90725   61.261
 4385.00    0.97250   0.95207   55.367
 4386.00    1.07462   1.02856   52.109
 4387.00    1.13537   1.09142   51.490
 4388.00    1.14601   1.12059   51.873
 4389.00    1.14040   1.12692   52.226
 4390.00    1.13869   1.13103   51.700
 4391.00    1.15005   1.14284   50.566
 4392.00    1.17491   1.15877   50.267
 4393.00    1.18968   1.17091   51.100
 4394.00    1.16859   1.18049   51.502
 4395.00    1.16620   1.19835   49.999
 4396.00    1.20887   1.22763   48.128
 4397.00    1.25394   1.25289   47.936
 4398.00    1.26112   1.25477   49.303
 4399.00    1.21938   1.23388   50.966
 4400.00    1.17803   1.20806   51.251
 4401.00    1.18214   1.18742   50.396
 4402.00    1.20248   1.16354   50.994
 4403.00    1.17599   1.12530   53.562
 4404.00    1.11006   1.08179   55.205
 4405.00    1.07545   1.05895   54.223
 4406.00    1.10057   1.06958   52.931
 4407.00    1.12293   1.10391   52.367
 4408.00    1.13162   1.14909   51.006
 4409.00    1.17367   1.20193   48.866
 4410.00    1.23839   1.25884   47.019
 4411.00    1.29179   1.30199   46.037
 4412.00    1.31242   1.30862   46.544
 4413.00    1.28930   1.27522   48.676
 4414.00    1.22262   1.22303   50.946
 4415.00    1.16196   1.18412   51.520
 4416.00    1.15422   1.18366   50.279
 4417.00    1.19271   1.22322   48.280
 4418.00    1.24220   1.27939   46.639
 4419.00    1.28251   1.32144   46.254
 4420.00    1.29318   1.33133   47.123
 4421.00    1.25946   1.31235   48.178
 4422.00    1.22360   1.28422   -1.000
 4423.00    1.21352   1.26679   48.086
 4424.00    1.22121   1.26540   48.094
 4425.00    1.22657   1.27165   48.315
 4426.00    1.21564   1.27720   -1.000
 4427.00    1.21679   1.28175   -1.000
 4428.00    1.23583   1.28511   48.148
 4429.00    1.23628   1.28450   48.470
 4430.00    1.22450   1.28056   48.194
 4431.00    1.23293   1.27553   47.712
 4432.00    1.24818   1.26588   48.466
 4433.00    1.22814   1.24441   50.588
 4434.00    1.17353   1.21625   51.994
 4435.00    1.14377   1.20540   -1.000
 4436.00    1.17455   1.23182   48.175
 4437.00    1.24711   1.28744   45.729
 4438.00    1.31534   1.34035   44.871
 4439.00    1.34055   1.36003   45.689
 4440.00    1.31712   1.33922   47.623
 4441.00    1.26191   1.29560   49.787
 4442.00    1.21062   1.26036   50.764
 4443.00    1.19692   1.25855   -1.000
 4444.00    1.22986   1.29237   47.581
 4445.00    1.28563   1.34033   46.202
 4446.00    1.31925   1.37685   45.878
 4447.00    1.32134   1.39281   -1.000
 4448.00    1.32070   1.39433   -1.000
 4449.00    1.31527   1.38999   -1.000
 4450.00    1.30532   1.38157   -1.000
 4451.00    1.30696   1.36534   46.786
 4452.00    1.29958   1.33616   47.939
 4453.00    1.26250   1.29183   50.020
 4454.00    1.20161   1.24129   51.615
 4455.00    1.16398   1.20354   51.505
 4456.00    1.17832   1.19050   50.549
 4457.00    1.20358   1.19526   50.191
 4458.00    1.20791   1.20234   50.385
 4459.00    1.20311   1.20385   50.808
 4460.00    1.19210   1.20439   51.305
 4461.00    1.18252   1.21371   50.896
 4462.00    1.19928   1.23752   49.250
 4463.00    1.24727   1.27203   47.737
 4464.00    1.28662   1.30450   47.251
 4465.00    1.29608   1.32288   47.272
 4466.00    1.28952   1.32482   47.601
 4467.00    1.28120   1.31647   48.382
 4468.00    1.26974   1.30679   48.957
 4469.00    1.25442   1.30503   48.657
 4470.00    1.25758   1.31930   47.443
 4471.00    1.29622   1.35101   45.835
 4472.00    1.34798   1.39096   44.446
 4473.00    1.37966   1.42594   43.734
 4474.00    1.39426   1.44936   43.651
 4475.00    1.39893   1.46385   43.474
 4476.00    1.41168   1.47388   43.151
 4477.00    1.43510   1.47428   43.277
 4478.00    1.42568   1.45301   44.390
 4479.00    1.37447   1.40766   46.298
 4480.00    1.31579   1.35541   47.959
 4481.00    1.27319   1.32435   48.179
 4482.00    1.27405   1.33289   46.692
 4483.00    1.32048   1.37593   44.799
 4484.00    1.38083   1.43099   43.545
 4485.00    1.42380   1.47217   43.216
 4486.00    1.43462   1.48212   43.845
 4487.00    1.41113   1.45866   45.276
 4488.00    1.36165   1.41758   46.639
 4489.00    1.31293   1.38414   -1.000
 4490.00    1.30926   1.37593   -1.000
 4491.00    1.35325   1.38862   44.809
 4492.00    1.38559   1.40112   44.917
 4493.00    1.37271   1.39596   46.047
 4494.00    1.33129   1.37653   47.241
 4495.00    1.29684   1.36316   -1.000
 4496.00    1.30189   1.37174   -1.000
 4497.00    1.34370   1.39954   44.666
 4498.00    1.38628   1.43015   43.891
 4499.00    1.39778   1.44958   44.033
 4500.00    1.38860   1.45705   -1.000
 4501.00    1.38406   1.46383   -1.000
 4502.00    1.40335   1.48214   -1.000
 4503.00    1.44697   1.51266   41.375
 4504.00    1.48555   1.54417   41.256
 4505.00    1.49058   1.56274   41.899
 4506.00    1.47409   1.56214   -1.000
 4507.00    1.45891   1.54976   -1.000
 4508.00    1.45010   1.53870   -1.000
 4509.00    1.46103   1.53520   -1.000
 4510.00    1.47196   1.53488   42.272
 4511.00    1.45785   1.52867   -1.000
 4512.00    1.43115   1.51171   -1.000
 4513.00    1.40414   1.48842   -1.000
 4514.00    1.38450   1.46828   -1.000
 4515.00    1.39031   1.45737   44.077
 4516.00    1.40250   1.45491   44.387
 4517.00    1.38984   1.45629   44.781
 4518.00    1.37768   1.45995   -1.000
 4519.00    1.39711   1.46882   -1.000
 4520.00    1.43325   1.48222   43.289
 4521.00    1.44812   1.49120   43.974
 4522.00    1.42252   1.48610   44.959
 4523.00    1.38469   1.46528   -1.000
 4524.00    1.36808   1.43431   -1.000
 4525.00    1.34821   1.39746   47.314
 4526.00    1.30738   1.35525   48.721
 4527.00    1.27288   1.31183   49.630
 4528.00    1.24920   1.27846   49.638
 4529.00    1.24289   1.26603   48.946
 4530.00    1.26869   1.27606   48.050
 4531.00    1.30159   1.29773   47.550
 4532.00    1.31109   1.31459   48.250
 4533.00    1.28459   1.31741   49.823
 4534.00    1.24382   1.31294   -1.000
 4535.00    1.23799   1.31951   -1.000
 4536.00    1.29226   1.35085   45.230
 4537.00    1.37924   1.40161   43.421
 4538.00    1.43476   1.44895   43.222
 4539.00    1.43656   1.47195   44.053
 4540.00    1.41612   1.46915   44.483
 4541.00    1.39659   1.45682   44.240
 4542.00    1.43669   1.45039   44.003
 4543.00    1.25896   1.45077   -1.000
 4544.00    0.48735   1.44908   -1.000
 4545.00   -0.02818   1.44059    0.000
 4546.00    0.18057   1.42839   -1.000
 4547.00    0.78469   1.41613   -1.000
 4548.00    0.65950   1.40375   -1.000
 4549.00    0.84092   1.39352   -1.000
 4550.00    1.32440   1.39204   -1.000
 4551.00    1.35848   1.40034   45.958
 4552.00    1.36611   1.40865   46.501
 4553.00    1.35842   1.40742   47.066
 4554.00    1.34463   1.40079   46.814
 4555.00    1.34963   1.40337   45.476
 4556.00    1.37947   1.42586   43.684
 4557.00    1.42718   1.46499   42.508
 4558.00    1.46645   1.50574   42.366
 4559.00    1.48015   1.53443   42.473
 4560.00    1.48459   1.54735   42.464
 4561.00    1.47889   1.54620   43.052
 4562.00    1.45980   1.53138   -1.000
 4563.00    1.41936   1.50483   -1.000
 4564.00    1.37788   1.47582   -1.000
 4565.00    1.37779   1.46003   -1.000
 4566.00    1.41619   1.46808   42.957
 4567.00    1.46292   1.49545   42.237
 4568.00    1.48356   1.52358   42.354
 4569.00    1.47711   1.53402   43.203
 4570.00    1.44039   1.52283   -1.000
 4571.00    1.39684   1.50263   -1.000
 4572.00    1.39376   1.49178   -1.000
 4573.00    1.43523   1.49994   42.720
 4574.00    1.47053   1.51995   42.504
 4575.00    1.46715   1.53597   42.646
 4576.00    1.46343   1.53867   -1.000
 4577.00    1.46772   1.52733   43.413
 4578.00    1.44560   1.50316   44.500
 4579.00    1.40315   1.46962   45.609
 4580.00    1.36975   1.43697   45.907
 4581.00    1.37038   1.41762   45.442
 4582.00    1.39082   1.41560   44.969
 4583.00    1.40406   1.42346   44.920
 4584.00    1.40346   1.43076   45.155
 4585.00    1.39118   1.43480   44.902
 4586.00    1.39146   1.44302   43.922
 4587.00    1.42224   1.46291   42.886
 4588.00    1.45519   1.49064   42.481
 4589.00    1.47087   1.51292   42.844
 4590.00    1.47090   1.51797   43.593
 4591.00    1.44381   1.50445   44.383
 4592.00    1.41171   1.48175   -1.000
 4593.00    1.40623   1.46205   44.496
 4594.00    1.41454   1.45166   44.124
 4595.00    1.42086   1.44945   43.914
 4596.00    1.42821   1.45247   43.817
 4597.00    1.43709   1.45902   43.722
 4598.00    1.44031   1.46659   43.909
 4599.00    1.42987   1.47110   44.315
 4600.00    1.41203   1.47089   44.551
 4601.00    1.40469   1.46866   44.312
 4602.00    1.41278   1.46805   43.810
 4603.00    1.42851   1.46977   43.652
 4604.00    1.44359   1.47292   43.653
 4605.00    1.44968   1.47969   43.335
 4606.00    1.45643   1.49541   42.622
 4607.00    1.47768   1.52268   41.726
 4608.00    1.51398   1.55643   41.070
 4609.00    1.54079   1.58448   40.992
 4610.00    1.53442   1.59495   41.420
 4611.00    1.51443   1.58658   41.935
 4612.00    1.49596   1.57015   42.283
 4613.00    1.48579   1.55820   42.264
 4614.00    1.49325   1.55646   41.942
 4615.00    1.50498   1.56273   41.687
 4616.00    1.50574   1.57075   41.791
 4617.00    1.50189   1.57544   42.101
 4618.00    1.49364   1.57616   -1.000
 4619.00    1.48619   1.57596   -1.000
 4620.00    1.49381   1.57866   -1.000
 4621.00    1.51403   1.58515   41.086
 4622.00    1.52752   1.59146   41.160
 4623.00    1.52917   1.59261   41.253
 4624.00    1.52590   1.58810   41.512
 4625.00    1.51772   1.58125   41.735
 4626.00    1.50894   1.57507   41.755
 4627.00    1.51179   1.57107   41.905
 4628.00    1.51191   1.57008   42.076
 4629.00    1.50005   1.57216   41.980
 4630.00    1.50717   1.57664   41.596
 4631.00    1.52762   1.58093   41.506
 4632.00    1.52671   1.57984   41.962
 4633.00    1.50285   1.56966   42.498
 4634.00    1.49101   1.55346   42.658
 4635.00    1.48773   1.53768   42.837
 4636.00    1.48035   1.52411   43.328
 4637.00    1.46282   1.51048   43.672
 4638.00    1.44556   1.49727   43.696
 4639.00    1.45579   1.48961   43.217
 4640.00    1.47551   1.49251   42.267
 4641.00    1.49558   1.50533   41.498
 4642.00    1.51516   1.51951   41.382
 4643.00    1.52151   1.52275   41.930
 4644.00    1.50854   1.50769   42.969
 4645.00    1.47536   1.47720   44.182
 4646.00    1.43514   1.44268   44.785
 4647.00    1.41174   1.41911   44.353
 4648.00    1.41704   1.41871   43.389
 4649.00    1.44230   1.44240   42.621
 4650.00    1.47756   1.47850   42.354
 4651.00    1.50265   1.51139   42.285
 4652.00    1.50240   1.53026   42.550
 4653.00    1.48859   1.53177   43.363
 4654.00    1.46960   1.51971   44.081
 4655.00    1.44770   1.50567   44.039
 4656.00    1.44150   1.50500   43.013
 4657.00    1.47022   1.52687   41.444
 4658.00    1.52144   1.56694   40.248
 4659.00    1.56952   1.60859   39.880
 4660.00    1.59298   1.63228   40.184
 4661.00    1.57395   1.62827   40.992
 4662.00    1.53282   1.60135   41.895
 4663.00    1.50693   1.56357   42.276
 4664.00    1.49830   1.52305   42.714
 4665.00    1.47815   1.48024   44.113
 4666.00    1.42160   1.43484   46.012
 4667.00    1.35743   1.39603   46.800
 4668.00    1.34091   1.38063   45.892
 4669.00    1.37975   1.39828   44.128
 4670.00    1.44722   1.44031   42.666
 4671.00    1.50221   1.48559   42.074
 4672.00    1.51475   1.51702   42.017
 4673.00    1.50630   1.53215   42.010
 4674.00    1.50660   1.54001   41.657
 4675.00    1.52084   1.54908   41.049
 4676.00    1.54054   1.55739   40.926
 4677.00    1.55001   1.55557   41.567
 4678.00    1.53116   1.53841   42.442
 4679.00    1.49664   1.51164   43.196
 4680.00    1.46469   1.48694   43.728
 4681.00    1.44525   1.47381   43.554
 4682.00    1.45556   1.47581   42.644
 4683.00    1.48013   1.49004   41.867
 4684.00    1.50922   1.50827   41.751
 4685.00    1.52645   1.52159   41.835
 4686.00    1.52657   1.52619   41.983
 4687.00    1.51743   1.52399   42.085
 4688.00    1.51700   1.51919   42.082
 4689.00    1.51973   1.51511   42.268
 4690.00    1.50427   1.51283   42.450
 4691.00    1.49604   1.51257   42.170
 4692.00    1.50556   1.51590   41.576
 4693.00    1.53145   1.52513   40.763
 4694.00    1.56157   1.53913   40.083
 4695.00    1.58367   1.55195   40.012
 4696.00    1.58692   1.55561   40.807
 4697.00    1.55601   1.54435   42.049
 4698.00    1.50665   1.51951   42.848
 4699.00    1.48336   1.49029   42.811
 4700.00    1.48412   1.46610   42.849
 4701.00    1.47724   1.45003   43.456
 4702.00    1.45614   1.44181   43.908
 4703.00    1.44115   1.44290   43.470
 4704.00    1.45905   1.45374   42.730
 4705.00    1.49245   1.46783   42.848
 4706.00    1.49063   1.47440   43.641
 4707.00    1.46328   1.46961   44.249
 4708.00    1.44506   1.46183   44.261
 4709.00    1.44065   1.46319   43.349
 4710.00    1.46131   1.47745   42.099
 4711.00    1.50894   1.49739   41.398
 4712.00    1.54204   1.51195   41.498
 4713.00    1.53403   1.51538   42.155
 4714.00    1.51359   1.51278   42.478
 4715.00    1.51114   1.51671   41.937
 4716.00    1.53250   1.53531   41.099
 4717.00    1.56275   1.56494   40.637
 4718.00    1.57956   1.59509   40.466
 4719.00    1.58383   1.61727   40.327
 4720.00    1.58579   1.62870   40.484
 4721.00    1.57591   1.63069   40.807
 4722.00    1.55744   1.62767   40.771
 4723.00    1.55397   1.62535   40.393
 4724.00    1.57302   1.62451   40.255
 4725.00    1.57605   1.61714   40.888
 4726.00    1.54923   1.59316   42.251
 4727.00    1.50988   1.55216   43.476
 4728.00    1.47266   1.50739   43.737
 4729.00    1.45968   1.47704   43.371
 4730.00    1.46925   1.47038   42.983
 4731.00    1.48412   1.48360   42.537
 4732.00    1.50156   1.50654   42.107
 4733.00    1.51871   1.52922   41.823
 4734.00    1.53331   1.54482   41.591
 4735.00    1.54168   1.55148   41.775
 4736.00    1.52852   1.55317   42.000
 4737.00    1.52248   1.55623   41.674
 4738.00    1.54032   1.56404   41.461
 4739.00    1.55357   1.57443   41.631
 4740.00    1.54136   1.58217   41.764
 4741.00    1.52679   1.58541   41.574
 4742.00    1.53507   1.58770   41.155
 4743.00    1.55428   1.59220   41.029
 4744.00    1.56644   1.59866   41.098
 4745.00    1.56853   1.60648   40.920
 4746.00    1.56823   1.61610   40.538
 4747.00    1.58092   1.62730   40.325
 4748.00    1.59049   1.63835   40.339
 4749.00    1.58890   1.64677   40.382
 4750.00    1.58549   1.65016   40.572
 4751.00    1.58198   1.64611   40.977
 4752.00    1.56823   1.63320   41.373
 4753.00    1.55183   1.61402   41.678
 4754.00    1.53681   1.59523   41.741
 4755.00    1.53266   1.58358   41.803
 4756.00    1.52833   1.58182   42.064
 4757.00    1.51936   1.58841   42.217
 4758.00    1.52333   1.59994   -1.000
 4759.00    1.53689   1.61128   41.819
 4760.00    1.54206   1.61479   42.198
 4761.00    1.52419   1.60350   -1.000
 4762.00    1.49005   1.57724   -1.000
 4763.00    1.46586   1.54447   -1.000
 4764.00    1.45929   1.51607   44.093
 4765.00    1.46053   1.49806   43.863
 4766.00    1.46821   1.49270   43.363
 4767.00    1.48553   1.50364   42.515
 4768.00    1.51261   1.53208   41.771
 4769.00    1.53824   1.56864   41.601
 4770.00    1.54636   1.59688   41.862
 4771.00    1.53687   1.60829   42.234
 4772.00    1.52843   1.60997   -1.000
 4773.00    1.53846   1.61592   -1.000
 4774.00    1.56413   1.63243   40.785
 4775.00    1.58502   1.65372   40.713
 4776.00    1.58430   1.67045   -1.000
 4777.00    1.57528   1.67839   -1.000
 4778.00    1.56775   1.67826   -1.000
 4779.00    1.55173   1.67141   -1.000
 4780.00    1.53615   1.65911   -1.000
 4781.00    1.53452   1.64325   -1.000
 4782.00    1.52984   1.62529   -1.000
 4783.00    1.52763   1.60731   -1.000
 4784.00    1.53131   1.59307   42.551
 4785.00    1.52151   1.58441   42.872
 4786.00    1.50843   1.57938   -1.000
 4787.00    1.50164   1.57607   -1.000
 4788.00    1.49704   1.57502   -1.000
 4789.00    1.49380   1.57776   -1.000
 4790.00    1.50965   1.58617   -1.000
 4791.00    1.52554   1.60300   -1.000
 4792.00    1.54294   1.63018   -1.000
 4793.00    1.57416   1.66555   -1.000
 4794.00    1.60617   1.70162   -1.000
 4795.00    1.62406   1.72750   -1.000
 4796.00    1.61575   1.73345   -1.000
 4797.00    1.58550   1.71718   -1.000
 4798.00    1.55331   1.68714   -1.000
 4799.00    1.53745   1.65845   -1.000
 4800.00    1.54165   1.64503   -1.000
 4801.00    1.56700   1.65265   -1.000
 4802.00    1.59559   1.67448   40.537
 4803.00    1.60582   1.69396   -1.000
 4804.00    1.58712   1.69688   -1.000
 4805.00    1.56172   1.68228   -1.000
 4806.00    1.54795   1.66046   -1.000
 4807.00    1.54083   1.64261   -1.000
 4808.00    1.54385   1.63494   -1.000
 4809.00    1.55288   1.63888   -1.000
 4810.00    1.56303   1.65129   -1.000
 4811.00    1.58013   1.66540   -1.000
 4812.00    1.58962   1.67547   -1.000
 4813.00    1.58864   1.68116   -1.000
 4814.00    1.59498   1.68663   -1.000
 4815.00    1.60250   1.69592   -1.000
 4816.00    1.60659   1.70972   -1.000
 4817.00    1.62034   1.72556   -1.000
 4818.00    1.63437   1.73967   -1.000
 4819.00    1.63396   1.74846   -1.000
 4820.00    1.62827   1.74805   -1.000
 4821.00    1.61846   1.73417   -1.000
 4822.00    1.58833   1.70603   -1.000
 4823.00    1.54375   1.67141   -1.000
 4824.00    1.53216   1.64563   -1.000
 4825.00    1.56755   1.64092   40.835
 4826.00    1.59822   1.65436   40.703
 4827.00    1.60035   1.66995   41.085
 4828.00    1.58581   1.67508   -1.000
 4829.00    1.56840   1.66988   -1.000
 4830.00    1.56040   1.65989   -1.000
 4831.00    1.55285   1.64800   -1.000
 4832.00    1.55155   1.63763   -1.000
 4833.00    1.56428   1.63578   40.937
 4834.00    1.58514   1.64617   40.641
 4835.00    1.60202   1.66339   40.634
 4836.00    1.60403   1.67682   40.785
 4837.00    1.60245   1.67877   41.209
 4838.00    1.58464   1.66821   -1.000
 4839.00    1.55342   1.64962   -1.000
 4840.00    1.54038   1.63085   -1.000
 4841.00    1.55365   1.61894   41.964
 4842.00    1.56214   1.61602   41.687
 4843.00    1.56300   1.62077   41.307
 4844.00    1.57458   1.63276   40.743
 4845.00    1.60137   1.65092   40.365
 4846.00    1.61621   1.66803   40.804
 4847.00    1.60110   1.67350   41.521
 4848.00    1.57337   1.66535   -1.000
 4849.00    1.56356   1.65411   -1.000
 4850.00    1.57572   1.65083   41.074
 4851.00    1.58794   1.65456   41.194
 4852.00    1.58476   1.65405   41.509
 4853.00    1.57324   1.63848   42.414
 4854.00    1.53971   1.60595   43.666
 4855.00    1.49543   1.56616   44.071
 4856.00    1.48308   1.53345   43.726
 4857.00    1.49538   1.51148   44.286
 4858.00    1.47754   1.48406   47.115
 4859.00    1.38803   1.42849   52.153
 4860.00    1.24977   1.34477   -1.000
 4861.00    1.16350   1.26735   -1.000
 4862.00    1.18943   1.23962   50.421
 4863.00    1.29346   1.27582   46.864
 4864.00    1.39584   1.35238   44.819
 4865.00    1.45372   1.43425   43.651
 4866.00    1.49025   1.50004   43.066
 4867.00    1.52045   1.54407   42.813
 4868.00    1.52872   1.56593   42.977
 4869.00    1.51028   1.56375   43.882
 4870.00    1.47506   1.53769   45.041
 4871.00    1.43618   1.49927   45.215
 4872.00    1.42735   1.47261   44.229
 4873.00    1.46565   1.47820   43.259
 4874.00    1.50648   1.51323   42.777
 4875.00    1.51786   1.55594   42.514
 4876.00    1.52446   1.58902   42.339
 4877.00    1.53561   1.61228   41.901
 4878.00    1.55175   1.63365   -1.000
 4879.00    1.57236   1.65491   -1.000
 4880.00    1.56995   1.66892   -1.000
 4881.00    1.54878   1.66866   -1.000
 4882.00    1.53745   1.65629   -1.000
 4883.00    1.54046   1.63969   -1.000
 4884.00    1.54185   1.62154   -1.000
 4885.00    1.52054   1.59968   -1.000
 4886.00    1.50315   1.57692   43.376
 4887.00    1.50829   1.56040   43.243
 4888.00    1.51854   1.55016   43.620
 4889.00    1.50233   1.53711   44.483
 4890.00    1.46289   1.51742   44.680
 4891.00    1.45765   1.50496   43.415
 4892.00    1.50371   1.52300   41.468
 4893.00    1.57726   1.58119   39.975
 4894.00    1.64036   1.66295   39.074
 4895.00    1.67538   1.73702   38.686
 4896.00    1.68994   1.78169   -1.000
 4897.00    1.69143   1.79512   -1.000
 4898.00    1.67681   1.78644   -1.000
 4899.00    1.64167   1.76594   -1.000
 4900.00    1.61409   1.74281   -1.000
 4901.00    1.61473   1.72318   -1.000
 4902.00    1.61163   1.70797   -1.000
 4903.00    1.59867   1.69727   -1.000
 4904.00    1.59918   1.69611   -1.000
 4905.00    1.62595   1.70971   -1.000
 4906.00    1.65605   1.73091   39.889
 4907.00    1.65450   1.74026   -1.000
 4908.00    1.61876   1.72365   -1.000
 4909.00    1.57467   1.68591   -1.000
 4910.00    1.54673   1.64694   -1.000
 4911.00    1.54439   1.62722   -1.000
 4912.00    1.57172   1.63525   41.041
 4913.00    1.61417   1.66438   40.498
 4914.00    1.64544   1.69968   40.076
 4915.00    1.66112   1.72552   40.062
 4916.00    1.65312   1.72658   41.007
 4917.00    1.60770   1.68989   -1.000
 4918.00    1.53457   1.61552   -1.000
 4919.00    1.45840   1.52613   46.304
 4920.00    1.42170   1.45866   45.530
 4921.00    1.45265   1.44047   43.908
 4922.00    1.51057   1.47002   42.898
 4923.00    1.54515   1.52136   42.645
 4924.00    1.55838   1.56873   42.299
 4925.00    1.56806   1.60636   41.393
 4926.00    1.60241   1.64354   40.515
 4927.00    1.64070   1.68595   40.009
 4928.00    1.66432   1.72892   39.702
 4929.00    1.67984   1.76372   39.451
 4930.00    1.68903   1.78260   -1.000
 4931.00    1.68746   1.77960   -1.000
 4932.00    1.65191   1.75383   -1.000
 4933.00    1.60032   1.71475   -1.000
 4934.00    1.57431   1.67981   -1.000
 4935.00    1.59757   1.66000   41.650
 4936.00    1.61098   1.64795   42.409
 4937.00    1.57508   1.62720   43.636
 4938.00    1.53109   1.59627   43.853
 4939.00    1.52028   1.57668   42.745
 4940.00    1.54962   1.59132   41.323
 4941.00    1.61089   1.63980   40.350
 4942.00    1.65613   1.69908   39.846
 4943.00    1.67985   1.74448   39.731
 4944.00    1.68378   1.76593   39.925
 4945.00    1.66717   1.76833   -1.000
 4946.00    1.66454   1.76427   -1.000
 4947.00    1.67749   1.76585   -1.000
 4948.00    1.69150   1.77730   39.204
 4949.00    1.70154   1.79330   -1.000
 4950.00    1.71544   1.80540   -1.000
 4951.00    1.71779   1.80887   -1.000
 4952.00    1.70546   1.80305   -1.000
 4953.00    1.68354   1.78804   -1.000
 4954.00    1.67077   1.76073   -1.000
 4955.00    1.64085   1.71367   42.850
 4956.00    1.56367   1.64445   -1.000
 4957.00    1.48570   1.57185   -1.000
 4958.00    1.48722   1.53377   42.884
 4959.00    1.55805   1.55518   41.021
 4960.00    1.62597   1.62102   40.304
 4961.00    1.65853   1.69040   40.318
 4962.00    1.66096   1.73206   40.597
 4963.00    1.64972   1.74008   -1.000
 4964.00    1.62623   1.72299   -1.000
 4965.00    1.59338   1.69234   -1.000
 4966.00    1.56992   1.66081   -1.000
 4967.00    1.56778   1.63960   42.559
 4968.00    1.57766   1.63339   42.314
 4969.00    1.58332   1.64066   41.910
 4970.00    1.59465   1.65786   41.458
 4971.00    1.62055   1.68179   40.981
 4972.00    1.64052   1.70877   40.555
 4973.00    1.65064   1.73324   -1.000
 4974.00    1.65942   1.74910   -1.000
 4975.00    1.67043   1.75253   -1.000
 4976.00    1.65813   1.74288   -1.000
 4977.00    1.63215   1.72216   -1.000
 4978.00    1.60769   1.69461   -1.000
 4979.00    1.58519   1.66424   -1.000
 4980.00    1.56909   1.63031   44.218
 4981.00    1.52712   1.58777   45.677
 4982.00    1.46366   1.53740   -1.000
 4983.00    1.44015   1.49418   45.670
 4984.00    1.46324   1.47910   44.531
 4985.00    1.51550   1.50162   43.169
 4986.00    1.55841   1.55218   41.985
 4987.00    1.59907   1.60936   41.620
 4988.00    1.62582   1.65216   42.031
 4989.00    1.61966   1.67004   42.543
 4990.00    1.59996   1.66744   42.717
 4991.00    1.59280   1.65885   42.478
 4992.00    1.60608   1.65613   42.219
 4993.00    1.61315   1.66112   42.143
 4994.00    1.61191   1.66956   42.000
 4995.00    1.61570   1.67840   41.786
 4996.00    1.62074   1.68576   41.867
 4997.00    1.61858   1.68595   42.319
 4998.00    1.60245   1.67117   43.073
 4999.00    1.57487   1.64027   43.742
 5000.00    1.54988   1.60289   43.963
 5001.00    1.54045   1.57328   43.704
 5002.00    1.55011   1.55900   43.363
 5003.00    1.56304   1.55438   43.646
 5004.00    1.56078   1.54595   44.591
 5005.00    1.52501   1.52704   45.182
 5006.00    1.49469   1.50780   44.562
 5007.00    1.51878   1.50789   43.282
 5008.00    1.57250   1.53534   42.498
 5009.00    1.60625   1.57484   42.687
 5010.00    1.59757   1.59955   43.712
 5011.00    1.55883   1.59234   45.243
 5012.00    1.50414   1.55634   46.548
 5013.00    1.45940   1.51112   46.802
 5014.00    1.44893   1.47963   46.045
 5015.00    1.47028   1.47302   45.049
 5016.00    1.50502   1.48507   44.581
 5017.00    1.52223   1.50206   44.526
 5018.00    1.53066   1.51680   44.211
 5019.00    1.54807   1.53067   43.790
 5020.00    1.55972   1.54443   43.782
 5021.00    1.56461   1.55441   43.922
 5022.00    1.55725   1.56003   43.797
 5023.00    1.55931   1.56823   43.407
 5024.00    1.58247   1.58500   43.050
 5025.00    1.58736   1.60509   43.075
 5026.00    1.58251   1.61611   43.288
 5027.00    1.58113   1.61441   43.114
 5028.00    1.58611   1.61107   42.444
 5029.00    1.60281   1.62000   41.762
 5030.00    1.62758   1.64521   41.115
 5031.00    1.65045   1.68007   40.569
 5032.00    1.67688   1.71314   40.441
 5033.00    1.68836   1.73159   41.286
 5034.00    1.65881   1.72479   42.831
 5035.00    1.59166   1.69280   -1.000
 5036.00    1.54785   1.64982   -1.000
 5037.00    1.54748   1.61147   44.666
 5038.00    1.53568   1.57831   45.981
 5039.00    1.48816   1.53863   47.853
 5040.00    1.42834   1.49078   48.585
 5041.00    1.40379   1.45674   47.050
 5042.00    1.45387   1.46564   44.329
 5043.00    1.54069   1.52504   42.179
 5044.00    1.66211   1.61239   41.003
 5045.00    1.07278   1.69195   -1.000
 5046.00    0.28172   1.73702   -1.000
 5047.00   -0.00254   1.73921    0.000
 5048.00    0.52875   1.70649   -1.000
 5049.00    1.33891   1.65797   -1.000
 5050.00    1.58090   1.61605   43.296
 5051.00    1.57060   1.59630   42.993
 5052.00    1.60213   1.60260   41.938
 5053.00    1.63708   1.63003   41.065
 5054.00    1.67276   1.66788   40.549
 5055.00    1.69189   1.70318   40.330
 5056.00    1.69777   1.72825   40.334
 5057.00    1.70833   1.74416   40.412
 5058.00    1.71477   1.75638   40.429
 5059.00    1.70983   1.76939   40.244
 5060.00    1.70853   1.78333   40.156
 5061.00    1.71488   1.79271   40.514
 5062.00    1.71235   1.78744   41.472
 5063.00    1.67740   1.75917   -1.000
 5064.00    1.61646   1.71185   -1.000
 5065.00    1.57814   1.66361   -1.000
 5066.00    1.58758   1.63311   42.937
 5067.00    1.60978   1.62540   42.614
 5068.00    1.61295   1.63287   42.443
 5069.00    1.62980   1.64593   42.189
 5070.00    1.64265   1.65771   42.306
 5071.00    1.64129   1.66269   42.654
 5072.00    1.63219   1.65954   42.435
 5073.00    1.62885   1.65454   42.022
 5074.00    1.64182   1.65552   41.871
 5075.00    1.65234   1.66244   41.834
 5076.00    1.64990   1.66709   42.083
 5077.00    1.63716   1.65878   43.175
 5078.00    1.60828   1.63027   45.057
 5079.00    1.54470   1.58546   46.175
 5080.00    1.49859   1.54284   45.706
 5081.00    1.51503   1.52302   44.711
 5082.00    1.54982   1.53124   43.985
 5083.00    1.57004   1.55755   43.243
 5084.00    1.60177   1.59039   42.470
 5085.00    1.63821   1.62388   42.018
 5086.00    1.66530   1.65449   41.880
 5087.00    1.67418   1.67837   41.727
 5088.00    1.67335   1.69421   41.454
 5089.00    1.67762   1.70500   41.199
 5090.00    1.68322   1.71543   40.982
 5091.00    1.69676   1.72917   40.600
 5092.00    1.72327   1.74659   40.194
 5093.00    1.74170   1.76222   40.304
 5094.00    1.73460   1.76538   40.991
 5095.00    1.70725   1.74699   41.875
 5096.00    1.66873   1.70745   42.853
 5097.00    1.62655   1.65742   43.805
 5098.00    1.58860   1.61271   44.218
 5099.00    1.56952   1.58925   43.544
 5100.00    1.58849   1.59614   42.327
 5101.00    1.64011   1.62745   41.652
 5102.00    1.67171   1.66348   41.696
 5103.00    1.66056   1.68469   42.149
 5104.00    1.65121   1.68503   42.696
 5105.00    1.64356   1.67051   43.225
 5106.00    1.61849   1.64921   43.763
 5107.00    1.59409   1.62663   43.913
 5108.00    1.59041   1.60773   43.696
 5109.00    1.59561   1.59842   43.390
 5110.00    1.60134   1.60361   42.873
 5111.00    1.62351   1.62365   42.310
 5112.00    1.65273   1.65283   41.795
 5113.00    1.67361   1.68262   41.372
 5114.00    1.68578   1.70811   41.100
 5115.00    1.70433   1.73009   40.741
 5116.00    1.72331   1.75027   40.366
 5117.00    1.73772   1.76690   40.327
 5118.00    1.74143   1.77498   40.721
 5119.00    1.72465   1.76956   41.314
 5120.00    1.70132   1.74905   41.978
 5121.00    1.67329   1.71579   42.925
 5122.00    1.63065   1.67444   44.163
 5123.00    1.59221   1.63159   44.833
 5124.00    1.57231   1.59618   44.660
 5125.00    1.57545   1.57633   44.369
 5126.00    1.58846   1.57305   44.123
 5127.00    1.59388   1.57900   44.073
 5128.00    1.58891   1.58631   44.075
 5129.00    1.58398   1.59409   43.680
 5130.00    1.59852   1.60645   42.984
 5131.00    1.63110   1.62548   42.500
 5132.00    1.65440   1.64811   42.122
 5133.00    1.66008   1.66937   41.739
 5134.00    1.67745   1.68611   41.542
 5135.00    1.69981   1.69526   41.999
 5136.00    1.68718   1.69129   42.947
 5137.00    1.65176   1.67089   43.764
 5138.00    1.61967   1.64088   44.037
 5139.00    1.59860   1.61566   43.785
 5140.00    1.60371   1.60392   43.855
 5141.00    1.60899   1.60230   44.451
 5142.00    1.58872   1.60349   44.536
 5143.00    1.58487   1.60563   43.932
 5144.00    1.60883   1.60980   43.570
 5145.00    1.61573   1.61238   43.797
 5146.00    1.59775   1.60800   44.020
 5147.00    1.59303   1.59958   43.692
 5148.00    1.61495   1.59654   43.335
 5149.00    1.62911   1.60170   43.610
 5150.00    1.62033   1.60697   44.336
 5151.00    1.59958   1.60418   44.811
 5152.00    1.58427   1.59470   44.751
 5153.00    1.57782   1.58733   44.096
 5154.00    1.59269   1.59165   43.055
 5155.00    1.63186   1.61306   41.955
 5156.00    1.68738   1.64918   41.075
 5157.00    1.72996   1.68982   40.620
 5158.00    1.74858   1.72305   40.522
 5159.00    1.75446   1.74214   40.615
 5160.00    1.74993   1.74597   40.818
 5161.00    1.73477   1.73509   41.204
 5162.00    1.71376   1.70939   41.790
 5163.00    1.68616   1.66801   43.063
 5164.00    1.64130   1.60822   45.969
 5165.00    1.54371   1.52474   50.473
 5166.00    1.39457   1.41997   54.565
 5167.00    1.27742   1.31925   55.014
 5168.00    1.27522   1.26059   52.420
 5169.00    1.35266   1.25701   -1.000
 5170.00    1.39085   1.27657   -1.000
 5171.00    1.33238   1.27514   -1.000
 5172.00    1.23934   1.24839   56.182
 5173.00    1.23645   1.23845   51.147
 5174.00    1.36518   1.28649   -1.000
 5175.00    1.51967   1.38770   -1.000
 5176.00    1.61058   1.49793   -1.000
 5177.00    1.64434   1.57733   42.980
 5178.00    1.65607   1.61517   43.241
 5179.00    1.65258   1.61613   44.396
 5180.00    1.61352   1.57991   47.060
 5181.00    1.51169   1.50151   51.847
 5182.00    1.35321   1.39065   56.668
 5183.00    1.22325   1.28641   -1.000
 5184.00    1.22665   1.24220   50.977
 5185.00    1.37139   1.28546   -1.000
 5186.00    1.53988   1.39260   -1.000
 5187.00    1.62920   1.50954   -1.000
 5188.00    1.65616   1.59410   42.954
 5189.00    1.66617   1.63460   43.207
 5190.00    1.66195   1.63696   44.290
 5191.00    1.62031   1.61108   45.600
 5192.00    1.57147   1.57353   45.778
 5193.00    1.57218   1.54700   45.100
 5194.00    1.60010   1.54496   44.389
 5195.00    1.61798   1.56336   43.741
 5196.00    1.64015   1.59204   42.938
 5197.00    1.67009   1.62574   42.159
 5198.00    1.69906   1.66170   41.695
 5199.00    1.72473   1.69400   41.563
 5200.00    1.73382   1.71447   41.780
 5201.00    1.71157   1.71668   42.408
 5202.00    1.69499   1.69754   43.323
 5203.00    1.66800   1.65690   44.569
 5204.00    1.61220   1.59925   45.963
 5205.00    1.56524   1.53665   46.539
 5206.00    1.54733   1.48498   -1.000
 5207.00    1.54029   1.45477   -1.000
 5208.00    1.52354   1.44833   -1.000
 5209.00    1.53039   1.46574   45.363
 5210.00    1.58078   1.50822   -1.000
 5211.00    1.65615   1.57206   -1.000
 5212.00    1.72989   1.64198   -1.000
 5213.00    1.77304   1.69524   -1.000
 5214.00    1.76702   1.71538   41.653
 5215.00    1.73121   1.70485   42.330
 5216.00    1.70391   1.68471   42.247
 5217.00    1.70447   1.67964   41.494
 5218.00    1.73344   1.70017   40.767
 5219.00    1.76966   1.73765   40.361
 5220.00    1.78826   1.77410   40.158
 5221.00    1.79238   1.79411   40.459
 5222.00    1.78538   1.78878   41.478
 5223.00    1.75007   1.75445   43.064
 5224.00    1.68518   1.69332   45.017
 5225.00    1.60788   1.61702   46.556
 5226.00    1.55169   1.54964   46.272
 5227.00    1.56441   1.52070   44.137
 5228.00    1.64450   1.54560   -1.000
 5229.00    1.72407   1.61016   -1.000
 5230.00    1.76419   1.67725   -1.000
 5231.00    1.77486   1.71334   -1.000
 5232.00    1.76001   1.71119   42.137
 5233.00    1.73230   1.69024   42.312
 5234.00    1.72232   1.67892   41.598
 5235.00    1.75070   1.69455   40.597
 5236.00    1.79047   1.73395   39.977
 5237.00    1.81369   1.77971   39.820
 5238.00    1.83430   1.81444   39.904
 5239.00    1.83362   1.83096   39.899
 5240.00    1.82554   1.83279   39.711
 5241.00    1.82555   1.82808   39.674
 5242.00    1.82501   1.82445   39.644
 5243.00    1.82412   1.82570   39.572
 5244.00    1.83185   1.82793   40.092
 5245.00    1.81687   1.82007   41.227
 5246.00    1.76876   1.79411   42.306
 5247.00    1.71665   1.75556   42.685
 5248.00    1.70951   1.71962   42.753
 5249.00    1.70946   1.69749   42.967
 5250.00    1.69842   1.69030   42.919
 5251.00    1.70569   1.69463   42.434
 5252.00    1.72631   1.70621   41.952
 5253.00    1.74799   1.71887   41.830
 5254.00    1.74604   1.72871   41.635
 5255.00    1.75249   1.74116   40.862
 5256.00    1.79105   1.76663   39.787
 5257.00    1.84300   1.80565   39.206
 5258.00    1.86856   1.84254   39.364
 5259.00    1.86088   1.85617   40.235
 5260.00    1.82223   1.83413   41.767
 5261.00    1.75940   1.77744   43.705
 5262.00    1.67795   1.69768   45.407
 5263.00    1.61145   1.61216   46.533
 5264.00    1.57920   1.53878   46.908
 5265.00    1.56734   1.49130   -1.000
 5266.00    1.58075   1.47331   -1.000
 5267.00    1.60680   1.47251   -1.000
 5268.00    1.59425   1.46734   -1.000
 5269.00    1.53865   1.44992   -1.000
 5270.00    1.52930   1.44039   -1.000
 5271.00    1.61569   1.46742   -1.000
 5272.00    1.70867   1.53224   -1.000
 5273.00    1.73698   1.60368   -1.000
 5274.00    1.73475   1.65353   -1.000
 5275.00    1.74174   1.68438   41.525
 5276.00    1.77306   1.71716   40.276
 5277.00    1.82866   1.76229   -1.000
 5278.00    1.86770   1.80779   39.268
 5279.00    1.87122   1.83158   40.015
 5280.00    1.84304   1.82204   41.052
 5281.00    1.80176   1.78646   41.905
 5282.00    1.76232   1.74456   42.278
 5283.00    1.74455   1.71860   41.735
 5284.00    1.76825   1.72564   40.564
 5285.00    1.83087   1.76812   -1.000
 5286.00    1.89637   1.82904   -1.000
 5287.00    1.92680   1.88247   38.773
 5288.00    1.91659   1.91370   38.843
 5289.00    1.91541   1.92655   38.678
 5290.00    1.92355   1.93175   38.546
 5291.00    1.92441   1.93364   38.681
 5292.00    1.92138   1.92996   39.012
 5293.00    1.90883   1.91809   39.488
 5294.00    1.89474   1.89570   40.394
 5295.00    1.85233   1.85802   41.821
 5296.00    1.78159   1.80327   43.109
 5297.00    1.71038   1.74346   43.263
 5298.00    1.69628   1.70241   42.380
 5299.00    1.74267   1.69659   41.487
 5300.00    1.78908   1.72076   -1.000
 5301.00    1.80714   1.75705   40.654
 5302.00    1.82935   1.79486   39.729
 5303.00    1.87592   1.83524   38.881
 5304.00    1.91781   1.87782   38.602
 5305.00    1.93348   1.91247   38.847
 5306.00    1.92491   1.92895   39.209
 5307.00    1.91120   1.92989   39.132
 5308.00    1.90643   1.92855   38.754
 5309.00    1.91986   1.93492   38.455
 5310.00    1.94225   1.94669   38.410
 5311.00    1.94979   1.95411   38.579
 5312.00    1.93854   1.95073   38.766
 5313.00    1.92311   1.93732   39.011
 5314.00    1.91683   1.91808   39.370
 5315.00    1.90456   1.89708   39.735
 5316.00    1.88884   1.87865   39.849
 5317.00    1.88347   1.86809   39.638
 5318.00    1.88725   1.86808   39.424
 5319.00    1.89827   1.87477   39.478
 5320.00    1.90367   1.87953   39.723
 5321.00    1.89608   1.87440   40.137
 5322.00    1.87580   1.85524   40.777
 5323.00    1.84513   1.82336   41.263
 5324.00    1.82250   1.78483   41.358
 5325.00    1.81130   1.74290   -1.000
 5326.00    1.77255   1.69230   -1.000
 5327.00    1.67982   1.63081   46.312
 5328.00    1.60556   1.57737   45.439
 5329.00    1.63469   1.56572   -1.000
 5330.00    1.74189   1.61114   -1.000
 5331.00    1.83020   1.69073   -1.000
 5332.00    1.85469   1.76607   -1.000
 5333.00    1.86252   1.81833   39.678
 5334.00    1.88846   1.85283   39.417
 5335.00    1.90540   1.87830   39.551
 5336.00    1.90346   1.89310   39.817
 5337.00    1.89298   1.89000   40.200
 5338.00    1.87326   1.86555   41.049
 5339.00    1.83291   1.82456   41.882
 5340.00    1.79092   1.78226   41.848
 5341.00    1.78907   1.75997   40.918
 5342.00    1.83539   1.76921   -1.000
 5343.00    1.87829   1.79956   -1.000
 5344.00    1.88954   1.82786   -1.000
 5345.00    1.87936   1.83858   40.315
 5346.00    1.86713   1.83214   40.531
 5347.00    1.86302   1.81751   40.847
 5348.00    1.85308   1.80407   41.030
 5349.00    1.84792   1.80041   40.602
 5350.00    1.86698   1.81353   39.731
 5351.00    1.90104   1.84361   39.103
 5352.00    1.92899   1.88187   38.883
 5353.00    1.94175   1.91765   38.638
 5354.00    1.95652   1.94703   38.193
 5355.00    1.97762   1.97165   37.842
 5356.00    1.99173   1.99138   37.788
 5357.00    1.99694   2.00309   37.847
 5358.00    1.99508   2.00499   37.962
 5359.00    1.99087   1.99745   38.319
 5360.00    1.97387   1.98109   38.914
 5361.00    1.94625   1.95725   39.515
 5362.00    1.92523   1.92952   39.879
 5363.00    1.89917   1.90213   40.117
 5364.00    1.88088   1.87789   40.356
 5365.00    1.87337   1.85864   40.339
 5366.00    1.87994   1.84528   40.292
 5367.00    1.88453   1.83439   40.585
 5368.00    1.87264   1.81594   -1.000
 5369.00    1.83639   1.78101   -1.000
 5370.00    1.77856   1.73556   43.122
 5371.00    1.74397   1.70293   41.996
 5372.00    1.78962   1.70811   -1.000
 5373.00    1.87653   1.75605   -1.000
 5374.00    1.94362   1.82578   -1.000
 5375.00    1.97036   1.88689   -1.000
 5376.00    1.97795   1.92193   38.500
 5377.00    1.97518   1.93383   38.555
 5378.00    1.97128   1.93478   38.738
 5379.00    1.95825   1.93211   39.081
 5380.00    1.94406   1.92516   39.471
 5381.00    1.92811   1.91210   39.720
 5382.00    1.91945   1.89630   39.752
 5383.00    1.91259   1.88558   39.604
 5384.00    1.92070   1.88620   39.241
 5385.00    1.94661   1.89749   39.060
 5386.00    1.95723   1.91110   39.173
 5387.00    1.94384   1.91575   39.502
 5388.00    1.92016   1.90476   40.049
 5389.00    1.89500   1.88017   40.552
 5390.00    1.87749   1.85055   40.806
 5391.00    1.86170   1.82525   40.865
 5392.00    1.85884   1.80927   40.957
 5393.00    1.86525   1.80104   -1.000
 5394.00    1.86270   1.79359   -1.000
 5395.00    1.83763   1.77904   -1.000
 5396.00    1.79757   1.75661   42.739
 5397.00    1.78178   1.73764   41.804
 5398.00    1.81179   1.73817   -1.000
 5399.00    1.86728   1.76315   -1.000
 5400.00    1.90132   1.79986   -1.000
 5401.00    1.90845   1.82789   -1.000
 5402.00    1.90091   1.83159   -1.000
 5403.00    1.85846   1.80486   -1.000
 5404.00    1.78999   1.75419   43.507
 5405.00    1.74212   1.70112   43.330
 5406.00    1.75599   1.67227   -1.000
 5407.00    1.80515   1.67750   -1.000
 5408.00    1.83333   1.70193   -1.000
 5409.00    1.82285   1.72491   -1.000
 5410.00    1.81369   1.74283   -1.000
 5411.00    1.84745   1.76749   -1.000
 5412.00    1.89507   1.80454   -1.000
 5413.00    1.92351   1.84403   -1.000
 5414.00    1.91993   1.87394   39.619
 5415.00    1.92760   1.89414   39.407
 5416.00    1.95137   1.91171   39.135
 5417.00    1.96339   1.92799   39.185
 5418.00    1.96099   1.93648   39.523
 5419.00    1.93729   1.93281   39.809
 5420.00    1.92244   1.92086   39.753
 5421.00    1.93240   1.90775   39.583
 5422.00    1.93622   1.89617   39.941
 5423.00    1.91676   1.88535   40.382
 5424.00    1.89770   1.87901   40.162
 5425.00    1.90967   1.88508   39.528
 5426.00    1.95099   1.90246   39.429
 5427.00    1.96074   1.91311   40.275
 5428.00    1.91154   1.89698   41.549
 5429.00    1.84501   1.85602   41.973
 5430.00    1.82797   1.81531   41.406
 5431.00    1.85801   1.79622   -1.000
 5432.00    1.87423   1.79504   -1.000
 5433.00    1.85184   1.79310   -1.000
 5434.00    1.82704   1.78288   42.157
 5435.00    1.83012   1.77691   41.483
 5436.00    1.85769   1.79257   -1.000
 5437.00    1.90215   1.83433   -1.000
 5438.00    1.95418   1.89071   -1.000
 5439.00    1.98864   1.94421   38.486
 5440.00    2.00689   1.98275   38.357
 5441.00    2.02524   2.00365   38.345
 5442.00    2.02248   2.00829   38.641
 5443.00    1.99693   1.99471   39.515
 5444.00    1.95418   1.95782   41.009
 5445.00    1.87944   1.89898   42.478
 5446.00    1.81025   1.83517   42.618
 5447.00    1.79679   1.79394   41.475
 5448.00    1.84437   1.79416   40.243
 5449.00    1.90469   1.83002   -1.000
 5450.00    1.93508   1.87520   39.590
 5451.00    1.94660   1.90361   39.849
 5452.00    1.94434   1.90385   40.629
 5453.00    1.91344   1.87728   41.758
 5454.00    1.84960   1.83363   42.752
 5455.00    1.80299   1.79245   42.535
 5456.00    1.81859   1.77818   41.239
 5457.00    1.88917   1.80284   -1.000
 5458.00    1.94717   1.85244   -1.000
 5459.00    1.95656   1.89592   -1.000
 5460.00    1.93683   1.91013   40.565
 5461.00    1.91401   1.89409   41.180
 5462.00    1.87967   1.86445   41.488
 5463.00    1.86420   1.84176   41.158
 5464.00    1.89102   1.83824   40.649
 5465.00    1.92301   1.85276   -1.000
 5466.00    1.93732   1.87512   -1.000
 5467.00    1.94659   1.89496   39.761
 5468.00    1.95481   1.90660   40.001
 5469.00    1.94432   1.90845   40.424
 5470.00    1.92949   1.90161   40.641
 5471.00    1.92652   1.88936   40.825
 5472.00    1.91617   1.87481   41.191
 5473.00    1.89315   1.85736   41.740
 5474.00    1.87636   1.83304   42.560
 5475.00    1.84409   1.80087   43.300
 5476.00    1.79869   1.76974   43.177
 5477.00    1.79774   1.75607   42.062
 5478.00    1.85426   1.76885   -1.000
 5479.00    1.90541   1.79693   -1.000
 5480.00    1.90464   1.81833   -1.000
 5481.00    1.87012   1.82370   41.724
 5482.00    1.85561   1.82529   41.143
 5483.00    1.88657   1.84057   40.314
 5484.00    1.93234   1.87081   -1.000
 5485.00    1.95227   1.89950   40.046
 5486.00    1.93863   1.90964   40.595
 5487.00    1.90958   1.89954   40.927
 5488.00    1.88659   1.88264   40.984
 5489.00    1.89425   1.87443   40.765
 5490.00    1.92354   1.87965   40.462
 5491.00    1.93808   1.89135   40.276
 5492.00    1.93829   1.90034   40.308
 5493.00    1.94260   1.90335   40.349
 5494.00    1.94785   1.90240   40.345
 5495.00    1.95385   1.89940   -1.000
 5496.00    1.94055   1.89453   40.861
 5497.00    1.92351   1.88986   40.770
 5498.00    1.92318   1.88963   40.354
 5499.00    1.94871   1.89336   -1.000
 5500.00    1.94982   1.89309   -1.000
 5501.00    1.92050   1.88220   41.294
 5502.00    1.91250   1.86488   41.039
 5503.00    1.91951   1.85135   -1.000
 5504.00    1.92126   1.84473   -1.000
 5505.00    1.90567   1.83953   -1.000
 5506.00    1.87684   1.83329   41.559
 5507.00    1.88279   1.83240   40.938
 5508.00    1.92213   1.84270   -1.000
 5509.00    1.94422   1.85819   -1.000
 5510.00    1.92522   1.86417   -1.000
 5511.00    1.89488   1.85177   42.216
 5512.00    1.86452   1.82682   42.669
 5513.00    1.85015   1.80453   42.377
 5514.00    1.86338   1.79753   -1.000
 5515.00    1.88265   1.80887   -1.000
 5516.00    1.91282   1.83424   -1.000
 5517.00    1.95594   1.86756   -1.000
 5518.00    1.99051   1.90273   -1.000
 5519.00    2.00983   1.93275   -1.000
 5520.00    2.01060   1.95155   -1.000
 5521.00    2.00375   1.95828   39.580
 5522.00    1.99428   1.95763   39.668
 5523.00    1.98601   1.95367   39.861
 5524.00    1.98115   1.94459   40.332
 5525.00    1.96315   1.92435   41.176
 5526.00    1.92076   1.89013   42.226
 5527.00    1.87045   1.84930   42.685
 5528.00    1.85028   1.81932   42.025
 5529.00    1.87568   1.81671   -1.000
 5530.00    1.92148   1.84230   -1.000
 5531.00    1.95249   1.87893   -1.000
 5532.00    1.96028   1.90579   -1.000
 5533.00    1.95382   1.91402   40.775
 5534.00    1.93998   1.90879   40.715
 5535.00    1.93833   1.90061   40.418
 5536.00    1.94776   1.89741   40.256
 5537.00    1.97144   1.90201   -1.000
 5538.00    1.98747   1.91327   -1.000
 5539.00    1.99561   1.92864   -1.000
 5540.00    2.01306   1.94451   -1.000
 5541.00    2.01850   1.95525   -1.000
 5542.00    1.99751   1.95577   40.098
 5543.00    1.98014   1.94690   40.277
 5544.00    1.97484   1.93581   40.209
 5545.00    1.97595   1.93001   40.107
 5546.00    1.97510   1.93294   39.895
 5547.00    1.98779   1.94456   39.529
 5548.00    2.01429   1.96261   39.179
 5549.00    2.03193   1.98182   39.032
 5550.00    2.03490   1.99512   39.173
 5551.00    2.03553   1.99748   39.491
 5552.00    2.02626   1.98844   39.923
 5553.00    2.00278   1.97229   40.185
 5554.00    1.98264   1.95635   40.179
 5555.00    1.98103   1.94683   40.061
 5556.00    1.99275   1.94474   39.977
 5557.00    1.99363   1.94663   39.925
 5558.00    1.99474   1.94907   39.880
 5559.00    2.00850   1.95044   -1.000
 5560.00    2.00545   1.94883   -1.000
 5561.00    1.99074   1.94177   40.478
 5562.00    1.97489   1.92972   40.800
 5563.00    1.96024   1.91690   40.953
 5564.00    1.95245   1.90701   41.040
 5565.00    1.94830   1.90000   41.092
 5566.00    1.94376   1.89401   41.035
 5567.00    1.94936   1.88880   -1.000
 5568.00    1.95992   1.88599   -1.000
 5569.00    1.95897   1.88659   -1.000
 5570.00    1.96283   1.88924   -1.000
 5571.00    1.96394   1.89087   -1.000
 5572.00    1.93784   1.88982   41.011
 5573.00    1.89649   1.88909   40.626
 5574.00    1.75538   1.89436   -1.000
 5575.00    1.40736   1.90698   -1.000
 5576.00    1.11956   1.92166   -1.000
 5577.00    1.25694   1.93337   -1.000
 5578.00    1.71609   1.94225   -1.000
 5579.00    2.05829   1.94960   -1.000
 5580.00    2.04458   1.95398   -1.000
 5581.00    2.01162   1.95333   -1.000
 5582.00    2.00253   1.94768   -1.000
 5583.00    1.99301   1.93739   -1.000
 5584.00    1.98841   1.91941   -1.000
 5585.00    1.95947   1.88812   -1.000
 5586.00    1.90261   1.84297   -1.000
 5587.00    1.84951   1.79466   -1.000
 5588.00    1.83233   1.76057   -1.000
 5589.00    1.83965   1.75253   -1.000
 5590.00    1.87224   1.76884   -1.000
 5591.00    1.90157   1.79703   -1.000
 5592.00    1.90723   1.82372   -1.000
 5593.00    1.90483   1.84366   -1.000
 5594.00    1.91990   1.86086   -1.000
 5595.00    1.94450   1.88022   -1.000
 5596.00    1.96926   1.89816   -1.000
 5597.00    1.96107   1.90393   -1.000
 5598.00    1.91604   1.89118   42.318
 5599.00    1.89749   1.86515   42.394
 5600.00    1.89452   1.83743   -1.000
 5601.00    1.88466   1.81763   -1.000
 5602.00    1.87075   1.81280   -1.000
 5603.00    1.89160   1.82931   -1.000
 5604.00    1.94158   1.86799   -1.000
 5605.00    2.00073   1.91881   -1.000
 5606.00    2.03957   1.96551   -1.000
 5607.00    2.04244   1.99657   39.506
 5608.00    2.03804   2.01088   39.586
 5609.00    2.04491   2.01514   39.575
 5610.00    2.03808   2.01687   39.466
 5611.00    2.03161   2.01757   39.579
 5612.00    2.03989   2.00942   40.259
 5613.00    2.01511   1.98071   41.551
 5614.00    1.94826   1.92915   42.651
 5615.00    1.89304   1.87127   42.597
 5616.00    1.88682   1.83386   -1.000
 5617.00    1.92027   1.83185   -1.000
 5618.00    1.95623   1.85651   -1.000
 5619.00    1.97119   1.88752   -1.000
 5620.00    1.97975   1.91192   -1.000
 5621.00    2.00033   1.92641   -1.000
 5622.00    2.00461   1.92784   -1.000
 5623.00    1.96595   1.91284   -1.000
 5624.00    1.91749   1.88724   42.044
 5625.00    1.90851   1.86740   41.422
 5626.00    1.94267   1.86790   -1.000
 5627.00    1.97901   1.88967   -1.000
 5628.00    1.99428   1.92191   -1.000
 5629.00    2.00926   1.95265   -1.000
 5630.00    2.02835   1.97494   39.664
 5631.00    2.02867   1.98602   39.658
 5632.00    2.02723   1.98585   39.915
 5633.00    2.01446   1.97642   40.217
 5634.00    2.01260   1.96073   40.476
 5635.00    2.00354   1.94204   -1.000
 5636.00    1.98268   1.92412   -1.000
 5637.00    1.96440   1.91100   -1.000
 5638.00    1.96628   1.90482   -1.000
 5639.00    1.97480   1.90357   -1.000
 5640.00    1.97272   1.90254   -1.000
 5641.00    1.95728   1.89955   -1.000
 5642.00    1.96156   1.89769   -1.000
 5643.00    1.97027   1.90118   -1.000
 5644.00    1.97818   1.91019   -1.000
 5645.00    1.98919   1.92138   -1.000
 5646.00    1.99290   1.93123   -1.000
 5647.00    2.00421   1.93734   -1.000
 5648.00    1.99972   1.93893   -1.000
 5649.00    1.99461   1.93818   -1.000
 5650.00    2.00480   1.93959   -1.000
 5651.00    2.01393   1.94547   -1.000
 5652.00    2.02240   1.95197   -1.000
 5653.00    2.03030   1.95222   -1.000
 5654.00    2.01213   1.94319   -1.000
 5655.00    1.97629   1.92657   -1.000
 5656.00    1.95660   1.90349   -1.000
 5657.00    1.91789   1.87407   43.430
 5658.00    1.87111   1.84429   43.074
 5659.00    1.87977   1.82689   -1.000
 5660.00    1.92291   1.82938   -1.000
 5661.00    1.93985   1.84541   -1.000
 5662.00    1.93249   1.86382   -1.000
 5663.00    1.94749   1.88140   -1.000
 5664.00    1.98015   1.90031   -1.000
 5665.00    1.99287   1.91811   -1.000
 5666.00    1.99083   1.92796   -1.000
 5667.00    1.97803   1.92756   -1.000
 5668.00    1.96272   1.92271   41.094
 5669.00    1.96828   1.92153   40.858
 5670.00    1.98210   1.92843   -1.000
 5671.00    1.99947   1.94339   -1.000
 5672.00    2.02293   1.96334   -1.000
 5673.00    2.03888   1.98282   -1.000
 5674.00    2.04405   1.99643   39.771
 5675.00    2.04553   2.00262   39.704
 5676.00    2.04618   2.00407   39.619
 5677.00    2.05373   2.00353   39.767
 5678.00    2.04994   2.00030   39.947
 5679.00    2.03706   1.99171   40.165
 5680.00    2.02630   1.97631   -1.000
 5681.00    2.00496   1.95521   -1.000
 5682.00    1.97532   1.93298   41.255
 5683.00    1.96535   1.91707   41.073
 5684.00    1.97288   1.91219   -1.000
 5685.00    1.97644   1.91470   -1.000
 5686.00    1.97130   1.91622   -1.000
 5687.00    1.96036   1.91333   -1.000
 5688.00    1.95380   1.91143   41.289
 5689.00    1.96788   1.91855   40.568
 5690.00    1.99064   1.93712   -1.000
 5691.00    2.02477   1.96202   -1.000
 5692.00    2.04872   1.98478   -1.000
 5693.00    2.05307   1.99922   -1.000
 5694.00    2.04541   2.00417   39.790
 5695.00    2.04250   2.00190   39.886
 5696.00    2.03956   1.99459   40.225
 5697.00    2.01946   1.98260   40.688
 5698.00    1.98905   1.96591   41.072
 5699.00    1.97716   1.94614   41.494
 5700.00    1.97067   1.92658   41.741
 5701.00    1.95530   1.91188   41.524
 5702.00    1.94693   1.90652   41.099
 5703.00    1.95629   1.91066   40.929
 5704.00    1.97146   1.91732   -1.000
 5705.00    1.97088   1.91614   -1.000
 5706.00    1.95044   1.90140   -1.000
 5707.00    1.92177   1.87613   43.114
 5708.00    1.89227   1.84868   43.447
 5709.00    1.86731   1.82767   43.404
 5710.00    1.86651   1.81949   -1.000
 5711.00    1.88836   1.82763   -1.000
 5712.00    1.92386   1.85223   -1.000
 5713.00    1.97690   1.88867   -1.000
 5714.00    2.01470   1.92774   -1.000
 5715.00    2.02363   1.96023   -1.000
 5716.00    2.02939   1.98227   40.037
 5717.00    2.03633   1.99601   39.853
 5718.00    2.04020   2.00628   39.605
 5719.00    2.05165   2.01721   39.404
 5720.00    2.07101   2.03026   39.294
 5721.00    2.08484   2.04420   39.229
 5722.00    2.09648   2.05632   39.180
 5723.00    2.09170   2.06351   39.246
 5724.00    2.08394   2.06263   39.535
 5725.00    2.07055   2.05210   39.945
 5726.00    2.04467   2.03502   40.286
 5727.00    2.02118   2.01959   40.172
 5728.00    2.02753   2.01292   39.919
 5729.00    2.05201   2.01406   39.960
 5730.00    2.05148   2.01594   40.157
 5731.00    2.03877   2.01485   40.079
 5732.00    2.04844   2.01521   39.723
 5733.00    2.06438   2.02289   39.438
 5734.00    2.07187   2.03627   39.422
 5735.00    2.07363   2.04726   39.475
 5736.00    2.06550   2.04992   39.580
 5737.00    2.06438   2.04570   39.629
 5738.00    2.06855   2.04041   39.702
 5739.00    2.06126   2.03779   39.768
 5740.00    2.05954   2.03720   39.852
 5741.00    2.05998   2.03634   39.794
 5742.00    2.05344   2.03540   39.740
 5743.00    2.05308   2.03744   39.498
 5744.00    2.06099   2.04395   39.261
 5745.00    2.07094   2.05087   39.396
 5746.00    2.06880   2.05114   39.768
 5747.00    2.05567   2.04299   39.972
 5748.00    2.05312   2.03347   39.803
 5749.00    2.06130   2.03027   39.649
 5750.00    2.06429   2.03143   39.881
 5751.00    2.05966   2.02616   40.348
 5752.00    2.03462   2.00800   40.773
 5753.00    2.00004   1.98458   40.843
 5754.00    1.99399   1.97267   40.408
 5755.00    2.02539   1.98340   39.687
 5756.00    2.06929   2.01202   -1.000
 5757.00    2.10638   2.04205   -1.000
 5758.00    2.10912   2.05738   -1.000
 5759.00    2.08478   2.05115   40.084
 5760.00    2.05310   2.02716   40.630
 5761.00    2.01865   1.99714   40.902
 5762.00    1.99732   1.97629   40.575
 5763.00    2.00698   1.97669   39.886
 5764.00    2.04552   1.99970   39.348
 5765.00    2.08435   2.03411   -1.000
 5766.00    2.10269   2.06478   39.117
 5767.00    2.09611   2.08284   39.057
 5768.00    2.09624   2.08819   39.107
 5769.00    2.09647   2.08508   39.232
 5770.00    2.07478   2.07751   39.435
 5771.00    2.06387   2.06759   39.678
 5772.00    2.06794   2.05661   39.806
 5773.00    2.05631   2.04661   39.860
 5774.00    2.04887   2.04030   39.801
 5775.00    2.04552   2.03967   39.620
 5776.00    2.03419   2.04340   39.548
 5777.00    2.02741   2.04532   39.646
 5778.00    2.00663   2.03664   40.140
 5779.00    1.96644   2.01183   41.000
 5780.00    1.93615   1.97397   41.622
 5781.00    1.92723   1.93455   41.656
 5782.00    1.94699   1.90624   41.494
 5783.00    1.96332   1.89375   -1.000
 5784.00    1.96013   1.89357   -1.000
 5785.00    1.96848   1.90230   -1.000
 5786.00    1.99620   1.92062   -1.000
 5787.00    2.02021   1.94770   -1.000
 5788.00    2.04866   1.97628   -1.000
 5789.00    2.06194   1.99661   -1.000
 5790.00    2.04619   2.00522   40.037
 5791.00    2.03974   2.00815   39.752
 5792.00    2.05101   2.01544   39.462
 5793.00    2.05768   2.03172   39.220
 5794.00    2.06628   2.05199   39.152
 5795.00    2.08205   2.06603   39.341
 5796.00    2.07943   2.06730   39.597
 5797.00    2.05524   2.05961   39.495
 5798.00    2.05939   2.05491   39.040
 5799.00    2.09512   2.06334   38.502
 5800.00    2.12438   2.08357   38.326
 5801.00    2.14262   2.10380   38.579
 5802.00    2.13944   2.11180   38.894
 5803.00    2.12007   2.10365   39.208
 5804.00    2.09430   2.08543   39.412
 5805.00    2.08661   2.06783   39.370
 5806.00    2.09065   2.05886   39.226
 5807.00    2.08714   2.05977   39.102
 5808.00    2.09192   2.06693   39.078
 5809.00    2.10546   2.07616   39.051
 5810.00    2.11643   2.08459   38.923
 5811.00    2.12551   2.08981   38.799
 5812.00    2.12521   2.08931   38.840
 5813.00    2.11396   2.08130   39.122
 5814.00    2.10190   2.06654   39.337
 5815.00    2.08852   2.05020   39.205
 5816.00    2.08338   2.04142   38.939
 5817.00    2.09705   2.04731   -1.000
 5818.00    2.11519   2.06655   38.521
 5819.00    2.12890   2.08927   38.381
 5820.00    2.13950   2.10491   38.408
 5821.00    2.13963   2.10945   38.535
 5822.00    2.13276   2.10619   38.507
 5823.00    2.12873   2.10137   38.442
 5824.00    2.12975   2.09917   38.374
 5825.00    2.13470   2.10037   38.330
 5826.00    2.13413   2.10360   38.333
 5827.00    2.13943   2.10747   38.399
 5828.00    2.14074   2.11140   38.353
 5829.00    2.14316   2.11483   38.343
 5830.00    2.14399   2.11668   38.305
 5831.00    2.14556   2.11581   38.355
 5832.00    2.14451   2.11165   38.583
 5833.00    2.14391   2.10464   38.687
 5834.00    2.13718   2.09671   38.589
 5835.00    2.14267   2.09090   -1.000
 5836.00    2.13922   2.08883   -1.000
 5837.00    2.12827   2.08963   38.688
 5838.00    2.13129   2.09236   38.603
 5839.00    2.14140   2.09790   38.342
 5840.00    2.13992   2.10722   38.123
 5841.00    2.14499   2.11813   38.095
 5842.00    2.15222   2.12570   38.205
 5843.00    2.15685   2.12578   38.352
 5844.00    2.13571   2.11744   38.590
 5845.00    2.11846   2.10277   38.798
 5846.00    2.10896   2.08578   38.988
 5847.00    2.10734   2.07126   38.989
 5848.00    2.10028   2.06244   39.026
 5849.00    2.09548   2.05830   39.223
 5850.00    2.09783   2.05368   39.469
 5851.00    2.09270   2.04371   -1.000
 5852.00    2.07039   2.02865   40.066
 5853.00    2.05468   2.01339   40.152
 5854.00    2.05741   2.00136   -1.000
 5855.00    2.05862   1.98952   -1.000
 5856.00    2.03226   1.97262   -1.000
 5857.00    2.00050   1.95275   40.774
 5858.00    1.99962   1.94093   -1.000
 5859.00    2.02643   1.94672   -1.000
 5860.00    2.06070   1.96762   -1.000
 5861.00    2.07768   1.99199   -1.000
 5862.00    2.07358   2.00990   -1.000
 5863.00    2.07702   2.01933   -1.000
 5864.00    2.08319   2.02252   -1.000
 5865.00    2.07354   2.02092   -1.000
 5866.00    2.06386   2.01669   39.928
 5867.00    2.07162   2.01551   -1.000
 5868.00    2.08904   2.02279   -1.000
 5869.00    2.10541   2.03774   -1.000
 5870.00    2.12071   2.05345   -1.000
 5871.00    2.11965   2.06271   -1.000
 5872.00    2.10944   2.06377   39.138
 5873.00    2.10871   2.06019   39.087
 5874.00    2.10448   2.05631   39.170
 5875.00    2.10312   2.05290   39.334
 5876.00    2.09729   2.04727   39.413
 5877.00    2.08379   2.03683   39.674
 5878.00    2.08358   2.02193   -1.000
 5879.00    2.08083   2.00610   -1.000
 5880.00    2.06020   1.99384   -1.000
 5881.00    2.06576   1.98755   -1.000
 5882.00    2.06844   1.98518   -1.000
 5883.00    2.06092   1.98240   -1.000
 5884.00    2.04053   1.97603   -1.000
 5885.00    1.99097   1.96139   40.630
 5886.00    1.87636   1.92700   41.921
 5887.00    1.64530   1.85712   -1.000
 5888.00    1.35547   1.74773   -1.000
 5889.00    1.18996   1.62273   -1.000
 5890.00    1.28223   1.52891   -1.000
 5891.00    1.51534   1.50285   45.788
 5892.00    1.65355   1.53739   -1.000
 5893.00    1.61352   1.58855   45.022
 5894.00    1.45604   1.61335   -1.000
 5895.00    1.37293   1.60582   -1.000
 5896.00    1.47426   1.59849   -1.000
 5897.00    1.68524   1.62548   -1.000
 5898.00    1.85551   1.69145   -1.000
 5899.00    1.94598   1.77469   -1.000
 5900.00    1.99608   1.85091   -1.000
 5901.00    2.03172   1.90829   -1.000
 5902.00    2.05522   1.94626   -1.000
 5903.00    2.06524   1.96847   -1.000
 5904.00    2.05775   1.97924   -1.000
 5905.00    2.05104   1.98358   -1.000
 5906.00    2.04719   1.98679   -1.000
 5907.00    2.05004   1.99227   -1.000
 5908.00    2.06588   2.00033   -1.000
 5909.00    2.07369   2.00923   -1.000
 5910.00    2.07004   2.01604   -1.000
 5911.00    2.06363   2.01703   40.391
 5912.00    2.05038   2.00852   40.910
 5913.00    2.01863   1.99029   41.277
 5914.00    2.00065   1.96882   41.252
 5915.00    2.00550   1.95423   -1.000
 5916.00    2.01142   1.95314   -1.000
 5917.00    2.02879   1.96518   -1.000
 5918.00    2.04522   1.98406   -1.000
 5919.00    2.04564   2.00189   40.445
 5920.00    2.05499   2.01310   40.431
 5921.00    2.05741   2.01654   40.471
 5922.00    2.04434   2.01545   40.339
 5923.00    2.04379   2.01534   40.201
 5924.00    2.06276   2.01963   40.122
 5925.00    2.07512   2.02697   40.086
 5926.00    2.07733   2.03195   40.146
 5927.00    2.08073   2.02896   -1.000
 5928.00    2.06587   2.01750   40.727
 5929.00    2.04600   2.00357   40.745
 5930.00    2.04647   1.99599   -1.000
 5931.00    2.05382   1.99842   -1.000
 5932.00    2.06382   2.00584   -1.000
 5933.00    2.07339   2.01050   -1.000
 5934.00    2.06415   2.01051   -1.000
 5935.00    2.05516   2.01170   40.567
 5936.00    2.06625   2.01918   40.228
 5937.00    2.07911   2.03077   40.046
 5938.00    2.08166   2.03949   40.151
 5939.00    2.07212   2.03947   40.534
 5940.00    2.05209   2.03044   40.794
 5941.00    2.03739   2.01808   40.799
 5942.00    2.03320   2.01047   40.585
 5943.00    2.05253   2.01243   40.342
 5944.00    2.07599   2.02212   -1.000
 5945.00    2.08344   2.03239   -1.000
 5946.00    2.07784   2.03571   40.578
 5947.00    2.07122   2.02922   41.005
 5948.00    2.05282   2.01741   41.149
 5949.00    2.04221   2.00841   40.976
 5950.00    2.04793   2.00581   40.808
 5951.00    2.05963   2.00654   -1.000
 5952.00    2.05623   2.00592   -1.000
 5953.00    2.05086   2.00397   40.796
 5954.00    2.04970   2.00336   40.792
 5955.00    2.05102   2.00332   40.939
 5956.00    2.05396   2.00156   -1.000
 5957.00    2.04350   1.99975   40.888
 5958.00    2.04707   2.00309   40.456
 5959.00    2.07651   2.01497   -1.000
 5960.00    2.09746   2.03267   -1.000
 5961.00    2.11683   2.04934   -1.000
 5962.00    2.11802   2.05939   -1.000
 5963.00    2.11278   2.06091   -1.000
 5964.00    2.10110   2.05569   40.236
 5965.00    2.08806   2.04827   40.378
 5966.00    2.07489   2.04425   40.320
 5967.00    2.07409   2.04670   40.037
 5968.00    2.09726   2.05461   39.905
 5969.00    2.11931   2.06490   -1.000
 5970.00    2.12551   2.07438   -1.000
 5971.00    2.12654   2.08060   39.760
 5972.00    2.11251   2.08170   39.940
 5973.00    2.11146   2.07596   40.250
 5974.00    2.09754   2.06245   40.561
 5975.00    2.07250   2.04304   40.853
 5976.00    2.05839   2.02335   41.052
 5977.00    2.05563   2.01040   40.918
 5978.00    2.06208   2.00902   -1.000
 5979.00    2.07599   2.01813   -1.000
 5980.00    2.09313   2.03052   -1.000
 5981.00    2.09643   2.03584   -1.000
 5982.00    2.08352   2.02774   -1.000
 5983.00    2.06230   2.00900   -1.000
 5984.00    2.04445   1.99120   -1.000
 5985.00    2.04670   1.98573   -1.000
 5986.00    2.06498   1.99450   -1.000
 5987.00    2.08300   2.01116   -1.000
 5988.00    2.09336   2.02793   -1.000
 5989.00    2.09823   2.04019   -1.000
 5990.00    2.10017   2.04761   -1.000
 5991.00    2.10382   2.05305   -1.000
 5992.00    2.11381   2.06049   -1.000
 5993.00    2.12655   2.07088   -1.000
 5994.00    2.13218   2.07926   -1.000
 5995.00    2.12441   2.07866   -1.000
 5996.00    2.11192   2.06733   -1.000
 5997.00    2.09355   2.05112   40.533
 5998.00    2.08576   2.03940   -1.000
 5999.00    2.10033   2.03654   -1.000
 6000.00    2.10869   2.03950   -1.000
 6001.00    2.10140   2.04203   -1.000
 6002.00    2.07930   2.04074   40.876
 6003.00    2.07292   2.03782   40.774
 6004.00    2.07883   2.03512   40.780
 6005.00    2.07675   2.02968   -1.000
 6006.00    2.06479   2.01812   -1.000
 6007.00    2.04771   2.00320   -1.000
 6008.00    2.03889   1.99509   41.083
 6009.00    2.05290   2.00115   -1.000
 6010.00    2.07508   2.01651   -1.000
 6011.00    2.08468   2.02893   -1.000
 6012.00    2.08795   2.03053   -1.000
 6013.00    2.07719   2.02404   -1.000
 6014.00    2.07289   2.01726   -1.000
 6015.00    2.07670   2.01374   -1.000
 6016.00    2.07307   2.01230   -1.000
 6017.00    2.08146   2.01108   -1.000
 6018.00    2.08278   2.00819   -1.000
 6019.00    2.07054   2.00282   -1.000
 6020.00    2.06551   1.99709   -1.000
 6021.00    2.06240   1.99480   -1.000
 6022.00    2.06950   1.99896   -1.000
 6023.00    2.07934   2.00944   -1.000
 6024.00    2.09360   2.02396   -1.000
 6025.00    2.10362   2.03991   -1.000
 6026.00    2.11191   2.05512   -1.000
 6027.00    2.11931   2.06896   -1.000
 6028.00    2.13449   2.08160   -1.000
 6029.00    2.14542   2.09265   -1.000
 6030.00    2.14396   2.10166   -1.000
 6031.00    2.14220   2.10919   40.081
 6032.00    2.14489   2.11695   39.912
 6033.00    2.15644   2.12687   39.799
 6034.00    2.16002   2.13781   39.772
 6035.00    2.15706   2.14557   39.707
 6036.00    2.15212   2.14685   39.732
 6037.00    2.15217   2.14102   39.938
 6038.00    2.13647   2.13069   40.043
 6039.00    2.13727   2.11972   40.160
 6040.00    2.13000   2.11218   40.105
 6041.00    2.13168   2.11081   40.042
 6042.00    2.14333   2.11596   39.858
 6043.00    2.15700   2.12519   39.551
 6044.00    2.16844   2.13440   39.525
 6045.00    2.16350   2.14139   39.545
 6046.00    2.16634   2.14593   39.488
 6047.00    2.16882   2.14897   39.511
 6048.00    2.17099   2.15123   39.639
 6049.00    2.17024   2.15247   39.737
 6050.00    2.15974   2.15150   39.779
 6051.00    2.16118   2.14659   39.848
 6052.00    2.15931   2.13669   40.001
 6053.00    2.14973   2.12284   40.131
 6054.00    2.14186   2.10754   40.340
 6055.00    2.13030   2.09429   40.479
 6056.00    2.12432   2.08702   40.434
 6057.00    2.13074   2.08788   -1.000
 6058.00    2.14183   2.09585   -1.000
 6059.00    2.15023   2.10636   -1.000
 6060.00    2.14506   2.11324   40.128
 6061.00    2.11434   2.11171   40.637
 6062.00    2.15376   2.10021   -1.000
 6063.00    1.69213   2.08159   -1.000
 6064.00    0.98962   2.06318   -1.000
 6065.00    1.33726   2.05526   -1.000
 6066.00    1.98092   2.06441   26.449
 6067.00    2.10022   2.08779   41.658
 6068.00    2.21626   2.11553   -1.000
 6069.00    1.54321   2.13839   -1.000
 6070.00    0.83399   2.15305   -1.000
 6071.00    1.85835   2.16094   -1.000
 6072.00    2.19941   2.16426   39.641
 6073.00    2.17809   2.16393   39.696
 6074.00    2.18035   2.15960   39.814
 6075.00    2.17385   2.15040   40.014
 6076.00    2.16644   2.13622   40.241
 6077.00    2.14534   2.11871   40.544
 6078.00    2.12332   2.10139   40.803
 6079.00    2.11441   2.08734   40.856
 6080.00    2.11064   2.07716   40.886
 6081.00    2.10400   2.06982   40.994
 6082.00    2.10398   2.06539   41.010
 6083.00    2.11151   2.06423   -1.000
 6084.00    2.11717   2.06632   -1.000
 6085.00    2.11199   2.07121   -1.000
 6086.00    2.12009   2.07740   -1.000
 6087.00    2.12916   2.08222   -1.000
 6088.00    2.12870   2.08253   -1.000
 6089.00    2.10727   2.07706   41.132
 6090.00    2.08377   2.06885   41.137
 6091.00    2.08711   2.06341   40.902
 6092.00    2.09920   2.06509   40.685
 6093.00    2.12053   2.07453   -1.000
 6094.00    2.13572   2.08815   -1.000
 6095.00    2.14638   2.10085   -1.000
 6096.00    2.14594   2.10960   40.358
 6097.00    2.14187   2.11476   40.396
 6098.00    2.14272   2.11611   40.400
 6099.00    2.14306   2.10918   40.814
 6100.00    2.12338   2.08835   41.755
 6101.00    2.08299   2.05396   42.490
 6102.00    2.03610   2.01946   42.317
 6103.00    2.03850   2.00291   41.558
 6104.00    2.08153   2.01200   -1.000
 6105.00    2.11931   2.03866   -1.000
 6106.00    2.13068   2.06796   -1.000
 6107.00    2.12312   2.09017   40.930
 6108.00    2.11666   2.10443   40.928
 6109.00    2.12305   2.11295   40.847
 6110.00    2.14330   2.11732   40.679
 6111.00    2.13360   2.12006   40.644
 6112.00    2.13219   2.12368   40.461
 6113.00    2.15500   2.12901   40.342
 6114.00    2.16591   2.13328   40.465
 6115.00    2.14979   2.13304   40.723
 6116.00    2.13289   2.12791   40.812
 6117.00    2.12781   2.11847   40.985
 6118.00    2.11643   2.10337   41.528
 6119.00    2.09142   2.08005   42.085
 6120.00    2.06830   2.04934   42.505
 6121.00    2.04611   2.01988   42.590
 6122.00    2.03572   2.00441   41.994
 6123.00    2.05478   2.00934   -1.000
 6124.00    2.09169   2.02892   -1.000
 6125.00    2.11638   2.05065   -1.000
 6126.00    2.10448   2.06541   -1.000
 6127.00    2.08936   2.07265   41.453
 6128.00    2.09553   2.07902   41.149
 6129.00    2.11347   2.09032   40.762
 6130.00    2.12743   2.10639   40.634
 6131.00    2.13233   2.12106   40.696
 6132.00    2.12870   2.12506   41.041
 6133.00    2.11720   2.10961   41.901
 6134.00    2.09448   2.07133   43.116
 6135.00    2.03184   2.01754   44.235
 6136.00    1.96542   1.96792   44.501
 6137.00    1.95503   1.94481   43.538
 6138.00    1.99994   1.95685   -1.000
 6139.00    2.06626   1.99203   -1.000
 6140.00    2.09452   2.02907   -1.000
 6141.00    2.09097   2.05613   41.820
 6142.00    2.09035   2.07542   41.464
 6143.00    2.10006   2.09330   40.967
 6144.00    2.12420   2.11012   40.844
 6145.00    2.13481   2.12060   41.007
 6146.00    2.12330   2.12030   41.263
 6147.00    2.11196   2.10994   41.558
 6148.00    2.10388   2.09481   41.810
 6149.00    2.08715   2.08108   41.845
 6150.00    2.07107   2.07383   41.708
 6151.00    2.06798   2.07378   41.432
 6152.00    2.08635   2.07679   41.346
 6153.00    2.09744   2.07675   41.648
 6154.00    2.08752   2.07087   41.889
 6155.00    2.07800   2.06150   41.940
 6156.00    2.07012   2.05140   42.092
 6157.00    2.06690   2.03930   42.507
 6158.00    2.04531   2.01825   43.276
 6159.00    2.00701   1.98061   44.532
 6160.00    1.95435   1.92678   45.845
 6161.00    1.89224   1.87000   46.407
 6162.00    1.85757   1.83129   45.853
 6163.00    1.86679   1.82469   44.640
 6164.00    1.91708   1.84826   -1.000
 6165.00    1.96369   1.88580   -1.000
 6166.00    1.98089   1.91776   -1.000
 6167.00    1.97941   1.93117   -1.000
 6168.00    1.95029   1.92632   44.706
 6169.00    1.92130   1.91634   44.476
 6170.00    1.92364   1.91681   43.665
 6171.00    1.96364   1.93352   43.016
 6172.00    1.99637   1.95976   42.979
 6173.00    2.01629   1.98440   43.026
 6174.00    2.02308   2.00070   42.936
 6175.00    2.01402   2.00910   42.849
 6176.00    2.00658   2.01431   42.738
 6177.00    2.01906   2.02038   42.537
 6178.00    2.02705   2.02844   42.374
 6179.00    2.03984   2.03763   42.238
 6180.00    2.05339   2.04727   42.049
 6181.00    2.05368   2.05632   41.930
 6182.00    2.06187   2.06254   41.992
 6183.00    2.05887   2.06302   42.136
 6184.00    2.04525   2.05552   42.451
 6185.00    2.02883   2.04055   42.905
 6186.00    2.01635   2.02110   43.354
 6187.00    1.99707   2.00061   43.770
 6188.00    1.98052   1.98028   44.098
 6189.00    1.96252   1.95918   44.645
 6190.00    1.94757   1.93949   44.973
 6191.00    1.92848   1.92907   44.560
 6192.00    1.93796   1.93552   43.507
 6193.00    1.97449   1.95854   42.744
 6194.00    2.01031   1.98924   42.437
 6195.00    2.03830   2.01625   42.357
 6196.00    2.03534   2.03172   42.596
 6197.00    2.02529   2.03379   43.074
 6198.00    2.00835   2.02583   43.446
 6199.00    1.98468   2.01631   43.449
 6200.00    1.97099   2.01441   43.047
 6201.00    1.98017   2.02332   42.511
 6202.00    2.00450   2.03962   42.342
 6203.00    2.02785   2.05622   42.340
 6204.00    2.04188   2.06858   42.278
 6205.00    2.05203   2.07625   42.266
 6206.00    2.05820   2.08061   42.414
 6207.00    2.05906   2.08239   42.432
 6208.00    2.05720   2.08040   42.594
 6209.00    2.04220   2.07264   42.967
 6210.00    2.03154   2.05732   43.312
 6211.00    2.01432   2.03326   43.726
 6212.00    1.98711   2.00214   44.370
 6213.00    1.95367   1.96954   44.848
 6214.00    1.92821   1.94366   44.999
 6215.00    1.93219   1.93061   44.483
 6216.00    1.94171   1.93004   44.215
 6217.00    1.95594   1.93529   44.499
 6218.00    1.96238   1.93875   44.400
 6219.00    1.95395   1.93892   44.078
 6220.00    1.96465   1.93973   44.282
 6221.00    1.75256   1.94502   -1.000
 6222.00    1.80619   1.95427   -1.000
 6223.00    1.97339   1.96392   44.130
 6224.00    2.00415   1.97134   43.795
 6225.00    1.99424   1.97569   43.843
 6226.00    1.99349   1.97544   44.062
 6227.00    1.98244   1.96709   44.629
 6228.00    1.95942   1.94743   45.363
 6229.00    1.92828   1.91914   45.964
 6230.00    1.90379   1.89282   45.857
 6231.00    1.89478   1.88131   45.236
 6232.00    1.92353   1.89164   44.395
 6233.00    1.95952   1.92046   43.657
 6234.00    1.98474   1.95545   43.398
 6235.00    1.99860   1.98224   43.641
 6236.00    1.99511   1.99223   44.074
 6237.00    1.98697   1.98519   44.524
 6238.00    1.96991   1.96777   44.997
 6239.00    1.94838   1.94834   45.218
 6240.00    1.93231   1.93215   45.220
 6241.00    1.92565   1.91970   45.508
 6242.00    1.91630   1.90908   45.819
 6243.00    1.89886   1.90012   45.828
 6244.00    1.89740   1.89530   45.560
 6245.00    1.91679   1.89831   45.123
 6246.00    1.94177   1.91173   44.559
 6247.00    1.96121   1.93341   44.081
 6248.00    1.97158   1.95614   43.988
 6249.00    1.98396   1.97053   44.350
 6250.00    1.97401   1.96945   45.131
 6251.00    1.94580   1.95295   45.729
 6252.00    1.91911   1.92850   46.066
 6253.00    1.89575   1.90545   46.213
 6254.00    1.89567   1.88881   46.209
 6255.00    1.89377   1.87760   46.575
 6256.00    1.87652   1.86880   47.000
 6257.00    1.86509   1.86372   46.874
 6258.00    1.87291   1.86722   46.216
 6259.00    1.89815   1.88355   45.514
 6260.00    1.93248   1.91146   44.890
 6261.00    1.96576   1.94428   44.204
 6262.00    1.98401   1.97323   43.925
 6263.00    1.98509   1.99164   44.214
 6264.00    1.97962   1.99870   44.524
 6265.00    1.97117   1.99918   44.384
 6266.00    1.96842   1.99900   44.066
 6267.00    1.97554   2.00016   44.162
 6268.00    1.97411   2.00146   44.387
 6269.00    1.96987   2.00212   44.364
 6270.00    1.96395   2.00362   44.217
 6271.00    1.97080   2.00743   44.106
 6272.00    1.98167   2.01195   44.196
 6273.00    1.98001   2.01272   44.496
 6274.00    1.95269   2.00609   44.855
 6275.00    1.91979   1.99197   45.531
 6276.00    1.89897   1.97320   46.641
 6277.00    1.87324   1.95352   47.536
 6278.00    1.85760   1.93603   47.899
 6279.00    1.85361   1.92376   47.767
 6280.00    1.84137   1.92030   47.076
 6281.00    1.82982   1.92842   -1.000
 6282.00    1.84331   1.94742   -1.000
 6283.00    1.87359   1.97256   -1.000
 6284.00    1.89685   1.99768   -1.000
 6285.00    1.92896   2.01894   44.183
 6286.00    1.95836   2.03555   43.862
 6287.00    1.97990   2.04736   43.749
 6288.00    1.99063   2.05268   43.946
 6289.00    1.99880   2.04964   44.308
 6290.00    1.99515   2.03921   44.646
 6291.00    1.98707   2.02587   44.763
 6292.00    1.97420   2.01445   44.812
 6293.00    1.96274   2.00670   44.888
 6294.00    1.95832   2.00002   45.204
 6295.00    1.94753   1.99049   45.513
 6296.00    1.93523   1.97803   45.610
 6297.00    1.92170   1.96654   45.555
 6298.00    1.91981   1.95948   45.377
 6299.00    1.92685   1.95614   45.174
 6300.00    1.93501   1.95340   45.483
 6301.00    1.93637   1.95135   45.998
 6302.00    1.93507   1.95375   45.731
 6303.00    1.94686   1.96403   45.032
 6304.00    1.95315   1.98166   44.455
 6305.00    1.96643   2.00294   44.057
 6306.00    1.98102   2.02396   43.662
 6307.00    1.99991   2.04126   43.548
 6308.00    2.00974   2.05156   43.713
 6309.00    1.99756   2.05316   44.002
 6310.00    1.98501   2.04738   44.189
 6311.00    1.97382   2.03740   44.367
 6312.00    1.96815   2.02616   44.427
 6313.00    1.95512   2.01369   44.789
 6314.00    1.94063   1.99970   44.989
 6315.00    1.92644   1.98522   44.978
 6316.00    1.92171   1.97209   44.934
 6317.00    1.92011   1.96339   44.983
 6318.00    1.92228   1.96319   44.849
 6319.00    1.93577   1.97347   44.350
 6320.00    1.95592   1.99166   43.896
 6321.00    1.97838   2.01274   43.696
 6322.00    1.98772   2.03228   43.551
 6323.00    1.99474   2.04905   43.326
 6324.00    2.00805   2.06298   43.176
 6325.00    2.02355   2.07341   43.140
 6326.00    2.01486   2.07987   42.949
 6327.00    2.00896   2.08305   42.954
 6328.00    2.01032   2.08461   42.990
 6329.00    2.01570   2.08586   43.020
 6330.00    2.01778   2.08796   42.887
 6331.00    2.02446   2.09025   42.801
 6332.00    2.02290   2.08877   42.895
 6333.00    1.99813   2.07871   43.007
 6334.00    1.98253   2.05871   43.897
 6335.00    1.96390   2.03505   44.136
 6336.00    1.96220   2.01836   43.808
 6337.00    1.97289   2.01558   43.366
 6338.00    1.99049   2.02632   42.891
 6339.00    1.99785   2.04400   42.647
 6340.00    2.02203   2.05953   42.442
 6341.00    2.02358   2.06620   42.443
 6342.00    2.01000   2.06270   42.787
 6343.00    1.99429   2.05372   42.897
 6344.00    1.98881   2.04792   42.796
 6345.00    1.98902   2.05112   42.576
 6346.00    2.00831   2.06359   42.284
 6347.00    2.01712   2.08141   42.104
 6348.00    2.02772   2.09906   42.094
 6349.00    2.02983   2.11278   42.017
 6350.00    2.02911   2.12039   42.037
 6351.00    2.02952   2.12045   42.202
 6352.00    2.02051   2.11246   42.397
 6353.00    2.00601   2.09772   42.848
 6354.00    1.98736   2.08006   43.240
 6355.00    1.96778   2.06328   43.304
 6356.00    1.97107   2.04802   43.410
 6357.00    1.96365   2.03234   43.861
 6358.00    1.94384   2.01509   44.097
 6359.00    1.93087   1.99756   43.962
 6360.00    1.92187   1.98264   43.810
 6361.00    1.92721   1.97327   43.757
 6362.00    1.93341   1.97184   43.622
 6363.00    1.93575   1.97976   43.349
 6364.00    1.95969   1.99657   43.069
 6365.00    1.96178   2.01947   42.833
 6366.00    1.96656   2.04434   42.566
 6367.00    1.98252   2.06706   42.283
 6368.00    1.99465   2.08437   42.150
 6369.00    2.00424   2.09583   42.165
 6370.00    1.98764   2.10380   -1.000
 6371.00    1.99711   2.11171   -1.000
 6372.00    2.00492   2.12079   -1.000
 6373.00    1.99594   2.12902   -1.000
 6374.00    1.98726   2.13380   -1.000
 6375.00    1.99272   2.13377   -1.000
 6376.00    1.98082   2.12881   -1.000
 6377.00    1.97610   2.12003   -1.000
 6378.00    1.96866   2.10960   -1.000
 6379.00    1.95591   2.10019   -1.000
 6380.00    1.94339   2.09443   -1.000
 6381.00    1.94948   2.09316   -1.000
 6382.00    1.95449   2.09509   -1.000
 6383.00    1.95061   2.09855   -1.000
 6384.00    1.94822   2.10287   -1.000
 6385.00    1.94864   2.10835   -1.000
 6386.00    1.94508   2.11453   -1.000
 6387.00    1.94189   2.11990   -1.000
 6388.00    1.94050   2.12241   -1.000
 6389.00    1.91736   2.11968   -1.000
 6390.00    1.89483   2.10941   -1.000
 6391.00    1.88382   2.09144   -1.000
 6392.00    1.84697   2.07044   -1.000
 6393.00    1.81758   2.05609   -1.000
 6394.00    1.81441   2.05620   -1.000
 6395.00    1.84264   2.06947   -1.000
 6396.00    1.85938   2.08527   -1.000
 6397.00    1.85462   2.09029   -1.000
 6398.00    1.82424   2.07966   -1.000
 6399.00    1.77732   2.06161   -1.000
 6400.00    1.76108   2.05192   -1.000
 6401.00    1.77966   2.06047   -1.000
 6402.00    1.79622   2.08418   -1.000
 6403.00    1.80705   2.11070   -1.000
 6404.00    1.80771   2.12695   -1.000
 6405.00    1.79069   2.12768   -1.000
 6406.00    1.77183   2.11660   -1.000
 6407.00    1.74866   2.10245   -1.000
 6408.00    1.72758   2.09255   -1.000
 6409.00    1.72242   2.08819   -1.000
 6410.00    1.70618   2.08628   -1.000
 6411.00    1.67458   2.08443   -1.000
 6412.00    1.66795   2.08390   -1.000
 6413.00    1.67299   2.08684   -1.000
 6414.00    1.65897   2.09351   -1.000
 6415.00    1.64459   2.10122   -1.000
 6416.00    1.64353   2.10541   -1.000
 6417.00    1.63439   2.10223   -1.000
 6418.00    1.61304   2.09055   -1.000
 6419.00    1.58576   2.07428   -1.000
 6420.00    1.55353   2.06197   -1.000
 6421.00    1.53442   2.06217   -1.000
 6422.00    1.54023   2.07656   -1.000
 6423.00    1.55436   2.09927   -1.000
 6424.00    1.54916   2.12212   -1.000
 6425.00    1.54324   2.13919   -1.000
 6426.00    1.52769   2.14799   -1.000
 6427.00    1.50264   2.14621   -1.000
 6428.00    1.48865   2.13238   -1.000
