###################################################################
## OUTPUT of StarlightChains_v04.for    [Cid@UFSC - 01/Apr/2007] ##
###################################################################

## Some input info
NGC6522_a_1.cxt                          [arq_obs]
Base.BC03.N                              [arq_base]
NGC6522_a_1.msk                          [arq_masks]
StCv04.C99.config                        [arq_config]
   45                                    [N_base]
    0                                    [N_YAV_components = # of components with extra extinction!]
    0                                    [i_FitPowerLaw (1/0 = Yes/No)]
-9.99                                    [alpha_PowerLaw]
CCM                                      [red_law_option]
 1.458241                                [q_norm = A(l_norm)/A(V)]

## (Re)Sampling Parameters
 3359.00                                 [l_ini (A)]
 6428.00                                 [l_fin (A)]
    1.00                                 [dl    (A)]     (OBS: dl_cushion =    50.00 A)

## Normalization info
 4020.00                                 [l_norm (A) - for base]
 4010.00                                 [llow_norm (A) - window for f_obs]
 4060.00                                 [lupp_norm (A) - window for f_obs]
8.861070E-15                             [fobs_norm (in input units)]

## S/N
 4730.00                                 [llow_SN (A) - window for S/N]
 4780.00                                 [lupp_SN (A) - window for S/N]
  58.057                                 [S/N in S/N window]
  38.566                                 [S/N in norm. window]
  50.435                                 [S/N_err in S/N window]
  33.502                                 [S/N_err in norm. window]
  1.0000                                 [fscale_chi2]

## etc...
  2147483607                             [idum_orig]
  3068                                   [NOl_eff]
  1781                                   [Nl_eff]
  1287    NSIGMA                         [Ntot_cliped & clip_method]
  1649480                                [Nglobal_steps]
   7                                     [N_chains]
  11                                     [NEX0s_base = N_base in EX0s-fits]
 0   0   1      235   2.0   7.149E+02    [Clip-Bug, RC-Crash & Burn-In warning-flags, n_censored_weights, wei_nsig_threshold & wei_limit]
    25     25.564     25.560      0.004  [idt_all, wdt_TotTime, wdt_UsrTime & wdt_SysTime (sec)]

## Synthesis Results - Best model ##

 2.52245E+00                             [chi2/Nl_eff]
     1.96456                             [adev (%)]

    99.79614                             [sum-of-x (%)]
 1.20894E-13                             [Flux_tot (units of input spectrum!)]
 2.02780E-09                             [Mini_tot (???)]
 1.04388E-09                             [Mcor_tot (???)]

  -6.12                                  [v0_min  (km/s)]
  70.80                                  [vd_min  (km/s)]
 1.9472                                  [AV_min  (mag)]
 0.0000                                  [YAV_min (mag)]

# j     x_j(%)      Mini_j(%)     Mcor_j(%)     age_j(yr)     Z_j      (L/M)_j    YAV?  Mstars   component_j        a/Fe...       SSP_chi2r SSP_adev(%)   SSP_AV   SSP_x(%)
  1      0.0000     0.0000E+00    0.0000E+00    1.000000E+06  0.00400  1.114E-02    0   1.0000   age020_m42            0.0000     1.4115E+03    32.8124   4.0000    77.4585
  2     10.1191     1.4842E-02    2.8829E-02    3.160000E+06  0.00400  4.073E-02    0   0.9999   age045_m42            0.0000     9.4802E+01     6.0356   4.0000    92.0627
  3      0.0000     0.0000E+00    0.0000E+00    5.010000E+06  0.00400  2.534E-02    0   0.9488   age055_m42            0.0000     4.5122E+02    17.8180   4.0000    86.3374
  4     13.0712     6.1438E-02    1.0576E-01    1.000000E+07  0.00400  1.271E-02    0   0.8862   age070_m42            0.0000     1.2474E+02     5.6940   3.8699    87.8673
  5      0.0000     0.0000E+00    0.0000E+00    2.512000E+07  0.00400  5.070E-03    0   0.8174   age090_m42            0.0000     1.0747E+02     5.0971   3.7273    89.6477
  6      0.0000     0.0000E+00    0.0000E+00    4.000000E+07  0.00400  3.505E-03    0   0.7851   age104_m42            0.0000     6.7540E+01     3.5523   3.3733    93.0901
  7     19.2633     5.0740E-01    7.1036E-01    1.015200E+08  0.00400  2.268E-03    0   0.7207   age116_m42            0.0000     4.5524E+02     7.6993   3.0814   105.2792
  8      0.0000     0.0000E+00    0.0000E+00    2.861200E+08  0.00400  1.079E-03    0   0.6613   age125_m42            0.0000     4.9653E+02     8.6917   2.5396   108.2196
  9      1.8466     2.1728E-01    2.6156E-01    6.405400E+08  0.00400  5.077E-04    0   0.6197   age132_m42            0.0000     5.3450E+02     9.1361   2.1678   112.4555
 10      4.1594     7.0292E-01    8.2256E-01    9.047900E+08  0.00400  3.535E-04    0   0.6024   age135_m42            0.0000     3.3315E+02     7.5606   1.9851   111.0827
 11      0.0000     0.0000E+00    0.0000E+00    1.434000E+09  0.00400  1.910E-04    0   0.5716   age139_m42            0.0000     1.4678E+02     6.8390   1.5064   109.7365
 12      9.0535     5.5088E+00    5.8461E+00    2.500000E+09  0.00400  9.818E-05    0   0.5463   age150_m42            0.0000     4.9708E+01     5.5386   1.3155   104.4602
 13     26.2164     3.3196E+01    3.3712E+01    5.000000E+09  0.00400  4.718E-05    0   0.5228   age161_m42            0.0000     6.2240E+01     5.0461   1.1989   100.8636
 14     10.7609     2.9154E+01    2.8204E+01    1.100000E+10  0.00400  2.205E-05    0   0.4980   age185_m42            0.0000     1.5148E+02     6.2733   0.9465    99.2080
 15      0.0000     0.0000E+00    0.0000E+00    1.300000E+10  0.00400  1.883E-05    0   0.4927   age193_m42            0.0000     1.6907E+02     6.3802   0.9332    99.0707
 16      0.0000     0.0000E+00    0.0000E+00    1.000000E+06  0.02000  1.989E-02    0   1.0000   age020_m62            0.0000     1.3610E+03    32.0655   4.0000    78.1863
 17      0.0000     0.0000E+00    0.0000E+00    3.160000E+06  0.02000  3.772E-02    0   0.9858   age045_m62            0.0000     1.1029E+03    28.6092   4.0000    80.7395
 18      0.0000     0.0000E+00    0.0000E+00    5.010000E+06  0.02000  3.227E-02    0   0.9342   age055_m62            0.0000     2.5685E+02    13.3237   4.0000    89.4127
 19      0.0000     0.0000E+00    0.0000E+00    1.000000E+07  0.02000  1.011E-02    0   0.8751   age070_m62            0.0000     3.3645E+02     9.3356   3.9799    83.3931
 20      0.0000     0.0000E+00    0.0000E+00    2.512000E+07  0.02000  4.206E-03    0   0.8099   age090_m62            0.0000     2.5383E+02     7.4928   3.8776    84.8909
 21      0.0000     0.0000E+00    0.0000E+00    4.000000E+07  0.02000  3.373E-03    0   0.7799   age104_m62            0.0000     8.7349E+01     3.6768   3.5469    94.7790
 22      0.0000     0.0000E+00    0.0000E+00    1.015200E+08  0.02000  1.878E-03    0   0.7221   age116_m62            0.0000     3.7886E+02     7.0109   3.1472   105.1358
 23      0.0000     0.0000E+00    0.0000E+00    2.861200E+08  0.02000  8.869E-04    0   0.6700   age125_m62            0.0000     8.7223E+02    11.5539   2.4456   114.7063
 24      0.0000     0.0000E+00    0.0000E+00    6.405400E+08  0.02000  3.657E-04    0   0.6322   age132_m62            0.0000     5.7012E+02    11.2797   1.7686   118.3613
 25      0.0000     0.0000E+00    0.0000E+00    9.047900E+08  0.02000  2.312E-04    0   0.6152   age135_m62            0.0000     3.1519E+02     9.6417   1.4798   116.1175
 26      0.0000     0.0000E+00    0.0000E+00    1.434000E+09  0.02000  1.168E-04    0   0.5865   age139_m62            0.0000     1.0027E+02     7.1401   1.1958   109.1180
 27      0.0000     0.0000E+00    0.0000E+00    2.500000E+09  0.02000  5.505E-05    0   0.5610   age150_m62            0.0000     1.3065E+02     7.4341   0.8674   106.2456
 28      1.6801     3.8664E+00    4.0205E+00    5.000000E+09  0.02000  2.596E-05    0   0.5353   age161_m62            0.0000     2.9106E+02     9.2219   0.5225   106.9953
 29      2.2801     1.1652E+01    1.1551E+01    1.100000E+10  0.02000  1.169E-05    0   0.5103   age185_m62            0.0000     5.0219E+02    11.1498   0.1249   109.4145
 30      0.0000     0.0000E+00    0.0000E+00    1.300000E+10  0.02000  9.691E-06    0   0.5047   age193_m62            0.0000     5.4722E+02    11.4447   0.0750   109.7941
 31      0.0000     0.0000E+00    0.0000E+00    1.000000E+06  0.05000  2.651E-02    0   0.9998   age020_m72            0.0000     1.3191E+03    31.7458   4.0000    79.2061
 32      0.0000     0.0000E+00    0.0000E+00    3.160000E+06  0.05000  4.817E-02    0   0.9577   age045_m72            0.0000     7.5669E+02    23.9333   4.0000    84.8171
 33      0.0000     0.0000E+00    0.0000E+00    5.010000E+06  0.05000  3.101E-02    0   0.9147   age055_m72            0.0000     4.0440E+02    14.9340   4.0000    87.2326
 34      0.0000     0.0000E+00    0.0000E+00    1.000000E+07  0.05000  8.954E-03    0   0.8524   age070_m72            0.0000     6.3660E+02    20.6530   4.0000    86.1982
 35      0.0000     0.0000E+00    0.0000E+00    2.512000E+07  0.05000  4.207E-03    0   0.7902   age090_m72            0.0000     1.6772E+02     7.9018   4.0000    91.8091
 36      0.0000     0.0000E+00    0.0000E+00    4.000000E+07  0.05000  3.198E-03    0   0.7618   age104_m72            0.0000     2.0928E+02     4.9016   3.5935   100.3468
 37      0.0000     0.0000E+00    0.0000E+00    1.015200E+08  0.05000  1.716E-03    0   0.7092   age116_m72            0.0000     4.6876E+02     7.8029   3.2001   105.7243
 38      0.0000     0.0000E+00    0.0000E+00    2.861200E+08  0.05000  7.047E-04    0   0.6618   age125_m72            0.0000     8.4045E+02    11.7764   2.2226   115.6003
 39      0.0000     0.0000E+00    0.0000E+00    6.405400E+08  0.05000  2.633E-04    0   0.6253   age132_m72            0.0000     4.2738E+02    11.0090   1.4205   117.3523
 40      0.0000     0.0000E+00    0.0000E+00    9.047900E+08  0.05000  1.484E-04    0   0.6088   age135_m72            0.0000     1.7409E+02     9.0629   1.0532   111.1913
 41      0.0000     0.0000E+00    0.0000E+00    1.434000E+09  0.05000  7.827E-05    0   0.5847   age139_m72            0.0000     1.8685E+02     9.0235   0.7286   107.5507
 42      0.0000     0.0000E+00    0.0000E+00    2.500000E+09  0.05000  3.759E-05    0   0.5583   age150_m72            0.0000     3.0874E+02     9.7199   0.4330   106.9310
 43      0.0000     0.0000E+00    0.0000E+00    5.000000E+09  0.05000  1.548E-05    0   0.5320   age161_m72            0.0000     4.8406E+02    11.2252  -0.0079   107.4257
 44      0.0000     0.0000E+00    0.0000E+00    1.100000E+10  0.05000  6.532E-06    0   0.5070   age185_m72            0.0000     6.8180E+02    14.0579  -0.4872   109.4258
 45      1.3454     1.5119E+01    1.4738E+01    1.300000E+10  0.05000  5.316E-06    0   0.5018   age193_m72            0.0000     7.6650E+02    15.2335  -0.6556   110.4876


## Synthesis Results - Average & Chains ##

# j      x_j: min, <> & last-chain-values for 1 ...  7 chains
  1      0.0000      0.0139      0.0000      0.0000      0.0000      0.0000      0.0000      0.0000      0.0000
  2     10.1191      7.4560      7.9838      8.0126      8.0521      7.5251      7.6585      7.9877      7.7341
  3      0.0000      0.2522      0.2883      0.1882      0.2502      0.5202      0.3176      0.1119      0.2694
  4     13.0712     13.7340     13.7063     13.8945     13.5666     13.8858     14.0499     13.7045     13.7158
  5      0.0000      0.0474      0.0000      0.1033      0.0000      0.0000      0.0000      0.0579      0.2021
  6      0.0000      0.0540      0.0000      0.0000      0.0000      0.0269      0.0000      0.0596      0.0000
  7     19.2633     21.8096     21.6144     21.2865     21.6864     21.6501     21.5391     21.5902     21.6942
  8      0.0000      0.0487      0.0300      0.0000      0.0000      0.0000      0.0000      0.0000      0.0000
  9      1.8466      0.9938      1.1834      1.3472      0.9922      1.2215      1.0638      0.9736      1.1936
 10      4.1594      1.2676      1.3125      1.3675      1.6160      1.6899      1.8958      1.4711      1.4525
 11      0.0000      0.1416      0.1143      0.0366      0.1088      0.0000      0.0718      0.3130      0.3735
 12      9.0535     11.9548     11.9020     11.9636     12.0175     11.8798     11.7060     11.9537     11.2932
 13     26.2164     25.9156     26.0603     26.1167     25.3577     25.6724     25.7691     25.6621     25.9832
 14     10.7609      9.6510      9.4606      9.9548      9.7823      9.7546      9.8228      9.5989      9.4573
 15      0.0000      0.1449      0.2330      0.1476      0.1836      0.0585      0.0000      0.5417      0.3806
 16      0.0000      0.0087      0.0019      0.0000      0.0000      0.0067      0.0000      0.0000      0.0000
 17      0.0000      0.0146      0.0048      0.0000      0.0000      0.0000      0.0000      0.0000      0.0000
 18      0.0000      0.1403      0.0000      0.0000      0.2836      0.1966      0.0000      0.0709      0.1413
 19      0.0000      0.0418      0.0324      0.0000      0.0000      0.0187      0.0034      0.0000      0.0239
 20      0.0000      0.0206      0.0000      0.0166      0.0000      0.0000      0.0000      0.0000      0.0000
 21      0.0000      0.0316      0.0000      0.0431      0.0000      0.0000      0.0000      0.1782      0.0000
 22      0.0000      0.0424      0.0325      0.0000      0.0314      0.0000      0.0000      0.0000      0.0179
 23      0.0000      0.0194      0.0000      0.0000      0.0000      0.0000      0.0000      0.0000      0.0000
 24      0.0000      0.0138      0.0000      0.0000      0.0000      0.0000      0.0000      0.0000      0.0000
 25      0.0000      0.0193      0.0000      0.0000      0.0000      0.0000      0.0000      0.0000      0.0000
 26      0.0000      0.0241      0.0000      0.0000      0.0000      0.0000      0.0191      0.0000      0.0000
 27      0.0000      0.0424      0.0000      0.0000      0.1203      0.0000      0.0000      0.0000      0.0000
 28      1.6801      2.0747      1.9541      1.6463      2.0944      1.9265      2.0460      1.9582      2.1267
 29      2.2801      1.5766      1.6085      1.5036      1.5320      1.8391      1.5989      1.3827      1.5977
 30      0.0000      0.0318      0.0202      0.0000      0.0008      0.0000      0.0000      0.0000      0.0000
 31      0.0000      0.0157      0.0000      0.0000      0.0000      0.0000      0.0000      0.0469      0.0000
 32      0.0000      0.0418      0.0000      0.0000      0.0000      0.0000      0.0622      0.0000      0.0000
 33      0.0000      0.0875      0.1279      0.0000      0.0000      0.0000      0.0565      0.1035      0.1054
 34      0.0000      0.0201      0.0000      0.0000      0.0992      0.0000      0.0000      0.0000      0.0000
 35      0.0000      0.0170      0.0000      0.0000      0.0000      0.0061      0.0531      0.0000      0.0460
 36      0.0000      0.0189      0.0334      0.0000      0.0000      0.0000      0.0000      0.0000      0.0000
 37      0.0000      0.0438      0.0751      0.1434      0.0000      0.0000      0.0093      0.0000      0.0000
 38      0.0000      0.0161      0.0000      0.0000      0.0000      0.0000      0.0000      0.0000      0.0000
 39      0.0000      0.0159      0.0000      0.0000      0.0000      0.0000      0.0000      0.0000      0.0000
 40      0.0000      0.0207      0.0000      0.0000      0.0000      0.0000      0.0000      0.0000      0.0000
 41      0.0000      0.0243      0.0000      0.0000      0.1347      0.0074      0.0440      0.0000      0.0000
 42      0.0000      0.0343      0.0000      0.0000      0.0000      0.0000      0.0065      0.0000      0.0000
 43      0.0000      0.7360      0.8888      0.6997      0.7401      0.7522      0.8420      0.8641      0.8068
 44      0.0000      0.4689      0.3937      0.4996      0.4761      0.5262      0.4803      0.2878      0.4610
 45      1.3454      0.6071      0.6894      0.7700      0.6073      0.5851      0.6388      0.7864      0.6691

# j      m_j: min, <> & last-chain-values for 1 ...  7 chains
  1  0.0000E+00  1.5194E-04  0.0000E+00  0.0000E+00  0.0000E+00  0.0000E+00  0.0000E+00  0.0000E+00  0.0000E+00
  2  2.8829E-02  2.2290E-02  2.3768E-02  2.3647E-02  2.4166E-02  2.2343E-02  2.2808E-02  2.3869E-02  2.2938E-02
  3  0.0000E+00  1.1499E-03  1.3091E-03  8.4720E-04  1.1451E-03  2.3555E-03  1.4424E-03  5.1010E-04  1.2187E-03
  4  1.0576E-01  1.1661E-01  1.1589E-01  1.1646E-01  1.1564E-01  1.1709E-01  1.1884E-01  1.1631E-01  1.1554E-01
  5  0.0000E+00  9.3079E-04  0.0000E+00  2.0022E-03  0.0000E+00  0.0000E+00  0.0000E+00  1.1367E-03  3.9359E-03
  6  0.0000E+00  1.4738E-03  0.0000E+00  0.0000E+00  0.0000E+00  7.2834E-04  0.0000E+00  1.6248E-03  0.0000E+00
  7  7.1036E-01  8.4397E-01  8.3290E-01  8.1314E-01  8.4245E-01  8.3205E-01  8.3029E-01  8.3509E-01  8.3285E-01
  8  0.0000E+00  3.6352E-03  2.2286E-03  0.0000E+00  0.0000E+00  0.0000E+00  0.0000E+00  0.0000E+00  0.0000E+00
  9  2.6156E-01  1.4773E-01  1.7517E-01  1.9768E-01  1.4806E-01  1.8032E-01  1.5752E-01  1.4465E-01  1.7602E-01
 10  8.2256E-01  2.6306E-01  2.7122E-01  2.8015E-01  3.3665E-01  3.4830E-01  3.9191E-01  3.0514E-01  2.9904E-01
 11  0.0000E+00  5.1598E-02  4.1467E-02  1.3184E-02  3.9820E-02  0.0000E+00  2.6082E-02  1.1401E-01  1.3505E-01
 12  5.8461E+00  8.1006E+00  8.0309E+00  8.0024E+00  8.1746E+00  7.9946E+00  7.9015E+00  8.0961E+00  7.5917E+00
 13  3.3712E+01  3.4971E+01  3.5018E+01  3.4790E+01  3.4350E+01  3.4405E+01  3.4639E+01  3.4613E+01  3.4784E+01
 14  2.8204E+01  2.6544E+01  2.5910E+01  2.7027E+01  2.7009E+01  2.6645E+01  2.6912E+01  2.6388E+01  2.5805E+01
 15  0.0000E+00  4.6155E-01  7.3919E-01  4.6422E-01  5.8723E-01  1.8510E-01  0.0000E+00  1.7251E+00  1.2031E+00
 16  0.0000E+00  5.3342E-05  1.1755E-05  0.0000E+00  0.0000E+00  4.0966E-05  0.0000E+00  0.0000E+00  0.0000E+00
 17  0.0000E+00  4.6494E-05  1.5138E-05  0.0000E+00  0.0000E+00  0.0000E+00  0.0000E+00  0.0000E+00  0.0000E+00
 18  0.0000E+00  4.9458E-04  0.0000E+00  0.0000E+00  1.0037E-03  6.8847E-04  0.0000E+00  2.4983E-04  4.9426E-04
 19  0.0000E+00  4.4047E-04  3.4027E-04  0.0000E+00  0.0000E+00  1.9543E-04  3.6136E-05  0.0000E+00  2.5034E-04
 20  0.0000E+00  4.8268E-04  0.0000E+00  3.8348E-04  0.0000E+00  0.0000E+00  0.0000E+00  0.0000E+00  0.0000E+00
 21  0.0000E+00  8.9117E-04  0.0000E+00  1.1980E-03  0.0000E+00  0.0000E+00  0.0000E+00  5.0162E-03  0.0000E+00
 22  0.0000E+00  1.9862E-03  1.5139E-03  0.0000E+00  1.4762E-03  0.0000E+00  0.0000E+00  0.0000E+00  8.3021E-04
 23  0.0000E+00  1.7872E-03  0.0000E+00  0.0000E+00  0.0000E+00  0.0000E+00  0.0000E+00  0.0000E+00  0.0000E+00
 24  0.0000E+00  2.8949E-03  0.0000E+00  0.0000E+00  0.0000E+00  0.0000E+00  0.0000E+00  0.0000E+00  0.0000E+00
 25  0.0000E+00  6.2585E-03  0.0000E+00  0.0000E+00  0.0000E+00  0.0000E+00  0.0000E+00  0.0000E+00  0.0000E+00
 26  0.0000E+00  1.4730E-02  0.0000E+00  0.0000E+00  0.0000E+00  0.0000E+00  1.1625E-02  0.0000E+00  0.0000E+00
 27  0.0000E+00  5.2565E-02  0.0000E+00  0.0000E+00  1.4986E-01  0.0000E+00  0.0000E+00  0.0000E+00  0.0000E+00
 28  4.0205E+00  5.2097E+00  4.8864E+00  4.0808E+00  5.2796E+00  4.8044E+00  5.1178E+00  4.9149E+00  5.2979E+00
 29  1.1551E+01  8.3809E+00  8.5146E+00  7.8902E+00  8.1755E+00  9.7095E+00  8.4669E+00  7.3470E+00  8.4258E+00
 30  0.0000E+00  2.0149E-01  1.2754E-01  0.0000E+00  4.7855E-03  0.0000E+00  0.0000E+00  0.0000E+00  0.0000E+00
 31  0.0000E+00  7.2245E-05  0.0000E+00  0.0000E+00  0.0000E+00  0.0000E+00  0.0000E+00  2.1543E-04  0.0000E+00
 32  0.0000E+00  1.0126E-04  0.0000E+00  0.0000E+00  0.0000E+00  0.0000E+00  1.4996E-04  0.0000E+00  0.0000E+00
 33  0.0000E+00  3.1431E-04  4.5749E-04  0.0000E+00  0.0000E+00  0.0000E+00  2.0218E-04  3.7143E-04  3.7550E-04
 34  0.0000E+00  2.3319E-04  0.0000E+00  0.0000E+00  1.1550E-03  0.0000E+00  0.0000E+00  0.0000E+00  0.0000E+00
 35  0.0000E+00  3.8873E-04  0.0000E+00  0.0000E+00  0.0000E+00  1.3772E-04  1.2095E-03  0.0000E+00  1.0427E-03
 36  0.0000E+00  5.4713E-04  9.6552E-04  0.0000E+00  0.0000E+00  0.0000E+00  0.0000E+00  0.0000E+00  0.0000E+00
 37  0.0000E+00  2.2047E-03  3.7621E-03  7.1255E-03  0.0000E+00  0.0000E+00  4.6852E-04  0.0000E+00  0.0000E+00
 38  0.0000E+00  1.8366E-03  0.0000E+00  0.0000E+00  0.0000E+00  0.0000E+00  0.0000E+00  0.0000E+00  0.0000E+00
 39  0.0000E+00  4.6108E-03  0.0000E+00  0.0000E+00  0.0000E+00  0.0000E+00  0.0000E+00  0.0000E+00  0.0000E+00
 40  0.0000E+00  1.0359E-02  0.0000E+00  0.0000E+00  0.0000E+00  0.0000E+00  0.0000E+00  0.0000E+00  0.0000E+00
 41  0.0000E+00  2.2094E-02  0.0000E+00  0.0000E+00  1.2300E-01  6.6700E-03  3.9892E-02  0.0000E+00  0.0000E+00
 42  0.0000E+00  6.2116E-02  0.0000E+00  0.0000E+00  0.0000E+00  0.0000E+00  1.1710E-02  0.0000E+00  0.0000E+00
 43  0.0000E+00  3.0803E+00  3.7041E+00  2.8906E+00  3.1092E+00  3.1263E+00  3.5104E+00  3.6145E+00  3.3496E+00
 44  0.0000E+00  4.4318E+00  3.7061E+00  4.6615E+00  4.5177E+00  4.9400E+00  4.5223E+00  2.7186E+00  4.3230E+00
 45  1.4738E+01  6.9789E+00  7.8915E+00  8.7374E+00  7.0079E+00  6.6793E+00  7.3152E+00  9.0352E+00  7.6304E+00

# AV, chi2 & Mass for <> & i_chain = 1 ...  7 solutions
AV       1.9472      1.9412      1.9423      1.9407      1.9468      1.9441      1.9420      1.9442      1.9427
chi2 2.5224E+00  2.5600E+00  2.5500E+00  2.5486E+00  2.5511E+00  2.5511E+00  2.5501E+00  2.5506E+00  2.5514E+00
Mass 1.0439E-09  9.8676E-10  9.9237E-10  9.9897E-10  9.9038E-10  9.9739E-10  9.9160E-10  9.9123E-10  9.9669E-10
  -5.80                                  [v0_min (km/s) before EX0s...]
  70.52                                  [vd_min (km/s) before EX0s...]


## Synthetic spectrum (Best Model) ##l_obs f_obs f_syn wei
 3070    [Nl_obs]
 3359.00    0.00000   0.43506   -2.000
 3360.00    0.13438   0.41931   -1.000
 3361.00    0.19762   0.41742   -1.000
 3362.00    0.21780   0.43091   -1.000
 3363.00    0.24169   0.45065   -1.000
 3364.00    0.24316   0.46479   -1.000
 3365.00    0.24350   0.46649   -1.000
 3366.00    0.24226   0.45655   -1.000
 3367.00    0.25125   0.44168   -1.000
 3368.00    0.26110   0.42971   -1.000
 3369.00    0.24844   0.42427   -1.000
 3370.00    0.24616   0.42300   -1.000
 3371.00    0.24809   0.42177   -1.000
 3372.00    0.24973   0.42189   -1.000
 3373.00    0.25398   0.42917   -1.000
 3374.00    0.27685   0.44592   -1.000
 3375.00    0.29034   0.46660   -1.000
 3376.00    0.28388   0.47862   -1.000
 3377.00    0.29521   0.47463   -1.000
 3378.00    0.31351   0.46001   -1.000
 3379.00    0.30985   0.44572   -1.000
 3380.00    0.28743   0.44062   -1.000
 3381.00    0.28991   0.44674   -1.000
 3382.00    0.29368   0.45930   -1.000
 3383.00    0.30004   0.47067   -1.000
 3384.00    0.29509   0.47829   -1.000
 3385.00    0.30157   0.48404   -1.000
 3386.00    0.32088   0.48721   -1.000
 3387.00    0.32806   0.48677   -1.000
 3388.00    0.32702   0.48475   -1.000
 3389.00    0.32252   0.48316   -1.000
 3390.00    0.32263   0.48118   -1.000
 3391.00    0.33442   0.47656   -1.000
 3392.00    0.33667   0.47001   -1.000
 3393.00    0.32849   0.46728   -1.000
 3394.00    0.33434   0.47311   -1.000
 3395.00    0.34356   0.48547   -1.000
 3396.00    0.35639   0.49878   -1.000
 3397.00    0.36294   0.50879   -1.000
 3398.00    0.38398   0.51244   -1.000
 3399.00    0.39207   0.50898   -1.000
 3400.00    0.40357   0.50179   -1.000
 3401.00    0.39880   0.49365   -1.000
 3402.00    0.39129   0.48497   -1.000
 3403.00    0.38164   0.47823   -1.000
 3404.00    0.36714   0.47487   -1.000
 3405.00    0.36327   0.47230   -1.000
 3406.00    0.37603   0.46812   -1.000
 3407.00    0.37892   0.46435   -1.000
 3408.00    0.37278   0.46451   -1.000
 3409.00    0.37324   0.46917   -1.000
 3410.00    0.37998   0.47452   -1.000
 3411.00    0.38418   0.47576   -1.000
 3412.00    0.38521   0.47261   -1.000
 3413.00    0.38431   0.46844   -1.000
 3414.00    0.37222   0.46703   -1.000
 3415.00    0.37486   0.47013   -1.000
 3416.00    0.38416   0.47768   -1.000
 3417.00    0.39661   0.48817   -1.000
 3418.00    0.40302   0.49968   -1.000
 3419.00    0.41627   0.50935   -1.000
 3420.00    0.41685   0.51345   -1.000
 3421.00    0.41399   0.51095   -1.000
 3422.00    0.41332   0.50497   -1.000
 3423.00    0.41141   0.49970   -1.000
 3424.00    0.41542   0.49750   -1.000
 3425.00    0.41569   0.49821   -1.000
 3426.00    0.42613   0.50152   -1.000
 3427.00    0.43035   0.50858   -1.000
 3428.00    0.43669   0.51927   -1.000
 3429.00    0.43873   0.52751   -1.000
 3430.00    0.43525   0.52723   -1.000
 3431.00    0.43761   0.51895   -1.000
 3432.00    0.44097   0.50845   -1.000
 3433.00    0.43593   0.50215   -1.000
 3434.00    0.42862   0.50237   -1.000
 3435.00    0.43306   0.50619   -1.000
 3436.00    0.44496   0.50783   -1.000
 3437.00    0.44327   0.50338   -1.000
 3438.00    0.42887   0.49145   -1.000
 3439.00    0.41346   0.47330   -1.000
 3440.00    0.39389   0.45324   -1.000
 3441.00    0.37878   0.43922   -1.000
 3442.00    0.39007   0.43649   -1.000
 3443.00    0.39691   0.44252   -1.000
 3444.00    0.40006   0.45151   -1.000
 3445.00    0.41274   0.46138   -1.000
 3446.00    0.41869   0.47410   -1.000
 3447.00    0.43093   0.49034   -1.000
 3448.00    0.45018   0.50636   -1.000
 3449.00    0.45061   0.51496   -1.000
 3450.00    0.46043   0.51182   -1.000
 3451.00    0.46587   0.50025   -1.000
 3452.00    0.44993   0.48774   -1.000
 3453.00    0.43673   0.48187   -1.000
 3454.00    0.45081   0.48432   -1.000
 3455.00    0.45993   0.48995   -1.000
 3456.00    0.46319   0.49177   -1.000
 3457.00    0.46110   0.48633   -1.000
 3458.00    0.45170   0.47696   -1.000
 3459.00    0.44853   0.46807  125.999
 3460.00    0.45846   0.46217   90.656
 3461.00    0.45649   0.46321   90.625
 3462.00    0.45343   0.47302   -1.000
 3463.00    0.45979   0.48487   -1.000
 3464.00    0.46904   0.49079   -1.000
 3465.00    0.47204   0.49137   -1.000
 3466.00    0.47117   0.49150   -1.000
 3467.00    0.48231   0.49491   -1.000
 3468.00    0.49129   0.50106   -1.000
 3469.00    0.49670   0.50705   -1.000
 3470.00    0.51187   0.50963  714.915
 3471.00    0.50796   0.50634  714.915
 3472.00    0.49756   0.49709  714.915
 3473.00    0.48182   0.48347  714.915
 3474.00    0.46653   0.46846  714.915
 3475.00    0.45943   0.45820  127.227
 3476.00    0.45022   0.45806   92.879
 3477.00    0.44730   0.46682   92.562
 3478.00    0.46096   0.47875   -1.000
 3479.00    0.49007   0.48895  714.915
 3480.00    0.50485   0.49478   -1.000
 3481.00    0.50447   0.49518   -1.000
 3482.00    0.50321   0.49079   -1.000
 3483.00    0.49507   0.48585   -1.000
 3484.00    0.48979   0.48663  714.915
 3485.00    0.49768   0.49580  714.915
 3486.00    0.51780   0.50811   -1.000
 3487.00    0.51647   0.51350   -1.000
 3488.00    0.51114   0.50714   -1.000
 3489.00    0.49917   0.49331   -1.000
 3490.00    0.48224   0.48192  714.915
 3491.00    0.47955   0.47946  714.915
 3492.00    0.48339   0.48341  714.915
 3493.00    0.48008   0.48681   -1.000
 3494.00    0.48377   0.48504  714.915
 3495.00    0.48315   0.47951   -1.000
 3496.00    0.48092   0.47659   -1.000
 3497.00    0.47376   0.48256   -1.000
 3498.00    0.48707   0.49553   -1.000
 3499.00    0.50901   0.50563   -1.000
 3500.00    0.52357   0.50879   -1.000
 3501.00    0.52992   0.51017   -1.000
 3502.00    0.52913   0.51348   -1.000
 3503.00    0.52747   0.51611   -1.000
 3504.00    0.52887   0.51347   -1.000
 3505.00    0.52153   0.50679   -1.000
 3506.00    0.51387   0.50168   -1.000
 3507.00    0.51175   0.50071   -1.000
 3508.00    0.50811   0.50119   -1.000
 3509.00    0.52125   0.49915   -1.000
 3510.00    0.52067   0.49416   -1.000
 3511.00    0.50780   0.48831   -1.000
 3512.00    0.49418   0.48207   -1.000
 3513.00    0.49699   0.47638   -1.000
 3514.00    0.49963   0.47699   -1.000
 3515.00    0.50110   0.48746   -1.000
 3516.00    0.50549   0.50410  714.915
 3517.00    0.52066   0.51862  714.915
 3518.00    0.52136   0.52361  713.966
 3519.00    0.51506   0.51773  714.915
 3520.00    0.50848   0.50507   -1.000
 3521.00    0.49004   0.49193  714.915
 3522.00    0.49168   0.48101   -1.000
 3523.00    0.49110   0.47111   -1.000
 3524.00    0.47847   0.46323  126.974
 3525.00    0.46460   0.46098   91.957
 3526.00    0.46163   0.46768   92.608
 3527.00    0.48885   0.48265  231.831
 3528.00    0.51444   0.49980   -1.000
 3529.00    0.52356   0.51196   -1.000
 3530.00    0.51629   0.51651  714.915
 3531.00    0.50872   0.51638   -1.000
 3532.00    0.50903   0.51664   -1.000
 3533.00    0.52535   0.51971   -1.000
 3534.00    0.53062   0.52413   -1.000
 3535.00    0.52263   0.52739   -1.000
 3536.00    0.52356   0.52919   -1.000
 3537.00    0.53277   0.53198  714.915
 3538.00    0.53296   0.53702   -1.000
 3539.00    0.53494   0.54115   -1.000
 3540.00    0.53571   0.54095   -1.000
 3541.00    0.52657   0.53859   -1.000
 3542.00    0.52401   0.53893   -1.000
 3543.00    0.53421   0.54257   -1.000
 3544.00    0.53197   0.54653   -1.000
 3545.00    0.52803   0.54750   -1.000
 3546.00    0.53387   0.54557   -1.000
 3547.00    0.53539   0.54351   -1.000
 3548.00    0.53500   0.54311   -1.000
 3549.00    0.53122   0.54419   -1.000
 3550.00    0.51633   0.54511   -1.000
 3551.00    0.50714   0.54367   -1.000
 3552.00    0.50909   0.53878   -1.000
 3553.00    0.50633   0.53260   -1.000
 3554.00    0.50088   0.52861   -1.000
 3555.00    0.50647   0.52851   -1.000
 3556.00    0.51809   0.53024   -1.000
 3557.00    0.51006   0.53023   -1.000
 3558.00    0.49876   0.52794   -1.000
 3559.00    0.49132   0.52659   -1.000
 3560.00    0.49110   0.53008   -1.000
 3561.00    0.50875   0.53807   -1.000
 3562.00    0.51565   0.54326   -1.000
 3563.00    0.50595   0.53599   -1.000
 3564.00    0.48935   0.51491   -1.000
 3565.00    0.47676   0.49323  128.536
 3566.00    0.46583   0.48282   93.171
 3567.00    0.46769   0.48161   93.669
 3568.00    0.46799   0.48001   92.951
 3569.00    0.45900   0.47233   94.917
 3570.00    0.45244   0.46392   97.172
 3571.00    0.45619   0.46280   95.644
 3572.00    0.47112   0.46886   91.744
 3573.00    0.48122   0.47640  225.662
 3574.00    0.47902   0.48127  714.915
 3575.00    0.47801   0.48383   -1.000
 3576.00    0.48411   0.48555  714.915
 3577.00    0.48542   0.48458  714.915
 3578.00    0.47638   0.47769  714.915
 3579.00    0.47723   0.46473  133.240
 3580.00    0.46144   0.45076   98.645
 3581.00    0.44697   0.44206  104.897
 3582.00    0.43993   0.44110  107.217
 3583.00    0.44264   0.44362  107.721
 3584.00    0.43824   0.44224  109.698
 3585.00    0.44131   0.43655  113.057
 3586.00    0.43217   0.43295  115.357
 3587.00    0.42950   0.43623  111.844
 3588.00    0.43762   0.44712  105.947
 3589.00    0.44993   0.46353  100.660
 3590.00    0.46897   0.48151   92.903
 3591.00    0.48015   0.49561   -1.000
 3592.00    0.49010   0.50267   -1.000
 3593.00    0.50211   0.50528  714.915
 3594.00    0.50345   0.50930   -1.000
 3595.00    0.50897   0.51793   -1.000
 3596.00    0.52454   0.52862  714.915
 3597.00    0.53498   0.53824  709.775
 3598.00    0.54143   0.54569   -1.000
 3599.00    0.55277   0.54906  677.062
 3600.00    0.54505   0.54555  678.975
 3601.00    0.52785   0.53431   -1.000
 3602.00    0.51486   0.51879  714.915
 3603.00    0.50038   0.50498  714.915
 3604.00    0.48838   0.49789   -1.000
 3605.00    0.49390   0.49747  714.915
 3606.00    0.50227   0.49817   -1.000
 3607.00    0.50456   0.49503   -1.000
 3608.00    0.49955   0.48872   -1.000
 3609.00    0.49323   0.48564   -1.000
 3610.00    0.49760   0.49027   -1.000
 3611.00    0.50007   0.49860  714.915
 3612.00    0.50099   0.50560  714.915
 3613.00    0.50694   0.51161  714.915
 3614.00    0.50643   0.51855   -1.000
 3615.00    0.52162   0.52406  714.915
 3616.00    0.53428   0.51997   -1.000
 3617.00    0.51730   0.50367   -1.000
 3618.00    0.49751   0.48763   -1.000
 3619.00    0.49073   0.48512  127.854
 3620.00    0.49045   0.49694  219.942
 3621.00    0.50927   0.51499   -1.000
 3622.00    0.52670   0.53071  714.915
 3623.00    0.54286   0.54111  710.098
 3624.00    0.55002   0.55047  698.798
 3625.00    0.55660   0.56363   -1.000
 3626.00    0.57413   0.57846   -1.000
 3627.00    0.58088   0.58749   -1.000
 3628.00    0.57311   0.58175   -1.000
 3629.00    0.55217   0.55879   -1.000
 3630.00    0.52334   0.52904   -1.000
 3631.00    0.50235   0.50787   -1.000
 3632.00    0.49675   0.50351   -1.000
 3633.00    0.51166   0.51194  714.915
 3634.00    0.51956   0.52287  714.915
 3635.00    0.51676   0.52926   -1.000
 3636.00    0.52919   0.53305   -1.000
 3637.00    0.54251   0.54082  714.336
 3638.00    0.55564   0.55330  681.611
 3639.00    0.56309   0.56490  656.257
 3640.00    0.56443   0.56876   -1.000
 3641.00    0.56552   0.56262  659.439
 3642.00    0.55410   0.54982  679.989
 3643.00    0.52475   0.53612   -1.000
 3644.00    0.51108   0.52622   -1.000
 3645.00    0.52694   0.52011   -1.000
 3646.00    0.52846   0.51503   -1.000
 3647.00    0.51745   0.51140   -1.000
 3648.00    0.51182   0.51180  714.915
 3649.00    0.50924   0.51759   -1.000
 3650.00    0.52291   0.52858   -1.000
 3651.00    0.53789   0.54282   -1.000
 3652.00    0.54396   0.55674   -1.000
 3653.00    0.55206   0.56727   -1.000
 3654.00    0.56488   0.57358   -1.000
 3655.00    0.57696   0.57813  641.105
 3656.00    0.58986   0.58406  635.413
 3657.00    0.58345   0.59041   -1.000
 3658.00    0.57511   0.59451   -1.000
 3659.00    0.58311   0.59523   -1.000
 3660.00    0.58292   0.59249   -1.000
 3661.00    0.57077   0.58675   -1.000
 3662.00    0.56298   0.57962   -1.000
 3663.00    0.56613   0.57377   -1.000
 3664.00    0.56975   0.57130  644.126
 3665.00    0.57222   0.57168  640.348
 3666.00    0.57811   0.57169   -1.000
 3667.00    0.58519   0.56807   -1.000
 3668.00    0.57812   0.56181   -1.000
 3669.00    0.56218   0.55918  669.914
 3670.00    0.55776   0.56429   -1.000
 3671.00    0.57126   0.57440  653.658
 3672.00    0.57784   0.58293   -1.000
 3673.00    0.58497   0.58536  631.075
 3674.00    0.59049   0.58165   -1.000
 3675.00    0.58107   0.57306   -1.000
 3676.00    0.56473   0.56160  644.874
 3677.00    0.56105   0.54995   -1.000
 3678.00    0.55906   0.54080   -1.000
 3679.00    0.55382   0.53670   -1.000
 3680.00    0.55440   0.53832   -1.000
 3681.00    0.56230   0.54423   -1.000
 3682.00    0.55607   0.55104   -1.000
 3683.00    0.55763   0.55445  664.930
 3684.00    0.56401   0.55020   -1.000
 3685.00    0.54687   0.53774   -1.000
 3686.00    0.53804   0.52504   -1.000
 3687.00    0.54485   0.52264   -1.000
 3688.00    0.55148   0.53425   -1.000
 3689.00    0.56651   0.55410   -1.000
 3690.00    0.58007   0.57210   -1.000
 3691.00    0.57769   0.58129  621.729
 3692.00    0.58524   0.58293  618.852
 3693.00    0.58912   0.58200   -1.000
 3694.00    0.58457   0.58000   -1.000
 3695.00    0.58196   0.57638   -1.000
 3696.00    0.58004   0.57388   -1.000
 3697.00    0.58672   0.57887   -1.000
 3698.00    0.59830   0.59385  616.029
 3699.00    0.61597   0.61225  598.803
 3700.00    0.62544   0.62176  588.491
 3701.00    0.61403   0.61224  593.474
 3702.00    0.58927   0.58296   -1.000
 3703.00    0.55303   0.54496   -1.000
 3704.00    0.53210   0.51429   -1.000
 3705.00    0.52716   0.50233   -1.000
 3706.00    0.52853   0.50863   -1.000
 3707.00    0.54195   0.52279   -1.000
 3708.00    0.55187   0.53434   -1.000
 3709.00    0.54702   0.53839   -1.000
 3710.00    0.54946   0.53833   -1.000
 3711.00    0.55876   0.54298   -1.000
 3712.00    0.57320   0.55865   -1.000
 3713.00    0.59889   0.58337   -1.000
 3714.00    0.62838   0.60920   -1.000
 3715.00    0.64423   0.62721   -1.000
 3716.00    0.64326   0.63134   -1.000
 3717.00    0.63514   0.61886   -1.000
 3718.00    0.60421   0.58719   -1.000
 3719.00    0.55256   0.53960   -1.000
 3720.00    0.50523   0.49373   -1.000
 3721.00    0.48618   0.46967  131.933
 3722.00    0.49988   0.47576   -1.000
 3723.00    0.53892   0.50854   -1.000
 3724.00    0.58811   0.55331   -1.000
 3725.00    0.61553   0.58923   -1.000
 3726.00    0.62350   0.60723   -1.000
 3727.00    0.61744   0.61547  667.536
 3728.00    0.61098   0.62173   -1.000
 3729.00    0.60744   0.62307   -1.000
 3730.00    0.60998   0.60972  673.654
 3731.00    0.59171   0.57501   -1.000
 3732.00    0.55316   0.52479   -1.000
 3733.00    0.50857   0.47410   -1.000
 3734.00    0.46781   0.43879   96.316
 3735.00    0.45024   0.43114  102.751
 3736.00    0.46902   0.45352  100.532
 3737.00    0.50776   0.49836   92.436
 3738.00    0.55439   0.55398  212.767
 3739.00    0.59464   0.60559   -1.000
 3740.00    0.61969   0.63930   -1.000
 3741.00    0.63504   0.65061   -1.000
 3742.00    0.63480   0.64288   -1.000
 3743.00    0.61684   0.62296   -1.000
 3744.00    0.59626   0.59804  714.915
 3745.00    0.57572   0.57094   -1.000
 3746.00    0.55442   0.53984   -1.000
 3747.00    0.52782   0.50295   -1.000
 3748.00    0.49188   0.46501   94.535
 3749.00    0.46984   0.44221   97.323
 3750.00    0.46883   0.44990   -1.000
 3751.00    0.49733   0.48716   -1.000
 3752.00    0.56656   0.54054   -1.000
 3753.00    0.62567   0.59518   -1.000
 3754.00    0.65526   0.63832   -1.000
 3755.00    0.67627   0.66048   -1.000
 3756.00    0.66899   0.65819   -1.000
 3757.00    0.63651   0.63825  683.282
 3758.00    0.61191   0.61718   -1.000
 3759.00    0.61027   0.60887  714.915
 3760.00    0.62254   0.61421   -1.000
 3761.00    0.63796   0.62515   -1.000
 3762.00    0.65002   0.63474   -1.000
 3763.00    0.65758   0.63903   -1.000
 3764.00    0.65646   0.63515   -1.000
 3765.00    0.64938   0.62169   -1.000
 3766.00    0.63140   0.60058   -1.000
 3767.00    0.61020   0.57495   -1.000
 3768.00    0.58889   0.54697   -1.000
 3769.00    0.56600   0.52106   -1.000
 3770.00    0.54281   0.50666   -1.000
 3771.00    0.54715   0.51459   -1.000
 3772.00    0.57572   0.54479   -1.000
 3773.00    0.60494   0.58273   -1.000
 3774.00    0.62927   0.61552   -1.000
 3775.00    0.65232   0.64194   -1.000
 3776.00    0.66807   0.66564  618.766
 3777.00    0.68695   0.68955  617.088
 3778.00    0.71964   0.71331   -1.000
 3779.00    0.72938   0.73443   -1.000
 3780.00    0.74533   0.75093   -1.000
 3781.00    0.75839   0.76177  570.997
 3782.00    0.76758   0.76728  567.471
 3783.00    0.76573   0.76692  566.532
 3784.00    0.76044   0.75801  575.342
 3785.00    0.74427   0.73940  600.215
 3786.00    0.71907   0.71574  641.130
 3787.00    0.70653   0.69489   -1.000
 3788.00    0.69716   0.68172   -1.000
 3789.00    0.68484   0.67562   -1.000
 3790.00    0.68077   0.67223   -1.000
 3791.00    0.67649   0.66497   -1.000
 3792.00    0.66731   0.64805   -1.000
 3793.00    0.63722   0.62047   -1.000
 3794.00    0.59991   0.58472   -1.000
 3795.00    0.56386   0.54480   -1.000
 3796.00    0.53449   0.50445   -1.000
 3797.00    0.50114   0.47106   -1.000
 3798.00    0.48809   0.46091   -1.000
 3799.00    0.51499   0.48512   -1.000
 3800.00    0.56644   0.53574   -1.000
 3801.00    0.61521   0.59463   -1.000
 3802.00    0.65030   0.64599   -1.000
 3803.00    0.68334   0.68177  638.376
 3804.00    0.70525   0.70145  631.320
 3805.00    0.70710   0.70769  636.613
 3806.00    0.70106   0.70842   -1.000
 3807.00    0.70364   0.71522   -1.000
 3808.00    0.71732   0.73232   -1.000
 3809.00    0.73384   0.75327   -1.000
 3810.00    0.74301   0.76668   -1.000
 3811.00    0.74706   0.76354   -1.000
 3812.00    0.73656   0.74353   -1.000
 3813.00    0.71681   0.71539  701.578
 3814.00    0.70070   0.69198   -1.000
 3815.00    0.69334   0.68324   -1.000
 3816.00    0.69400   0.68801   -1.000
 3817.00    0.70866   0.69394   -1.000
 3818.00    0.71022   0.68911   -1.000
 3819.00    0.68778   0.67309   -1.000
 3820.00    0.66639   0.65843   -1.000
 3821.00    0.66958   0.65670   -1.000
 3822.00    0.67998   0.66219   -1.000
 3823.00    0.67354   0.65943   -1.000
 3824.00    0.65037   0.64325   -1.000
 3825.00    0.63232   0.62223  137.335
 3826.00    0.61830   0.60631   95.104
 3827.00    0.60492   0.59745   95.241
 3828.00    0.60875   0.59086   93.918
 3829.00    0.60457   0.58056   92.375
 3830.00    0.58645   0.56209   92.615
 3831.00    0.56187   0.53325   95.807
 3832.00    0.52537   0.49571   -1.000
 3833.00    0.48203   0.45592  107.319
 3834.00    0.45726   0.42550   -1.000
 3835.00    0.46286   0.41423   -1.000
 3836.00    0.47510   0.42234   -1.000
 3837.00    0.48594   0.44336   -1.000
 3838.00    0.50677   0.47106   -1.000
 3839.00    0.53624   0.50430   -1.000
 3840.00    0.57151   0.54496   98.455
 3841.00    0.60787   0.59085   -1.000
 3842.00    0.65225   0.63569   -1.000
 3843.00    0.68474   0.67274   -1.000
 3844.00    0.70350   0.69834   -1.000
 3845.00    0.71059   0.71554  714.915
 3846.00    0.71645   0.72881   -1.000
 3847.00    0.72758   0.73791   -1.000
 3848.00    0.72790   0.74032   -1.000
 3849.00    0.71974   0.73865   -1.000
 3850.00    0.71406   0.73960   -1.000
 3851.00    0.72525   0.74640   -1.000
 3852.00    0.74309   0.75470   -1.000
 3853.00    0.74105   0.75653   -1.000
 3854.00    0.73502   0.74945   -1.000
 3855.00    0.72748   0.73798   -1.000
 3856.00    0.71368   0.72630   -1.000
 3857.00    0.70463   0.71511   -1.000
 3858.00    0.69282   0.70517  130.539
 3859.00    0.67413   0.70136   92.419
 3860.00    0.67377   0.70929   -1.000
 3861.00    0.70718   0.72698   -1.000
 3862.00    0.73546   0.74502   -1.000
 3863.00    0.75497   0.75465  714.915
 3864.00    0.75803   0.75597  712.700
 3865.00    0.75497   0.75446  714.915
 3866.00    0.74927   0.75404   -1.000
 3867.00    0.74451   0.75560   -1.000
 3868.00    0.74162   0.75566   -1.000
 3869.00    0.73318   0.74872   -1.000
 3870.00    0.70493   0.73315   -1.000
 3871.00    0.67652   0.71427   -1.000
 3872.00    0.67535   0.70283   -1.000
 3873.00    0.69426   0.70722   -1.000
 3874.00    0.72055   0.72420  714.915
 3875.00    0.73779   0.73718  700.924
 3876.00    0.73382   0.73261  706.340
 3877.00    0.70794   0.71442   -1.000
 3878.00    0.67912   0.69709   -1.000
 3879.00    0.66194   0.68907   -1.000
 3880.00    0.66038   0.68625   -1.000
 3881.00    0.65075   0.68035   -1.000
 3882.00    0.63748   0.66906   -1.000
 3883.00    0.64010   0.65330   -1.000
 3884.00    0.64590   0.62959   -1.000
 3885.00    0.63313   0.59273   -1.000
 3886.00    0.59726   0.54546   -1.000
 3887.00    0.55470   0.50164   -1.000
 3888.00    0.52378   0.47710   -1.000
 3889.00    0.52550   0.48195   -1.000
 3890.00    0.56522   0.51604   -1.000
 3891.00    0.61941   0.56630   -1.000
 3892.00    0.66033   0.61280   -1.000
 3893.00    0.68960   0.64459   -1.000
 3894.00    0.70637   0.66553   -1.000
 3895.00    0.72244   0.68432   -1.000
 3896.00    0.73775   0.70425   -1.000
 3897.00    0.74954   0.72067   -1.000
 3898.00    0.75511   0.72996   -1.000
 3899.00    0.75749   0.73612   -1.000
 3900.00    0.76630   0.74489   -1.000
 3901.00    0.77539   0.75563   -1.000
 3902.00    0.77867   0.76216   -1.000
 3903.00    0.77719   0.76041   -1.000
 3904.00    0.77748   0.75386   -1.000
 3905.00    0.76792   0.75088   -1.000
 3906.00    0.76970   0.75859   -1.000
 3907.00    0.79330   0.77897   -1.000
 3908.00    0.81383   0.80544   -1.000
 3909.00    0.83144   0.82695   -1.000
 3910.00    0.84863   0.83906   -1.000
 3911.00    0.85490   0.84330   -1.000
 3912.00    0.85746   0.84076   -1.000
 3913.00    0.85450   0.83353   -1.000
 3914.00    0.84209   0.82578   -1.000
 3915.00    0.82966   0.82030   -1.000
 3916.00    0.82252   0.81655   -1.000
 3917.00    0.82369   0.81130   -1.000
 3918.00    0.82179   0.80187   -1.000
 3919.00    0.80382   0.78935   -1.000
 3920.00    0.78223   0.77834   -1.000
 3921.00    0.78018   0.77367   -1.000
 3922.00    0.77837   0.77564   -1.000
 3923.00    0.78059   0.77915  661.710
 3924.00    0.78028   0.77716   -1.000
 3925.00    0.76276   0.76492  684.197
 3926.00    0.72939   0.74145   -1.000
 3927.00    0.69597   0.70866   -1.000
 3928.00    0.65410   0.67060  146.498
 3929.00    0.60416   0.62976  109.600
 3930.00    0.54358   0.58525   -1.000
 3931.00    0.46359   0.53737   -1.000
 3932.00    0.38088   0.49185   -1.000
 3933.00    0.33284   0.46371   -1.000
 3934.00    0.34590   0.46781   -1.000
 3935.00    0.40595   0.50303   -1.000
 3936.00    0.49500   0.55501   -1.000
 3937.00    0.56960   0.60993   -1.000
 3938.00    0.62036   0.65928   -1.000
 3939.00    0.67025   0.69976   -1.000
 3940.00    0.70382   0.72953   -1.000
 3941.00    0.72534   0.74649   -1.000
 3942.00    0.73481   0.75258   -1.000
 3943.00    0.72831   0.75385   -1.000
 3944.00    0.74517   0.75795   -1.000
 3945.00    0.77248   0.76869   -1.000
 3946.00    0.79597   0.78174   -1.000
 3947.00    0.80118   0.79120   -1.000
 3948.00    0.79620   0.79733  609.003
 3949.00    0.80159   0.80283  592.741
 3950.00    0.81399   0.80674   -1.000
 3951.00    0.81309   0.80769   -1.000
 3952.00    0.81506   0.80871   -1.000
 3953.00    0.82568   0.81241   -1.000
 3954.00    0.83358   0.81469   -1.000
 3955.00    0.82795   0.80949   -1.000
 3956.00    0.80548   0.79890   -1.000
 3957.00    0.79365   0.79032  585.443
 3958.00    0.79017   0.78339   -1.000
 3959.00    0.78382   0.76845   -1.000
 3960.00    0.75594   0.73888   -1.000
 3961.00    0.70471   0.69968   -1.000
 3962.00    0.65661   0.66169   -1.000
 3963.00    0.62318   0.62723  714.915
 3964.00    0.58678   0.58801  138.926
 3965.00    0.52133   0.53499  103.155
 3966.00    0.42779   0.46744   -1.000
 3967.00    0.34151   0.39978   -1.000
 3968.00    0.28615   0.35213   -1.000
 3969.00    0.28883   0.33781   -1.000
 3970.00    0.33809   0.35975   -1.000
 3971.00    0.40883   0.41015  122.574
 3972.00    0.48641   0.47493  101.953
 3973.00    0.56527   0.54264   -1.000
 3974.00    0.63251   0.60643   -1.000
 3975.00    0.68511   0.66245   -1.000
 3976.00    0.72486   0.71022   -1.000
 3977.00    0.75616   0.75071   -1.000
 3978.00    0.78899   0.78568  552.154
 3979.00    0.82723   0.81311   -1.000
 3980.00    0.85260   0.82898   -1.000
 3981.00    0.85701   0.83425   -1.000
 3982.00    0.85272   0.83618   -1.000
 3983.00    0.85708   0.84257   -1.000
 3984.00    0.87651   0.85430   -1.000
 3985.00    0.89422   0.86685   -1.000
 3986.00    0.90021   0.87773   -1.000
 3987.00    0.90893   0.88782   -1.000
 3988.00    0.91536   0.89756   -1.000
 3989.00    0.91215   0.90584  474.894
 3990.00    0.91984   0.91328  473.616
 3991.00    0.93217   0.92179   -1.000
 3992.00    0.95386   0.93020   -1.000
 3993.00    0.96055   0.93380   -1.000
 3994.00    0.94901   0.92933   -1.000
 3995.00    0.93102   0.91863   -1.000
 3996.00    0.92033   0.90789   -1.000
 3997.00    0.91332   0.90421   -1.000
 3998.00    0.90983   0.91037  483.629
 3999.00    0.93122   0.92327   -1.000
 4000.00    0.95920   0.93749   -1.000
 4001.00    0.96912   0.94703   -1.000
 4002.00    0.97335   0.94686   -1.000
 4003.00    0.97115   0.93492   -1.000
 4004.00    0.94387   0.91486   -1.000
 4005.00    0.92379   0.89826   -1.000
 4006.00    0.93030   0.89860   -1.000
 4007.00    0.94332   0.91598   -1.000
 4008.00    0.96102   0.93811   -1.000
 4009.00    0.97651   0.95441   -1.000
 4010.00    0.98314   0.96249   -1.000
 4011.00    0.98307   0.96535   -1.000
 4012.00    0.97775   0.96684   -1.000
 4013.00    0.97838   0.96939   -1.000
 4014.00    0.98848   0.97283   -1.000
 4015.00    0.99285   0.97557   -1.000
 4016.00    0.99030   0.97749   -1.000
 4017.00    0.99281   0.98033   -1.000
 4018.00    1.00000   0.98554   -1.000
 4019.00    1.00698   0.99130   -1.000
 4020.00    1.01089   0.99408   -1.000
 4021.00    1.01504   0.99174   -1.000
 4022.00    1.00740   0.98475   -1.000
 4023.00    0.99268   0.97503   -1.000
 4024.00    0.98687   0.96703   -1.000
 4025.00    0.99313   0.96745   -1.000
 4026.00    1.00875   0.97776   -1.000
 4027.00    1.02663   0.98919   -1.000
 4028.00    1.03046   0.98911   -1.000
 4029.00    1.00862   0.97399   -1.000
 4030.00    0.98217   0.95145   -1.000
 4031.00    0.95910   0.93245   -1.000
 4032.00    0.93651   0.92453   -1.000
 4033.00    0.93676   0.92910   -1.000
 4034.00    0.95538   0.94448   -1.000
 4035.00    0.97753   0.96825   -1.000
 4036.00    1.00763   0.99666   -1.000
 4037.00    1.03283   1.02164   -1.000
 4038.00    1.04180   1.03342  400.084
 4039.00    1.04116   1.03067   -1.000
 4040.00    1.02562   1.02206  414.646
 4041.00    1.01655   1.01338  421.113
 4042.00    1.01386   0.99995   -1.000
 4043.00    0.99141   0.97367   -1.000
 4044.00    0.95188   0.93809   -1.000
 4045.00    0.91369   0.91390  513.665
 4046.00    0.90904   0.91774   -1.000
 4047.00    0.94403   0.94617  472.423
 4048.00    0.98967   0.98193  437.486
 4049.00    1.01637   1.00888  420.234
 4050.00    1.03234   1.02102   -1.000
 4051.00    1.03229   1.01996   -1.000
 4052.00    1.01898   1.00989   -1.000
 4053.00    1.01421   0.99702   -1.000
 4054.00    1.00832   0.98794   -1.000
 4055.00    1.00334   0.98342   -1.000
 4056.00    1.00683   0.98059   -1.000
 4057.00    0.99925   0.98061   -1.000
 4058.00    0.99159   0.98678  451.477
 4059.00    1.00428   0.99665  438.746
 4060.00    1.01072   0.99924   -1.000
 4061.00    1.00290   0.98544   -1.000
 4062.00    0.97932   0.95957   -1.000
 4063.00    0.94809   0.93468   -1.000
 4064.00    0.94842   0.92245   -1.000
 4065.00    0.97307   0.92525   -1.000
 4066.00    0.98026   0.93802   -1.000
 4067.00    0.98378   0.95434   -1.000
 4068.00    0.99581   0.96792   -1.000
 4069.00    1.01331   0.97056   -1.000
 4070.00    0.99871   0.95928   -1.000
 4071.00    0.98241   0.94416   -1.000
 4072.00    0.97959   0.93914   -1.000
 4073.00    0.98527   0.94511   -1.000
 4074.00    0.98848   0.94800   -1.000
 4075.00    0.96574   0.93654   -1.000
 4076.00    0.92873   0.91601   -1.000
 4077.00    0.90028   0.90249  505.975
 4078.00    0.90369   0.90876  500.119
 4079.00    0.93676   0.93391  471.390
 4080.00    0.97592   0.96400   -1.000
 4081.00    1.00235   0.98199   -1.000
 4082.00    1.00450   0.98152   -1.000
 4083.00    0.98633   0.96979   -1.000
 4084.00    0.96879   0.96012   -1.000
 4085.00    0.97294   0.96192   -1.000
 4086.00    0.98957   0.97507   -1.000
 4087.00    1.00230   0.99205   -1.000
 4088.00    1.01841   1.00293   -1.000
 4089.00    1.01816   1.00219   -1.000
 4090.00    1.00642   0.99199   -1.000
 4091.00    0.99757   0.97914   -1.000
 4092.00    0.98241   0.96690   -1.000
 4093.00    0.97339   0.95222   -1.000
 4094.00    0.96052   0.93074   -1.000
 4095.00    0.94139   0.90150   -1.000
 4096.00    0.91076   0.86805   -1.000
 4097.00    0.88302   0.83182   -1.000
 4098.00    0.85234   0.78888   -1.000
 4099.00    0.80298   0.73531   -1.000
 4100.00    0.73287   0.67805   -1.000
 4101.00    0.67222   0.63901   -1.000
 4102.00    0.66636   0.63921   -1.000
 4103.00    0.72656   0.68076   -1.000
 4104.00    0.80082   0.74511   -1.000
 4105.00    0.85387   0.80685   -1.000
 4106.00    0.88995   0.85232   -1.000
 4107.00    0.91290   0.88200   -1.000
 4108.00    0.91927   0.89994   -1.000
 4109.00    0.92829   0.91157   -1.000
 4110.00    0.93440   0.92284   -1.000
 4111.00    0.93809   0.93670  452.161
 4112.00    0.95029   0.95306  443.366
 4113.00    0.97226   0.97091  434.818
 4114.00    0.99495   0.98851  427.885
 4115.00    1.00872   1.00137  422.855
 4116.00    1.00850   1.00522  422.740
 4117.00    1.00141   1.00019  429.352
 4118.00    0.98160   0.99154   -1.000
 4119.00    0.97668   0.98586   -1.000
 4120.00    0.99489   0.98611  449.028
 4121.00    0.99432   0.99009  443.875
 4122.00    0.99473   0.99512  442.531
 4123.00    1.00519   1.00181  439.700
 4124.00    1.02149   1.01012   -1.000
 4125.00    1.02811   1.01517   -1.000
 4126.00    1.02461   1.01189   -1.000
 4127.00    1.00869   1.00241  440.614
 4128.00    1.00379   0.99357   -1.000
 4129.00    1.00345   0.98794   -1.000
 4130.00    0.99840   0.98118   -1.000
 4131.00    0.98739   0.97063   -1.000
 4132.00    0.97652   0.96223   -1.000
 4133.00    0.97008   0.96526  486.007
 4134.00    0.97671   0.98254   -1.000
 4135.00    0.99869   1.00801   -1.000
 4136.00    1.02158   1.03329   -1.000
 4137.00    1.04724   1.05283  427.127
 4138.00    1.06028   1.06540  420.461
 4139.00    1.06339   1.06873   -1.000
 4140.00    1.05662   1.05784  421.942
 4141.00    1.02724   1.03201   -1.000
 4142.00    0.98630   1.00032   -1.000
 4143.00    0.95235   0.97819   -1.000
 4144.00    0.95701   0.97851   -1.000
 4145.00    0.99397   0.99855   -1.000
 4146.00    1.02052   1.02168  451.461
 4147.00    1.02142   1.03430   -1.000
 4148.00    1.02185   1.03573   -1.000
 4149.00    1.02979   1.03419   -1.000
 4150.00    1.02398   1.03525   -1.000
 4151.00    1.01945   1.03656   -1.000
 4152.00    1.01895   1.03340   -1.000
 4153.00    1.00859   1.02551   -1.000
 4154.00    1.00058   1.01826   -1.000
 4155.00    0.99691   1.01766   -1.000
 4156.00    0.99629   1.02503   -1.000
 4157.00    1.11238   1.03757   -1.000
 4158.00    1.16498   1.05162   -1.000
 4159.00    1.01773   1.06327   -1.000
 4160.00    0.93795   1.07070   -1.000
 4161.00    1.01498   1.07566   -1.000
 4162.00    1.06477   1.08044   -1.000
 4163.00    1.05954   1.08462   -1.000
 4164.00    1.05757   1.08542   -1.000
 4165.00    1.05310   1.08035   -1.000
 4166.00    1.03695   1.07074   -1.000
 4167.00    1.02825   1.06195   -1.000
 4168.00    1.03625   1.05733   -1.000
 4169.00    1.04245   1.05164   -1.000
 4170.00    1.03079   1.03616  451.426
 4171.00    1.00554   1.01078   -1.000
 4172.00    0.96936   0.98710   -1.000
 4173.00    0.94846   0.97966   -1.000
 4174.00    0.96308   0.99093   -1.000
 4175.00    0.98955   1.00880   -1.000
 4176.00    0.99961   1.02032   -1.000
 4177.00    0.99857   1.02490   -1.000
 4178.00    0.99789   1.03019   -1.000
 4179.00    1.00886   1.03878   -1.000
 4180.00    1.01516   1.04523   -1.000
 4181.00    1.01624   1.04610   -1.000
 4182.00    1.02406   1.04570   -1.000
 4183.00    1.03055   1.04959   -1.000
 4184.00    1.04231   1.05526   -1.000
 4185.00    1.04085   1.05498   -1.000
 4186.00    1.01364   1.04697   -1.000
 4187.00    1.00154   1.03811   -1.000
 4188.00    1.01511   1.03609   -1.000
 4189.00    1.03550   1.04131   -1.000
 4190.00    1.04169   1.04957   -1.000
 4191.00    1.03617   1.05917   -1.000
 4192.00    1.04639   1.06901   -1.000
 4193.00    1.05834   1.07382   -1.000
 4194.00    1.04756   1.06766   -1.000
 4195.00    1.02842   1.05028   -1.000
 4196.00    1.01515   1.02780   -1.000
 4197.00    1.00012   1.00773   -1.000
 4198.00    0.98931   0.99414   -1.000
 4199.00    0.98823   0.98819  489.170
 4200.00    0.99498   0.98910  482.075
 4201.00    0.99571   0.99453  478.397
 4202.00    0.99989   1.00341  476.064
 4203.00    1.01752   1.01670  470.092
 4204.00    1.02689   1.03404   -1.000
 4205.00    1.02927   1.05302   -1.000
 4206.00    1.03817   1.07070   -1.000
 4207.00    1.04805   1.08343   -1.000
 4208.00    1.05882   1.08871   -1.000
 4209.00    1.06347   1.08858   -1.000
 4210.00    1.05644   1.08862   -1.000
 4211.00    1.05144   1.09152   -1.000
 4212.00    1.05599   1.09237   -1.000
 4213.00    1.04574   1.08356   -1.000
 4214.00    1.01078   1.06542   -1.000
 4215.00    0.98823   1.04867   -1.000
 4216.00    0.99910   1.04549   -1.000
 4217.00    1.03358   1.05962   -1.000
 4218.00    1.06483   1.08276   -1.000
 4219.00    1.08577   1.10183   -1.000
 4220.00    1.09796   1.10897   -1.000
 4221.00    1.09856   1.10106  402.006
 4222.00    1.08677   1.07604   -1.000
 4223.00    1.05746   1.03468   -1.000
 4224.00    1.00822   0.98433   -1.000
 4225.00    0.94362   0.93939  536.012
 4226.00    0.89701   0.91849   -1.000
 4227.00    0.90291   0.93463   -1.000
 4228.00    0.97321   0.98126   -1.000
 4229.00    1.04499   1.03207   -1.000
 4230.00    1.07781   1.06389   -1.000
 4231.00    1.08721   1.07078   -1.000
 4232.00    1.07479   1.06101   -1.000
 4233.00    1.05691   1.04754  432.322
 4234.00    1.04867   1.03856   -1.000
 4235.00    1.04739   1.03510   -1.000
 4236.00    1.03204   1.03590  456.386
 4237.00    1.02483   1.04151   -1.000
 4238.00    1.03969   1.05252   -1.000
 4239.00    1.04923   1.06630   -1.000
 4240.00    1.06148   1.07904   -1.000
 4241.00    1.07918   1.08883   -1.000
 4242.00    1.08290   1.09726   -1.000
 4243.00    1.08286   1.10585   -1.000
 4244.00    1.09573   1.11108   -1.000
 4245.00    1.10174   1.10609  409.072
 4246.00    1.07885   1.08892   -1.000
 4247.00    1.05266   1.06698   -1.000
 4248.00    1.03609   1.05074   -1.000
 4249.00    1.02001   1.04538   -1.000
 4250.00    1.01762   1.04985   -1.000
 4251.00    1.03890   1.05885   -1.000
 4252.00    1.07162   1.06489  439.632
 4253.00    1.07450   1.06280   -1.000
 4254.00    1.05477   1.05815  445.536
 4255.00    1.05968   1.06137  446.450
 4256.00    1.08347   1.07117   -1.000
 4257.00    1.09292   1.07459   -1.000
 4258.00    1.07343   1.06303   -1.000
 4259.00    1.04227   1.04410  455.124
 4260.00    1.02220   1.03556   -1.000
 4261.00    1.03083   1.04867   -1.000
 4262.00    1.06612   1.07879   -1.000
 4263.00    1.09526   1.11035   -1.000
 4264.00    1.11146   1.13096   -1.000
 4265.00    1.12346   1.13702   -1.000
 4266.00    1.12141   1.13106   -1.000
 4267.00    1.10446   1.11596   -1.000
 4268.00    1.08361   1.09237   -1.000
 4269.00    1.06262   1.06135  442.219
 4270.00    1.02935   1.02778  467.006
 4271.00    0.99301   1.00015   -1.000
 4272.00    0.98285   0.98711   -1.000
 4273.00    0.99013   0.99098  505.600
 4274.00    1.00304   1.00808   -1.000
 4275.00    1.02577   1.03542   -1.000
 4276.00    1.06398   1.06865  446.601
 4277.00    1.09254   1.09656  422.694
 4278.00    1.09668   1.10804   -1.000
 4279.00    1.08495   1.10309   -1.000
 4280.00    1.06420   1.09246   -1.000
 4281.00    1.05489   1.08628   -1.000
 4282.00    1.05234   1.08576   -1.000
 4283.00    1.06274   1.08476   -1.000
 4284.00    1.06833   1.07912   -1.000
 4285.00    1.05063   1.06929   -1.000
 4286.00    1.03360   1.05578   -1.000
 4287.00    1.02167   1.03784   -1.000
 4288.00    1.00791   1.01528   -1.000
 4289.00    0.97867   0.99483   -1.000
 4290.00    0.96166   0.98949   -1.000
 4291.00    0.98303   1.00369   -1.000
 4292.00    1.01699   1.02561   -1.000
 4293.00    1.03667   1.03922  457.927
 4294.00    1.03828   1.03830  457.834
 4295.00    1.03192   1.02689  464.456
 4296.00    1.01850   1.00869   -1.000
 4297.00    0.99089   0.98300   -1.000
 4298.00    0.94650   0.95066  529.716
 4299.00    0.90673   0.92015   -1.000
 4300.00    0.88951   0.90130   -1.000
 4301.00    0.88947   0.89722   -1.000
 4302.00    0.90664   0.90437  570.649
 4303.00    0.92867   0.91783   -1.000
 4304.00    0.93883   0.93089   -1.000
 4305.00    0.93237   0.93426  553.803
 4306.00    0.91947   0.92352  566.996
 4307.00    0.89737   0.90577   -1.000
 4308.00    0.87556   0.89529   -1.000
 4309.00    0.88311   0.90229   -1.000
 4310.00    0.91625   0.92431  586.631
 4311.00    0.94308   0.95116  550.166
 4312.00    0.96072   0.97808   -1.000
 4313.00    0.97676   1.00949   -1.000
 4314.00    1.00686   1.05135   -1.000
 4315.00    1.06511   1.10261   -1.000
 4316.00    1.12514   1.15117   -1.000
 4317.00    1.15820   1.18318   -1.000
 4318.00    1.16412   1.19301   -1.000
 4319.00    1.15935   1.18509   -1.000
 4320.00    1.14284   1.16596   -1.000
 4321.00    1.11939   1.13704   -1.000
 4322.00    1.10101   1.09719  416.213
 4323.00    1.06038   1.05045   -1.000
 4324.00    1.00750   1.01061   -1.000
 4325.00    0.97606   0.99592   -1.000
 4326.00    0.99697   1.01576   -1.000
 4327.00    1.05436   1.05931  448.374
 4328.00    1.10205   1.10093  410.386
 4329.00    1.12091   1.12337  394.999
 4330.00    1.11610   1.12790   -1.000
 4331.00    1.11315   1.12590   -1.000
 4332.00    1.11098   1.12385   -1.000
 4333.00    1.10522   1.11816   -1.000
 4334.00    1.08687   1.10045   -1.000
 4335.00    1.06690   1.06211  384.787
 4336.00    1.02580   0.99844   -1.000
 4337.00    0.95657   0.91578   -1.000
 4338.00    0.87767   0.83402   -1.000
 4339.00    0.80009   0.77657   -1.000
 4340.00    0.75962   0.76176   -1.000
 4341.00    0.79393   0.79442  522.687
 4342.00    0.87726   0.85904   -1.000
 4343.00    0.95371   0.92896   -1.000
 4344.00    1.00628   0.98804   -1.000
 4345.00    1.04367   1.03518  408.726
 4346.00    1.07362   1.07440  400.320
 4347.00    1.09291   1.10647   -1.000
 4348.00    1.10804   1.12577   -1.000
 4349.00    1.12422   1.12459  387.939
 4350.00    1.10510   1.10369  402.017
 4351.00    1.05964   1.07916   -1.000
 4352.00    1.04700   1.07155   -1.000
 4353.00    1.07256   1.08808   -1.000
 4354.00    1.10852   1.11877   -1.000
 4355.00    1.13411   1.14754   -1.000
 4356.00    1.15414   1.16564   -1.000
 4357.00    1.16280   1.17325   -1.000
 4358.00    1.15199   1.17531   -1.000
 4359.00    1.13933   1.17876   -1.000
 4360.00    1.14249   1.18868   -1.000
 4361.00    1.15910   1.20364   -1.000
 4362.00    1.17487   1.21825   -1.000
 4363.00    1.19057   1.22980   -1.000
 4364.00    1.20019   1.23656   -1.000
 4365.00    1.20186   1.23381   -1.000
 4366.00    1.18650   1.21953   -1.000
 4367.00    1.16101   1.20016   -1.000
 4368.00    1.14640   1.18417   -1.000
 4369.00    1.15386   1.17467   -1.000
 4370.00    1.16430   1.16892  396.560
 4371.00    1.16161   1.16144  395.493
 4372.00    1.14945   1.14753  397.927
 4373.00    1.12243   1.12800  409.779
 4374.00    1.10011   1.11199   -1.000
 4375.00    1.09536   1.11194   -1.000
 4376.00    1.11726   1.13103   -1.000
 4377.00    1.16560   1.15792  400.841
 4378.00    1.19493   1.17743   -1.000
 4379.00    1.19383   1.17968   -1.000
 4380.00    1.18632   1.15980   -1.000
 4381.00    1.16710   1.11714   -1.000
 4382.00    1.11301   1.06068   -1.000
 4383.00    1.03858   1.01286   -1.000
 4384.00    1.01166   0.99937   -1.000
 4385.00    1.05240   1.02466   -1.000
 4386.00    1.10926   1.06719   -1.000
 4387.00    1.14424   1.10183   -1.000
 4388.00    1.15619   1.11940   -1.000
 4389.00    1.15310   1.12618   -1.000
 4390.00    1.14740   1.13179   -1.000
 4391.00    1.15758   1.14105   -1.000
 4392.00    1.17410   1.15037   -1.000
 4393.00    1.16869   1.15323   -1.000
 4394.00    1.15102   1.15255  410.121
 4395.00    1.14909   1.15886   -1.000
 4396.00    1.16895   1.17464  399.575
 4397.00    1.19379   1.18801  385.114
 4398.00    1.19567   1.18735  384.588
 4399.00    1.16876   1.17576   -1.000
 4400.00    1.14370   1.16543   -1.000
 4401.00    1.15774   1.16175  410.434
 4402.00    1.18586   1.15704   -1.000
 4403.00    1.17113   1.14277   -1.000
 4404.00    1.13424   1.12440  430.742
 4405.00    1.12491   1.11544  442.580
 4406.00    1.13528   1.12115   67.696
 4407.00    1.13830   1.13618   42.393
 4408.00    1.14224   1.15583   41.952
 4409.00    1.16423   1.18169   40.788
 4410.00    1.20265   1.21160   39.071
 4411.00    1.23472   1.23376   37.616
 4412.00    1.23626   1.23634   36.878
 4413.00    1.21789   1.21682   37.365
 4414.00    1.18552   1.18428   39.138
 4415.00    1.15604   1.15716   40.909
 4416.00    1.14245   1.15284   41.275
 4417.00    1.15299   1.17435   40.217
 4418.00    1.18500   1.20973   38.608
 4419.00    1.21491   1.24114   37.326
 4420.00    1.21806   1.25430   37.089
 4421.00    1.20299   1.24911   37.825
 4422.00    1.18555   1.23754   38.650
 4423.00    1.18040   1.23049   38.757
 4424.00    1.17823   1.22910   38.532
 4425.00    1.17166   1.22839   38.556
 4426.00    1.15704   1.22698   38.734
 4427.00    1.15320   1.22794   38.631
 4428.00    1.16994   1.23173   38.421
 4429.00    1.17019   1.23622   38.613
 4430.00    1.16168   1.23947   -1.000
 4431.00    1.17076   1.23975   38.602
 4432.00    1.18277   1.23391   38.227
 4433.00    1.18011   1.21938   38.916
 4434.00    1.14523   1.20208   40.647
 4435.00    1.13188   1.19706   41.691
 4436.00    1.15970   1.21420   40.745
 4437.00    1.20891   1.24671   38.489
 4438.00    1.24845   1.27600   36.577
 4439.00    1.24953   1.28599   35.964
 4440.00    1.23198   1.27221   36.680
 4441.00    1.20112   1.24387   38.260
 4442.00    1.16966   1.21957   39.984
 4443.00    1.15611   1.21582   40.689
 4444.00    1.17782   1.23568   39.719
 4445.00    1.21835   1.26617   38.057
 4446.00    1.24194   1.29047   37.000
 4447.00    1.24894   1.30135   36.774
 4448.00    1.25485   1.30223   36.843
 4449.00    1.25276   1.29893   37.128
 4450.00    1.25451   1.29411   37.523
 4451.00    1.25780   1.28686   37.477
 4452.00    1.25759   1.27247   37.513
 4453.00    1.24246   1.24751   38.492
 4454.00    1.20872   1.21859   40.176
 4455.00    1.18307   1.19903   41.405
 4456.00    1.18705   1.19607   41.245
 4457.00    1.20850   1.20445   40.483
 4458.00    1.22107   1.21412   40.232
 4459.00    1.21769   1.22015   40.394
 4460.00    1.20890   1.22407   40.743
 4461.00    1.19970   1.22978   41.137
 4462.00    1.21244   1.24043   40.753
 4463.00    1.23828   1.25546   39.402
 4464.00    1.25540   1.26962   38.224
 4465.00    1.25951   1.27673   37.872
 4466.00    1.25218   1.27393   37.890
 4467.00    1.24492   1.26369   38.172
 4468.00    1.23762   1.25296   38.811
 4469.00    1.22825   1.25012   39.248
 4470.00    1.23307   1.26016   38.973
 4471.00    1.25796   1.28168   37.972
 4472.00    1.29021   1.30833   36.683
 4473.00    1.31956   1.33232   35.584
 4474.00    1.33107   1.34820   35.042
 4475.00    1.32934   1.35596   34.991
 4476.00    1.33494   1.35865   34.830
 4477.00    1.34460   1.35609   34.578
 4478.00    1.34526   1.34326   34.701
 4479.00    1.32185   1.31699   35.635
 4480.00    1.27936   1.28496   37.176
 4481.00    1.24452   1.26496   38.480
 4482.00    1.24211   1.26948   38.594
 4483.00    1.27727   1.29590   37.357
 4484.00    1.31819   1.33069   35.853
 4485.00    1.34413   1.35779   34.873
 4486.00    1.35179   1.36604   34.642
 4487.00    1.33795   1.35479   35.175
 4488.00    1.31277   1.33396   36.343
 4489.00    1.29164   1.31736   37.412
 4490.00    1.29232   1.31423   37.461
 4491.00    1.31377   1.32311   36.641
 4492.00    1.32775   1.33394   35.894
 4493.00    1.31999   1.33667   36.024
 4494.00    1.30057   1.33123   36.950
 4495.00    1.28370   1.32709   37.893
 4496.00    1.29016   1.33135   37.929
 4497.00    1.30759   1.34220   36.913
 4498.00    1.32568   1.35271   35.764
 4499.00    1.33529   1.35743   35.167
 4500.00    1.32167   1.35742   35.309
 4501.00    1.30678   1.36098   35.608
 4502.00    1.31610   1.37492   35.092
 4503.00    1.35035   1.39670   33.962
 4504.00    1.37539   1.41694   33.143
 4505.00    1.38026   1.42696   33.077
 4506.00    1.37648   1.42494   33.607
 4507.00    1.37047   1.41641   34.086
 4508.00    1.36744   1.40999   34.219
 4509.00    1.38059   1.40987   34.056
 4510.00    1.39805   1.41253   33.802
 4511.00    1.39330   1.41134   33.892
 4512.00    1.37028   1.40344   34.435
 4513.00    1.34831   1.39136   35.088
 4514.00    1.34604   1.37977   35.458
 4515.00    1.34867   1.37267   35.420
 4516.00    1.34155   1.37065   35.328
 4517.00    1.33085   1.37009   35.591
 4518.00    1.32750   1.36892   35.899
 4519.00    1.33527   1.36928   35.588
 4520.00    1.34930   1.37198   34.899
 4521.00    1.35725   1.37337   34.701
 4522.00    1.34710   1.36926   35.273
 4523.00    1.32481   1.35986   36.057
 4524.00    1.32095   1.34806   36.523
 4525.00    1.31123   1.33387   37.010
 4526.00    1.29323   1.31507   37.958
 4527.00    1.27252   1.29297   39.083
 4528.00    1.25685   1.27498   39.792
 4529.00    1.25931   1.26905   39.775
 4530.00    1.26779   1.27552   39.209
 4531.00    1.28616   1.28547   38.492
 4532.00    1.29835   1.28760   38.107
 4533.00    1.27866   1.27991   38.706
 4534.00    1.24720   1.27290   39.972
 4535.00    1.23955   1.28056   40.167
 4536.00    1.27645   1.30802   38.476
 4537.00    1.33682   1.34639   36.190
 4538.00    1.37639   1.37875   34.778
 4539.00    1.38394   1.39283   34.654
 4540.00    1.36682   1.39041   35.333
 4541.00    1.35252   1.38311   35.651
 4542.00    1.35226   1.37995   35.451
 4543.00    1.35422   1.38010   35.265
 4544.00    1.34551   1.37802   43.332
 4545.00    1.36483   1.37220   22.438
 4546.00    0.85366   1.36432   -1.000
 4547.00    0.16943   1.35358   -1.000
 4548.00   -0.05681   1.33905    0.000
 4549.00    0.45905   1.32651   -1.000
 4550.00    0.64918   1.32538   -1.000
 4551.00    0.62371   1.33566   -1.000
 4552.00    1.11113   1.34531   -1.000
 4553.00    1.34260   1.34502   37.285
 4554.00    1.29513   1.33876   37.732
 4555.00    1.30102   1.33852   37.507
 4556.00    1.33141   1.35276   36.415
 4557.00    1.37689   1.37848   34.979
 4558.00    1.40194   1.40510   34.058
 4559.00    1.40344   1.42511   33.962
 4560.00    1.40511   1.43652   34.041
 4561.00    1.40304   1.43838   34.036
 4562.00    1.38593   1.42949   34.526
 4563.00    1.36620   1.41254   35.388
 4564.00    1.35061   1.39647   36.104
 4565.00    1.35141   1.39120   36.089
 4566.00    1.38022   1.40044   35.344
 4567.00    1.40867   1.41825   34.410
 4568.00    1.41386   1.43280   33.846
 4569.00    1.40791   1.43476   33.956
 4570.00    1.38922   1.42319   34.647
 4571.00    1.35636   1.40687   35.561
 4572.00    1.34969   1.39928   35.765
 4573.00    1.37402   1.40695   34.965
 4574.00    1.39496   1.42253   34.231
 4575.00    1.39586   1.43433   34.068
 4576.00    1.38835   1.43758   34.184
 4577.00    1.38282   1.43285   34.370
 4578.00    1.37446   1.42026   34.808
 4579.00    1.36508   1.40087   35.688
 4580.00    1.34826   1.37992   36.570
 4581.00    1.34150   1.36416   36.792
 4582.00    1.34570   1.35698   36.412
 4583.00    1.35342   1.35763   36.038
 4584.00    1.36071   1.36332   36.006
 4585.00    1.35939   1.37171   36.196
 4586.00    1.36637   1.38258   35.979
 4587.00    1.37850   1.39617   35.187
 4588.00    1.39394   1.41031   34.360
 4589.00    1.40054   1.42009   34.049
 4590.00    1.39421   1.42137   34.349
 4591.00    1.37866   1.41474   34.950
 4592.00    1.37282   1.40598   35.583
 4593.00    1.37914   1.40189   35.847
 4594.00    1.38715   1.40457   35.659
 4595.00    1.39735   1.41134   35.361
 4596.00    1.40360   1.41896   35.196
 4597.00    1.40752   1.42529   35.119
 4598.00    1.41077   1.42805   35.042
 4599.00    1.40974   1.42586   35.198
 4600.00    1.39984   1.42018   35.523
 4601.00    1.37764   1.41472   35.709
 4602.00    1.37036   1.41279   35.510
 4603.00    1.38289   1.41486   35.108
 4604.00    1.40051   1.41956   34.989
 4605.00    1.41185   1.42631   34.987
 4606.00    1.40755   1.43589   34.728
 4607.00    1.40982   1.44890   34.152
 4608.00    1.43108   1.46389   33.434
 4609.00    1.45789   1.47654   32.913
 4610.00    1.45916   1.48133   32.858
 4611.00    1.44668   1.47742   33.204
 4612.00    1.44115   1.46997   33.616
 4613.00    1.43925   1.46463   33.893
 4614.00    1.43673   1.46316   33.873
 4615.00    1.43436   1.46319   33.613
 4616.00    1.43242   1.46155   33.411
 4617.00    1.43453   1.45753   33.498
 4618.00    1.43310   1.45344   33.747
 4619.00    1.42532   1.45311   33.826
 4620.00    1.43779   1.45943   33.609
 4621.00    1.46396   1.47115   33.150
 4622.00    1.47380   1.48237   32.931
 4623.00    1.46486   1.48778   32.991
 4624.00    1.45599   1.48744   33.065
 4625.00    1.45130   1.48397   33.275
 4626.00    1.44352   1.47928   33.451
 4627.00    1.44249   1.47459   33.467
 4628.00    1.44303   1.47090   33.589
 4629.00    1.44173   1.46966   33.724
 4630.00    1.44798   1.47262   33.646
 4631.00    1.45546   1.47874   33.336
 4632.00    1.45120   1.48233   33.268
 4633.00    1.43866   1.47873   33.636
 4634.00    1.43184   1.47044   34.065
 4635.00    1.43067   1.46323   34.190
 4636.00    1.43203   1.45899   34.336
 4637.00    1.43053   1.45641   34.731
 4638.00    1.42687   1.45554   35.004
 4639.00    1.42620   1.45855   35.022
 4640.00    1.43374   1.46712   34.635
 4641.00    1.45651   1.47958   33.873
 4642.00    1.47312   1.49007   33.258
 4643.00    1.47923   1.49162   33.169
 4644.00    1.47258   1.48177   33.611
 4645.00    1.44275   1.46334   34.445
 4646.00    1.41959   1.44240   35.416
 4647.00    1.40778   1.42808   35.896
 4648.00    1.41156   1.42804   35.546
 4649.00    1.43626   1.44169   34.773
 4650.00    1.45220   1.46050   34.159
 4651.00    1.45333   1.47473   33.947
 4652.00    1.45415   1.47993   33.891
 4653.00    1.44338   1.47670   34.106
 4654.00    1.42574   1.46833   34.758
 4655.00    1.40544   1.46072   35.332
 4656.00    1.40840   1.46170   35.297
 4657.00    1.43214   1.47641   34.473
 4658.00    1.46918   1.50233   33.215
 4659.00    1.50791   1.52837   32.257
 4660.00    1.51893   1.54244   31.964
 4661.00    1.50554   1.54029   32.208
 4662.00    1.48399   1.52623   32.856
 4663.00    1.46493   1.50703   33.580
 4664.00    1.45689   1.48608   33.885
 4665.00    1.45311   1.46211   34.236
 4666.00    1.43043   1.43473   35.356
 4667.00    1.38929   1.41069   36.879
 4668.00    1.37424   1.40113   37.510
 4669.00    1.39198   1.41132   36.782
 4670.00    1.42140   1.43583   35.370
 4671.00    1.44731   1.46299   34.197
 4672.00    1.45820   1.48332   33.722
 4673.00    1.46658   1.49495   33.677
 4674.00    1.46810   1.50240   33.671
 4675.00    1.47519   1.50971   33.389
 4676.00    1.49572   1.51424   32.901
 4677.00    1.49868   1.50997   32.802
 4678.00    1.48512   1.49587   33.314
 4679.00    1.46619   1.47806   34.016
 4680.00    1.44579   1.46428   34.621
 4681.00    1.43553   1.45835   35.048
 4682.00    1.44166   1.46034   34.910
 4683.00    1.45813   1.46810   34.182
 4684.00    1.47708   1.47755   33.558
 4685.00    1.48931   1.48480   33.463
 4686.00    1.48822   1.48878   33.531
 4687.00    1.48544   1.49087   33.648
 4688.00    1.48240   1.49241   33.731
 4689.00    1.47689   1.49366   33.729
 4690.00    1.48142   1.49408   33.877
 4691.00    1.48732   1.49418   34.023
 4692.00    1.48073   1.49642   33.802
 4693.00    1.48844   1.50218   33.326
 4694.00    1.51212   1.50946   32.676
 4695.00    1.52921   1.51492   32.129
 4696.00    1.53356   1.51521   32.069
 4697.00    1.51925   1.50753   32.701
 4698.00    1.49142   1.49319   33.695
 4699.00    1.47198   1.47715   34.341
 4700.00    1.47626   1.46317   34.316
 4701.00    1.47697   1.45140   34.342
 4702.00    1.46063   1.44246   34.826
 4703.00    1.45338   1.44033   35.191
 4704.00    1.46384   1.44729   34.847
 4705.00    1.47368   1.45764   34.252
 4706.00    1.46834   1.46184   34.339
 4707.00    1.44924   1.45729   34.972
 4708.00    1.43454   1.45152   35.463
 4709.00    1.43365   1.45347   35.477
 4710.00    1.44759   1.46454   34.755
 4711.00    1.47674   1.47950   33.751
 4712.00    1.49603   1.49099   33.184
 4713.00    1.50005   1.49443   33.257
 4714.00    1.48690   1.49297   33.781
 4715.00    1.47833   1.49496   34.046
 4716.00    1.48829   1.50561   33.620
 4717.00    1.50947   1.52176   32.947
 4718.00    1.52493   1.53636   32.573
 4719.00    1.52879   1.54514   32.434
 4720.00    1.52172   1.54841   32.324
 4721.00    1.50938   1.54865   32.444
 4722.00    1.50648   1.54862   32.705
 4723.00    1.50907   1.54996   32.681
 4724.00    1.52297   1.55141   32.379
 4725.00    1.52631   1.54851   32.264
 4726.00    1.50608   1.53661   32.761
 4727.00    1.47840   1.51618   33.848
 4728.00    1.45225   1.49483   34.837
 4729.00    1.44818   1.48113   35.058
 4730.00    1.46150   1.47757   34.767
 4731.00    1.47568   1.48207   34.455
 4732.00    1.47902   1.49175   34.099
 4733.00    1.48312   1.50257   33.753
 4734.00    1.49776   1.50989   33.524
 4735.00    1.50553   1.51203   33.338
 4736.00    1.50020   1.51119   33.477
 4737.00    1.50232   1.51129   33.663
 4738.00    1.51776   1.51522   33.409
 4739.00    1.52190   1.52215   33.230
 4740.00    1.51003   1.52831   33.364
 4741.00    1.50468   1.53220   33.474
 4742.00    1.50995   1.53587   33.326
 4743.00    1.51064   1.54075   32.992
 4744.00    1.51457   1.54591   32.884
 4745.00    1.52548   1.55024   32.940
 4746.00    1.53250   1.55460   32.802
 4747.00    1.53240   1.56094   32.497
 4748.00    1.52769   1.56902   32.321
 4749.00    1.53826   1.57664   32.331
 4750.00    1.54311   1.58137   32.366
 4751.00    1.52802   1.58071   32.514
 4752.00    1.52265   1.57321   32.837
 4753.00    1.51644   1.56065   33.156
 4754.00    1.50230   1.54837   33.401
 4755.00    1.49447   1.54166   33.457
 4756.00    1.48647   1.54232   33.503
 4757.00    1.48552   1.54849   33.710
 4758.00    1.49303   1.55693   33.836
 4759.00    1.49952   1.56365   33.677
 4760.00    1.49914   1.56349   33.519
 4761.00    1.48090   1.55254   33.811
 4762.00    1.46073   1.53209   34.545
 4763.00    1.44192   1.51039   35.172
 4764.00    1.44312   1.49620   35.375
 4765.00    1.46099   1.49238   35.343
 4766.00    1.46947   1.49756   35.162
 4767.00    1.47836   1.51092   34.766
 4768.00    1.49764   1.53049   34.093
 4769.00    1.51812   1.55002   33.490
 4770.00    1.53026   1.56195   33.342
 4771.00    1.52242   1.56480   33.546
 4772.00    1.50967   1.56444   33.844
 4773.00    1.51394   1.56844   33.732
 4774.00    1.53505   1.57855   33.124
 4775.00    1.54877   1.58990   32.693
 4776.00    1.54530   1.59675   32.630
 4777.00    1.53792   1.59688   32.704
 4778.00    1.53243   1.59164   32.872
 4779.00    1.51805   1.58420   33.182
 4780.00    1.50937   1.57780   33.455
 4781.00    1.51335   1.57301   33.581
 4782.00    1.51053   1.56794   33.709
 4783.00    1.50910   1.56179   33.940
 4784.00    1.50943   1.55566   34.047
 4785.00    1.49826   1.55059   34.101
 4786.00    1.48628   1.54703   34.353
 4787.00    1.48684   1.54597   34.617
 4788.00    1.48796   1.54835   34.674
 4789.00    1.49113   1.55434   34.553
 4790.00    1.50149   1.56389   34.354
 4791.00    1.51170   1.57709   34.053
 4792.00    1.52729   1.59359   33.573
 4793.00    1.54520   1.61173   32.898
 4794.00    1.56327   1.62852   32.259
 4795.00    1.57613   1.63941   31.967
 4796.00    1.57004   1.64023   32.120
 4797.00    1.55094   1.63091   32.646
 4798.00    1.52793   1.61637   33.287
 4799.00    1.51433   1.60438   -1.000
 4800.00    1.52250   1.60160   33.759
 4801.00    1.54436   1.60899   33.214
 4802.00    1.56400   1.62013   32.648
 4803.00    1.56789   1.62636   32.488
 4804.00    1.54989   1.62387   32.777
 4805.00    1.52670   1.61603   33.215
 4806.00    1.52523   1.60880   33.568
 4807.00    1.53164   1.60541   33.685
 4808.00    1.53064   1.60626   33.624
 4809.00    1.53720   1.61058   33.498
 4810.00    1.54562   1.61628   33.255
 4811.00    1.55115   1.62102   32.987
 4812.00    1.55908   1.62481   32.792
 4813.00    1.56404   1.62940   32.705
 4814.00    1.56538   1.63605   32.648
 4815.00    1.56858   1.64468   32.545
 4816.00    1.56978   1.65375   32.375
 4817.00    1.57215   1.66089   32.171
 4818.00    1.57303   1.66483   32.012
 4819.00    1.57655   1.66586   31.953
 4820.00    1.57547   1.66297   31.952
 4821.00    1.57055   1.65259   32.118
 4822.00    1.55684   1.63293   32.738
 4823.00    1.52963   1.60941   33.480
 4824.00    1.51977   1.59406   33.701
 4825.00    1.53540   1.59507   33.305
 4826.00    1.55614   1.60791   32.746
 4827.00    1.55587   1.62059   32.618
 4828.00    1.54319   1.62542   32.916
 4829.00    1.53411   1.62337   33.205
 4830.00    1.53462   1.61769   33.280
 4831.00    1.53398   1.60987   33.452
 4832.00    1.53281   1.60278   33.622
 4833.00    1.54436   1.60088   33.322
 4834.00    1.55793   1.60564   32.827
 4835.00    1.56232   1.61364   32.577
 4836.00    1.56106   1.61961   32.566
 4837.00    1.55830   1.61999   32.684
 4838.00    1.55017   1.61384   33.012
 4839.00    1.53904   1.60295   33.554
 4840.00    1.52717   1.59164   33.820
 4841.00    1.52270   1.58458   33.772
 4842.00    1.53092   1.58323   33.641
 4843.00    1.54234   1.58588   33.422
 4844.00    1.54851   1.59143   33.120
 4845.00    1.54939   1.59908   32.676
 4846.00    1.54634   1.60411   32.359
 4847.00    1.53617   1.60096   32.677
 4848.00    1.52363   1.59141   33.261
 4849.00    1.51336   1.58335   33.462
 4850.00    1.51648   1.58101   33.174
 4851.00    1.52293   1.58011   32.923
 4852.00    1.51329   1.57259   33.009
 4853.00    1.49747   1.55255   33.258
 4854.00    1.47317   1.51988   33.953
 4855.00    1.43862   1.48183   34.959
 4856.00    1.42401   1.44700   35.329
 4857.00    1.42302   1.41432   35.061
 4858.00    1.38446   1.36869   35.453
 4859.00    1.28424   1.29659   37.629
 4860.00    1.15527   1.20904   41.606
 4861.00    1.06692   1.14209   -1.000
 4862.00    1.09268   1.13032   44.102
 4863.00    1.21505   1.17754   40.572
 4864.00    1.32657   1.25767   37.655
 4865.00    1.38521   1.34020   35.976
 4866.00    1.41190   1.40833   35.017
 4867.00    1.43909   1.45785   34.531
 4868.00    1.46101   1.48841   34.320
 4869.00    1.46156   1.49914   34.432
 4870.00    1.44579   1.49143   35.127
 4871.00    1.42597   1.47493   36.063
 4872.00    1.42693   1.46753   36.256
 4873.00    1.45190   1.48131   35.497
 4874.00    1.47490   1.51073   34.698
 4875.00    1.48635   1.53943   34.297
 4876.00    1.49216   1.55773   34.083
 4877.00    1.49200   1.56989   33.940
 4878.00    1.49888   1.58460   33.607
 4879.00    1.51882   1.60297   33.184
 4880.00    1.52163   1.61796   -1.000
 4881.00    1.49820   1.62265   -1.000
 4882.00    1.48559   1.61788   -1.000
 4883.00    1.49854   1.60944   -1.000
 4884.00    1.50689   1.60051   -1.000
 4885.00    1.49957   1.59129   -1.000
 4886.00    1.50250   1.58304   34.811
 4887.00    1.51055   1.57746   34.776
 4888.00    1.50592   1.57214   34.661
 4889.00    1.49193   1.56172   34.936
 4890.00    1.47670   1.54719   35.615
 4891.00    1.47399   1.54103   35.825
 4892.00    1.49675   1.55827   34.868
 4893.00    1.54836   1.60117   33.313
 4894.00    1.59607   1.65390   32.085
 4895.00    1.61477   1.69663   31.346
 4896.00    1.62680   1.72045   31.013
 4897.00    1.63249   1.72691   30.995
 4898.00    1.62057   1.72067   -1.000
 4899.00    1.59533   1.70743   -1.000
 4900.00    1.57300   1.69369   -1.000
 4901.00    1.57260   1.68338   -1.000
 4902.00    1.57525   1.67573   -1.000
 4903.00    1.57153   1.67004   -1.000
 4904.00    1.57674   1.67092   -1.000
 4905.00    1.60208   1.68222   32.337
 4906.00    1.62434   1.69749   31.887
 4907.00    1.62414   1.70388   31.955
 4908.00    1.60815   1.69379   32.531
 4909.00    1.57879   1.67083   33.417
 4910.00    1.56093   1.64702   34.084
 4911.00    1.56255   1.63546   34.004
 4912.00    1.57413   1.64161   33.443
 4913.00    1.59288   1.66040   32.918
 4914.00    1.61121   1.68181   32.482
 4915.00    1.62897   1.69613   32.136
 4916.00    1.63058   1.69341   32.101
 4917.00    1.60476   1.66606   32.805
 4918.00    1.56648   1.61642   34.339
 4919.00    1.51602   1.56033   36.105
 4920.00    1.47935   1.52024   37.092
 4921.00    1.49136   1.51051   36.561
 4922.00    1.52832   1.52745   35.264
 4923.00    1.55766   1.55514   34.409
 4924.00    1.56552   1.58219   34.181
 4925.00    1.57511   1.60919   33.927
 4926.00    1.59694   1.63986   33.226
 4927.00    1.61963   1.67268   32.505
 4928.00    1.63622   1.70190   32.084
 4929.00    1.64788   1.72232   31.833
 4930.00    1.65619   1.73068   31.631
 4931.00    1.65380   1.72426   31.722
 4932.00    1.62777   1.70288   32.353
 4933.00    1.58188   1.67440   33.414
 4934.00    1.56242   1.65260   34.002
 4935.00    1.58516   1.64492   33.672
 4936.00    1.60482   1.64374   33.382
 4937.00    1.58971   1.63564   33.932
 4938.00    1.55733   1.62039   34.919
 4939.00    1.54546   1.61305   35.168
 4940.00    1.56746   1.62684   34.331
 4941.00    1.60497   1.65926   33.184
 4942.00    1.63183   1.69505   32.375
 4943.00    1.64332   1.71985   31.954
 4944.00    1.64930   1.72940   31.843
 4945.00    1.64748   1.72845   31.986
 4946.00    1.64108   1.72564   32.129
 4947.00    1.64208   1.72851   31.993
 4948.00    1.65256   1.73855   31.647
 4949.00    1.66766   1.75035   31.427
 4950.00    1.67387   1.75702   31.315
 4951.00    1.67270   1.75632   31.348
 4952.00    1.66505   1.75053   31.546
 4953.00    1.65446   1.74155   31.847
 4954.00    1.65516   1.72628   32.235
 4955.00    1.64410   1.69691   32.893
 4956.00    1.59030   1.65136   34.235
 4957.00    1.53652   1.60594   35.811
 4958.00    1.54090   1.58763   36.031
 4959.00    1.59600   1.60893   34.501
 4960.00    1.65404   1.65513   32.949
 4961.00    1.67242   1.69889   32.318
 4962.00    1.66461   1.72350   32.305
 4963.00    1.65753   1.72821   32.522
 4964.00    1.64437   1.71904   32.854
 4965.00    1.62417   1.70273   33.418
 4966.00    1.61520   1.68619   33.981
 4967.00    1.61679   1.67476   34.177
 4968.00    1.62328   1.67049   34.118
 4969.00    1.62908   1.67332   33.931
 4970.00    1.63128   1.68253   33.614
 4971.00    1.63948   1.69644   33.252
 4972.00    1.65633   1.71238   32.872
 4973.00    1.67293   1.72711   32.525
 4974.00    1.67539   1.73724   32.316
 4975.00    1.67207   1.74040   32.385
 4976.00    1.66382   1.73623   32.681
 4977.00    1.65208   1.72586   33.084
 4978.00    1.63683   1.71099   33.586
 4979.00    1.61989   1.69229   34.061
 4980.00    1.60425   1.66741   34.514
 4981.00    1.57483   1.63348   35.362
 4982.00    1.53877   1.59465   36.532
 4983.00    1.52221   1.56499   37.061
 4984.00    1.53847   1.55944   36.653
 4985.00    1.57283   1.58111   35.761
 4986.00    1.60146   1.61897   34.677
 4987.00    1.61953   1.65665   33.708
 4988.00    1.62843   1.68130   33.355
 4989.00    1.62472   1.68804   33.653
 4990.00    1.61509   1.68182   34.075
 4991.00    1.61491   1.67346   34.237
 4992.00    1.62425   1.67117   34.068
 4993.00    1.63655   1.67597   33.848
 4994.00    1.64150   1.68443   33.778
 4995.00    1.63985   1.69339   33.676
 4996.00    1.64048   1.70032   33.503
 4997.00    1.63699   1.70100   33.541
 4998.00    1.62763   1.69062   33.887
 4999.00    1.61599   1.66900   34.473
 5000.00    1.59766   1.64373   35.029
 5001.00    1.59388   1.62577   35.235
 5002.00    1.60680   1.62062   35.054
 5003.00    1.61827   1.62297   34.772
 5004.00    1.61508   1.62119   34.945
 5005.00    1.59619   1.60956   35.674
 5006.00    1.57696   1.59636   36.201
 5007.00    1.58676   1.59669   35.784
 5008.00    1.61761   1.61544   34.769
 5009.00    1.64661   1.64082   34.087
 5010.00    1.65280   1.65438   34.179
 5011.00    1.62508   1.64547   34.957
 5012.00    1.59454   1.61827   36.163
 5013.00    1.56501   1.58786   37.246
 5014.00    1.54045   1.56892   37.528
 5015.00    1.55245   1.56564   36.968
 5016.00    1.57987   1.57149   36.164
 5017.00    1.59277   1.57842   35.742
 5018.00    1.59385   1.58554   35.687
 5019.00    1.60243   1.59688   35.467
 5020.00    1.62258   1.61210   35.120
 5021.00    1.62752   1.62535   35.078
 5022.00    1.61851   1.63375   35.198
 5023.00    1.62004   1.64185   35.120
 5024.00    1.62877   1.65456   34.819
 5025.00    1.63363   1.66801   34.522
 5026.00    1.63962   1.67410   34.511
 5027.00    1.64138   1.67253   34.683
 5028.00    1.63763   1.67113   34.581
 5029.00    1.64984   1.67673   34.070
 5030.00    1.67155   1.69062   33.509
 5031.00    1.68559   1.70958   32.996
 5032.00    1.69868   1.72741   32.545
 5033.00    1.70329   1.73577   32.408
 5034.00    1.68377   1.72778   33.006
 5035.00    1.64660   1.70488   34.222
 5036.00    1.61906   1.67761   35.156
 5037.00    1.61129   1.65520   35.474
 5038.00    1.60117   1.63519   35.764
 5039.00    1.56760   1.60828   36.737
 5040.00    1.52402   1.57600   38.232
 5041.00    1.50722   1.55686   38.944
 5042.00    1.53678   1.56954   37.866
 5043.00    1.60470   1.61420   35.714
 5044.00    1.65726   1.67221   33.918
 5045.00    1.68516   1.72122   32.918
 5046.00    1.73314   1.74807   31.914
 5047.00    1.61016   1.74953   -1.000
 5048.00    0.82877   1.72960   -1.000
 5049.00    0.13614   1.69864   -1.000
 5050.00    0.09370   1.67032   -1.000
 5051.00    0.76962   1.65618   -1.000
 5052.00    1.51572   1.66202   -1.000
 5053.00    1.69898   1.68502   33.685
 5054.00    1.71567   1.71359   32.963
 5055.00    1.73392   1.73616   32.525
 5056.00    1.73862   1.75053   32.333
 5057.00    1.73589   1.76082   32.322
 5058.00    1.73329   1.77008   32.385
 5059.00    1.72758   1.77836   32.405
 5060.00    1.72455   1.78429   32.275
 5061.00    1.72853   1.78575   32.183
 5062.00    1.72312   1.77843   32.434
 5063.00    1.70003   1.75839   33.157
 5064.00    1.66511   1.72950   34.254
 5065.00    1.64462   1.70366   35.029
 5066.00    1.65222   1.69061   34.957
 5067.00    1.67150   1.69031   34.460
 5068.00    1.67919   1.69588   34.163
 5069.00    1.68147   1.70181   34.032
 5070.00    1.69164   1.70592   33.834
 5071.00    1.69634   1.70616   33.883
 5072.00    1.69408   1.70242   34.164
 5073.00    1.69084   1.69944   34.051
 5074.00    1.69231   1.70226   33.703
 5075.00    1.69990   1.70937   33.563
 5076.00    1.70311   1.71332   33.532
 5077.00    1.69450   1.70635   33.700
 5078.00    1.66313   1.68549   34.497
 5079.00    1.61715   1.65678   35.962
 5080.00    1.59710   1.63375   36.977
 5081.00    1.61350   1.62678   36.707
 5082.00    1.63548   1.63542   35.905
 5083.00    1.65232   1.65301   35.296
 5084.00    1.67274   1.67461   34.719
 5085.00    1.70051   1.69800   34.092
 5086.00    1.72015   1.71970   33.698
 5087.00    1.72076   1.73576   33.571
 5088.00    1.71748   1.74586   33.460
 5089.00    1.71850   1.75293   33.248
 5090.00    1.72567   1.75980   33.038
 5091.00    1.73590   1.76807   32.863
 5092.00    1.75095   1.77785   32.576
 5093.00    1.76017   1.78615   32.242
 5094.00    1.76500   1.78634   32.274
 5095.00    1.79733   1.77224   32.790
 5096.00    1.77302   1.74453   33.497
 5097.00    1.70129   1.71188   34.271
 5098.00    1.67086   1.68586   35.043
 5099.00    1.66815   1.67534   35.433
 5100.00    1.67900   1.68309   34.985
 5101.00    1.70411   1.70379   34.018
 5102.00    1.72598   1.72557   33.409
 5103.00    1.72619   1.73784   33.399
 5104.00    1.71240   1.73752   33.740
 5105.00    1.69956   1.72724   34.181
 5106.00    1.68115   1.71144   34.605
 5107.00    1.65417   1.69532   35.035
 5108.00    1.64869   1.68443   35.204
 5109.00    1.65810   1.68282   35.044
 5110.00    1.66668   1.69165   34.801
 5111.00    1.68657   1.70894   34.411
 5112.00    1.70517   1.73002   33.951
 5113.00    1.71801   1.75004   33.538
 5114.00    1.73489   1.76702   33.188
 5115.00    1.75191   1.78132   32.958
 5116.00    1.76221   1.79320   32.689
 5117.00    1.77282   1.80136   32.379
 5118.00    1.78532   1.80358   32.311
 5119.00    1.77336   1.79791   32.595
 5120.00    1.74690   1.78401   33.065
 5121.00    1.73087   1.76370   33.591
 5122.00    1.70416   1.73982   34.317
 5123.00    1.67067   1.71543   35.293
 5124.00    1.65372   1.69478   35.913
 5125.00    1.65774   1.68233   35.829
 5126.00    1.67583   1.67870   35.578
 5127.00    1.68218   1.67997   35.386
 5128.00    1.67681   1.68240   35.318
 5129.00    1.67663   1.68631   35.330
 5130.00    1.69176   1.69427   35.058
 5131.00    1.71142   1.70689   34.512
 5132.00    1.72800   1.72167   34.090
 5133.00    1.73963   1.73534   33.793
 5134.00    1.74510   1.74579   33.483
 5135.00    1.75147   1.75088   33.304
 5136.00    1.74405   1.74745   33.598
 5137.00    1.71598   1.73438   34.338
 5138.00    1.68659   1.71601   35.023
 5139.00    1.67766   1.70029   35.294
 5140.00    1.68328   1.69261   35.128
 5141.00    1.68952   1.69211   35.120
 5142.00    1.68011   1.69480   35.567
 5143.00    1.67403   1.69874   35.721
 5144.00    1.69051   1.70353   35.275
 5145.00    1.70402   1.70680   34.931
 5146.00    1.69714   1.70564   35.068
 5147.00    1.69483   1.70228   35.274
 5148.00    1.70515   1.70261   35.067
 5149.00    1.70588   1.70679   34.752
 5150.00    1.69718   1.70800   34.906
 5151.00    1.68269   1.70211   35.467
 5152.00    1.66890   1.69234   35.894
 5153.00    1.67284   1.68593   35.889
 5154.00    1.69401   1.68999   35.417
 5155.00    1.71873   1.70801   34.603
 5156.00    1.75208   1.73664   33.718
 5157.00    1.78540   1.76701   32.986
 5158.00    1.79891   1.79069   32.580
 5159.00    1.80218   1.80377   32.478
 5160.00    1.79775   1.80631   32.541
 5161.00    1.78627   1.79949   32.696
 5162.00    1.78086   1.78370   32.985
 5163.00    1.76787   1.75707   33.439
 5164.00    1.73652   1.71343   34.373
 5165.00    1.67296   1.64609   36.522
 5166.00    1.56747   1.56111   40.019
 5167.00    1.48674   1.48415   43.440
 5168.00    1.48451   1.44495   44.212
 5169.00    1.53952   1.44825   -1.000
 5170.00    1.58400   1.46469   -1.000
 5171.00    1.55116   1.46333   -1.000
 5172.00    1.48214   1.44806   44.945
 5173.00    1.48058   1.45269   45.264
 5174.00    1.56887   1.50213   41.520
 5175.00    1.67665   1.58397   -1.000
 5176.00    1.74505   1.66356   -1.000
 5177.00    1.77375   1.71692   34.650
 5178.00    1.78351   1.74006   34.455
 5179.00    1.78214   1.73622   34.618
 5180.00    1.76056   1.70369   35.444
 5181.00    1.69866   1.63976   37.419
 5182.00    1.59600   1.55553   41.040
 5183.00    1.49619   1.48290   45.051
 5184.00    1.48511   1.45918   45.381
 5185.00    1.58528   1.49749   -1.000
 5186.00    1.70606   1.57488   -1.000
 5187.00    1.75999   1.65154   -1.000
 5188.00    1.76090   1.70185   34.640
 5189.00    1.76556   1.72444   34.443
 5190.00    1.76440   1.72669   34.585
 5191.00    1.73133   1.71409   35.369
 5192.00    1.69165   1.69547   36.437
 5193.00    1.68314   1.68320   36.732
 5194.00    1.70448   1.68408   36.221
 5195.00    1.72819   1.69561   35.637
 5196.00    1.74944   1.71254   35.117
 5197.00    1.77319   1.73345   34.496
 5198.00    1.79070   1.75813   33.856
 5199.00    1.79304   1.78214   33.448
 5200.00    1.79451   1.79798   33.315
 5201.00    1.79718   1.79919   33.454
 5202.00    1.78580   1.78259   33.918
 5203.00    1.75931   1.74949   34.632
 5204.00    1.71974   1.70647   35.592
 5205.00    1.68576   1.66420   36.710
 5206.00    1.67812   1.63288   37.292
 5207.00    1.67836   1.61716   37.434
 5208.00    1.66868   1.61644   37.652
 5209.00    1.67401   1.63065   37.450
 5210.00    1.70149   1.66191   36.503
 5211.00    1.74962   1.70867   35.137
 5212.00    1.81099   1.76026   33.737
 5213.00    1.84682   1.79952   32.762
 5214.00    1.84346   1.81378   32.671
 5215.00    1.81425   1.80494   33.290
 5216.00    1.78623   1.78958   33.882
 5217.00    1.79797   1.78658   33.900
 5218.00    1.83223   1.80324   33.347
 5219.00    1.85303   1.83240   32.732
 5220.00    1.86643   1.86055   32.377
 5221.00    1.87438   1.87679   32.201
 5222.00    1.86724   1.87489   32.374
 5223.00    1.83721   1.85172   33.121
 5224.00    1.78958   1.80703   34.346
 5225.00    1.73254   1.74840   35.882
 5226.00    1.67863   1.69581   37.199
 5227.00    1.67480   1.67370   37.197
 5228.00    1.74248   1.69264   35.629
 5229.00    1.81203   1.73875   33.904
 5230.00    1.84722   1.78332   32.968
 5231.00    1.85663   1.80449   32.698
 5232.00    1.84195   1.80005   33.052
 5233.00    1.80950   1.78464   33.701
 5234.00    1.79505   1.77820   33.927
 5235.00    1.81540   1.79234   33.441
 5236.00    1.84648   1.82331   32.635
 5237.00    1.87397   1.85748   32.083
 5238.00    1.88738   1.88280   31.917
 5239.00    1.89065   1.89548   31.970
 5240.00    1.89158   1.89866   31.988
 5241.00    1.89425   1.89752   31.852
 5242.00    1.89742   1.89658   31.791
 5243.00    1.90432   1.89849   31.784
 5244.00    1.91554   1.90085   31.723
 5245.00    1.90218   1.89615   32.049
 5246.00    1.85449   1.87943   32.914
 5247.00    1.81329   1.85500   33.814
 5248.00    1.80094   1.83281   34.207
 5249.00    1.79969   1.81945   34.259
 5250.00    1.79864   1.81508   34.409
 5251.00    1.80163   1.81733   34.424
 5252.00    1.81222   1.82374   34.073
 5253.00    1.82948   1.83087   33.665
 5254.00    1.83631   1.83706   33.523
 5255.00    1.83838   1.84635   33.403
 5256.00    1.86360   1.86422   32.853
 5257.00    1.90515   1.88879   32.001
 5258.00    1.92834   1.90928   31.454
 5259.00    1.91699   1.91273   31.508
 5260.00    1.88209   1.89191   32.132
 5261.00    1.83653   1.84833   33.295
 5262.00    1.78793   1.79075   34.821
 5263.00    1.74154   1.73180   36.241
 5264.00    1.71293   1.68443   37.203
 5265.00    1.70393   1.65816   37.590
 5266.00    1.72396   1.65301   37.251
 5267.00    1.75610   1.65637   -1.000
 5268.00    1.74284   1.65237   -1.000
 5269.00    1.68624   1.63898   37.927
 5270.00    1.66874   1.63365   38.288
 5271.00    1.73570   1.65499   -1.000
 5272.00    1.81042   1.69922   -1.000
 5273.00    1.83442   1.74438   -1.000
 5274.00    1.82853   1.77532   33.796
 5275.00    1.82899   1.79612   33.771
 5276.00    1.84860   1.82021   33.372
 5277.00    1.89394   1.85335   32.432
 5278.00    1.93643   1.88639   31.586
 5279.00    1.93717   1.90323   31.441
 5280.00    1.91867   1.89557   31.967
 5281.00    1.88950   1.86988   32.792
 5282.00    1.85685   1.84127   33.509
 5283.00    1.84772   1.82505   33.868
 5284.00    1.86958   1.83195   33.549
 5285.00    1.91067   1.86268   32.649
 5286.00    1.94893   1.90530   31.622
 5287.00    1.96579   1.94267   31.042
 5288.00    1.96071   1.96517   31.051
 5289.00    1.95572   1.97495   31.135
 5290.00    1.96198   1.97837   31.026
 5291.00    1.96458   1.97849   30.902
 5292.00    1.96164   1.97560   30.976
 5293.00    1.96166   1.96889   31.228
 5294.00    1.95392   1.95511   31.592
 5295.00    1.92675   1.92967   32.255
 5296.00    1.87415   1.89250   33.345
 5297.00    1.81896   1.85373   34.433
 5298.00    1.80749   1.82967   34.716
 5299.00    1.84069   1.82907   34.093
 5300.00    1.88178   1.84622   33.334
 5301.00    1.89736   1.86917   32.946
 5302.00    1.90222   1.89207   32.642
 5303.00    1.93175   1.91629   31.966
 5304.00    1.96830   1.94092   31.239
 5305.00    1.98508   1.95900   30.946
 5306.00    1.97887   1.96564   31.091
 5307.00    1.96214   1.96469   31.389
 5308.00    1.96605   1.96543   31.398
 5309.00    1.98370   1.97346   31.107
 5310.00    1.99312   1.98557   30.847
 5311.00    1.99620   1.99392   30.779
 5312.00    1.99585   1.99317   30.896
 5313.00    1.99221   1.98301   31.053
 5314.00    1.97840   1.96606   31.235
 5315.00    1.95393   1.94607   31.511
 5316.00    1.94152   1.92917   31.809
 5317.00    1.94794   1.92310   31.941
 5318.00    1.95660   1.93087   31.805
 5319.00    1.96543   1.94568   31.616
 5320.00    1.97205   1.95522   31.623
 5321.00    1.96583   1.95117   31.806
 5322.00    1.94674   1.93309   32.116
 5323.00    1.92676   1.90618   32.601
 5324.00    1.91411   1.87714   33.033
 5325.00    1.90886   1.84818   33.154
 5326.00    1.88526   1.81456   33.629
 5327.00    1.81927   1.77418   35.257
 5328.00    1.76022   1.74077   36.968
 5329.00    1.77838   1.73745   36.651
 5330.00    1.86147   1.77242   -1.000
 5331.00    1.92676   1.82818   -1.000
 5332.00    1.94458   1.87824   32.503
 5333.00    1.95892   1.91064   32.201
 5334.00    1.97520   1.92993   31.856
 5335.00    1.97691   1.94193   31.610
 5336.00    1.96830   1.94628   31.668
 5337.00    1.96108   1.94063   31.884
 5338.00    1.96011   1.92428   32.168
 5339.00    1.93835   1.89997   32.777
 5340.00    1.90116   1.87677   33.487
 5341.00    1.89891   1.86779   33.591
 5342.00    1.93637   1.87946   32.933
 5343.00    1.96567   1.90326   32.186
 5344.00    1.96866   1.92233   31.935
 5345.00    1.96232   1.92667   32.068
 5346.00    1.96312   1.91903   32.283
 5347.00    1.96601   1.90824   32.463
 5348.00    1.95887   1.90169   32.694
 5349.00    1.94755   1.90360   32.877
 5350.00    1.95308   1.91592   32.623
 5351.00    1.98156   1.93694   31.957
 5352.00    1.99880   1.96045   31.395
 5353.00    2.00466   1.98035   31.176
 5354.00    2.01690   1.99622   31.006
 5355.00    2.03579   2.01102   30.672
 5356.00    2.05295   2.02481   30.362
 5357.00    2.05005   2.03448   30.280
 5358.00    2.04655   2.03758   30.327
 5359.00    2.04821   2.03369   30.409
 5360.00    2.03266   2.02262   30.657
 5361.00    2.00819   2.00441   31.111
 5362.00    1.98369   1.98161   31.603
 5363.00    1.96434   1.95911   31.933
 5364.00    1.95547   1.94142   32.127
 5365.00    1.95505   1.93083   32.316
 5366.00    1.95462   1.92624   32.350
 5367.00    1.96262   1.92232   32.292
 5368.00    1.96789   1.91097   32.475
 5369.00    1.93989   1.88719   33.079
 5370.00    1.89974   1.85614   34.023
 5371.00    1.88414   1.83419   34.559
 5372.00    1.91375   1.83870   33.867
 5373.00    1.97503   1.87367   -1.000
 5374.00    2.02598   1.92491   -1.000
 5375.00    2.04660   1.97093   30.833
 5376.00    2.04313   1.99876   30.798
 5377.00    2.03805   2.00873   30.857
 5378.00    2.03823   2.00759   30.892
 5379.00    2.02844   2.00085   31.020
 5380.00    2.01447   1.99083   31.274
 5381.00    2.00105   1.97895   31.589
 5382.00    1.99613   1.96809   31.814
 5383.00    1.99654   1.96286   31.867
 5384.00    1.99959   1.96730   31.768
 5385.00    2.01540   1.98075   31.507
 5386.00    2.03432   1.99617   31.312
 5387.00    2.03282   2.00448   31.373
 5388.00    2.01863   2.00096   31.612
 5389.00    2.00279   1.98731   32.022
 5390.00    1.98944   1.96897   32.449
 5391.00    1.98931   1.95130   32.687
 5392.00    1.98066   1.93720   32.753
 5393.00    1.96942   1.92687   32.810
 5394.00    1.95973   1.91732   32.993
 5395.00    1.94185   1.90389   33.348
 5396.00    1.90834   1.88631   33.926
 5397.00    1.89525   1.87279   34.262
 5398.00    1.93469   1.87454   33.678
 5399.00    1.98264   1.89437   -1.000
 5400.00    2.00912   1.92167   -1.000
 5401.00    2.01412   1.94070   32.103
 5402.00    2.00425   1.94065   32.278
 5403.00    1.97262   1.91895   32.936
 5404.00    1.91818   1.88296   34.011
 5405.00    1.88333   1.84954   34.797
 5406.00    1.89456   1.83496   34.801
 5407.00    1.92188   1.84207   -1.000
 5408.00    1.94127   1.85871   -1.000
 5409.00    1.94513   1.87157   33.735
 5410.00    1.94375   1.88045   33.805
 5411.00    1.96893   1.89461   33.214
 5412.00    2.01119   1.91742   -1.000
 5413.00    2.02905   1.94170   -1.000
 5414.00    2.02348   1.95979   31.722
 5415.00    2.01893   1.97283   31.753
 5416.00    2.02303   1.98620   31.627
 5417.00    2.03176   2.00007   31.398
 5418.00    2.02759   2.00965   31.381
 5419.00    2.01425   2.01188   31.625
 5420.00    2.01917   2.00823   31.879
 5421.00    2.03250   2.00156   31.888
 5422.00    2.02707   1.99254   31.746
 5423.00    2.01152   1.98178   31.932
 5424.00    2.00047   1.97422   32.322
 5425.00    2.00780   1.97664   32.256
 5426.00    2.03378   1.98776   31.773
 5427.00    2.04002   1.99377   31.576
 5428.00    2.00810   1.98133   32.125
 5429.00    1.96660   1.95408   33.128
 5430.00    1.95791   1.92970   33.648
 5431.00    1.98206   1.92068   33.295
 5432.00    1.99548   1.92215   32.989
 5433.00    1.97443   1.92160   33.268
 5434.00    1.95377   1.91669   33.715
 5435.00    1.95457   1.91768   33.818
 5436.00    1.97800   1.93524   33.368
 5437.00    2.01460   1.96920   32.538
 5438.00    2.04286   2.00854   31.750
 5439.00    2.07161   2.04099   31.217
 5440.00    2.09123   2.06154   30.886
 5441.00    2.08608   2.07159   30.749
 5442.00    2.08072   2.07178   30.733
 5443.00    2.06953   2.05850   30.911
 5444.00    2.03611   2.02809   31.524
 5445.00    1.99120   1.98434   32.639
 5446.00    1.93755   1.94183   33.866
 5447.00    1.92535   1.91935   34.223
 5448.00    1.97963   1.92701   33.438
 5449.00    2.04092   1.95784   -1.000
 5450.00    2.07186   1.99311   -1.000
 5451.00    2.07783   2.01580   31.726
 5452.00    2.06789   2.01773   31.889
 5453.00    2.04761   1.99905   32.429
 5454.00    2.00451   1.96749   33.306
 5455.00    1.96257   1.93869   34.146
 5456.00    1.97564   1.93073   34.196
 5457.00    2.03517   1.95070   -1.000
 5458.00    2.07902   1.98650   -1.000
 5459.00    2.08889   2.01633   31.731
 5460.00    2.08153   2.02555   31.883
 5461.00    2.05588   2.01421   32.407
 5462.00    2.03219   1.99355   32.934
 5463.00    2.03122   1.97772   33.226
 5464.00    2.04601   1.97576   33.069
 5465.00    2.06356   1.98724   -1.000
 5466.00    2.07118   2.00474   32.391
 5467.00    2.07886   2.02070   32.134
 5468.00    2.09028   2.03149   31.887
 5469.00    2.08826   2.03603   32.002
 5470.00    2.07464   2.03413   32.342
 5471.00    2.06819   2.02698   32.558
 5472.00    2.06376   2.01622   32.691
 5473.00    2.04775   2.00158   32.953
 5474.00    2.02729   1.98115   33.371
 5475.00    2.00389   1.95557   33.982
 5476.00    1.97966   1.93231   34.616
 5477.00    1.97065   1.92316   34.677
 5478.00    2.00775   1.93395   -1.000
 5479.00    2.05743   1.95698   -1.000
 5480.00    2.06250   1.97703   -1.000
 5481.00    2.03986   1.98643   33.304
 5482.00    2.02735   1.99143   33.462
 5483.00    2.03823   2.00195   33.087
 5484.00    2.06317   2.01913   32.430
 5485.00    2.07732   2.03440   31.971
 5486.00    2.06686   2.03891   32.032
 5487.00    2.04943   2.03255   32.454
 5488.00    2.03316   2.02352   32.775
 5489.00    2.03861   2.02030   32.851
 5490.00    2.05660   2.02475   32.719
 5491.00    2.06923   2.03265   32.472
 5492.00    2.08125   2.03927   32.300
 5493.00    2.08074   2.04278   32.291
 5494.00    2.08091   2.04316   32.339
 5495.00    2.08956   2.03989   32.338
 5496.00    2.07799   2.03289   32.464
 5497.00    2.05316   2.02493   32.710
 5498.00    2.06354   2.02023   32.717
 5499.00    2.09503   2.01909   -1.000
 5500.00    2.09831   2.01638   -1.000
 5501.00    2.07730   2.00838   32.814
 5502.00    2.07002   1.99908   33.097
 5503.00    2.08194   1.99451   -1.000
 5504.00    2.08193   1.99354   -1.000
 5505.00    2.06277   1.99028   32.994
 5506.00    2.03905   1.98371   33.403
 5507.00    2.03374   1.98059   33.377
 5508.00    2.05859   1.98696   32.912
 5509.00    2.08106   1.99908   -1.000
 5510.00    2.08115   2.00623   -1.000
 5511.00    2.06185   2.00124   33.121
 5512.00    2.03497   1.98695   33.739
 5513.00    2.02676   1.97374   34.150
 5514.00    2.03876   1.97146   34.053
 5515.00    2.06215   1.98290   -1.000
 5516.00    2.09579   2.00411   -1.000
 5517.00    2.12488   2.02893   -1.000
 5518.00    2.14322   2.05210   -1.000
 5519.00    2.15120   2.06961   -1.000
 5520.00    2.14681   2.07936   31.553
 5521.00    2.14416   2.08226   31.613
 5522.00    2.14489   2.08112   31.703
 5523.00    2.13676   2.07695   31.785
 5524.00    2.12839   2.06691   31.910
 5525.00    2.11765   2.04710   32.241
 5526.00    2.08131   2.01799   32.858
 5527.00    2.03799   1.98771   33.683
 5528.00    2.03159   1.96963   34.191
 5529.00    2.05652   1.97383   -1.000
 5530.00    2.09014   1.99811   -1.000
 5531.00    2.12065   2.02771   -1.000
 5532.00    2.12502   2.04681   -1.000
 5533.00    2.09999   2.05023   32.418
 5534.00    2.08058   2.04419   32.655
 5535.00    2.08320   2.03869   32.659
 5536.00    2.08949   2.04003   32.448
 5537.00    2.10105   2.04790   32.276
 5538.00    2.11844   2.05827   32.173
 5539.00    2.13890   2.06844   31.933
 5540.00    2.15551   2.07747   -1.000
 5541.00    2.15728   2.08284   31.541
 5542.00    2.15033   2.08140   31.738
 5543.00    2.14345   2.07428   32.079
 5544.00    2.12741   2.06728   32.271
 5545.00    2.11593   2.06577   32.248
 5546.00    2.12552   2.07080   32.159
 5547.00    2.14466   2.08054   32.017
 5548.00    2.16726   2.09279   31.745
 5549.00    2.17614   2.10456   31.451
 5550.00    2.17153   2.11211   31.294
 5551.00    2.17470   2.11312   31.361
 5552.00    2.17508   2.10792   31.598
 5553.00    2.16163   2.09916   31.927
 5554.00    2.14899   2.09116   32.184
 5555.00    2.14830   2.08757   32.217
 5556.00    2.15222   2.08877   32.130
 5557.00    2.16108   2.09233   32.051
 5558.00    2.17584   2.09595   -1.000
 5559.00    2.17116   2.09809   31.971
 5560.00    2.15807   2.09675   31.992
 5561.00    2.15685   2.09031   32.118
 5562.00    2.14852   2.08000   32.377
 5563.00    2.13350   2.06952   32.660
 5564.00    2.12532   2.06165   32.809
 5565.00    2.12112   2.05637   32.881
 5566.00    2.12011   2.05243   32.929
 5567.00    2.12773   2.04912   -1.000
 5568.00    2.12602   2.04642   -1.000
 5569.00    2.11874   2.04427   -1.000
 5570.00    2.12288   2.04219   -1.000
 5571.00    2.12353   2.03947   -1.000
 5572.00    2.11474   2.03660   -1.000
 5573.00    2.11121   2.03628   -1.000
 5574.00    2.12606   2.04118   -1.000
 5575.00    2.15024   2.05044   -1.000
 5576.00    2.18435   2.06081   -1.000
 5577.00    2.23593   2.07097   -1.000
 5578.00    2.28506   2.08112   -1.000
 5579.00    2.29559   2.08979   -1.000
 5580.00    2.25239   2.09448   -1.000
 5581.00    2.19469   2.09476   -1.000
 5582.00    2.16791   2.09221   -1.000
 5583.00    2.17152   2.08732   -1.000
 5584.00    2.16980   2.07685   -1.000
 5585.00    2.14211   2.05513   -1.000
 5586.00    2.09569   2.02074   -1.000
 5587.00    2.05089   1.98239   34.610
 5588.00    2.03662   1.95491   -1.000
 5589.00    2.05093   1.94831   -1.000
 5590.00    2.07764   1.96170   -1.000
 5591.00    2.10181   1.98528   -1.000
 5592.00    2.10516   2.00740   -1.000
 5593.00    2.10199   2.02211   -1.000
 5594.00    2.11067   2.03177   -1.000
 5595.00    2.13302   2.04129   -1.000
 5596.00    2.15724   2.05014   -1.000
 5597.00    2.15436   2.05228   -1.000
 5598.00    2.12944   2.04428   -1.000
 5599.00    2.11047   2.03017   -1.000
 5600.00    2.10032   2.01628   -1.000
 5601.00    2.09142   2.00640   -1.000
 5602.00    2.08574   2.00502   -1.000
 5603.00    2.10140   2.01831   -1.000
 5604.00    2.14418   2.04770   -1.000
 5605.00    2.19208   2.08563   -1.000
 5606.00    2.22264   2.12031   -1.000
 5607.00    2.22665   2.14375   -1.000
 5608.00    2.22498   2.15546   31.653
 5609.00    2.22049   2.15980   31.715
 5610.00    2.20576   2.16117   31.728
 5611.00    2.20367   2.15964   31.654
 5612.00    2.20852   2.14972   31.686
 5613.00    2.19180   2.12478   32.122
 5614.00    2.14619   2.08589   33.061
 5615.00    2.10570   2.04645   34.036
 5616.00    2.10806   2.02509   -1.000
 5617.00    2.14559   2.03037   -1.000
 5618.00    2.17420   2.05368   -1.000
 5619.00    2.18676   2.07940   -1.000
 5620.00    2.19864   2.09826   -1.000
 5621.00    2.20113   2.10809   -1.000
 5622.00    2.19469   2.10793   -1.000
 5623.00    2.17350   2.09762   -1.000
 5624.00    2.14560   2.08242   33.544
 5625.00    2.14272   2.07276   33.747
 5626.00    2.16321   2.07656   -1.000
 5627.00    2.18133   2.09298   -1.000
 5628.00    2.19624   2.11449   -1.000
 5629.00    2.21609   2.13354   -1.000
 5630.00    2.23225   2.14611   -1.000
 5631.00    2.23575   2.15092   -1.000
 5632.00    2.22810   2.14836   -1.000
 5633.00    2.22010   2.14063   -1.000
 5634.00    2.21849   2.13059   -1.000
 5635.00    2.21654   2.12023   -1.000
 5636.00    2.20149   2.11085   -1.000
 5637.00    2.18171   2.10386   -1.000
 5638.00    2.18030   2.10019   -1.000
 5639.00    2.18207   2.09904   -1.000
 5640.00    2.16902   2.09843   32.970
 5641.00    2.16535   2.09778   33.041
 5642.00    2.18059   2.09886   -1.000
 5643.00    2.18612   2.10296   -1.000
 5644.00    2.18784   2.10909   -1.000
 5645.00    2.20154   2.11565   -1.000
 5646.00    2.20660   2.12142   -1.000
 5647.00    2.20379   2.12516   -1.000
 5648.00    2.20891   2.12618   -1.000
 5649.00    2.21217   2.12564   -1.000
 5650.00    2.21371   2.12608   -1.000
 5651.00    2.22511   2.12868   -1.000
 5652.00    2.23490   2.13130   -1.000
 5653.00    2.23172   2.13003   -1.000
 5654.00    2.21589   2.12237   -1.000
 5655.00    2.19475   2.10777   -1.000
 5656.00    2.15841   2.08657   -1.000
 5657.00    2.11123   2.06156   33.897
 5658.00    2.08554   2.04055   34.705
 5659.00    2.10308   2.03266   -1.000
 5660.00    2.14705   2.03951   -1.000
 5661.00    2.16296   2.05367   -1.000
 5662.00    2.15360   2.06759   -1.000
 5663.00    2.15950   2.08051   -1.000
 5664.00    2.18530   2.09475   -1.000
 5665.00    2.20191   2.10865   -1.000
 5666.00    2.19878   2.11694   -1.000
 5667.00    2.18328   2.11772   32.883
 5668.00    2.17078   2.11537   32.995
 5669.00    2.17779   2.11581   32.958
 5670.00    2.18651   2.12162   32.797
 5671.00    2.19879   2.13171   32.537
 5672.00    2.21467   2.14319   32.226
 5673.00    2.21977   2.15314   31.907
 5674.00    2.22477   2.15964   31.770
 5675.00    2.22934   2.16267   31.852
 5676.00    2.23413   2.16383   31.851
 5677.00    2.24338   2.16431   -1.000
 5678.00    2.23937   2.16307   -1.000
 5679.00    2.22506   2.15764   31.991
 5680.00    2.22353   2.14638   -1.000
 5681.00    2.22049   2.13004   -1.000
 5682.00    2.20479   2.11242   -1.000
 5683.00    2.19409   2.09946   -1.000
 5684.00    2.19481   2.09539   -1.000
 5685.00    2.20115   2.09843   -1.000
 5686.00    2.19977   2.10195   -1.000
 5687.00    2.18013   2.10144   -1.000
 5688.00    2.16638   2.09961   33.361
 5689.00    2.18575   2.10309   -1.000
 5690.00    2.21365   2.11518   -1.000
 5691.00    2.23112   2.13280   -1.000
 5692.00    2.24654   2.14973   -1.000
 5693.00    2.25293   2.16165   -1.000
 5694.00    2.24841   2.16796   -1.000
 5695.00    2.24542   2.16972   -1.000
 5696.00    2.23464   2.16765   31.946
 5697.00    2.21766   2.16160   32.163
 5698.00    2.20728   2.15155   32.527
 5699.00    2.19194   2.13867   32.858
 5700.00    2.17298   2.12585   33.176
 5701.00    2.15788   2.11667   33.428
 5702.00    2.15688   2.11351   33.349
 5703.00    2.17036   2.11573   33.020
 5704.00    2.17411   2.11888   32.813
 5705.00    2.16246   2.11714   32.914
 5706.00    2.14437   2.10716   33.286
 5707.00    2.11632   2.08993   33.855
 5708.00    2.09649   2.06969   34.441
 5709.00    2.09768   2.05256   34.788
 5710.00    2.10255   2.04500   34.814
 5711.00    2.10386   2.05120   34.566
 5712.00    2.13512   2.07089   33.999
 5713.00    2.17977   2.09916   -1.000
 5714.00    2.20419   2.12813   -1.000
 5715.00    2.22467   2.15068   -1.000
 5716.00    2.23674   2.16489   -1.000
 5717.00    2.24552   2.17367   -1.000
 5718.00    2.25029   2.18107   31.980
 5719.00    2.24926   2.18932   31.792
 5720.00    2.25186   2.19871   31.614
 5721.00    2.26071   2.20802   31.509
 5722.00    2.27053   2.21548   31.453
 5723.00    2.28168   2.21956   31.411
 5724.00    2.28001   2.21903   31.435
 5725.00    2.26453   2.21309   31.621
 5726.00    2.24332   2.20318   31.938
 5727.00    2.22045   2.19369   32.234
 5728.00    2.22252   2.18910   32.252
 5729.00    2.24186   2.18973   32.038
 5730.00    2.24868   2.19195   31.999
 5731.00    2.24364   2.19313   32.147
 5732.00    2.24598   2.19477   32.161
 5733.00    2.26116   2.20006   31.915
 5734.00    2.27073   2.20868   31.651
 5735.00    2.27036   2.21652   31.583
 5736.00    2.26665   2.22002   31.631
 5737.00    2.25811   2.21941   31.699
 5738.00    2.24920   2.21757   31.761
 5739.00    2.24635   2.21659   31.803
 5740.00    2.24747   2.21628   31.865
 5741.00    2.24531   2.21551   31.923
 5742.00    2.24179   2.21456   31.918
 5743.00    2.24432   2.21524   31.856
 5744.00    2.24982   2.21824   31.719
 5745.00    2.25263   2.22121   31.504
 5746.00    2.25073   2.22099   31.524
 5747.00    2.24302   2.21753   31.797
 5748.00    2.24018   2.21453   32.017
 5749.00    2.25258   2.21436   31.956
 5750.00    2.25650   2.21389   31.797
 5751.00    2.24592   2.20735   31.895
 5752.00    2.23292   2.19363   32.244
 5753.00    2.21714   2.17953   32.607
 5754.00    2.21834   2.17475   32.749
 5755.00    2.23956   2.18401   32.497
 5756.00    2.26824   2.20331   31.954
 5757.00    2.29080   2.22271   -1.000
 5758.00    2.29805   2.23342   31.361
 5759.00    2.28860   2.23188   31.625
 5760.00    2.26700   2.22005   32.028
 5761.00    2.24922   2.20365   32.461
 5762.00    2.24280   2.19084   32.755
 5763.00    2.24582   2.18918   32.620
 5764.00    2.26420   2.20095   32.110
 5765.00    2.28530   2.22054   31.622
 5766.00    2.29514   2.23883   31.404
 5767.00    2.29866   2.24975   31.359
 5768.00    2.29298   2.25316   31.317
 5769.00    2.28002   2.25196   31.325
 5770.00    2.27103   2.24821   31.419
 5771.00    2.26896   2.24233   31.563
 5772.00    2.26924   2.23464   31.755
 5773.00    2.25809   2.22684   31.890
 5774.00    2.24106   2.22152   31.940
 5775.00    2.23824   2.22035   31.920
 5776.00    2.24082   2.22205   31.796
 5777.00    2.22441   2.22219   31.700
 5778.00    2.18785   2.21511   31.749
 5779.00    2.13220   2.19848   32.049
 5780.00    2.06995   2.17620   32.679
 5781.00    2.04497   2.15612   33.269
 5782.00    2.08045   2.14460   33.416
 5783.00    2.13866   2.14286   33.289
 5784.00    2.17988   2.14758   33.164
 5785.00    2.20481   2.15576   33.045
 5786.00    2.22598   2.16742   32.791
 5787.00    2.24752   2.18256   32.371
 5788.00    2.25839   2.19741   32.035
 5789.00    2.25898   2.20650   31.950
 5790.00    2.25518   2.20888   32.060
 5791.00    2.24972   2.20955   32.109
 5792.00    2.25390   2.21444   31.931
 5793.00    2.26765   2.22527   31.679
 5794.00    2.27769   2.23818   31.480
 5795.00    2.26752   2.24749   31.380
 5796.00    2.23990   2.25000   31.480
 5797.00    2.21847   2.24738   31.689
 5798.00    2.22523   2.24542   31.704
 5799.00    2.25771   2.24930   31.395
 5800.00    2.29223   2.25862   30.964
 5801.00    2.30998   2.26791   30.724
 5802.00    2.30726   2.27169   30.848
 5803.00    2.29599   2.26819   31.117
 5804.00    2.28723   2.25999   31.362
 5805.00    2.28759   2.25220   31.559
 5806.00    2.29200   2.24894   31.579
 5807.00    2.29701   2.25073   31.469
 5808.00    2.29474   2.25529   31.362
 5809.00    2.28897   2.26037   31.319
 5810.00    2.29952   2.26483   31.308
 5811.00    2.31998   2.26770   31.229
 5812.00    2.33005   2.26763   31.119
 5813.00    2.32446   2.26379   31.110
 5814.00    2.31599   2.25682   31.286
 5815.00    2.30800   2.24933   31.498
 5816.00    2.30456   2.24570   31.473
 5817.00    2.31674   2.24957   31.263
 5818.00    2.33327   2.26000   -1.000
 5819.00    2.34425   2.27156   -1.000
 5820.00    2.35251   2.27919   -1.000
 5821.00    2.34766   2.28205   30.767
 5822.00    2.34075   2.28229   30.858
 5823.00    2.34481   2.28206   30.883
 5824.00    2.35225   2.28232   -1.000
 5825.00    2.35661   2.28331   -1.000
 5826.00    2.35569   2.28518   -1.000
 5827.00    2.34921   2.28777   30.721
 5828.00    2.35386   2.29023   30.760
 5829.00    2.36013   2.29178   -1.000
 5830.00    2.35822   2.29219   30.727
 5831.00    2.35470   2.29159   30.714
 5832.00    2.35184   2.28977   30.722
 5833.00    2.35372   2.28663   30.868
 5834.00    2.35102   2.28321   -1.000
 5835.00    2.35007   2.28152   -1.000
 5836.00    2.35443   2.28275   -1.000
 5837.00    2.35765   2.28587   -1.000
 5838.00    2.35961   2.28893   -1.000
 5839.00    2.35715   2.29138   30.971
 5840.00    2.35847   2.29412   30.792
 5841.00    2.36571   2.29711   -1.000
 5842.00    2.36665   2.29882   -1.000
 5843.00    2.35753   2.29770   30.593
 5844.00    2.34645   2.29335   30.709
 5845.00    2.33743   2.28642   30.875
 5846.00    2.33355   2.27851   31.060
 5847.00    2.34023   2.27202   31.210
 5848.00    2.34234   2.26847   -1.000
 5849.00    2.34053   2.26642   -1.000
 5850.00    2.33689   2.26227   -1.000
 5851.00    2.31513   2.25348   31.584
 5852.00    2.29724   2.24116   31.843
 5853.00    2.29277   2.22855   32.081
 5854.00    2.28670   2.21765   -1.000
 5855.00    2.28580   2.20637   -1.000
 5856.00    2.28166   2.19187   -1.000
 5857.00    2.27109   2.17665   -1.000
 5858.00    2.27486   2.16918   -1.000
 5859.00    2.29582   2.17609   -1.000
 5860.00    2.31938   2.19408   -1.000
 5861.00    2.32809   2.21375   -1.000
 5862.00    2.32912   2.22889   -1.000
 5863.00    2.33562   2.23835   -1.000
 5864.00    2.33786   2.24287   -1.000
 5865.00    2.33051   2.24255   -1.000
 5866.00    2.31835   2.23875   -1.000
 5867.00    2.31946   2.23646   -1.000
 5868.00    2.33575   2.24060   -1.000
 5869.00    2.34882   2.25126   -1.000
 5870.00    2.36246   2.26354   -1.000
 5871.00    2.36763   2.27131   -1.000
 5872.00    2.35871   2.27208   -1.000
 5873.00    2.36030   2.26763   -1.000
 5874.00    2.36888   2.26145   -1.000
 5875.00    2.36936   2.25591   -1.000
 5876.00    2.35627   2.25134   -1.000
 5877.00    2.34577   2.24693   -1.000
 5878.00    2.34646   2.24177   -1.000
 5879.00    2.33588   2.23561   -1.000
 5880.00    2.32487   2.22894   -1.000
 5881.00    2.32386   2.22200   -1.000
 5882.00    2.32845   2.21415   -1.000
 5883.00    2.32463   2.20460   -1.000
 5884.00    2.30103   2.19285   -1.000
 5885.00    2.25023   2.17564   -1.000
 5886.00    2.13736   2.14302   32.452
 5887.00    1.94308   2.08239   -1.000
 5888.00    1.71053   1.99299   -1.000
 5889.00    1.55249   1.89859   -1.000
 5890.00    1.57321   1.83734   -1.000
 5891.00    1.74368   1.83065   -1.000
 5892.00    1.90633   1.86327   37.115
 5893.00    1.91506   1.89507   35.996
 5894.00    1.80103   1.90038   -1.000
 5895.00    1.70814   1.88562   -1.000
 5896.00    1.74198   1.87890   -1.000
 5897.00    1.90648   1.90384   36.507
 5898.00    2.10366   1.95993   -1.000
 5899.00    2.22238   2.02801   -1.000
 5900.00    2.26379   2.08922   -1.000
 5901.00    2.29236   2.13770   -1.000
 5902.00    2.31331   2.17362   -1.000
 5903.00    2.32320   2.19737   -1.000
 5904.00    2.33800   2.21100   -1.000
 5905.00    2.34741   2.21862   -1.000
 5906.00    2.34319   2.22416   -1.000
 5907.00    2.34842   2.22983   -1.000
 5908.00    2.35920   2.23571   -1.000
 5909.00    2.35182   2.24090   -1.000
 5910.00    2.34205   2.24397   -1.000
 5911.00    2.34129   2.24297   -1.000
 5912.00    2.33032   2.23611   -1.000
 5913.00    2.31313   2.22419   -1.000
 5914.00    2.30884   2.21150   -1.000
 5915.00    2.30002   2.20405   -1.000
 5916.00    2.29384   2.20513   -1.000
 5917.00    2.29925   2.21370   -1.000
 5918.00    2.30291   2.22612   -1.000
 5919.00    2.31190   2.23787   -1.000
 5920.00    2.31439   2.24556   -1.000
 5921.00    2.31103   2.24848   32.396
 5922.00    2.30724   2.24893   32.429
 5923.00    2.30985   2.24986   32.374
 5924.00    2.32369   2.25324   -1.000
 5925.00    2.33968   2.25827   -1.000
 5926.00    2.34937   2.26168   -1.000
 5927.00    2.35705   2.25984   -1.000
 5928.00    2.35558   2.25213   -1.000
 5929.00    2.35228   2.24264   -1.000
 5930.00    2.35144   2.23752   -1.000
 5931.00    2.35146   2.23950   -1.000
 5932.00    2.35489   2.24544   -1.000
 5933.00    2.34086   2.25023   -1.000
 5934.00    2.32327   2.25227   -1.000
 5935.00    2.31649   2.25489   32.680
 5936.00    2.32904   2.26071   -1.000
 5937.00    2.34739   2.26768   -1.000
 5938.00    2.34875   2.27143   -1.000
 5939.00    2.34880   2.26933   -1.000
 5940.00    2.33650   2.26262   -1.000
 5941.00    2.31491   2.25563   32.656
 5942.00    2.31295   2.25257   32.714
 5943.00    2.32242   2.25501   -1.000
 5944.00    2.32632   2.26057   32.385
 5945.00    2.33717   2.26514   -1.000
 5946.00    2.34223   2.26534   -1.000
 5947.00    2.33527   2.26086   -1.000
 5948.00    2.32946   2.25469   -1.000
 5949.00    2.32074   2.25086   -1.000
 5950.00    2.32264   2.25073   -1.000
 5951.00    2.33849   2.25171   -1.000
 5952.00    2.33589   2.25133   -1.000
 5953.00    2.32283   2.24990   -1.000
 5954.00    2.33447   2.24919   -1.000
 5955.00    2.34402   2.24888   -1.000
 5956.00    2.32809   2.24763   -1.000
 5957.00    2.32387   2.24738   -1.000
 5958.00    2.33632   2.25195   -1.000
 5959.00    2.35346   2.26204   -1.000
 5960.00    2.37224   2.27466   -1.000
 5961.00    2.38231   2.28538   -1.000
 5962.00    2.39088   2.29124   -1.000
 5963.00    2.39180   2.29198   -1.000
 5964.00    2.38356   2.28882   -1.000
 5965.00    2.37213   2.28418   -1.000
 5966.00    2.35870   2.28097   -1.000
 5967.00    2.35423   2.28130   -1.000
 5968.00    2.35895   2.28528   -1.000
 5969.00    2.37160   2.29153   -1.000
 5970.00    2.38147   2.29812   -1.000
 5971.00    2.38487   2.30314   -1.000
 5972.00    2.38604   2.30439   -1.000
 5973.00    2.37800   2.30048   -1.000
 5974.00    2.36459   2.29134   -1.000
 5975.00    2.35194   2.27863   -1.000
 5976.00    2.33793   2.26642   -1.000
 5977.00    2.33550   2.25970   -1.000
 5978.00    2.34669   2.26132   -1.000
 5979.00    2.35109   2.26967   -1.000
 5980.00    2.36013   2.27886   -1.000
 5981.00    2.37216   2.28231   -1.000
 5982.00    2.36521   2.27676   -1.000
 5983.00    2.34703   2.26509   -1.000
 5984.00    2.33991   2.25460   -1.000
 5985.00    2.34149   2.25180   -1.000
 5986.00    2.35452   2.25781   -1.000
 5987.00    2.36904   2.26849   -1.000
 5988.00    2.37097   2.27883   -1.000
 5989.00    2.36558   2.28608   -1.000
 5990.00    2.36170   2.29041   -1.000
 5991.00    2.36602   2.29404   -1.000
 5992.00    2.37319   2.29977   -1.000
 5993.00    2.38136   2.30765   -1.000
 5994.00    2.39340   2.31397   -1.000
 5995.00    2.38993   2.31426   -1.000
 5996.00    2.38065   2.30842   -1.000
 5997.00    2.37532   2.30094   -1.000
 5998.00    2.37651   2.29608   -1.000
 5999.00    2.37525   2.29496   -1.000
 6000.00    2.37701   2.29511   -1.000
 6001.00    2.38022   2.29361   -1.000
 6002.00    2.36656   2.28990   -1.000
 6003.00    2.36098   2.28594   -1.000
 6004.00    2.37209   2.28314   -1.000
 6005.00    2.36563   2.27968   -1.000
 6006.00    2.34451   2.27269   -1.000
 6007.00    2.32728   2.26347   -1.000
 6008.00    2.31384   2.25851   33.284
 6009.00    2.31852   2.26287   33.053
 6010.00    2.33292   2.27407   32.667
 6011.00    2.33958   2.28428   32.519
 6012.00    2.34244   2.28777   32.684
 6013.00    2.35343   2.28540   -1.000
 6014.00    2.36280   2.28180   -1.000
 6015.00    2.36549   2.27942   -1.000
 6016.00    2.36851   2.27818   -1.000
 6017.00    2.36872   2.27656   -1.000
 6018.00    2.36676   2.27341   -1.000
 6019.00    2.36017   2.26850   -1.000
 6020.00    2.34562   2.26316   -1.000
 6021.00    2.34232   2.26024   -1.000
 6022.00    2.35485   2.26181   -1.000
 6023.00    2.36533   2.26769   -1.000
 6024.00    2.36674   2.27662   -1.000
 6025.00    2.37051   2.28812   -1.000
 6026.00    2.38600   2.30111   -1.000
 6027.00    2.39171   2.31339   -1.000
 6028.00    2.39193   2.32375   -1.000
 6029.00    2.40578   2.33245   -1.000
 6030.00    2.40757   2.33921   -1.000
 6031.00    2.39877   2.34401   32.138
 6032.00    2.40610   2.34812   32.150
 6033.00    2.41199   2.35257   32.035
 6034.00    2.40467   2.35676   31.919
 6035.00    2.40326   2.35920   31.879
 6036.00    2.40953   2.35884   31.845
 6037.00    2.41253   2.35583   31.830
 6038.00    2.40319   2.35106   31.950
 6039.00    2.39597   2.34540   32.083
 6040.00    2.39044   2.34032   32.155
 6041.00    2.38058   2.33772   32.174
 6042.00    2.39100   2.33887   32.103
 6043.00    2.40697   2.34350   -1.000
 6044.00    2.40612   2.35009   31.779
 6045.00    2.40372   2.35685   31.660
 6046.00    2.41006   2.36272   31.696
 6047.00    2.41614   2.36754   31.668
 6048.00    2.41681   2.37124   31.654
 6049.00    2.41632   2.37323   31.735
 6050.00    2.41999   2.37319   31.831
 6051.00    2.43115   2.37114   -1.000
 6052.00    2.43181   2.36660   -1.000
 6053.00    2.41986   2.35908   -1.000
 6054.00    2.41711   2.34962   -1.000
 6055.00    2.41037   2.34123   -1.000
 6056.00    2.40324   2.33711   -1.000
 6057.00    2.40366   2.33888   -1.000
 6058.00    2.40584   2.34521   -1.000
 6059.00    2.41226   2.35262   32.128
 6060.00    2.41358   2.35722   32.069
 6061.00    2.41910   2.35609   -1.000
 6062.00    2.40005   2.34753   32.412
 6063.00    2.15198   2.33249   -1.000
 6064.00    2.04899   2.31617   -1.000
 6065.00    2.29112   2.30661   39.416
 6066.00    2.08612   2.30996   -1.000
 6067.00    1.35871   2.32549   -1.000
 6068.00    1.21550   2.34572   -1.000
 6069.00    2.03211   2.36332   -1.000
 6070.00    2.44907   2.37540   -1.000
 6071.00    2.47191   2.38232   -1.000
 6072.00    2.50211   2.38595   -1.000
 6073.00    2.53961   2.38761   -1.000
 6074.00    2.46084   2.38724   -1.000
 6075.00    2.42755   2.38366   31.874
 6076.00    2.42751   2.37600   32.019
 6077.00    2.41276   2.36521   32.198
 6078.00    2.39952   2.35394   32.416
 6079.00    2.39188   2.34485   32.647
 6080.00    2.38762   2.33885   32.749
 6081.00    2.39173   2.33456   32.760
 6082.00    2.38342   2.33079   32.825
 6083.00    2.37939   2.32832   32.876
 6084.00    2.38181   2.32851   32.854
 6085.00    2.37800   2.33185   32.824
 6086.00    2.37719   2.33772   32.757
 6087.00    2.39440   2.34364   32.639
 6088.00    2.40586   2.34644   -1.000
 6089.00    2.39126   2.34495   32.751
 6090.00    2.37369   2.34125   32.928
 6091.00    2.36870   2.33895   32.983
 6092.00    2.37644   2.34058   32.856
 6093.00    2.38966   2.34638   32.656
 6094.00    2.39893   2.35453   32.487
 6095.00    2.40905   2.36277   32.322
 6096.00    2.41905   2.36939   32.262
 6097.00    2.41583   2.37334   32.320
 6098.00    2.40802   2.37249   32.374
 6099.00    2.40199   2.36307   32.381
 6100.00    2.38542   2.34190   32.575
 6101.00    2.35567   2.31170   33.200
 6102.00    2.32421   2.28364   33.905
 6103.00    2.32011   2.27133   34.027
 6104.00    2.34834   2.28064   -1.000
 6105.00    2.37754   2.30451   -1.000
 6106.00    2.38880   2.33007   -1.000
 6107.00    2.38440   2.34995   32.667
 6108.00    2.37960   2.36331   32.784
 6109.00    2.37696   2.37167   32.812
 6110.00    2.38278   2.37641   32.763
 6111.00    2.39589   2.37870   32.652
 6112.00    2.39931   2.38066   32.572
 6113.00    2.40470   2.38358   32.493
 6114.00    2.41278   2.38655   32.352
 6115.00    2.41147   2.38787   32.385
 6116.00    2.40326   2.38635   32.570
 6117.00    2.39622   2.38126   32.706
 6118.00    2.38301   2.37062   32.794
 6119.00    2.35948   2.35130   33.121
 6120.00    2.33408   2.32353   33.601
 6121.00    2.31579   2.29408   33.972
 6122.00    2.30486   2.27389   34.141
 6123.00    2.31501   2.27130   33.855
 6124.00    2.34761   2.28514   -1.000
 6125.00    2.36679   2.30635   -1.000
 6126.00    2.35399   2.32547   33.236
 6127.00    2.35256   2.33831   33.324
 6128.00    2.35540   2.34747   33.247
 6129.00    2.36394   2.35774   33.076
 6130.00    2.38410   2.37132   32.769
 6131.00    2.39672   2.38449   32.578
 6132.00    2.39624   2.39008   32.593
 6133.00    2.37384   2.38155   32.785
 6134.00    2.33005   2.35533   33.328
 6135.00    2.28704   2.31521   34.231
 6136.00    2.24483   2.27465   35.187
 6137.00    2.23612   2.24962   35.670
 6138.00    2.26783   2.24723   35.217
 6139.00    2.30338   2.26126   34.212
 6140.00    2.31931   2.28020   33.536
 6141.00    2.30686   2.29990   33.421
 6142.00    2.30550   2.32196   33.504
 6143.00    2.33707   2.34508   33.359
 6144.00    2.37553   2.36423   32.961
 6145.00    2.39051   2.37428   32.736
 6146.00    2.38684   2.37426   32.812
 6147.00    2.37772   2.36719   33.004
 6148.00    2.36591   2.35710   33.231
 6149.00    2.35716   2.34817   33.451
 6150.00    2.35210   2.34376   33.547
 6151.00    2.35033   2.34491   33.473
 6152.00    2.35729   2.34925   33.287
 6153.00    2.36905   2.35185   33.142
 6154.00    2.37249   2.34927   33.276
 6155.00    2.37016   2.34296   33.527
 6156.00    2.36561   2.33609   33.614
 6157.00    2.35390   2.32795   33.686
 6158.00    2.34327   2.31284   33.944
 6159.00    2.31669   2.28423   34.463
 6160.00    2.27609   2.24144   35.333
 6161.00    2.23560   2.19419   36.414
 6162.00    2.20648   2.15941   37.115
 6163.00    2.21013   2.14987   -1.000
 6164.00    2.24415   2.16551   -1.000
 6165.00    2.27274   2.19358   -1.000
 6166.00    2.28532   2.21819   -1.000
 6167.00    2.28148   2.22939   34.999
 6168.00    2.25771   2.22750   35.286
 6169.00    2.23716   2.22239   35.724
 6170.00    2.24337   2.22598   35.762
 6171.00    2.26672   2.24251   35.237
 6172.00    2.29181   2.26580   34.622
 6173.00    2.30442   2.28774   34.413
 6174.00    2.30696   2.30406   34.481
 6175.00    2.31653   2.31455   34.446
 6176.00    2.32244   2.32139   34.363
 6177.00    2.31795   2.32710   34.286
 6178.00    2.31881   2.33303   34.152
 6179.00    2.32647   2.33923   34.000
 6180.00    2.33012   2.34592   33.889
 6181.00    2.33676   2.35311   33.756
 6182.00    2.34602   2.35928   33.630
 6183.00    2.35037   2.36166   33.628
 6184.00    2.34718   2.35841   33.732
 6185.00    2.34275   2.34998   33.928
 6186.00    2.33025   2.33827   34.262
 6187.00    2.31258   2.32474   34.634
 6188.00    2.29782   2.30934   34.975
 6189.00    2.26822   2.29152   35.266
 6190.00    2.24109   2.27385   35.618
 6191.00    2.23898   2.26331   35.986
 6192.00    2.25869   2.26685   35.877
 6193.00    2.30400   2.28425   35.181
 6194.00    2.33754   2.30719   34.424
 6195.00    2.33793   2.32733   34.067
 6196.00    2.33907   2.34029   33.960
 6197.00    2.33536   2.34444   34.054
 6198.00    2.31772   2.34116   34.385
 6199.00    2.29406   2.33500   34.738
 6200.00    2.27476   2.33189   34.851
 6201.00    2.27969   2.33575   34.634
 6202.00    2.29798   2.34575   34.217
 6203.00    2.30652   2.35802   33.950
 6204.00    2.31025   2.36914   33.933
 6205.00    2.32267   2.37739   33.909
 6206.00    2.33384   2.38266   33.873
 6207.00    2.34360   2.38523   33.944
 6208.00    2.34957   2.38460   34.019
 6209.00    2.34755   2.37920   34.079
 6210.00    2.34215   2.36743   34.327
 6211.00    2.31996   2.34920   34.630
 6212.00    2.28151   2.32696   34.928
 6213.00    2.26059   2.30564   35.374
 6214.00    2.26499   2.29044   35.839
 6215.00    2.27436   2.28340   36.049
 6216.00    2.28764   2.28203   35.840
 6217.00    2.30078   2.28196   35.473
 6218.00    2.29693   2.28088   35.554
 6219.00    2.28615   2.28035   35.657
 6220.00    2.28619   2.28364   35.419
 6221.00    2.30123   2.29142   35.391
 6222.00    2.32813   2.30106   36.815
 6223.00    2.28951   2.30895   37.788
 6224.00    2.10297   2.31378   -1.000
 6225.00    2.11049   2.31554   -1.000
 6226.00    2.32725   2.31282   35.141
 6227.00    2.32188   2.30323   35.238
 6228.00    2.30416   2.28544   35.594
 6229.00    2.28643   2.26258   36.154
 6230.00    2.26132   2.24291   36.693
 6231.00    2.25593   2.23552   36.840
 6232.00    2.27135   2.24415   36.448
 6233.00    2.29827   2.26449   35.818
 6234.00    2.32745   2.28731   35.177
 6235.00    2.34185   2.30356   34.817
 6236.00    2.34258   2.30880   34.881
 6237.00    2.32295   2.30439   35.202
 6238.00    2.30458   2.29519   35.565
 6239.00    2.29184   2.28609   35.935
 6240.00    2.27035   2.27884   36.205
 6241.00    2.26028   2.27218   36.255
 6242.00    2.26040   2.26399   36.368
 6243.00    2.25141   2.25375   36.647
 6244.00    2.24317   2.24399   36.753
 6245.00    2.25584   2.23958   36.605
 6246.00    2.27755   2.24469   36.294
 6247.00    2.30285   2.26008   35.875
 6248.00    2.31332   2.28042   35.451
 6249.00    2.30866   2.29611   35.252
 6250.00    2.29670   2.29911   35.418
 6251.00    2.26567   2.28821   35.932
 6252.00    2.23935   2.26968   36.515
 6253.00    2.22225   2.25212   36.845
 6254.00    2.22533   2.24103   37.012
 6255.00    2.22872   2.23611   37.047
 6256.00    2.21221   2.23459   37.195
 6257.00    2.18741   2.23528   37.560
 6258.00    2.18812   2.23992   37.649
 6259.00    2.21924   2.25099   37.252
 6260.00    2.24719   2.26855   36.665
 6261.00    2.26502   2.28946   36.145
 6262.00    2.27821   2.30871   35.624
 6263.00    2.29539   2.32237   35.246
 6264.00    2.29719   2.32977   35.321
 6265.00    2.28493   2.33383   35.611
 6266.00    2.28680   2.33757   35.648
 6267.00    2.29357   2.34089   35.410
 6268.00    2.27745   2.34187   35.333
 6269.00    2.26884   2.34022   35.514
 6270.00    2.28544   2.33845   35.585
 6271.00    2.29179   2.33872   35.484
 6272.00    2.29562   2.33918   35.377
 6273.00    2.30452   2.33530   35.382
 6274.00    2.30035   2.32343   35.568
 6275.00    2.27962   2.30428   35.851
 6276.00    2.24375   2.28247   36.278
 6277.00    2.18868   2.26299   37.045
 6278.00    2.13726   2.24959   -1.000
 6279.00    2.10681   2.24431   -1.000
 6280.00    2.08050   2.24828   -1.000
 6281.00    2.06041   2.26163   -1.000
 6282.00    2.04411   2.28170   -1.000
 6283.00    2.03711   2.30411   -1.000
 6284.00    2.05404   2.32470   -1.000
 6285.00    2.09356   2.34103   -1.000
 6286.00    2.15127   2.35254   -1.000
 6287.00    2.21589   2.35904   -1.000
 6288.00    2.26295   2.36035   35.081
 6289.00    2.27514   2.35680   35.146
 6290.00    2.27326   2.35033   35.404
 6291.00    2.27408   2.34407   35.694
 6292.00    2.27542   2.33988   35.863
 6293.00    2.27388   2.33727   35.904
 6294.00    2.27663   2.33389   35.954
 6295.00    2.27535   2.32746   36.123
 6296.00    2.26063   2.31797   36.399
 6297.00    2.25092   2.30811   36.546
 6298.00    2.26079   2.30067   36.536
 6299.00    2.28191   2.29559   36.428
 6300.00    2.31026   2.29173   36.263
 6301.00    2.31189   2.29058   36.324
 6302.00    2.29124   2.29603   36.719
 6303.00    2.27535   2.31006   36.797
 6304.00    2.27304   2.32961   36.305
 6305.00    2.27537   2.34893   35.778
 6306.00    2.27426   2.36403   35.413
 6307.00    2.28797   2.37370   35.109
 6308.00    2.30329   2.37826   34.911
 6309.00    2.29438   2.37883   34.973
 6310.00    2.27456   2.37688   35.180
 6311.00    2.26844   2.37289   35.375
 6312.00    2.26263   2.36645   35.508
 6313.00    2.25259   2.35744   35.602
 6314.00    2.25229   2.34645   35.766
 6315.00    2.24519   2.33533   36.025
 6316.00    2.23707   2.32626   36.064
 6317.00    2.23772   2.32164   36.026
 6318.00    2.23723   2.32399   36.032
 6319.00    2.24294   2.33394   36.003
 6320.00    2.25438   2.34890   35.713
 6321.00    2.27339   2.36460   35.300
 6322.00    2.29343   2.37865   35.062
 6323.00    2.30241   2.39125   34.948
 6324.00    2.30497   2.40238   34.797
 6325.00    2.31323   2.41033   34.640
 6326.00    2.31539   2.41440   34.580
 6327.00    2.30698   2.41571   34.494
 6328.00    2.31103   2.41605   34.405
 6329.00    2.31871   2.41693   34.450
 6330.00    2.31941   2.41853   34.471
 6331.00    2.32598   2.41944   34.426
 6332.00    2.33343   2.41648   34.322
 6333.00    2.32266   2.40645   34.341
 6334.00    2.30036   2.38994   34.441
 6335.00    2.24210   2.37283   -1.000
 6336.00    2.17224   2.36257   -1.000
 6337.00    2.21872   2.36345   -1.000
 6338.00    2.30015   2.37421   34.887
 6339.00    2.31561   2.38965   34.515
 6340.00    2.31882   2.40407   34.232
 6341.00    2.31758   2.41284   34.079
 6342.00    2.31489   2.41391   34.000
 6343.00    2.29823   2.40941   34.170
 6344.00    2.28452   2.40395   34.378
 6345.00    2.29003   2.40215   34.340
 6346.00    2.30171   2.40665   34.195
 6347.00    2.30912   2.41735   33.979
 6348.00    2.32180   2.43163   33.788
 6349.00    2.32618   2.44499   33.730
 6350.00    2.32641   2.45331   33.708
 6351.00    2.32745   2.45477   33.676
 6352.00    2.32270   2.44966   33.768
 6353.00    2.31211   2.43990   -1.000
 6354.00    2.29030   2.42860   -1.000
 6355.00    2.27559   2.41824   -1.000
 6356.00    2.28567   2.40937   -1.000
 6357.00    2.29155   2.40090   34.752
 6358.00    2.27434   2.39214   34.997
 6359.00    2.25929   2.38392   -1.000
 6360.00    2.25789   2.37714   -1.000
 6361.00    2.25783   2.37219   35.153
 6362.00    2.26691   2.37020   35.080
 6363.00    2.27908   2.37275   35.012
 6364.00    2.28820   2.38017   34.833
 6365.00    2.29625   2.39116   34.600
 6366.00    2.30124   2.40324   34.396
 6367.00    2.29960   2.41359   34.198
 6368.00    2.29205   2.42018   33.973
 6369.00    2.28433   2.42316   -1.000
 6370.00    2.28495   2.42546   -1.000
 6371.00    2.29468   2.43027   -1.000
 6372.00    2.30428   2.43813   -1.000
 6373.00    2.30233   2.44645   -1.000
 6374.00    2.29980   2.45177   -1.000
 6375.00    2.29409   2.45226   -1.000
 6376.00    2.28476   2.44843   -1.000
 6377.00    2.27746   2.44191   -1.000
 6378.00    2.26783   2.43459   -1.000
 6379.00    2.25903   2.42793   -1.000
 6380.00    2.25958   2.42261   -1.000
 6381.00    2.25456   2.41904   -1.000
 6382.00    2.25895   2.41772   -1.000
 6383.00    2.26551   2.41911   -1.000
 6384.00    2.26588   2.42330   -1.000
 6385.00    2.26503   2.42939   -1.000
 6386.00    2.25598   2.43552   -1.000
 6387.00    2.23575   2.43965   -1.000
 6388.00    2.23065   2.44076   -1.000
 6389.00    2.22698   2.43809   -1.000
 6390.00    2.20393   2.43053   -1.000
 6391.00    2.17928   2.41816   -1.000
 6392.00    2.15814   2.40460   -1.000
 6393.00    2.13523   2.39673   -1.000
 6394.00    2.12764   2.39917   -1.000
 6395.00    2.14169   2.40974   -1.000
 6396.00    2.15216   2.41987   -1.000
 6397.00    2.13967   2.42091   -1.000
 6398.00    2.11667   2.41162   -1.000
 6399.00    2.08200   2.39912   -1.000
 6400.00    2.06003   2.39409   -1.000
 6401.00    2.07809   2.40235   -1.000
 6402.00    2.10196   2.42071   -1.000
 6403.00    2.11549   2.44027   -1.000
 6404.00    2.11167   2.45240   -1.000
 6405.00    2.08908   2.45367   -1.000
 6406.00    2.07027   2.44664   -1.000
 6407.00    2.04641   2.43776   -1.000
 6408.00    2.02644   2.43183   -1.000
 6409.00    2.01827   2.42936   -1.000
 6410.00    1.99874   2.42825   -1.000
 6411.00    1.98003   2.42783   -1.000
 6412.00    1.96924   2.42953   -1.000
 6413.00    1.95999   2.43381   -1.000
 6414.00    1.95511   2.43911   -1.000
 6415.00    1.95859   2.44341   -1.000
 6416.00    1.95123   2.44520   -1.000
 6417.00    1.92665   2.44272   -1.000
 6418.00    1.90702   2.43481   -1.000
 6419.00    1.88412   2.42380   -1.000
 6420.00    1.85520   2.41619   -1.000
 6421.00    1.83503   2.41816   -1.000
 6422.00    1.82550   2.43107   -1.000
 6423.00    1.82758   2.45074   -1.000
 6424.00    1.83042   2.47010   -1.000
 6425.00    1.81658   2.48466   -1.000
 6426.00    1.80324   2.49194   -1.000
 6427.00    1.78371   2.48967   -1.000
 6428.00    1.75757   2.47731   -1.000
