###################################################################
## OUTPUT of StarlightChains_v04.for    [Cid@UFSC - 01/Apr/2007] ##
###################################################################

## Some input info
NGC6528_a_1.cxt                          [arq_obs]
Base.BC03.N                              [arq_base]
NGC6528_a_1.msk                          [arq_masks]
StCv04.C99.config                        [arq_config]
   45                                    [N_base]
    0                                    [N_YAV_components = # of components with extra extinction!]
    0                                    [i_FitPowerLaw (1/0 = Yes/No)]
-9.99                                    [alpha_PowerLaw]
CCM                                      [red_law_option]
 1.458241                                [q_norm = A(l_norm)/A(V)]

## (Re)Sampling Parameters
 3359.00                                 [l_ini (A)]
 6428.00                                 [l_fin (A)]
    1.00                                 [dl    (A)]     (OBS: dl_cushion =    50.00 A)

## Normalization info
 4020.00                                 [l_norm (A) - for base]
 4010.00                                 [llow_norm (A) - window for f_obs]
 4060.00                                 [lupp_norm (A) - window for f_obs]
3.287291E-15                             [fobs_norm (in input units)]

## S/N
 4730.00                                 [llow_SN (A) - window for S/N]
 4780.00                                 [lupp_SN (A) - window for S/N]
  27.037                                 [S/N in S/N window]
  13.551                                 [S/N in norm. window]
 247.699                                 [S/N_err in S/N window]
 124.147                                 [S/N_err in norm. window]
  1.0000                                 [fscale_chi2]

## etc...
  2147483606                             [idum_orig]
  3069                                   [NOl_eff]
   674                                   [Nl_eff]
  2395    NSIGMA                         [Ntot_cliped & clip_method]
  1809920                                [Nglobal_steps]
   7                                     [N_chains]
  13                                     [NEX0s_base = N_base in EX0s-fits]
 0   0   1      104   2.0   2.944E+02    [Clip-Bug, RC-Crash & Burn-In warning-flags, n_censored_weights, wei_nsig_threshold & wei_limit]
    23     23.104     23.104      0.000  [idt_all, wdt_TotTime, wdt_UsrTime & wdt_SysTime (sec)]

## Synthesis Results - Best model ##

 2.73506E+00                             [chi2/Nl_eff]
     2.41697                             [adev (%)]

   104.27208                             [sum-of-x (%)]
 2.21329E-14                             [Flux_tot (units of input spectrum!)]
 1.41624E-09                             [Mini_tot (???)]
 7.26577E-10                             [Mcor_tot (???)]

  -5.19                                  [v0_min  (km/s)]
 108.21                                  [vd_min  (km/s)]
 1.3887                                  [AV_min  (mag)]
 0.0000                                  [YAV_min (mag)]

# j     x_j(%)      Mini_j(%)     Mcor_j(%)     age_j(yr)     Z_j      (L/M)_j    YAV?  Mstars   component_j        a/Fe...       SSP_chi2r SSP_adev(%)   SSP_AV   SSP_x(%)
  1      5.2549     7.0699E-03    1.3781E-02    1.000000E+06  0.00400  1.114E-02    0   1.0000   age020_m42            0.0000     4.0480E+03    52.5708   4.0000   100.8044
  2      0.0000     0.0000E+00    0.0000E+00    3.160000E+06  0.00400  4.073E-02    0   0.9999   age045_m42            0.0000     1.4184E+03    29.3935   4.0000   110.0083
  3      0.0000     0.0000E+00    0.0000E+00    5.010000E+06  0.00400  2.534E-02    0   0.9488   age055_m42            0.0000     2.3902E+03    40.4517   4.0000   107.1780
  4      1.9983     2.3564E-03    4.0704E-03    1.000000E+07  0.00400  1.271E-02    0   0.8862   age070_m42            0.0000     1.1321E+03    26.0127   4.0000   104.1003
  5      0.0000     0.0000E+00    0.0000E+00    2.512000E+07  0.00400  5.070E-03    0   0.8174   age090_m42            0.0000     9.0872E+02    23.4015   4.0000   104.1323
  6      0.0000     0.0000E+00    0.0000E+00    4.000000E+07  0.00400  3.505E-03    0   0.7851   age104_m42            0.0000     5.4420E+02    18.0790   4.0000   102.0084
  7      0.0000     0.0000E+00    0.0000E+00    1.015200E+08  0.00400  2.268E-03    0   0.7207   age116_m42            0.0000     7.6313E+02    18.2769   4.0000   108.1784
  8      0.0000     0.0000E+00    0.0000E+00    2.861200E+08  0.00400  1.079E-03    0   0.6613   age125_m42            0.0000     7.0169E+02    18.3174   3.7296   106.0928
  9      0.0000     0.0000E+00    0.0000E+00    6.405400E+08  0.00400  5.077E-04    0   0.6197   age132_m42            0.0000     7.0080E+02    18.7280   3.3806   110.0152
 10      0.0000     0.0000E+00    0.0000E+00    9.047900E+08  0.00400  3.535E-04    0   0.6024   age135_m42            0.0000     5.3909E+02    16.2735   3.1285   109.5102
 11      0.0000     0.0000E+00    0.0000E+00    1.434000E+09  0.00400  1.910E-04    0   0.5716   age139_m42            0.0000     2.9172E+02    11.7456   2.5300   108.5321
 12      2.6806     4.0921E-01    4.3575E-01    2.500000E+09  0.00400  9.818E-05    0   0.5463   age150_m42            0.0000     1.2932E+02     7.1867   2.1989   104.7856
 13      0.0000     0.0000E+00    0.0000E+00    5.000000E+09  0.00400  4.718E-05    0   0.5228   age161_m42            0.0000     7.0550E+01     5.2991   2.0199   101.7974
 14      3.4837     2.3679E+00    2.2985E+00    1.100000E+10  0.00400  2.205E-05    0   0.4980   age185_m42            0.0000     2.7914E+01     3.7141   1.6910   100.1191
 15      1.2544     9.9844E-01    9.5887E-01    1.300000E+10  0.00400  1.883E-05    0   0.4927   age193_m42            0.0000     2.5167E+01     3.6616   1.6704   100.0181
 16      2.1703     1.6354E-03    3.1877E-03    1.000000E+06  0.02000  1.989E-02    0   1.0000   age020_m62            0.0000     3.9347E+03    51.6667   4.0000   101.8156
 17      0.0000     0.0000E+00    0.0000E+00    3.160000E+06  0.02000  3.772E-02    0   0.9858   age045_m62            0.0000     3.5344E+03    49.4519   4.0000   104.0099
 18      0.0000     0.0000E+00    0.0000E+00    5.010000E+06  0.02000  3.227E-02    0   0.9342   age055_m62            0.0000     2.0163E+03    36.5381   4.0000   109.0466
 19      0.0000     0.0000E+00    0.0000E+00    1.000000E+07  0.02000  1.011E-02    0   0.8751   age070_m62            0.0000     1.4323E+03    31.1698   4.0000   102.4405
 20      0.0000     0.0000E+00    0.0000E+00    2.512000E+07  0.02000  4.206E-03    0   0.8099   age090_m62            0.0000     1.1192E+03    28.1023   4.0000   102.0013
 21      0.0000     0.0000E+00    0.0000E+00    4.000000E+07  0.02000  3.373E-03    0   0.7799   age104_m62            0.0000     7.6145E+02    19.9641   4.0000   106.6039
 22      0.0000     0.0000E+00    0.0000E+00    1.015200E+08  0.02000  1.878E-03    0   0.7221   age116_m62            0.0000     7.8650E+02    17.9190   4.0000   109.7526
 23      0.0000     0.0000E+00    0.0000E+00    2.861200E+08  0.02000  8.869E-04    0   0.6700   age125_m62            0.0000     9.2163E+02    21.1033   3.7346   110.6470
 24      0.0000     0.0000E+00    0.0000E+00    6.405400E+08  0.02000  3.657E-04    0   0.6322   age132_m62            0.0000     5.9853E+02    16.1342   2.9490   114.8348
 25      0.0000     0.0000E+00    0.0000E+00    9.047900E+08  0.02000  2.312E-04    0   0.6152   age135_m62            0.0000     3.7404E+02    12.5192   2.5557   113.9933
 26      0.2847     3.6534E-02    4.1766E-02    1.434000E+09  0.02000  1.168E-04    0   0.5865   age139_m62            0.0000     1.4665E+02     7.4701   2.1116   108.8229
 27      0.0000     0.0000E+00    0.0000E+00    2.500000E+09  0.02000  5.505E-05    0   0.5610   age150_m62            0.0000     4.7371E+01     4.8814   1.6791   106.5368
 28     23.3340     1.3472E+01    1.4056E+01    5.000000E+09  0.02000  2.596E-05    0   0.5353   age161_m62            0.0000     1.7011E+01     4.7340   1.2602   107.1043
 29     58.8140     7.5405E+01    7.5003E+01    1.100000E+10  0.02000  1.169E-05    0   0.5103   age185_m62            0.0000     4.5427E+01     7.3477   0.8158   108.9641
 30      4.1929     6.4846E+00    6.3793E+00    1.300000E+10  0.02000  9.691E-06    0   0.5047   age193_m62            0.0000     5.6741E+01     7.8888   0.7585   109.2553
 31      0.0000     0.0000E+00    0.0000E+00    1.000000E+06  0.05000  2.651E-02    0   0.9998   age020_m72            0.0000     3.8396E+03    51.2897   4.0000   103.0850
 32      0.4590     1.4282E-04    2.6662E-04    3.160000E+06  0.05000  4.817E-02    0   0.9577   age045_m72            0.0000     2.9725E+03    45.5061   4.0000   107.1493
 33      0.0000     0.0000E+00    0.0000E+00    5.010000E+06  0.05000  3.101E-02    0   0.9147   age055_m72            0.0000     2.2012E+03    39.0294   4.0000   108.0566
 34      0.0000     0.0000E+00    0.0000E+00    1.000000E+07  0.05000  8.954E-03    0   0.8524   age070_m72            0.0000     2.5813E+03    42.6784   4.0000   108.4101
 35      0.0000     0.0000E+00    0.0000E+00    2.512000E+07  0.05000  4.207E-03    0   0.7902   age090_m72            0.0000     1.5114E+03    31.8087   4.0000   110.6961
 36      0.0000     0.0000E+00    0.0000E+00    4.000000E+07  0.05000  3.198E-03    0   0.7618   age104_m72            0.0000     8.8009E+02    18.7818   4.0000   111.4788
 37      0.0000     0.0000E+00    0.0000E+00    1.015200E+08  0.05000  1.716E-03    0   0.7092   age116_m72            0.0000     8.7245E+02    18.6422   4.0000   111.2148
 38      0.0000     0.0000E+00    0.0000E+00    2.861200E+08  0.05000  7.047E-04    0   0.6618   age125_m72            0.0000     8.4017E+02    19.7442   3.4797   111.2982
 39      0.0000     0.0000E+00    0.0000E+00    6.405400E+08  0.05000  2.633E-04    0   0.6253   age132_m72            0.0000     4.3074E+02    13.5578   2.5410   114.1978
 40      0.0000     0.0000E+00    0.0000E+00    9.047900E+08  0.05000  1.484E-04    0   0.6088   age135_m72            0.0000     1.6477E+02     8.4943   1.9979   109.9428
 41      0.0000     0.0000E+00    0.0000E+00    1.434000E+09  0.05000  7.827E-05    0   0.5847   age139_m72            0.0000     4.7044E+01     5.5163   1.5224   107.4200
 42      0.0000     0.0000E+00    0.0000E+00    2.500000E+09  0.05000  3.759E-05    0   0.5583   age150_m72            0.0000     2.0595E+01     5.2006   1.1447   107.2088
 43      0.0000     0.0000E+00    0.0000E+00    5.000000E+09  0.05000  1.548E-05    0   0.5320   age161_m72            0.0000     6.0681E+01     7.5928   0.6879   106.7948
 44      0.2984     6.8471E-01    6.7666E-01    1.100000E+10  0.05000  6.532E-06    0   0.5070   age185_m72            0.0000     1.4924E+02    10.6452   0.1798   107.3348
 45      0.0466     1.3125E-01    1.2837E-01    1.300000E+10  0.05000  5.316E-06    0   0.5018   age193_m72            0.0000     1.9262E+02    11.8525   0.0087   107.8266


## Synthesis Results - Average & Chains ##

# j      x_j: min, <> & last-chain-values for 1 ...  7 chains
  1      5.2549      5.2365      5.1833      5.1531      5.6778      5.1348      5.3975      5.1765      5.2220
  2      0.0000      0.0659      0.0000      0.1100      0.1080      0.2119      0.0101      0.0000      0.3566
  3      0.0000      0.0536      0.3159      0.0000      0.0000      0.0632      0.0166      0.0000      0.0000
  4      1.9983      0.4333      0.6097      0.6971      0.3601      0.4666      0.5083      0.5902      0.6289
  5      0.0000      0.0511      0.0000      0.0952      0.2042      0.1519      0.0000      0.1945      0.0000
  6      0.0000      0.0530      0.0000      0.0000      0.0000      0.3827      0.0000      0.0000      0.0934
  7      0.0000      0.0584      0.0008      0.0852      0.0000      0.0000      0.0000      0.0000      0.0000
  8      0.0000      0.0301      0.0000      0.1827      0.0000      0.0000      0.0000      0.0000      0.0000
  9      0.0000      0.0514      0.0000      0.0000      0.0000      0.0100      0.0866      0.0000      0.0000
 10      0.0000      0.1039      0.6201      0.0000      0.0000      0.4175      0.0810      0.0000      0.0355
 11      0.0000      0.1331      0.0739      0.2789      0.5584      0.0000      0.0583      0.0000      0.1888
 12      2.6806      0.2007      0.5630      0.3894      0.0000      0.4565      0.3820      0.0000      0.3465
 13      0.0000      0.3006      0.0000      0.1531      0.8953      0.4408      0.0000      0.5624      1.3103
 14      3.4837      3.7769      3.6819      3.9148      5.1507      4.4586      3.9693      3.9353      3.4253
 15      1.2544      0.5822      0.7313      0.3616      0.5799      0.2456      0.7293      0.0000      0.2556
 16      2.1703      2.2348      2.1370      2.3375      2.1725      2.2620      2.2129      2.3753      2.2442
 17      0.0000      0.0367      0.0000      0.0000      0.0095      0.0000      0.0000      0.0000      0.0000
 18      0.0000      0.0759      0.2515      0.3480      0.0000      0.0000      0.0000      0.1326      0.0000
 19      0.0000      0.0546      0.0000      0.0000      0.0000      0.1082      0.1748      0.0000      0.0000
 20      0.0000      0.0191      0.0000      0.0000      0.0000      0.0095      0.0000      0.0000      0.0000
 21      0.0000      0.0422      0.0000      0.0000      0.0000      0.0000      0.0000      0.0000      0.0000
 22      0.0000      0.0384      0.2579      0.0000      0.1294      0.0000      0.0000      0.0000      0.1437
 23      0.0000      0.0320      0.0000      0.0057      0.0000      0.0000      0.0000      0.0000      0.0000
 24      0.0000      0.0526      0.0000      0.0597      0.2441      0.0000      0.0000      0.1558      0.0000
 25      0.0000      0.0844      0.1997      0.0000      0.4050      0.0000      0.0000      0.4811      0.0530
 26      0.2847      0.1155      0.0000      0.6554      0.0000      0.0000      0.0000      0.4265      0.0000
 27      0.0000      0.1961      0.0000      0.0000      0.0382      0.0000      0.0000      0.0000      0.0675
 28     23.3340     29.1641     27.6178     27.1020     24.9088     28.9814     27.9694     26.9205     28.2920
 29     58.8140     56.4628     57.3644     57.8316     58.2104     55.6888     56.9925     58.3240     56.5425
 30      4.1929      1.6764      2.6047      1.7470      1.6951      2.9884      2.3900      2.1741      3.3077
 31      0.0000      0.1623      0.3654      0.2497      0.0000      0.1716      0.1018      0.1156      0.1233
 32      0.4590      0.7021      0.6197      0.6656      0.7882      0.6524      0.8982      0.5368      0.8245
 33      0.0000      0.0807      0.0000      0.0000      0.0000      0.0000      0.0594      0.1391      0.0238
 34      0.0000      0.0315      0.0000      0.0132      0.0000      0.0000      0.0839      0.1505      0.0000
 35      0.0000      0.0407      0.0000      0.0000      0.0000      0.0000      0.0000      0.2013      0.0000
 36      0.0000      0.0341      0.0000      0.0000      0.0000      0.0000      0.0000      0.2086      0.0000
 37      0.0000      0.0292      0.0280      0.0000      0.0000      0.0000      0.0398      0.0000      0.0000
 38      0.0000      0.0336      0.0000      0.0000      0.0000      0.0000      0.1150      0.0000      0.0787
 39      0.0000      0.0573      0.0000      0.0000      0.0000      0.0000      0.5604      0.1284      0.0000
 40      0.0000      0.1003      0.1900      0.3080      0.2880      0.0000      0.3935      0.0889      0.0000
 41      0.0000      0.1554      0.0000      0.0000      0.0000      0.0000      0.0000      0.0000      0.0000
 42      0.0000      0.1544      0.0000      0.0000      0.0000      0.1455      0.0000      0.0000      0.0000
 43      0.0000      0.3026      0.0000      0.1768      0.5095      0.0464      0.2866      0.2778      0.0000
 44      0.2984      0.7910      0.5870      0.9593      1.3262      0.4286      0.7643      1.0942      0.7172
 45      0.0466      0.2722      0.3821      0.4291      0.0000      0.3807      0.0534      0.0000      0.0905

# j      m_j: min, <> & last-chain-values for 1 ...  7 chains
  1  1.3781E-02  1.3972E-02  1.3686E-02  1.3591E-02  1.4945E-02  1.3665E-02  1.4342E-02  1.3631E-02  1.3824E-02
  2  0.0000E+00  4.8118E-05  0.0000E+00  7.9366E-05  7.7730E-05  1.5422E-04  7.3690E-06  0.0000E+00  2.5819E-04
  3  0.0000E+00  5.9636E-05  3.4796E-04  0.0000E+00  0.0000E+00  7.0141E-05  1.8352E-05  0.0000E+00  0.0000E+00
  4  4.0704E-03  8.9808E-04  1.2504E-03  1.4281E-03  7.3617E-04  9.6439E-04  1.0490E-03  1.2071E-03  1.2932E-03
  5  0.0000E+00  2.4487E-04  0.0000E+00  4.5082E-04  9.6521E-04  7.2579E-04  0.0000E+00  9.2006E-04  0.0000E+00
  6  0.0000E+00  3.5302E-04  0.0000E+00  0.0000E+00  0.0000E+00  2.5412E-03  0.0000E+00  0.0000E+00  6.1725E-04
  7  0.0000E+00  5.5146E-04  7.4342E-06  7.9585E-04  0.0000E+00  0.0000E+00  0.0000E+00  0.0000E+00  0.0000E+00
  8  0.0000E+00  5.4836E-04  0.0000E+00  3.2895E-03  0.0000E+00  0.0000E+00  0.0000E+00  0.0000E+00  0.0000E+00
  9  0.0000E+00  1.8635E-03  0.0000E+00  0.0000E+00  0.0000E+00  3.6205E-04  3.1276E-03  0.0000E+00  0.0000E+00
 10  0.0000E+00  5.2608E-03  3.1080E-02  0.0000E+00  0.0000E+00  2.1091E-02  4.0839E-03  0.0000E+00  1.7850E-03
 11  0.0000E+00  1.1838E-02  6.5079E-03  2.4519E-02  4.8999E-02  0.0000E+00  5.1664E-03  0.0000E+00  1.6667E-02
 12  4.3575E-01  3.3193E-02  9.2146E-02  6.3670E-02  0.0000E+00  7.5309E-02  6.2919E-02  0.0000E+00  5.6855E-02
 13  0.0000E+00  9.9005E-02  0.0000E+00  4.9837E-02  2.9091E-01  1.4481E-01  0.0000E+00  1.8281E-01  4.2818E-01
 14  2.2985E+00  2.5355E+00  2.4460E+00  2.5979E+00  3.4111E+00  2.9853E+00  2.6536E+00  2.6071E+00  2.2814E+00
 15  9.5887E-01  4.5278E-01  5.6285E-01  2.7802E-01  4.4493E-01  1.9054E-01  5.6486E-01  0.0000E+00  1.9722E-01
 16  3.1877E-03  3.3397E-03  3.1604E-03  3.4530E-03  3.2028E-03  3.3715E-03  3.2933E-03  3.5030E-03  3.3275E-03
 17  0.0000E+00  2.8505E-05  0.0000E+00  0.0000E+00  7.2517E-06  0.0000E+00  0.0000E+00  0.0000E+00  0.0000E+00
 18  0.0000E+00  6.5331E-05  2.1417E-04  2.9598E-04  0.0000E+00  0.0000E+00  0.0000E+00  1.1264E-04  0.0000E+00
 19  0.0000E+00  1.4043E-04  0.0000E+00  0.0000E+00  0.0000E+00  2.7769E-04  4.4794E-04  0.0000E+00  0.0000E+00
 20  0.0000E+00  1.0917E-04  0.0000E+00  0.0000E+00  0.0000E+00  5.4381E-05  0.0000E+00  0.0000E+00  0.0000E+00
 21  0.0000E+00  2.9026E-04  0.0000E+00  0.0000E+00  0.0000E+00  0.0000E+00  0.0000E+00  0.0000E+00  0.0000E+00
 22  0.0000E+00  4.3910E-04  2.9169E-03  0.0000E+00  1.4591E-03  0.0000E+00  0.0000E+00  0.0000E+00  1.6300E-03
 23  0.0000E+00  7.1815E-04  0.0000E+00  1.2632E-04  0.0000E+00  0.0000E+00  0.0000E+00  0.0000E+00  0.0000E+00
 24  0.0000E+00  2.7047E-03  0.0000E+00  3.0302E-03  1.2373E-02  0.0000E+00  0.0000E+00  7.9003E-03  0.0000E+00
 25  0.0000E+00  6.6749E-03  1.5632E-02  0.0000E+00  3.1603E-02  0.0000E+00  0.0000E+00  3.7553E-02  4.1613E-03
 26  4.1766E-02  1.7233E-02  0.0000E+00  9.6700E-02  0.0000E+00  0.0000E+00  0.0000E+00  6.2816E-02  0.0000E+00
 27  0.0000E+00  5.9413E-02  0.0000E+00  0.0000E+00  1.1410E-02  0.0000E+00  0.0000E+00  0.0000E+00  2.0273E-02
 28  1.4056E+01  1.7875E+01  1.6751E+01  1.6420E+01  1.5061E+01  1.7716E+01  1.7072E+01  1.6283E+01  1.7205E+01
 29  7.5003E+01  7.3263E+01  7.3658E+01  7.4175E+01  7.4511E+01  7.2067E+01  7.3642E+01  7.4683E+01  7.2791E+01
 30  6.3793E+00  2.5952E+00  3.9901E+00  2.6733E+00  2.5887E+00  4.6138E+00  3.6844E+00  3.3213E+00  5.0802E+00
 31  0.0000E+00  1.8194E-04  4.0536E-04  2.7669E-04  0.0000E+00  1.9181E-04  1.1364E-04  1.2793E-04  1.3718E-04
 32  2.6662E-04  4.1494E-04  3.6243E-04  3.8879E-04  4.5952E-04  3.8451E-04  5.2861E-04  3.1308E-04  4.8345E-04
 33  0.0000E+00  7.0788E-05  0.0000E+00  0.0000E+00  1.9207E-08  0.0000E+00  5.1888E-05  1.2034E-04  2.0688E-05
 34  0.0000E+00  8.9036E-05  0.0000E+00  3.6818E-05  0.0000E+00  0.0000E+00  2.3638E-04  4.2030E-04  0.0000E+00
 35  0.0000E+00  2.2747E-04  0.0000E+00  0.0000E+00  0.0000E+00  0.0000E+00  0.0000E+00  1.1090E-03  0.0000E+00
 36  0.0000E+00  2.4168E-04  0.0000E+00  0.0000E+00  0.0000E+00  0.0000E+00  0.0000E+00  1.4573E-03  0.0000E+00
 37  0.0000E+00  3.5823E-04  3.4026E-04  0.0000E+00  0.0000E+00  0.0000E+00  4.8713E-04  0.0000E+00  0.0000E+00
 38  0.0000E+00  9.3736E-04  0.0000E+00  0.0000E+00  0.0000E+00  0.0000E+00  3.1967E-03  0.0000E+00  2.1804E-03
 39  0.0000E+00  4.0451E-03  0.0000E+00  0.0000E+00  0.0000E+00  0.0000E+00  3.9392E-02  8.9469E-03  0.0000E+00
 40  0.0000E+00  1.2230E-02  2.2925E-02  3.7126E-02  3.4650E-02  0.0000E+00  4.7787E-02  1.0696E-02  0.0000E+00
 41  0.0000E+00  3.4515E-02  0.0000E+00  0.0000E+00  0.0000E+00  0.0000E+00  0.0000E+00  0.0000E+00  0.0000E+00
 42  0.0000E+00  6.8172E-02  0.0000E+00  0.0000E+00  0.0000E+00  6.4086E-02  0.0000E+00  0.0000E+00  0.0000E+00
 43  0.0000E+00  3.0912E-01  0.0000E+00  1.7858E-01  5.1346E-01  4.7232E-02  2.9158E-01  2.8000E-01  0.0000E+00
 44  6.7666E-01  1.8249E+00  1.3402E+00  2.1878E+00  3.0183E+00  9.8630E-01  1.7560E+00  2.4913E+00  1.6417E+00
 45  1.2837E-01  7.6372E-01  1.0611E+00  1.1902E+00  0.0000E+00  1.0652E+00  1.4930E-01  0.0000E+00  2.5194E-01

# AV, chi2 & Mass for <> & i_chain = 1 ...  7 solutions
AV       1.3887      1.3800      1.3843      1.3827      1.3827      1.3834      1.3840      1.3792      1.3801
chi2 2.7351E+00  2.7729E+00  2.7598E+00  2.7579E+00  2.7581E+00  2.7614E+00  2.7628E+00  2.7674E+00  2.7653E+00
Mass 7.2658E-10  7.0583E-10  7.1734E-10  7.1659E-10  7.1801E-10  7.1088E-10  7.1256E-10  7.1444E-10  7.1147E-10
  -5.37                                  [v0_min (km/s) before EX0s...]
 108.83                                  [vd_min (km/s) before EX0s...]


## Synthetic spectrum (Best Model) ##l_obs f_obs f_syn wei
 3070    [Nl_obs]
 3359.00    0.27550   0.37644   -1.000
 3360.00    0.29354   0.35691   -1.000
 3361.00    0.26740   0.36151   -1.000
 3362.00    0.30693   0.38631   -1.000
 3363.00    0.25897   0.41710   -1.000
 3364.00    0.27761   0.43752   -1.000
 3365.00    0.30928   0.43841   -1.000
 3366.00    0.34674   0.42231   -1.000
 3367.00    0.30956   0.39928   -1.000
 3368.00    0.28230   0.37858   -1.000
 3369.00    0.30957   0.36467   -1.000
 3370.00    0.32977   0.35823   63.204
 3371.00    0.27338   0.35963   -1.000
 3372.00    0.29368   0.37067   -1.000
 3373.00    0.31489   0.39196   -1.000
 3374.00    0.31023   0.41964   -1.000
 3375.00    0.31749   0.44519   -1.000
 3376.00    0.33289   0.45851   -1.000
 3377.00    0.33455   0.45396   -1.000
 3378.00    0.35267   0.43574   -1.000
 3379.00    0.32982   0.41624   -1.000
 3380.00    0.33127   0.40731   -1.000
 3381.00    0.32776   0.41245   -1.000
 3382.00    0.36483   0.42671   47.125
 3383.00    0.39938   0.44297   44.926
 3384.00    0.39081   0.45694   45.208
 3385.00    0.37773   0.46688   -1.000
 3386.00    0.36870   0.47190   -1.000
 3387.00    0.36469   0.47243   -1.000
 3388.00    0.33830   0.46985   -1.000
 3389.00    0.35714   0.46412   -1.000
 3390.00    0.36667   0.45371   -1.000
 3391.00    0.37011   0.43983   43.890
 3392.00    0.36762   0.42897   42.441
 3393.00    0.34967   0.42859   -1.000
 3394.00    0.35323   0.44077   -1.000
 3395.00    0.38791   0.46099   37.224
 3396.00    0.41060   0.48256   36.047
 3397.00    0.41419   0.50119   34.764
 3398.00    0.42279   0.51455   -1.000
 3399.00    0.46155   0.52057   34.810
 3400.00    0.44853   0.51812   36.269
 3401.00    0.45688   0.50822   36.644
 3402.00    0.45648   0.49421   37.297
 3403.00    0.44676   0.48021   37.973
 3404.00    0.44827   0.46855   38.550
 3405.00    0.45155   0.45909   38.758
 3406.00    0.38486   0.45141   39.354
 3407.00    0.39290   0.44675   39.518
 3408.00    0.41045   0.44697   39.172
 3409.00    0.42197   0.45129   38.045
 3410.00    0.42469   0.45467   37.941
 3411.00    0.44182   0.45071   39.545
 3412.00    0.45105   0.43811   40.175
 3413.00    0.43666   0.42332   39.980
 3414.00    0.41843   0.41609   38.893
 3415.00    0.42473   0.42241   37.188
 3416.00    0.42478   0.44102   35.411
 3417.00    0.41714   0.46560   33.779
 3418.00    0.42053   0.48875   33.660
 3419.00    0.43882   0.50425   33.467
 3420.00    0.48967   0.50780   33.757
 3421.00    0.49874   0.49938   34.744
 3422.00    0.48697   0.48509   35.342
 3423.00    0.47344   0.47350   34.306
 3424.00    0.47207   0.46899   33.476
 3425.00    0.47764   0.47102   36.634
 3426.00    0.48308   0.47832  294.398
 3427.00    0.48673   0.49083  294.398
 3428.00    0.47054   0.50658   -1.000
 3429.00    0.51627   0.51824  294.398
 3430.00    0.51959   0.51751  171.223
 3431.00    0.50360   0.50420   33.441
 3432.00    0.46630   0.48779   36.689
 3433.00    0.45774   0.47890   -1.000
 3434.00    0.47183   0.47931  167.853
 3435.00    0.45818   0.48135   33.386
 3436.00    0.48435   0.47593   35.015
 3437.00    0.47576   0.45870   37.203
 3438.00    0.46808   0.43076   40.028
 3439.00    0.45463   0.39778   41.453
 3440.00    0.41705   0.36823   41.477
 3441.00    0.38871   0.35014   41.127
 3442.00    0.37622   0.34747   39.402
 3443.00    0.39156   0.35803   37.233
 3444.00    0.37476   0.37593   35.260
 3445.00    0.38949   0.39651   38.012
 3446.00    0.42864   0.41832   -1.000
 3447.00    0.45490   0.44129   -1.000
 3448.00    0.46902   0.46349  294.398
 3449.00    0.46270   0.47937   -1.000
 3450.00    0.46661   0.48344   -1.000
 3451.00    0.48544   0.47716   -1.000
 3452.00    0.48000   0.46924   -1.000
 3453.00    0.46408   0.46746  294.398
 3454.00    0.49443   0.47134   -1.000
 3455.00    0.49815   0.47312   -1.000
 3456.00    0.51382   0.46579   -1.000
 3457.00    0.48974   0.44922   33.377
 3458.00    0.47829   0.42939   33.751
 3459.00    0.45278   0.41393   37.649
 3460.00    0.48296   0.40819   -1.000
 3461.00    0.47684   0.41422   -1.000
 3462.00    0.45434   0.42929   -1.000
 3463.00    0.50630   0.44533   -1.000
 3464.00    0.52553   0.45466   -1.000
 3465.00    0.49362   0.45750   -1.000
 3466.00    0.49328   0.46040   -1.000
 3467.00    0.49873   0.46847   -1.000
 3468.00    0.48617   0.48057  281.965
 3469.00    0.52763   0.49058   -1.000
 3470.00    0.53372   0.49197   -1.000
 3471.00    0.52438   0.48133   -1.000
 3472.00    0.50893   0.45980   -1.000
 3473.00    0.50895   0.43288   33.761
 3474.00    0.48471   0.40905   34.773
 3475.00    0.44524   0.39685   38.613
 3476.00    0.44233   0.40088   -1.000
 3477.00    0.45493   0.41831   -1.000
 3478.00    0.46049   0.44026   -1.000
 3479.00    0.50384   0.45743   -1.000
 3480.00    0.51409   0.46476   -1.000
 3481.00    0.50259   0.46251   -1.000
 3482.00    0.50706   0.45526   -1.000
 3483.00    0.50110   0.45020   -1.000
 3484.00    0.49906   0.45337   -1.000
 3485.00    0.49033   0.46458   -1.000
 3486.00    0.50687   0.47575   -1.000
 3487.00    0.53394   0.47656   -1.000
 3488.00    0.51971   0.46301   -1.000
 3489.00    0.47642   0.44141   -1.000
 3490.00    0.47731   0.42350   -1.000
 3491.00    0.45374   0.41750   -1.000
 3492.00    0.46634   0.42275   -1.000
 3493.00    0.49758   0.43177   -1.000
 3494.00    0.47413   0.43688   -1.000
 3495.00    0.45619   0.43663   -1.000
 3496.00    0.46180   0.43746   -1.000
 3497.00    0.47127   0.44784   -1.000
 3498.00    0.48150   0.46912   -1.000
 3499.00    0.48752   0.49360  262.633
 3500.00    0.53561   0.51282   -1.000
 3501.00    0.54009   0.52506   -1.000
 3502.00    0.53808   0.53203  266.098
 3503.00    0.57850   0.53333   -1.000
 3504.00    0.56064   0.52817   -1.000
 3505.00    0.53172   0.51905   -1.000
 3506.00    0.52802   0.51035   -1.000
 3507.00    0.53906   0.50343   -1.000
 3508.00    0.54208   0.49564   -1.000
 3509.00    0.52413   0.48455   -1.000
 3510.00    0.50975   0.47070   -1.000
 3511.00    0.51781   0.45604   -1.000
 3512.00    0.50817   0.44311   -1.000
 3513.00    0.48153   0.43638   -1.000
 3514.00    0.48445   0.44171   -1.000
 3515.00    0.44810   0.46151   -1.000
 3516.00    0.47202   0.48957   -1.000
 3517.00    0.52345   0.51303   -1.000
 3518.00    0.56405   0.52081   -1.000
 3519.00    0.55105   0.51023   -1.000
 3520.00    0.53628   0.48666   -1.000
 3521.00    0.51461   0.45840   -1.000
 3522.00    0.51232   0.43165   33.497
 3523.00    0.48785   0.40962   34.480
 3524.00    0.45574   0.39605   40.040
 3525.00    0.42886   0.39637   -1.000
 3526.00    0.44789   0.41314   -1.000
 3527.00    0.45373   0.44192   -1.000
 3528.00    0.47695   0.47231  277.565
 3529.00    0.50711   0.49365   -1.000
 3530.00    0.52991   0.50188   -1.000
 3531.00    0.52352   0.50188   -1.000
 3532.00    0.49939   0.50263  275.433
 3533.00    0.50221   0.50911  269.824
 3534.00    0.53228   0.51935   -1.000
 3535.00    0.54714   0.52871   -1.000
 3536.00    0.55204   0.53547   -1.000
 3537.00    0.50382   0.54133   -1.000
 3538.00    0.50940   0.54647   -1.000
 3539.00    0.56506   0.54791   -1.000
 3540.00    0.53768   0.54426  270.992
 3541.00    0.53588   0.53935  268.787
 3542.00    0.53591   0.53899  265.243
 3543.00    0.51320   0.54431   -1.000
 3544.00    0.53849   0.55051   -1.000
 3545.00    0.52915   0.55236   -1.000
 3546.00    0.55375   0.54941  276.760
 3547.00    0.54729   0.54542  275.902
 3548.00    0.50661   0.54333   -1.000
 3549.00    0.50975   0.54179   -1.000
 3550.00    0.52179   0.53688   -1.000
 3551.00    0.49219   0.52646   -1.000
 3552.00    0.48951   0.51299   -1.000
 3553.00    0.49987   0.50225  294.398
 3554.00    0.48629   0.49853   -1.000
 3555.00    0.45562   0.50070   -1.000
 3556.00    0.45677   0.50369   -1.000
 3557.00    0.49284   0.50402   -1.000
 3558.00    0.47767   0.50312   -1.000
 3559.00    0.47538   0.50539   -1.000
 3560.00    0.49170   0.51243   -1.000
 3561.00    0.50485   0.51919   -1.000
 3562.00    0.50608   0.51605  123.078
 3563.00    0.49524   0.49649   33.897
 3564.00    0.48950   0.46453   34.956
 3565.00    0.46887   0.43348   34.575
 3566.00    0.44919   0.41437   34.638
 3567.00    0.42200   0.40623   35.737
 3568.00    0.41676   0.40086   36.042
 3569.00    0.42987   0.39488   34.797
 3570.00    0.41774   0.39285   40.385
 3571.00    0.41980   0.39999   -1.000
 3572.00    0.43397   0.41518   -1.000
 3573.00    0.46003   0.43213   -1.000
 3574.00    0.45793   0.44512   -1.000
 3575.00    0.44502   0.45086  294.398
 3576.00    0.45208   0.44705  124.820
 3577.00    0.48092   0.43230   35.286
 3578.00    0.45233   0.40796   37.951
 3579.00    0.40783   0.37965   39.665
 3580.00    0.38282   0.35611   39.885
 3581.00    0.36680   0.34371   40.214
 3582.00    0.36715   0.34156   41.303
 3583.00    0.38359   0.34299   42.519
 3584.00    0.39498   0.34258   42.536
 3585.00    0.36659   0.34132   40.332
 3586.00    0.36848   0.34479   38.221
 3587.00    0.37483   0.35790   36.030
 3588.00    0.39485   0.38154   40.719
 3589.00    0.42055   0.41221   -1.000
 3590.00    0.42408   0.44302   -1.000
 3591.00    0.44005   0.46689   -1.000
 3592.00    0.47035   0.48158  289.809
 3593.00    0.46720   0.49168   -1.000
 3594.00    0.45978   0.50412   -1.000
 3595.00    0.48189   0.52149   -1.000
 3596.00    0.50600   0.54073   -1.000
 3597.00    0.53203   0.55747   -1.000
 3598.00    0.56332   0.56924  255.397
 3599.00    0.56741   0.57338  268.297
 3600.00    0.56068   0.56579  282.915
 3601.00    0.56575   0.54528   -1.000
 3602.00    0.52148   0.51715  294.398
 3603.00    0.49704   0.49034  294.398
 3604.00    0.48987   0.47117   -1.000
 3605.00    0.50091   0.45935   -1.000
 3606.00    0.47798   0.44970   -1.000
 3607.00    0.45233   0.43858   -1.000
 3608.00    0.45055   0.42902   -1.000
 3609.00    0.44934   0.42826   -1.000
 3610.00    0.44391   0.43994  292.306
 3611.00    0.48901   0.45988   -1.000
 3612.00    0.50872   0.48084   -1.000
 3613.00    0.50832   0.49868   -1.000
 3614.00    0.51072   0.51094  276.971
 3615.00    0.52068   0.51196   -1.000
 3616.00    0.51662   0.49603  111.403
 3617.00    0.48623   0.46665   41.172
 3618.00    0.45828   0.43968   -1.000
 3619.00    0.43059   0.43288  280.015
 3620.00    0.46173   0.45131   -1.000
 3621.00    0.51510   0.48503   -1.000
 3622.00    0.51984   0.52079  255.975
 3623.00    0.53174   0.55252   -1.000
 3624.00    0.55699   0.58215   -1.000
 3625.00    0.57353   0.61106   -1.000
 3626.00    0.59368   0.63340   -1.000
 3627.00    0.63993   0.63800  260.327
 3628.00    0.62924   0.61689   -1.000
 3629.00    0.59113   0.57299   -1.000
 3630.00    0.54023   0.52181   -1.000
 3631.00    0.49147   0.48343  294.398
 3632.00    0.47689   0.46971  289.614
 3633.00    0.47947   0.47822  281.979
 3634.00    0.49490   0.49849  270.669
 3635.00    0.49558   0.52124   -1.000
 3636.00    0.53762   0.54382  247.067
 3637.00    0.57293   0.56746  240.686
 3638.00    0.57589   0.59117   -1.000
 3639.00    0.60113   0.60914  248.662
 3640.00    0.61596   0.61468  258.287
 3641.00    0.61524   0.60544  270.954
 3642.00    0.56938   0.58512   -1.000
 3643.00    0.53766   0.56037   -1.000
 3644.00    0.52020   0.53604   -1.000
 3645.00    0.50988   0.51390  291.238
 3646.00    0.50678   0.49531   -1.000
 3647.00    0.52462   0.48384   -1.000
 3648.00    0.50727   0.48492   -1.000
 3649.00    0.49678   0.50184  255.835
 3650.00    0.51658   0.53208   -1.000
 3651.00    0.54740   0.56804   -1.000
 3652.00    0.57370   0.60053   -1.000
 3653.00    0.59280   0.62413   -1.000
 3654.00    0.61107   0.63983   -1.000
 3655.00    0.61146   0.65307   -1.000
 3656.00    0.61422   0.66755   -1.000
 3657.00    0.63566   0.68241   -1.000
 3658.00    0.64789   0.69363   -1.000
 3659.00    0.65315   0.69749   -1.000
 3660.00    0.64976   0.69273   -1.000
 3661.00    0.65073   0.68062   -1.000
 3662.00    0.63464   0.66552   -1.000
 3663.00    0.61180   0.65296   -1.000
 3664.00    0.60561   0.64588   -1.000
 3665.00    0.61660   0.64222   -1.000
 3666.00    0.61895   0.63718   -1.000
 3667.00    0.61620   0.62795   -1.000
 3668.00    0.60601   0.61775   -1.000
 3669.00    0.59452   0.61406   -1.000
 3670.00    0.59389   0.62164   -1.000
 3671.00    0.60941   0.63729   -1.000
 3672.00    0.60779   0.65223   -1.000
 3673.00    0.63683   0.65930   -1.000
 3674.00    0.65774   0.65586  243.691
 3675.00    0.63221   0.64203  251.240
 3676.00    0.61744   0.61962  258.551
 3677.00    0.60926   0.59279   -1.000
 3678.00    0.59302   0.56856   -1.000
 3679.00    0.55456   0.55466  253.604
 3680.00    0.54445   0.55528   -1.000
 3681.00    0.56111   0.56727  247.497
 3682.00    0.58148   0.58090  254.755
 3683.00    0.58194   0.58545  265.334
 3684.00    0.58468   0.57558  274.658
 3685.00    0.56456   0.55469  276.063
 3686.00    0.52666   0.53463  265.142
 3687.00    0.51548   0.52917   -1.000
 3688.00    0.51601   0.54547   -1.000
 3689.00    0.54659   0.57886   -1.000
 3690.00    0.58932   0.61566   -1.000
 3691.00    0.62800   0.64041  237.604
 3692.00    0.64939   0.64587  239.637
 3693.00    0.63455   0.63713  238.218
 3694.00    0.62546   0.62655  235.857
 3695.00    0.60585   0.62398   -1.000
 3696.00    0.60719   0.63285   -1.000
 3697.00    0.61651   0.65106   -1.000
 3698.00    0.62658   0.67167   -1.000
 3699.00    0.66787   0.68524   -1.000
 3700.00    0.70009   0.68342   -1.000
 3701.00    0.67160   0.66218  260.643
 3702.00    0.62860   0.62259  282.759
 3703.00    0.59243   0.57225   -1.000
 3704.00    0.54468   0.52365   -1.000
 3705.00    0.50836   0.48860   -1.000
 3706.00    0.49282   0.47209   -1.000
 3707.00    0.49239   0.47284   -1.000
 3708.00    0.51493   0.48744   -1.000
 3709.00    0.52513   0.51476  242.577
 3710.00    0.53887   0.55317   -1.000
 3711.00    0.58857   0.59726  219.902
 3712.00    0.63297   0.63817  215.889
 3713.00    0.67656   0.66646  217.062
 3714.00    0.68401   0.67499  224.055
 3715.00    0.66315   0.66151  237.280
 3716.00    0.66088   0.62752   -1.000
 3717.00    0.61303   0.57660   -1.000
 3718.00    0.53225   0.51618   95.357
 3719.00    0.48505   0.45948   45.125
 3720.00    0.45879   0.42246   -1.000
 3721.00    0.42693   0.41658  270.310
 3722.00    0.43969   0.44163  247.497
 3723.00    0.49501   0.48428  240.872
 3724.00    0.56568   0.52560   -1.000
 3725.00    0.60427   0.55075   -1.000
 3726.00    0.60105   0.55696   -1.000
 3727.00    0.57143   0.55295   -1.000
 3728.00    0.54808   0.54786  254.108
 3729.00    0.57695   0.54086   -1.000
 3730.00    0.57155   0.52330   -1.000
 3731.00    0.53738   0.48946   34.267
 3732.00    0.50575   0.44319   37.621
 3733.00    0.46598   0.39675   38.013
 3734.00    0.41579   0.36388   35.559
 3735.00    0.37572   0.35382   44.678
 3736.00    0.37876   0.36968  283.785
 3737.00    0.39778   0.40722  258.992
 3738.00    0.44799   0.45611  248.116
 3739.00    0.52119   0.50214   -1.000
 3740.00    0.57743   0.53116   -1.000
 3741.00    0.58351   0.53480   -1.000
 3742.00    0.56317   0.51525   -1.000
 3743.00    0.50773   0.48259   -1.000
 3744.00    0.48053   0.44839   -1.000
 3745.00    0.46002   0.41941   34.291
 3746.00    0.43799   0.39667   35.974
 3747.00    0.43783   0.37992   -1.000
 3748.00    0.41953   0.37411   -1.000
 3749.00    0.40064   0.38706   -1.000
 3750.00    0.43988   0.42185   -1.000
 3751.00    0.48685   0.47246   -1.000
 3752.00    0.51243   0.52669   -1.000
 3753.00    0.56936   0.57212  224.667
 3754.00    0.62609   0.59791   -1.000
 3755.00    0.64098   0.59559   -1.000
 3756.00    0.61463   0.56640   -1.000
 3757.00    0.55555   0.52573   -1.000
 3758.00    0.50593   0.49438   -1.000
 3759.00    0.49944   0.48405   -1.000
 3760.00    0.51398   0.49068   -1.000
 3761.00    0.52916   0.50157   -1.000
 3762.00    0.54350   0.50767   -1.000
 3763.00    0.54554   0.50779   -1.000
 3764.00    0.52735   0.50483   -1.000
 3765.00    0.54391   0.50124   -1.000
 3766.00    0.54723   0.49950   -1.000
 3767.00    0.52337   0.50271   -1.000
 3768.00    0.52571   0.51250   -1.000
 3769.00    0.56738   0.52818   -1.000
 3770.00    0.57331   0.54838   -1.000
 3771.00    0.58601   0.57110   -1.000
 3772.00    0.60941   0.59252   -1.000
 3773.00    0.63736   0.60840   -1.000
 3774.00    0.63955   0.61731   -1.000
 3775.00    0.62996   0.62180  227.668
 3776.00    0.63828   0.62643  222.952
 3777.00    0.61691   0.63436   -1.000
 3778.00    0.62329   0.64617   -1.000
 3779.00    0.64471   0.66015   -1.000
 3780.00    0.67022   0.67328  210.122
 3781.00    0.69268   0.68257  211.793
 3782.00    0.68204   0.68494  218.818
 3783.00    0.69100   0.67653   -1.000
 3784.00    0.68147   0.65426   -1.000
 3785.00    0.64024   0.61972   -1.000
 3786.00    0.58553   0.58093  260.739
 3787.00    0.53598   0.54816  258.980
 3788.00    0.52300   0.52858  254.929
 3789.00    0.51332   0.52345  254.496
 3790.00    0.53829   0.52733   -1.000
 3791.00    0.56062   0.53082   -1.000
 3792.00    0.57300   0.52660   -1.000
 3793.00    0.54947   0.51346   -1.000
 3794.00    0.51036   0.49532   -1.000
 3795.00    0.49570   0.47651   -1.000
 3796.00    0.47980   0.45952   -1.000
 3797.00    0.47350   0.44834   -1.000
 3798.00    0.46613   0.44989   -1.000
 3799.00    0.46173   0.46963  247.358
 3800.00    0.48196   0.50531   -1.000
 3801.00    0.51398   0.54685   -1.000
 3802.00    0.54563   0.58269   -1.000
 3803.00    0.56960   0.60468   -1.000
 3804.00    0.57671   0.60997   -1.000
 3805.00    0.57444   0.60272   -1.000
 3806.00    0.55427   0.59276   -1.000
 3807.00    0.52987   0.59012   -1.000
 3808.00    0.53937   0.59754   -1.000
 3809.00    0.57582   0.60808   -1.000
 3810.00    0.59598   0.61000  255.421
 3811.00    0.58632   0.59549  271.198
 3812.00    0.57228   0.56559   -1.000
 3813.00    0.53512   0.52937  292.820
 3814.00    0.49277   0.49811  285.259
 3815.00    0.47329   0.47903  279.668
 3816.00    0.46097   0.47117  289.720
 3817.00    0.46677   0.46591  294.398
 3818.00    0.47237   0.45534   -1.000
 3819.00    0.44586   0.44050   -1.000
 3820.00    0.42609   0.42970  294.398
 3821.00    0.43028   0.42733  294.398
 3822.00    0.44239   0.42750   84.172
 3823.00    0.45149   0.42072   35.060
 3824.00    0.43704   0.40495   35.432
 3825.00    0.40840   0.38798   35.015
 3826.00    0.40083   0.37846   34.440
 3827.00    0.40399   0.37857   34.224
 3828.00    0.40372   0.38426   35.064
 3829.00    0.41839   0.38866   37.107
 3830.00    0.42114   0.38627   39.473
 3831.00    0.40340   0.37633   39.930
 3832.00    0.37844   0.36344   38.804
 3833.00    0.37175   0.35426   37.479
 3834.00    0.37977   0.35258   37.246
 3835.00    0.38800   0.35652   38.110
 3836.00    0.41395   0.36112   38.451
 3837.00    0.41233   0.36361   37.169
 3838.00    0.40716   0.36664   52.195
 3839.00    0.38284   0.37692  294.398
 3840.00    0.39207   0.39950  286.189
 3841.00    0.42929   0.43336  272.869
 3842.00    0.46171   0.47099  269.822
 3843.00    0.47954   0.50360   -1.000
 3844.00    0.51965   0.52616  269.920
 3845.00    0.52363   0.53863   -1.000
 3846.00    0.50756   0.54328   -1.000
 3847.00    0.51441   0.54140   -1.000
 3848.00    0.50940   0.53461   -1.000
 3849.00    0.49635   0.52756   -1.000
 3850.00    0.49365   0.52545   -1.000
 3851.00    0.47938   0.52852   -1.000
 3852.00    0.49121   0.53109   -1.000
 3853.00    0.50464   0.52715   -1.000
 3854.00    0.48497   0.51547   -1.000
 3855.00    0.46818   0.49862   76.316
 3856.00    0.46682   0.47924   33.699
 3857.00    0.45077   0.45963   34.755
 3858.00    0.43258   0.44476   50.706
 3859.00    0.41469   0.44268   -1.000
 3860.00    0.41524   0.45821   -1.000
 3861.00    0.44412   0.48685   -1.000
 3862.00    0.48209   0.51622   -1.000
 3863.00    0.51784   0.53480   -1.000
 3864.00    0.53503   0.53970  276.586
 3865.00    0.53462   0.53592  284.143
 3866.00    0.50551   0.52934   -1.000
 3867.00    0.48744   0.52110   -1.000
 3868.00    0.48695   0.50895   76.548
 3869.00    0.47083   0.49247   50.138
 3870.00    0.44352   0.47638   -1.000
 3871.00    0.43179   0.46964   -1.000
 3872.00    0.45279   0.47868   -1.000
 3873.00    0.48295   0.50089   -1.000
 3874.00    0.51113   0.52454  273.327
 3875.00    0.54616   0.53627   -1.000
 3876.00    0.55811   0.53070   -1.000
 3877.00    0.52196   0.51426   -1.000
 3878.00    0.48398   0.49899   -1.000
 3879.00    0.46972   0.49165   -1.000
 3880.00    0.47525   0.49171   -1.000
 3881.00    0.47243   0.49629   -1.000
 3882.00    0.46896   0.50294   -1.000
 3883.00    0.50084   0.50749  275.088
 3884.00    0.53679   0.50351   -1.000
 3885.00    0.54053   0.48867   -1.000
 3886.00    0.51704   0.47061   -1.000
 3887.00    0.50732   0.46224   -1.000
 3888.00    0.51267   0.47309   -1.000
 3889.00    0.53792   0.50386   -1.000
 3890.00    0.58850   0.54614   -1.000
 3891.00    0.63856   0.58685   -1.000
 3892.00    0.65470   0.61527   -1.000
 3893.00    0.66108   0.62795   -1.000
 3894.00    0.65987   0.62985   -1.000
 3895.00    0.63644   0.62929  217.663
 3896.00    0.62879   0.63038  221.493
 3897.00    0.64159   0.63214  222.100
 3898.00    0.65304   0.63275   -1.000
 3899.00    0.64944   0.63270   -1.000
 3900.00    0.64988   0.63275   -1.000
 3901.00    0.65292   0.63057   -1.000
 3902.00    0.65010   0.62301   -1.000
 3903.00    0.63618   0.61114   -1.000
 3904.00    0.60886   0.60099  234.511
 3905.00    0.60546   0.60077  219.657
 3906.00    0.62457   0.61509  208.725
 3907.00    0.63874   0.64159  205.161
 3908.00    0.68104   0.67233  203.313
 3909.00    0.70371   0.69913  201.668
 3910.00    0.71737   0.71778  201.943
 3911.00    0.74560   0.72842   -1.000
 3912.00    0.76268   0.73235   -1.000
 3913.00    0.75331   0.73002   -1.000
 3914.00    0.73951   0.72182   -1.000
 3915.00    0.73335   0.70862   -1.000
 3916.00    0.70817   0.69116   -1.000
 3917.00    0.68698   0.66946   -1.000
 3918.00    0.67466   0.64364   -1.000
 3919.00    0.64653   0.61635   -1.000
 3920.00    0.60319   0.59352   -1.000
 3921.00    0.58315   0.58022  244.655
 3922.00    0.58343   0.57652  250.896
 3923.00    0.59953   0.57593   -1.000
 3924.00    0.61147   0.56873   -1.000
 3925.00    0.60470   0.54823   -1.000
 3926.00    0.57004   0.51359   39.205
 3927.00    0.50416   0.46984   45.938
 3928.00    0.45481   0.42326   53.983
 3929.00    0.40372   0.37862   63.630
 3930.00    0.34273   0.33844   72.481
 3931.00    0.29624   0.30425   74.970
 3932.00    0.28580   0.27953   68.682
 3933.00    0.28347   0.26905   58.237
 3934.00    0.27423   0.27661   47.973
 3935.00    0.30355   0.30231   39.815
 3936.00    0.34895   0.34196   57.024
 3937.00    0.39010   0.38893   -1.000
 3938.00    0.45204   0.43645   -1.000
 3939.00    0.50923   0.47740   -1.000
 3940.00    0.53904   0.50681   -1.000
 3941.00    0.54415   0.52413   -1.000
 3942.00    0.53862   0.53400  257.019
 3943.00    0.53392   0.54488  237.121
 3944.00    0.53737   0.56336   -1.000
 3945.00    0.56874   0.58918   -1.000
 3946.00    0.63506   0.61655   -1.000
 3947.00    0.67804   0.64094   -1.000
 3948.00    0.68402   0.66216   -1.000
 3949.00    0.68816   0.68094  212.277
 3950.00    0.71867   0.69586   -1.000
 3951.00    0.73640   0.70499   -1.000
 3952.00    0.73479   0.71007   -1.000
 3953.00    0.74322   0.71377   -1.000
 3954.00    0.74972   0.71531   -1.000
 3955.00    0.73246   0.71254   -1.000
 3956.00    0.71070   0.70537  216.580
 3957.00    0.70459   0.69438  229.281
 3958.00    0.70030   0.67638   -1.000
 3959.00    0.68824   0.64504   -1.000
 3960.00    0.63876   0.59901   -1.000
 3961.00    0.57907   0.54718   70.587
 3962.00    0.52467   0.49962   37.035
 3963.00    0.47695   0.45961   44.360
 3964.00    0.45234   0.42224   54.601
 3965.00    0.41648   0.38134   64.119
 3966.00    0.36157   0.33866   65.605
 3967.00    0.31156   0.30316   57.498
 3968.00    0.30147   0.28591   47.265
 3969.00    0.30953   0.29318   39.168
 3970.00    0.33283   0.32361   57.731
 3971.00    0.39017   0.37039   -1.000
 3972.00    0.44113   0.42620   -1.000
 3973.00    0.48222   0.48495  235.507
 3974.00    0.54712   0.54334  219.197
 3975.00    0.61212   0.59951  206.977
 3976.00    0.65435   0.65248  195.983
 3977.00    0.70259   0.70174  189.125
 3978.00    0.75674   0.74471  188.585
 3979.00    0.79825   0.77754   -1.000
 3980.00    0.82173   0.79655   -1.000
 3981.00    0.82616   0.80280   -1.000
 3982.00    0.80711   0.80273  185.872
 3983.00    0.79354   0.80440  182.510
 3984.00    0.81882   0.81292  179.309
 3985.00    0.84429   0.82839  176.640
 3986.00    0.84536   0.84750  176.042
 3987.00    0.86985   0.86541  175.920
 3988.00    0.89768   0.87820   -1.000
 3989.00    0.88848   0.88594  169.216
 3990.00    0.89309   0.89226  167.907
 3991.00    0.91870   0.89972   -1.000
 3992.00    0.92236   0.90644  175.067
 3993.00    0.90526   0.90766  178.792
 3994.00    0.88701   0.90096  181.327
 3995.00    0.87506   0.88989  180.185
 3996.00    0.86476   0.88233   -1.000
 3997.00    0.86215   0.88619   -1.000
 3998.00    0.87998   0.90370   -1.000
 3999.00    0.92261   0.92964  160.255
 4000.00    0.97003   0.95391  160.490
 4001.00    0.99215   0.96680   -1.000
 4002.00    0.99253   0.96151   -1.000
 4003.00    0.98532   0.93781   -1.000
 4004.00    0.93582   0.90547   -1.000
 4005.00    0.86433   0.88218   -1.000
 4006.00    0.84897   0.88156   -1.000
 4007.00    0.88788   0.90312  160.649
 4008.00    0.94869   0.93460  159.484
 4009.00    0.97525   0.96239  159.765
 4010.00    0.97807   0.98107  160.815
 4011.00    1.00247   0.99259  160.696
 4012.00    0.99829   1.00070  158.932
 4013.00    0.98907   1.00749   -1.000
 4014.00    0.99368   1.01257   -1.000
 4015.00    1.00570   1.01494  160.774
 4016.00    1.00706   1.01554  159.117
 4017.00    0.99612   1.01760   -1.000
 4018.00    1.01008   1.02283  159.333
 4019.00    1.03817   1.02865  161.046
 4020.00    1.03962   1.03083  162.019
 4021.00    1.03219   1.02731  163.185
 4022.00    1.02991   1.02013  161.866
 4023.00    1.02388   1.01386  156.879
 4024.00    1.00508   1.01345  152.417
 4025.00    1.00026   1.02123   -1.000
 4026.00    1.02506   1.03328  155.300
 4027.00    1.05587   1.03829  163.846
 4028.00    1.06021   1.02339   -1.000
 4029.00    1.01890   0.98485   -1.000
 4030.00    0.95930   0.93294   -1.000
 4031.00    0.90179   0.88695  173.664
 4032.00    0.85961   0.86248  166.446
 4033.00    0.84782   0.86655   -1.000
 4034.00    0.85856   0.89807   -1.000
 4035.00    0.91215   0.94895   -1.000
 4036.00    0.99434   1.00390  149.815
 4037.00    1.05437   1.04702  153.276
 4038.00    1.09090   1.06802   -1.000
 4039.00    1.09665   1.06759   -1.000
 4040.00    1.06040   1.05281  161.232
 4041.00    1.02806   1.02691  172.983
 4042.00    1.02704   0.98545   -1.000
 4043.00    0.97575   0.92767   -1.000
 4044.00    0.86512   0.86858  177.921
 4045.00    0.76966   0.83470   -1.000
 4046.00    0.76569   0.84573   -1.000
 4047.00    0.86023   0.89667   -1.000
 4048.00    0.97114   0.96144  153.130
 4049.00    1.02692   1.01485  155.801
 4050.00    1.05021   1.04372  160.041
 4051.00    1.06485   1.04799  163.367
 4052.00    1.04185   1.03476  165.263
 4053.00    0.99891   1.01272  166.460
 4054.00    0.97413   0.98863  167.897
 4055.00    0.95860   0.96678  167.780
 4056.00    0.93815   0.95087  163.612
 4057.00    0.92072   0.94505   -1.000
 4058.00    0.92656   0.95037   -1.000
 4059.00    0.96278   0.95885  166.024
 4060.00    1.00000   0.95575   -1.000
 4061.00    0.98145   0.93227   -1.000
 4062.00    0.90264   0.89566  176.463
 4063.00    0.83137   0.86620   -1.000
 4064.00    0.82486   0.85926   -1.000
 4065.00    0.87477   0.87574  160.636
 4066.00    0.93431   0.90577   -1.000
 4067.00    0.96514   0.93593   -1.000
 4068.00    0.99297   0.95443   -1.000
 4069.00    1.01876   0.95509   -1.000
 4070.00    0.99477   0.94145   -1.000
 4071.00    0.92989   0.92685  161.814
 4072.00    0.90794   0.92333   -1.000
 4073.00    0.95435   0.92784   -1.000
 4074.00    0.98272   0.92644   -1.000
 4075.00    0.96349   0.91079   -1.000
 4076.00    0.90621   0.89048  176.434
 4077.00    0.84762   0.88606   -1.000
 4078.00    0.85489   0.90929   -1.000
 4079.00    0.92561   0.95427   -1.000
 4080.00    1.01051   1.00074  159.443
 4081.00    1.05890   1.03021   -1.000
 4082.00    1.05277   1.03670  163.289
 4083.00    1.01656   1.02991  159.127
 4084.00    0.98638   1.02669   -1.000
 4085.00    0.99261   1.03855   -1.000
 4086.00    1.02976   1.06514   -1.000
 4087.00    1.08524   1.09521  147.943
 4088.00    1.13014   1.11617  150.907
 4089.00    1.13406   1.12061  153.145
 4090.00    1.12231   1.11039  154.018
 4091.00    1.09091   1.09265  155.541
 4092.00    1.06554   1.07312  160.699
 4093.00    1.07193   1.05104   -1.000
 4094.00    1.06498   1.02365   -1.000
 4095.00    1.00430   0.99163  172.390
 4096.00    0.95765   0.95884  178.749
 4097.00    0.93902   0.92770  192.269
 4098.00    0.93178   0.89563   -1.000
 4099.00    0.91926   0.86109   -1.000
 4100.00    0.86589   0.83042   -1.000
 4101.00    0.80934   0.81709  183.777
 4102.00    0.79338   0.83108   -1.000
 4103.00    0.83354   0.87085   -1.000
 4104.00    0.90504   0.92264   -1.000
 4105.00    0.96198   0.97096  162.643
 4106.00    0.99605   1.00489  165.114
 4107.00    1.02019   1.02112  167.970
 4108.00    1.02364   1.02289  167.969
 4109.00    0.98888   1.01739   -1.000
 4110.00    0.96099   1.01306   -1.000
 4111.00    0.97545   1.01651   -1.000
 4112.00    0.98871   1.02929   -1.000
 4113.00    0.99408   1.04787   -1.000
 4114.00    1.02101   1.06493   -1.000
 4115.00    1.05194   1.07304   -1.000
 4116.00    1.06322   1.06831  167.114
 4117.00    1.04982   1.05341  166.792
 4118.00    1.00079   1.03647   -1.000
 4119.00    0.96813   1.02559   -1.000
 4120.00    0.99062   1.02385   -1.000
 4121.00    1.00189   1.02888   -1.000
 4122.00    0.99443   1.03694   -1.000
 4123.00    1.00056   1.04545   -1.000
 4124.00    1.01462   1.05211   -1.000
 4125.00    1.03365   1.05372   -1.000
 4126.00    1.04806   1.04828  166.552
 4127.00    1.02035   1.03662   -1.000
 4128.00    0.98001   1.02068   -1.000
 4129.00    0.97586   1.00084   -1.000
 4130.00    0.95891   0.97712   -1.000
 4131.00    0.91602   0.95459   -1.000
 4132.00    0.88436   0.94269   -1.000
 4133.00    0.88113   0.95047   -1.000
 4134.00    0.90205   0.97866   -1.000
 4135.00    0.95937   1.01801   -1.000
 4136.00    1.02533   1.05614   -1.000
 4137.00    1.04889   1.08407   -1.000
 4138.00    1.04979   1.09634   -1.000
 4139.00    1.04248   1.08934   -1.000
 4140.00    1.03598   1.06065   -1.000
 4141.00    1.00606   1.01493  185.984
 4142.00    0.92571   0.96773   -1.000
 4143.00    0.84454   0.94006   -1.000
 4144.00    0.83799   0.94259   -1.000
 4145.00    0.89307   0.96824   -1.000
 4146.00    0.96492   0.99878   -1.000
 4147.00    1.00073   1.01799   -1.000
 4148.00    0.98369   1.02194   -1.000
 4149.00    0.95664   1.01612   -1.000
 4150.00    0.93437   1.00775   -1.000
 4151.00    0.92026   0.99991   -1.000
 4152.00    0.92720   0.99239   -1.000
 4153.00    0.93928   0.98546   -1.000
 4154.00    1.07259   0.98176   -1.000
 4155.00    1.14997   0.98533   -1.000
 4156.00    0.88349   0.99924   -1.000
 4157.00    0.73855   1.02254   -1.000
 4158.00    0.90126   1.05099   -1.000
 4159.00    1.01710   1.07943   -1.000
 4160.00    1.03197   1.10311   -1.000
 4161.00    1.04057   1.12041   -1.000
 4162.00    1.05343   1.12947   -1.000
 4163.00    1.05400   1.12810   -1.000
 4164.00    1.03449   1.11557   -1.000
 4165.00    1.01328   1.09576   -1.000
 4166.00    0.98264   1.07602   -1.000
 4167.00    0.96066   1.06328   -1.000
 4168.00    0.97184   1.05628   -1.000
 4169.00    0.98514   1.04690   -1.000
 4170.00    0.99507   1.02788   -1.000
 4171.00    0.95486   1.00039   -1.000
 4172.00    0.89468   0.97584   -1.000
 4173.00    0.88084   0.96474   -1.000
 4174.00    0.89169   0.96919   -1.000
 4175.00    0.91229   0.98294   -1.000
 4176.00    0.92106   0.99843   -1.000
 4177.00    0.91789   1.01217   -1.000
 4178.00    0.93986   1.02353   -1.000
 4179.00    0.96883   1.03088   -1.000
 4180.00    0.96130   1.03422   -1.000
 4181.00    0.94626   1.03742   -1.000
 4182.00    0.95944   1.04547   -1.000
 4183.00    0.99250   1.05856   -1.000
 4184.00    1.02707   1.06833   -1.000
 4185.00    1.03743   1.06751   -1.000
 4186.00    1.01650   1.05779   -1.000
 4187.00    0.97702   1.04911   -1.000
 4188.00    0.96193   1.05060   -1.000
 4189.00    0.97875   1.06251   -1.000
 4190.00    0.99238   1.07927   -1.000
 4191.00    0.99808   1.09419   -1.000
 4192.00    1.03059   1.10165   -1.000
 4193.00    1.07366   1.09568   -1.000
 4194.00    1.05931   1.07323  181.177
 4195.00    0.99283   1.03769   -1.000
 4196.00    0.92449   1.00061   -1.000
 4197.00    0.90018   0.97225   -1.000
 4198.00    0.89933   0.95784   -1.000
 4199.00    0.93722   0.95587   -1.000
 4200.00    0.96648   0.96303  174.496
 4201.00    0.95043   0.97710   -1.000
 4202.00    0.94230   0.99865   -1.000
 4203.00    0.97567   1.02824   -1.000
 4204.00    1.00697   1.06326   -1.000
 4205.00    1.03138   1.09825   -1.000
 4206.00    1.06326   1.12660   -1.000
 4207.00    1.08956   1.14484   -1.000
 4208.00    1.10591   1.15273   -1.000
 4209.00    1.08478   1.15372   -1.000
 4210.00    1.05653   1.15153   -1.000
 4211.00    1.06199   1.14543   -1.000
 4212.00    1.06533   1.13119   -1.000
 4213.00    1.04017   1.10785   -1.000
 4214.00    1.00592   1.08486   -1.000
 4215.00    0.97381   1.07930   -1.000
 4216.00    0.99504   1.10064   -1.000
 4217.00    1.06641   1.14410   -1.000
 4218.00    1.13210   1.18981   -1.000
 4219.00    1.19229   1.21972   -1.000
 4220.00    1.22193   1.22112  162.569
 4221.00    1.20589   1.18953  176.935
 4222.00    1.14545   1.12540   -1.000
 4223.00    1.05232   1.03749   -1.000
 4224.00    0.94910   0.94223  216.704
 4225.00    0.83237   0.86863   -1.000
 4226.00    0.73165   0.84261   -1.000
 4227.00    0.73694   0.87607   -1.000
 4228.00    0.85393   0.95364   -1.000
 4229.00    1.00974   1.04368   -1.000
 4230.00    1.11092   1.11151  160.324
 4231.00    1.13491   1.14305  162.923
 4232.00    1.12692   1.14181   -1.000
 4233.00    1.11250   1.12236  169.275
 4234.00    1.08717   1.09955  169.614
 4235.00    1.05359   1.08447   -1.000
 4236.00    1.03562   1.08158   -1.000
 4237.00    1.03065   1.09148   -1.000
 4238.00    1.06804   1.11212   -1.000
 4239.00    1.10543   1.13987   -1.000
 4240.00    1.10779   1.17067   -1.000
 4241.00    1.14797   1.20250   -1.000
 4242.00    1.17926   1.23247   -1.000
 4243.00    1.20012   1.25642   -1.000
 4244.00    1.22681   1.26701   -1.000
 4245.00    1.23672   1.25678   -1.000
 4246.00    1.21834   1.22433  170.870
 4247.00    1.16350   1.17893  171.263
 4248.00    1.09787   1.13428   -1.000
 4249.00    1.04732   1.10432   -1.000
 4250.00    1.03193   1.09308   -1.000
 4251.00    1.04749   1.09513   -1.000
 4252.00    1.06819   1.10008   -1.000
 4253.00    1.06158   1.10333   -1.000
 4254.00    1.05514   1.10921   -1.000
 4255.00    1.07342   1.12180   -1.000
 4256.00    1.12841   1.13491  168.884
 4257.00    1.15752   1.13455   -1.000
 4258.00    1.12514   1.11606  172.425
 4259.00    1.05377   1.09444   -1.000
 4260.00    0.99676   1.09262   -1.000
 4261.00    1.02283   1.12462   -1.000
 4262.00    1.11688   1.18161   -1.000
 4263.00    1.19262   1.24213   -1.000
 4264.00    1.24694   1.28318   -1.000
 4265.00    1.29277   1.29462  158.485
 4266.00    1.28371   1.27558  164.129
 4267.00    1.22312   1.23064  173.390
 4268.00    1.15456   1.16557  184.519
 4269.00    1.09008   1.09201  189.796
 4270.00    0.99945   1.02271   -1.000
 4271.00    0.90728   0.97430   -1.000
 4272.00    0.88025   0.95646   -1.000
 4273.00    0.90994   0.97163   -1.000
 4274.00    0.94846   1.01402   -1.000
 4275.00    0.99048   1.07430   -1.000
 4276.00    1.06334   1.13680   -1.000
 4277.00    1.15508   1.18578   -1.000
 4278.00    1.20600   1.20901  167.218
 4279.00    1.20107   1.20851  165.695
 4280.00    1.14940   1.19660   -1.000
 4281.00    1.11282   1.18624   -1.000
 4282.00    1.12677   1.18089   -1.000
 4283.00    1.14473   1.17552   -1.000
 4284.00    1.15147   1.16507  176.435
 4285.00    1.13367   1.14719  181.726
 4286.00    1.09312   1.12230   -1.000
 4287.00    1.06153   1.09042   -1.000
 4288.00    1.02760   1.05623   -1.000
 4289.00    0.97820   1.03061   -1.000
 4290.00    0.95849   1.02594   -1.000
 4291.00    0.99250   1.04404   -1.000
 4292.00    1.05454   1.07319   -1.000
 4293.00    1.09799   1.09484  175.999
 4294.00    1.09476   1.09806  183.280
 4295.00    1.07810   1.07940  197.063
 4296.00    1.06360   1.04169   -1.000
 4297.00    1.02105   0.98943   -1.000
 4298.00    0.95136   0.93399   -1.000
 4299.00    0.87495   0.88874  211.594
 4300.00    0.83184   0.86479   -1.000
 4301.00    0.84546   0.86180   -1.000
 4302.00    0.86404   0.87054  205.490
 4303.00    0.87353   0.87824  210.631
 4304.00    0.88388   0.87559  220.838
 4305.00    0.88528   0.85931   -1.000
 4306.00    0.86709   0.83364   -1.000
 4307.00    0.82525   0.81172   -1.000
 4308.00    0.77198   0.80846   -1.000
 4309.00    0.76672   0.83324   -1.000
 4310.00    0.83560   0.88433   -1.000
 4311.00    0.91372   0.95476   -1.000
 4312.00    0.98651   1.03756   -1.000
 4313.00    1.05465   1.12854   -1.000
 4314.00    1.12325   1.22633   -1.000
 4315.00    1.22804   1.32050   -1.000
 4316.00    1.35146   1.39885   -1.000
 4317.00    1.41656   1.44627   -1.000
 4318.00    1.43052   1.45782   -1.000
 4319.00    1.42909   1.43660  154.780
 4320.00    1.38298   1.39015  165.070
 4321.00    1.32864   1.32084  179.208
 4322.00    1.27221   1.23529   -1.000
 4323.00    1.16292   1.14783  182.936
 4324.00    1.04141   1.08554   -1.000
 4325.00    0.95756   1.07407   -1.000
 4326.00    0.98376   1.12138   -1.000
 4327.00    1.13344   1.20702   -1.000
 4328.00    1.27402   1.29878   -1.000
 4329.00    1.36432   1.36752  143.740
 4330.00    1.38298   1.40753   -1.000
 4331.00    1.37306   1.42828   -1.000
 4332.00    1.36955   1.44065   -1.000
 4333.00    1.38922   1.44465   -1.000
 4334.00    1.41160   1.42943   -1.000
 4335.00    1.41400   1.38418   -1.000
 4336.00    1.34950   1.30629   -1.000
 4337.00    1.23634   1.21203   -1.000
 4338.00    1.12269   1.12636  192.920
 4339.00    1.04220   1.07788   -1.000
 4340.00    1.00845   1.07836   -1.000
 4341.00    1.05221   1.12266   -1.000
 4342.00    1.15243   1.19065   -1.000
 4343.00    1.24977   1.26236  148.351
 4344.00    1.29645   1.32316   -1.000
 4345.00    1.33015   1.37143   -1.000
 4346.00    1.35946   1.40798   -1.000
 4347.00    1.37620   1.43096   -1.000
 4348.00    1.42955   1.43294  160.329
 4349.00    1.42902   1.40799   -1.000
 4350.00    1.34273   1.36116   -1.000
 4351.00    1.22800   1.31399   -1.000
 4352.00    1.16033   1.28963   -1.000
 4353.00    1.19934   1.29927   -1.000
 4354.00    1.29068   1.33294   -1.000
 4355.00    1.34989   1.37227   -1.000
 4356.00    1.37236   1.40059   -1.000
 4357.00    1.38615   1.41408   -1.000
 4358.00    1.37840   1.41934   -1.000
 4359.00    1.36236   1.42756   -1.000
 4360.00    1.37822   1.44632   -1.000
 4361.00    1.42594   1.47365   -1.000
 4362.00    1.44592   1.50253   -1.000
 4363.00    1.47633   1.52389   -1.000
 4364.00    1.49670   1.53120   -1.000
 4365.00    1.50234   1.52026   -1.000
 4366.00    1.46907   1.49327   -1.000
 4367.00    1.38454   1.45934   -1.000
 4368.00    1.34123   1.43065   -1.000
 4369.00    1.34828   1.41089   -1.000
 4370.00    1.35401   1.39495   -1.000
 4371.00    1.36974   1.37378  158.819
 4372.00    1.35747   1.34335  160.616
 4373.00    1.30718   1.31087  155.626
 4374.00    1.25226   1.29011   -1.000
 4375.00    1.22672   1.29369   -1.000
 4376.00    1.27983   1.31989   -1.000
 4377.00    1.36584   1.35297  146.298
 4378.00    1.41067   1.36816   -1.000
 4379.00    1.40626   1.34772   -1.000
 4380.00    1.38045   1.28597   -1.000
 4381.00    1.29957   1.19526   -1.000
 4382.00    1.15161   1.10281   -1.000
 4383.00    0.98935   1.04409   -1.000
 4384.00    0.92656   1.04043   -1.000
 4385.00    1.02799   1.08736   -1.000
 4386.00    1.16978   1.15661  154.518
 4387.00    1.26029   1.21667   -1.000
 4388.00    1.28411   1.25295   -1.000
 4389.00    1.26732   1.27076  149.812
 4390.00    1.26499   1.28270   -1.000
 4391.00    1.26694   1.29651   -1.000
 4392.00    1.30890   1.31308  153.002
 4393.00    1.33883   1.33150  147.493
 4394.00    1.32347   1.35437   -1.000
 4395.00    1.33824   1.38294   -1.000
 4396.00    1.40441   1.41214  147.502
 4397.00    1.46995   1.42951   -1.000
 4398.00    1.48250   1.42702   -1.000
 4399.00    1.41402   1.40603  149.398
 4400.00    1.35659   1.37620   -1.000
 4401.00    1.34994   1.34027  160.814
 4402.00    1.33953   1.29791   -1.000
 4403.00    1.26628   1.25082  160.252
 4404.00    1.15976   1.21207   -1.000
 4405.00    1.11473   1.19746   -1.000
 4406.00    1.16253   1.21495   -1.000
 4407.00    1.21562   1.25846   -1.000
 4408.00    1.24916   1.31934   -1.000
 4409.00    1.31785   1.38606   -1.000
 4410.00    1.40945   1.44489   -1.000
 4411.00    1.47977   1.47864  146.179
 4412.00    1.50070   1.47580   -1.000
 4413.00    1.46033   1.44183  152.970
 4414.00    1.36594   1.40069   -1.000
 4415.00    1.28222   1.37866   -1.000
 4416.00    1.27700   1.39205   -1.000
 4417.00    1.34366   1.43378   -1.000
 4418.00    1.41690   1.48251   -1.000
 4419.00    1.47075   1.51335   -1.000
 4420.00    1.47130   1.51652   -1.000
 4421.00    1.40914   1.49760   -1.000
 4422.00    1.36039   1.47382   -1.000
 4423.00    1.34098   1.45887   -1.000
 4424.00    1.34982   1.45751   -1.000
 4425.00    1.37500   1.46519   -1.000
 4426.00    1.39097   1.47482   -1.000
 4427.00    1.38837   1.48160   -1.000
 4428.00    1.39614   1.48288   -1.000
 4429.00    1.39320   1.47812   -1.000
 4430.00    1.37983   1.46919   -1.000
 4431.00    1.38906   1.45600   -1.000
 4432.00    1.40672   1.43769   -1.000
 4433.00    1.37786   1.41647   -1.000
 4434.00    1.31814   1.40204   -1.000
 4435.00    1.28628   1.41139   -1.000
 4436.00    1.33642   1.44791   -1.000
 4437.00    1.41990   1.50047   -1.000
 4438.00    1.52317   1.54125  142.859
 4439.00    1.58192   1.55187   -1.000
 4440.00    1.54340   1.53087  150.961
 4441.00    1.45395   1.49807   -1.000
 4442.00    1.38614   1.47924   -1.000
 4443.00    1.39180   1.48935   -1.000
 4444.00    1.45432   1.52592   -1.000
 4445.00    1.52115   1.57049   -1.000
 4446.00    1.57393   1.60612   -1.000
 4447.00    1.58845   1.62510   -1.000
 4448.00    1.58976   1.62918   -1.000
 4449.00    1.58036   1.62291   -1.000
 4450.00    1.56343   1.60659   -1.000
 4451.00    1.56726   1.57875  150.029
 4452.00    1.55906   1.53694   -1.000
 4453.00    1.49837   1.48692  152.581
 4454.00    1.41480   1.43801   -1.000
 4455.00    1.35820   1.40331   -1.000
 4456.00    1.36426   1.38606   -1.000
 4457.00    1.36824   1.38102  151.390
 4458.00    1.38860   1.37977  152.807
 4459.00    1.36182   1.37938   -1.000
 4460.00    1.34231   1.38501   -1.000
 4461.00    1.33872   1.40335   -1.000
 4462.00    1.38051   1.43582   -1.000
 4463.00    1.42983   1.47525   -1.000
 4464.00    1.49617   1.50966  141.874
 4465.00    1.51961   1.53031  144.419
 4466.00    1.52871   1.53638  145.714
 4467.00    1.51971   1.53414  144.242
 4468.00    1.47970   1.53288   -1.000
 4469.00    1.46005   1.54184   -1.000
 4470.00    1.49203   1.56505   -1.000
 4471.00    1.53668   1.60179   -1.000
 4472.00    1.60092   1.64307   -1.000
 4473.00    1.63860   1.68132   -1.000
 4474.00    1.65868   1.71170   -1.000
 4475.00    1.68624   1.73288   -1.000
 4476.00    1.72329   1.74169  133.021
 4477.00    1.74616   1.73134  138.923
 4478.00    1.72734   1.69741   -1.000
 4479.00    1.66687   1.64852  142.855
 4480.00    1.58171   1.60420   -1.000
 4481.00    1.51585   1.58802   -1.000
 4482.00    1.52389   1.60778   -1.000
 4483.00    1.59144   1.65571   -1.000
 4484.00    1.67388   1.70702   -1.000
 4485.00    1.73735   1.74010  135.706
 4486.00    1.75910   1.74033  139.295
 4487.00    1.72838   1.71313  138.664
 4488.00    1.64427   1.67441   -1.000
 4489.00    1.56375   1.64575   -1.000
 4490.00    1.53823   1.63614   -1.000
 4491.00    1.57151   1.63862   -1.000
 4492.00    1.62850   1.63923  141.077
 4493.00    1.62136   1.62911  140.392
 4494.00    1.53662   1.61603   -1.000
 4495.00    1.49093   1.61350   -1.000
 4496.00    1.51301   1.63049   -1.000
 4497.00    1.56228   1.66237   -1.000
 4498.00    1.63790   1.69602   -1.000
 4499.00    1.69132   1.72193   -1.000
 4500.00    1.68344   1.74027   -1.000
 4501.00    1.65804   1.75876   -1.000
 4502.00    1.70445   1.78466   -1.000
 4503.00    1.80295   1.81607  125.154
 4504.00    1.86044   1.84471  126.658
 4505.00    1.87109   1.86100  126.949
 4506.00    1.83915   1.86244   -1.000
 4507.00    1.80662   1.85489   -1.000
 4508.00    1.78873   1.84630   -1.000
 4509.00    1.80185   1.83964   -1.000
 4510.00    1.83681   1.83157  130.590
 4511.00    1.81761   1.81701  131.676
 4512.00    1.75861   1.79478   -1.000
 4513.00    1.70907   1.76970   -1.000
 4514.00    1.69315   1.74879   -1.000
 4515.00    1.69683   1.73653   -1.000
 4516.00    1.70733   1.73333   -1.000
 4517.00    1.71353   1.73787   -1.000
 4518.00    1.70683   1.74880   -1.000
 4519.00    1.72402   1.76424   -1.000
 4520.00    1.77179   1.77825  134.272
 4521.00    1.80034   1.78250  135.692
 4522.00    1.77032   1.77046  137.758
 4523.00    1.71613   1.74104   -1.000
 4524.00    1.69015   1.69760  145.774
 4525.00    1.64176   1.64542  147.931
 4526.00    1.56062   1.59070   -1.000
 4527.00    1.50506   1.54241   -1.000
 4528.00    1.45964   1.51052   -1.000
 4529.00    1.45761   1.50077   -1.000
 4530.00    1.48280   1.51107   -1.000
 4531.00    1.52941   1.53146  149.295
 4532.00    1.55737   1.55090  148.531
 4533.00    1.56142   1.56499  141.011
 4534.00    1.50761   1.57928   -1.000
 4535.00    1.49749   1.60411   -1.000
 4536.00    1.57972   1.64379   -1.000
 4537.00    1.69433   1.69041  131.746
 4538.00    1.76783   1.72827   -1.000
 4539.00    1.74883   1.74647  131.310
 4540.00    1.70274   1.74677   -1.000
 4541.00    1.70547   1.73950   -1.000
 4542.00    1.68345   1.73385   -1.000
 4543.00    0.59687   1.73059   -1.000
 4544.00    0.01081   1.72617   -1.000
 4545.00    0.02986   1.71771   -1.000
 4546.00    1.07568   1.70605   -1.000
 4547.00    0.62119   1.69400   -1.000
 4548.00    1.06977   1.68404   -1.000
 4549.00    1.61090   1.67889   -1.000
 4550.00    1.64895   1.67919   -1.000
 4551.00    1.66004   1.68256   -1.000
 4552.00    1.68711   1.68479  138.650
 4553.00    1.67573   1.68531  133.989
 4554.00    1.66563   1.69035   -1.000
 4555.00    1.66391   1.70824   -1.000
 4556.00    1.70721   1.74215   -1.000
 4557.00    1.80745   1.78565  126.258
 4558.00    1.86303   1.82701   -1.000
 4559.00    1.86836   1.85525  128.776
 4560.00    1.86948   1.86608  131.999
 4561.00    1.86229   1.85888  134.425
 4562.00    1.85396   1.83756  133.506
 4563.00    1.80093   1.80859  130.355
 4564.00    1.73670   1.78392   -1.000
 4565.00    1.71247   1.77482   -1.000
 4566.00    1.75264   1.78617   -1.000
 4567.00    1.83598   1.81013   -1.000
 4568.00    1.88392   1.83239   -1.000
 4569.00    1.88228   1.84062   -1.000
 4570.00    1.81695   1.83498  128.776
 4571.00    1.74568   1.82545   -1.000
 4572.00    1.76753   1.82367   -1.000
 4573.00    1.82922   1.83352  126.956
 4574.00    1.86251   1.84845  127.677
 4575.00    1.86952   1.85800  129.659
 4576.00    1.84821   1.85395  133.331
 4577.00    1.82355   1.83440  136.292
 4578.00    1.81496   1.80237  136.359
 4579.00    1.75880   1.76631  134.616
 4580.00    1.68172   1.73645   -1.000
 4581.00    1.68454   1.72079   -1.000
 4582.00    1.72650   1.71924  134.485
 4583.00    1.76375   1.72562   -1.000
 4584.00    1.74971   1.73407  129.702
 4585.00    1.71608   1.74474   -1.000
 4586.00    1.73944   1.76214   -1.000
 4587.00    1.78444   1.78781  127.900
 4588.00    1.84292   1.81527   -1.000
 4589.00    1.88689   1.83366   -1.000
 4590.00    1.85325   1.83501  132.984
 4591.00    1.80905   1.82003  131.997
 4592.00    1.75932   1.79637   -1.000
 4593.00    1.72671   1.77360   -1.000
 4594.00    1.71487   1.75745   -1.000
 4595.00    1.73340   1.75005  129.927
 4596.00    1.73537   1.75027  130.883
 4597.00    1.73411   1.75617   -1.000
 4598.00    1.76784   1.76448  132.552
 4599.00    1.78160   1.77213  131.365
 4600.00    1.77365   1.77734  129.881
 4601.00    1.75865   1.78039   -1.000
 4602.00    1.76165   1.78257  129.734
 4603.00    1.77646   1.78575  128.467
 4604.00    1.79510   1.79294  126.052
 4605.00    1.77898   1.80875   -1.000
 4606.00    1.78935   1.83662   -1.000
 4607.00    1.87974   1.87454  122.063
 4608.00    1.97306   1.91310   -1.000
 4609.00    2.00592   1.94057   -1.000
 4610.00    1.98130   1.94918   -1.000
 4611.00    1.94739   1.94201  125.481
 4612.00    1.91533   1.92865  124.407
 4613.00    1.90042   1.91988  123.830
 4614.00    1.91796   1.92041  124.507
 4615.00    1.94904   1.92876  125.436
 4616.00    1.96973   1.93969   -1.000
 4617.00    1.96487   1.94865  124.358
 4618.00    1.94534   1.95416  122.455
 4619.00    1.94051   1.95753  122.189
 4620.00    1.95211   1.96057  122.474
 4621.00    1.95937   1.96352  122.726
 4622.00    1.97475   1.96459  123.756
 4623.00    1.96647   1.96219  124.163
 4624.00    1.95544   1.95657  124.132
 4625.00    1.94885   1.94999  124.837
 4626.00    1.94205   1.94474  125.173
 4627.00    1.93956   1.94256  124.638
 4628.00    1.93330   1.94386  123.274
 4629.00    1.92470   1.94774   -1.000
 4630.00    1.94113   1.95149  125.295
 4631.00    1.97129   1.95115  126.740
 4632.00    1.97239   1.94342   -1.000
 4633.00    1.92583   1.92806  127.680
 4634.00    1.88083   1.90804   -1.000
 4635.00    1.87794   1.88682  129.982
 4636.00    1.87390   1.86582  129.864
 4637.00    1.83302   1.84625  127.857
 4638.00    1.79832   1.83073   -1.000
 4639.00    1.79387   1.82337   -1.000
 4640.00    1.80163   1.82569   -1.000
 4641.00    1.85363   1.83397  125.363
 4642.00    1.89877   1.83904   -1.000
 4643.00    1.88464   1.83177   -1.000
 4644.00    1.85968   1.80832   -1.000
 4645.00    1.78886   1.77451  131.167
 4646.00    1.71303   1.74277   -1.000
 4647.00    1.68094   1.72715   -1.000
 4648.00    1.71819   1.73574  125.901
 4649.00    1.78421   1.76623  125.654
 4650.00    1.82464   1.80737  126.984
 4651.00    1.88110   1.84464   -1.000
 4652.00    1.92328   1.86732   -1.000
 4653.00    1.91961   1.87275   -1.000
 4654.00    1.87154   1.86769  126.667
 4655.00    1.80615   1.86503   -1.000
 4656.00    1.82284   1.87745   -1.000
 4657.00    1.88432   1.90842   -1.000
 4658.00    1.97455   1.95041  119.944
 4659.00    2.05438   1.98699   -1.000
 4660.00    2.05865   2.00304   -1.000
 4661.00    2.00217   1.99154  125.751
 4662.00    1.95977   1.95635  127.650
 4663.00    1.89338   1.90578  132.876
 4664.00    1.84823   1.84856  138.470
 4665.00    1.81061   1.79041  139.094
 4666.00    1.73745   1.73957  135.142
 4667.00    1.65798   1.70732   -1.000
 4668.00    1.61597   1.70423   -1.000
 4669.00    1.69311   1.73139   -1.000
 4670.00    1.81285   1.77784   -1.000
 4671.00    1.89345   1.82590   -1.000
 4672.00    1.93075   1.86334   -1.000
 4673.00    1.89655   1.88688  121.503
 4674.00    1.89576   1.90173  121.921
 4675.00    1.91597   1.91070  124.437
 4676.00    1.93460   1.91295  126.936
 4677.00    1.94657   1.90402   -1.000
 4678.00    1.90871   1.88357   -1.000
 4679.00    1.85226   1.85751  128.966
 4680.00    1.81718   1.83542  125.799
 4681.00    1.80652   1.82565  124.028
 4682.00    1.82219   1.83052  124.311
 4683.00    1.86015   1.84594  124.399
 4684.00    1.90574   1.86369   -1.000
 4685.00    1.92620   1.87619   -1.000
 4686.00    1.91516   1.88057   -1.000
 4687.00    1.89911   1.87802  125.975
 4688.00    1.89657   1.87275  126.288
 4689.00    1.90747   1.86786   -1.000
 4690.00    1.91079   1.86578   -1.000
 4691.00    1.89220   1.86763  120.358
 4692.00    1.89620   1.87479  118.741
 4693.00    1.91700   1.88714   -1.000
 4694.00    1.96267   1.90148   -1.000
 4695.00    2.02206   1.91115   -1.000
 4696.00    2.02327   1.90903   -1.000
 4697.00    1.95915   1.89189   -1.000
 4698.00    1.89311   1.86342   -1.000
 4699.00    1.85532   1.83184   -1.000
 4700.00    1.84557   1.80583   -1.000
 4701.00    1.86083   1.78990   -1.000
 4702.00    1.83870   1.78589   -1.000
 4703.00    1.83982   1.79183   -1.000
 4704.00    1.86873   1.80354   -1.000
 4705.00    1.90099   1.81404   -1.000
 4706.00    1.92003   1.81861   -1.000
 4707.00    1.88460   1.81810   -1.000
 4708.00    1.82671   1.81895  124.103
 4709.00    1.81423   1.82699  122.754
 4710.00    1.87319   1.84255   -1.000
 4711.00    1.91580   1.85971   -1.000
 4712.00    1.94387   1.87222   -1.000
 4713.00    1.93103   1.87936   -1.000
 4714.00    1.88080   1.88728  121.459
 4715.00    1.88341   1.90431  120.627
 4716.00    1.94176   1.93362  120.191
 4717.00    2.01169   1.97101   -1.000
 4718.00    2.05545   2.00782   -1.000
 4719.00    2.06099   2.03623   -1.000
 4720.00    2.07837   2.05287   -1.000
 4721.00    2.06912   2.05878  119.675
 4722.00    2.01981   2.05802   -1.000
 4723.00    2.02510   2.05309   -1.000
 4724.00    2.03730   2.04203  127.205
 4725.00    2.07526   2.01826   -1.000
 4726.00    2.02051   1.97855   -1.000
 4727.00    1.91226   1.92782  128.517
 4728.00    1.82372   1.87990   -1.000
 4729.00    1.80878   1.84988   -1.000
 4730.00    1.83782   1.84443  124.858
 4731.00    1.86511   1.86083  124.135
 4732.00    1.92871   1.88789   -1.000
 4733.00    1.95477   1.91512   -1.000
 4734.00    1.98251   1.93545   -1.000
 4735.00    2.00032   1.94832   -1.000
 4736.00    1.95953   1.95771  123.334
 4737.00    1.95748   1.96757  124.038
 4738.00    2.01105   1.97948   -1.000
 4739.00    2.04377   1.99127   -1.000
 4740.00    2.03534   2.00045   -1.000
 4741.00    2.00982   2.00678  122.114
 4742.00    2.03260   2.01262  122.233
 4743.00    2.06137   2.02004   -1.000
 4744.00    2.07442   2.03031   -1.000
 4745.00    2.06683   2.04365  119.840
 4746.00    2.05628   2.05911  120.014
 4747.00    2.06616   2.07497  120.098
 4748.00    2.08147   2.08835  120.950
 4749.00    2.08618   2.09625  122.317
 4750.00    2.08086   2.09604  123.357
 4751.00    2.06831   2.08638  124.207
 4752.00    2.03436   2.06853   -1.000
 4753.00    1.99722   2.04703   -1.000
 4754.00    1.98663   2.02794   -1.000
 4755.00    2.00524   2.01668  125.557
 4756.00    2.00021   2.01547  124.539
 4757.00    1.96240   2.02279   -1.000
 4758.00    1.97500   2.03415   -1.000
 4759.00    1.98785   2.04214   -1.000
 4760.00    1.97933   2.03954   -1.000
 4761.00    1.97399   2.02221   -1.000
 4762.00    1.91659   1.99225   -1.000
 4763.00    1.89231   1.95694   -1.000
 4764.00    1.87497   1.92563   -1.000
 4765.00    1.83303   1.90612   -1.000
 4766.00    1.82450   1.90456   -1.000
 4767.00    1.85842   1.92319   -1.000
 4768.00    1.90864   1.95831   -1.000
 4769.00    1.96711   1.99833   -1.000
 4770.00    2.01645   2.03169  124.550
 4771.00    2.00963   2.05340   -1.000
 4772.00    1.96852   2.06851   -1.000
 4773.00    2.01927   2.08602   -1.000
 4774.00    2.09189   2.10904  121.464
 4775.00    2.08289   2.13494   -1.000
 4776.00    2.08967   2.15632   -1.000
 4777.00    2.07021   2.16875   -1.000
 4778.00    2.07482   2.17033   -1.000
 4779.00    2.05057   2.16157   -1.000
 4780.00    2.04319   2.14408   -1.000
 4781.00    2.05480   2.12054   -1.000
 4782.00    2.02377   2.09448   -1.000
 4783.00    1.97454   2.06979   -1.000
 4784.00    1.96692   2.05059   -1.000
 4785.00    1.94175   2.03782   -1.000
 4786.00    1.96570   2.03063   -1.000
 4787.00    1.96354   2.02756   -1.000
 4788.00    1.96781   2.02830   -1.000
 4789.00    1.98419   2.03452   -1.000
 4790.00    1.97741   2.04962   -1.000
 4791.00    2.00625   2.07670   -1.000
 4792.00    2.04209   2.11614   -1.000
 4793.00    2.11096   2.16204   -1.000
 4794.00    2.15538   2.20389   -1.000
 4795.00    2.20080   2.22933   -1.000
 4796.00    2.20255   2.23124   -1.000
 4797.00    2.14139   2.21126   -1.000
 4798.00    2.06874   2.18069   -1.000
 4799.00    2.02359   2.15457   -1.000
 4800.00    2.02862   2.14476   -1.000
 4801.00    2.09412   2.15352   -1.000
 4802.00    2.16035   2.17208  123.834
 4803.00    2.15836   2.18639   -1.000
 4804.00    2.13142   2.18561   -1.000
 4805.00    2.07307   2.16965   -1.000
 4806.00    2.02700   2.14640   -1.000
 4807.00    2.01798   2.12735   -1.000
 4808.00    1.99666   2.11967   -1.000
 4809.00    2.01744   2.12502   -1.000
 4810.00    2.05551   2.13894   -1.000
 4811.00    2.10185   2.15539   -1.000
 4812.00    2.10624   2.16964   -1.000
 4813.00    2.08902   2.18136   -1.000
 4814.00    2.05006   2.19334   -1.000
 4815.00    2.10279   2.20836   -1.000
 4816.00    2.16287   2.22733   -1.000
 4817.00    2.20361   2.24792   -1.000
 4818.00    2.23372   2.26538   -1.000
 4819.00    2.22663   2.27393   -1.000
 4820.00    2.20429   2.26805   -1.000
 4821.00    2.20394   2.24611   -1.000
 4822.00    2.12014   2.21250   -1.000
 4823.00    2.04677   2.17805   -1.000
 4824.00    2.04030   2.15456   -1.000
 4825.00    2.07757   2.14821   -1.000
 4826.00    2.14438   2.15491  123.477
 4827.00    2.14487   2.16365  123.432
 4828.00    2.09823   2.16624   -1.000
 4829.00    2.10695   2.16011   -1.000
 4830.00    2.09850   2.14854   -1.000
 4831.00    2.05178   2.13690   -1.000
 4832.00    2.03034   2.13109   -1.000
 4833.00    2.04513   2.13563   -1.000
 4834.00    2.12699   2.14937  121.498
 4835.00    2.13685   2.16659   -1.000
 4836.00    2.12354   2.17761   -1.000
 4837.00    2.14356   2.17666   -1.000
 4838.00    2.13072   2.16321   -1.000
 4839.00    2.07878   2.14273   -1.000
 4840.00    2.04424   2.12337   -1.000
 4841.00    2.05371   2.11152   -1.000
 4842.00    2.04687   2.11039   -1.000
 4843.00    2.04521   2.11989   -1.000
 4844.00    2.08153   2.13773   -1.000
 4845.00    2.14339   2.15845  124.148
 4846.00    2.18963   2.17423  124.092
 4847.00    2.15380   2.17974  122.301
 4848.00    2.09662   2.17554   -1.000
 4849.00    2.08435   2.16870   -1.000
 4850.00    2.10443   2.16423   -1.000
 4851.00    2.15042   2.16018  127.626
 4852.00    2.15335   2.14892  131.252
 4853.00    2.11200   2.12357  130.848
 4854.00    2.04611   2.08557   -1.000
 4855.00    1.95902   2.04254   -1.000
 4856.00    1.94259   2.00212   -1.000
 4857.00    1.97612   1.96144   -1.000
 4858.00    1.96509   1.91006   -1.000
 4859.00    1.86631   1.84174   -1.000
 4860.00    1.70570   1.76595   -1.000
 4861.00    1.59576   1.71068   -1.000
 4862.00    1.63709   1.69951   -1.000
 4863.00    1.74183   1.73983  128.756
 4864.00    1.86555   1.81391   -1.000
 4865.00    1.92888   1.89691   -1.000
 4866.00    1.97179   1.96673  128.257
 4867.00    1.98632   2.01169  131.982
 4868.00    2.04018   2.02749  135.208
 4869.00    2.00410   2.01578  133.908
 4870.00    1.94738   1.98515   -1.000
 4871.00    1.83869   1.95280   -1.000
 4872.00    1.82553   1.93707   -1.000
 4873.00    1.87264   1.95025   -1.000
 4874.00    1.94408   1.98749   -1.000
 4875.00    1.98676   2.03565   -1.000
 4876.00    1.98935   2.08283   -1.000
 4877.00    2.02524   2.12309   -1.000
 4878.00    2.08791   2.15565   -1.000
 4879.00    2.12585   2.17821   -1.000
 4880.00    2.11596   2.18796   -1.000
 4881.00    2.07551   2.18315   -1.000
 4882.00    2.02278   2.16646   -1.000
 4883.00    2.06167   2.14252   -1.000
 4884.00    2.05951   2.11419   -1.000
 4885.00    2.00433   2.08387   -1.000
 4886.00    1.94497   2.05522   -1.000
 4887.00    1.97664   2.03090   -1.000
 4888.00    1.99671   2.01002  132.429
 4889.00    1.96826   1.99193  126.926
 4890.00    1.91188   1.98160   -1.000
 4891.00    1.88897   1.99217   -1.000
 4892.00    1.95596   2.03649   -1.000
 4893.00    2.12718   2.11289  114.833
 4894.00    2.24095   2.20557   -1.000
 4895.00    2.28916   2.28752  117.727
 4896.00    2.32073   2.34133  120.531
 4897.00    2.35200   2.36159  121.795
 4898.00    2.32114   2.35489   -1.000
 4899.00    2.25487   2.33256   -1.000
 4900.00    2.22193   2.30507   -1.000
 4901.00    2.21143   2.28019   -1.000
 4902.00    2.21026   2.26257   -1.000
 4903.00    2.16940   2.25607   -1.000
 4904.00    2.17470   2.26163   -1.000
 4905.00    2.24516   2.27531   -1.000
 4906.00    2.30304   2.28603  125.636
 4907.00    2.32253   2.27980   -1.000
 4908.00    2.23485   2.25254  125.310
 4909.00    2.15183   2.21270   -1.000
 4910.00    2.10948   2.17818   -1.000
 4911.00    2.11834   2.16542   -1.000
 4912.00    2.19468   2.17941  118.755
 4913.00    2.20152   2.21230  119.431
 4914.00    2.25772   2.24646  123.805
 4915.00    2.30981   2.26183   -1.000
 4916.00    2.30934   2.24177   -1.000
 4917.00    2.24111   2.18053   -1.000
 4918.00    2.10295   2.08946  133.437
 4919.00    1.93493   1.99744   -1.000
 4920.00    1.84630   1.93506   -1.000
 4921.00    1.91624   1.92187  126.749
 4922.00    2.04124   1.95312   -1.000
 4923.00    2.12246   2.01042   -1.000
 4924.00    2.15325   2.07351   -1.000
 4925.00    2.14627   2.13438  118.515
 4926.00    2.20132   2.19366  117.714
 4927.00    2.29310   2.25174   -1.000
 4928.00    2.34397   2.30465   -1.000
 4929.00    2.38093   2.34403   -1.000
 4930.00    2.38243   2.36150   -1.000
 4931.00    2.37678   2.35317   -1.000
 4932.00    2.32718   2.32342  123.844
 4933.00    2.22310   2.28287   -1.000
 4934.00    2.18085   2.24309   -1.000
 4935.00    2.22239   2.20877  131.145
 4936.00    2.24681   2.17659   -1.000
 4937.00    2.16104   2.14448  125.198
 4938.00    2.06717   2.11943   -1.000
 4939.00    2.05485   2.11664   -1.000
 4940.00    2.14900   2.14635  118.066
 4941.00    2.27407   2.20250   -1.000
 4942.00    2.33939   2.26730   -1.000
 4943.00    2.37727   2.32066   -1.000
 4944.00    2.40220   2.35376   -1.000
 4945.00    2.40424   2.36876   -1.000
 4946.00    2.39288   2.37557  116.427
 4947.00    2.38680   2.38333  115.968
 4948.00    2.42369   2.39579   -1.000
 4949.00    2.44679   2.40999   -1.000
 4950.00    2.43733   2.42015  118.839
 4951.00    2.45083   2.42134   -1.000
 4952.00    2.42947   2.40869   -1.000
 4953.00    2.36779   2.37888  130.278
 4954.00    2.32343   2.32801  135.184
 4955.00    2.26153   2.25737  131.989
 4956.00    2.13797   2.17937   -1.000
 4957.00    1.99507   2.11673   -1.000
 4958.00    1.96176   2.09688   -1.000
 4959.00    2.07999   2.12751   -1.000
 4960.00    2.22671   2.19137   -1.000
 4961.00    2.30791   2.25811   -1.000
 4962.00    2.31331   2.30004  125.276
 4963.00    2.28742   2.30857  126.800
 4964.00    2.25918   2.28847   -1.000
 4965.00    2.20936   2.25348   -1.000
 4966.00    2.14522   2.21929   -1.000
 4967.00    2.12443   2.19752   -1.000
 4968.00    2.15505   2.19330   -1.000
 4969.00    2.17251   2.20648   -1.000
 4970.00    2.20826   2.23288  120.118
 4971.00    2.25536   2.26673  119.714
 4972.00    2.29345   2.30156  120.614
 4973.00    2.32896   2.32974  121.921
 4974.00    2.35289   2.34503  123.612
 4975.00    2.36098   2.34396  125.618
 4976.00    2.30955   2.32637  127.165
 4977.00    2.26348   2.29511   -1.000
 4978.00    2.20582   2.25430   -1.000
 4979.00    2.18372   2.20665  137.555
 4980.00    2.16491   2.15342  137.278
 4981.00    2.10090   2.09662  134.541
 4982.00    2.02436   2.04371  130.687
 4983.00    1.96475   2.00893   -1.000
 4984.00    1.98420   2.00572  123.641
 4985.00    2.04062   2.03706  123.944
 4986.00    2.13761   2.09318   -1.000
 4987.00    2.24784   2.15423   -1.000
 4988.00    2.27969   2.20293   -1.000
 4989.00    2.26783   2.22976   -1.000
 4990.00    2.25744   2.23883  125.332
 4991.00    2.24214   2.23985  125.251
 4992.00    2.22332   2.24143  124.586
 4993.00    2.22590   2.24725  124.054
 4994.00    2.24306   2.25566  124.908
 4995.00    2.27964   2.26276  126.670
 4996.00    2.30944   2.26393   -1.000
 4997.00    2.28835   2.25268   -1.000
 4998.00    2.24761   2.22614   -1.000
 4999.00    2.18685   2.18817  129.396
 5000.00    2.13368   2.14726  128.735
 5001.00    2.10707   2.11291  130.767
 5002.00    2.12198   2.08752   -1.000
 5003.00    2.14297   2.06731   -1.000
 5004.00    2.12163   2.04729   -1.000
 5005.00    2.06880   2.02976   -1.000
 5006.00    2.04282   2.02379  125.989
 5007.00    2.05527   2.03798  127.884
 5008.00    2.14476   2.06977   -1.000
 5009.00    2.21212   2.10193   -1.000
 5010.00    2.22270   2.11553   -1.000
 5011.00    2.15435   2.10042   -1.000
 5012.00    2.06976   2.06325  135.481
 5013.00    1.99833   2.02114  132.821
 5014.00    1.98167   1.99244  132.370
 5015.00    2.00040   1.98539  132.296
 5016.00    2.05569   1.99579   -1.000
 5017.00    2.07833   2.01505   -1.000
 5018.00    2.07179   2.03488   -1.000
 5019.00    2.11301   2.05266   -1.000
 5020.00    2.14339   2.06806   -1.000
 5021.00    2.15173   2.08151   -1.000
 5022.00    2.12972   2.09627   -1.000
 5023.00    2.13128   2.11499  128.388
 5024.00    2.16820   2.13658   -1.000
 5025.00    2.20229   2.15633   -1.000
 5026.00    2.20920   2.16900   -1.000
 5027.00    2.20496   2.17657   -1.000
 5028.00    2.17811   2.18801  121.359
 5029.00    2.22400   2.21155  120.116
 5030.00    2.28341   2.24867   -1.000
 5031.00    2.33027   2.29080   -1.000
 5032.00    2.38158   2.32476   -1.000
 5033.00    2.39409   2.33765   -1.000
 5034.00    2.35927   2.32320   -1.000
 5035.00    2.27444   2.28469  133.922
 5036.00    2.20236   2.23229   -1.000
 5037.00    2.17117   2.17504  144.531
 5038.00    2.14897   2.11615   -1.000
 5039.00    2.08125   2.05920   -1.000
 5040.00    1.96840   2.01436   -1.000
 5041.00    1.93521   2.00106   -1.000
 5042.00    2.02160   2.03416  120.506
 5043.00    2.21485   2.11021   -1.000
 5044.00    1.42924   2.20631   -1.000
 5045.00    0.07343   2.28909   -1.000
 5046.00    0.04193   2.33376   -1.000
 5047.00    0.63031   2.33242   -1.000
 5048.00    1.98199   2.29616   -1.000
 5049.00    2.17720   2.24650   -1.000
 5050.00    2.14646   2.20689   -1.000
 5051.00    2.18496   2.19185  121.148
 5052.00    2.24122   2.20395   -1.000
 5053.00    2.29953   2.23777   -1.000
 5054.00    2.35617   2.28261   -1.000
 5055.00    2.40633   2.32667   -1.000
 5056.00    2.45183   2.36385   -1.000
 5057.00    2.42631   2.39318   -1.000
 5058.00    2.46921   2.41721   -1.000
 5059.00    2.48002   2.43844   -1.000
 5060.00    2.48985   2.45357   -1.000
 5061.00    2.50589   2.45538   -1.000
 5062.00    2.49588   2.43599   -1.000
 5063.00    2.40875   2.39368   -1.000
 5064.00    2.29727   2.33751   -1.000
 5065.00    2.23063   2.28388   -1.000
 5066.00    2.23383   2.24741  125.876
 5067.00    2.26594   2.23317   -1.000
 5068.00    2.26769   2.23695   -1.000
 5069.00    2.31117   2.24959   -1.000
 5070.00    2.34761   2.26234   -1.000
 5071.00    2.33495   2.26957   -1.000
 5072.00    2.31025   2.27112   -1.000
 5073.00    2.33029   2.27107   -1.000
 5074.00    2.36250   2.27278   -1.000
 5075.00    2.38406   2.27314   -1.000
 5076.00    2.37479   2.26515   -1.000
 5077.00    2.35249   2.24131   -1.000
 5078.00    2.29429   2.20050   -1.000
 5079.00    2.17260   2.15111   -1.000
 5080.00    2.07920   2.11023   -1.000
 5081.00    2.09522   2.09364  127.381
 5082.00    2.15396   2.10457   -1.000
 5083.00    2.20831   2.13715   -1.000
 5084.00    2.26643   2.18062   -1.000
 5085.00    2.31072   2.22578   -1.000
 5086.00    2.35982   2.26660   -1.000
 5087.00    2.37842   2.30027   -1.000
 5088.00    2.37959   2.32702   -1.000
 5089.00    2.39895   2.34965   -1.000
 5090.00    2.40228   2.37120   -1.000
 5091.00    2.44338   2.39318   -1.000
 5092.00    2.48716   2.41269   -1.000
 5093.00    2.51089   2.42247   -1.000
 5094.00    2.50410   2.41338   -1.000
 5095.00    2.45198   2.38080   -1.000
 5096.00    2.38218   2.32935   -1.000
 5097.00    2.30933   2.27215   -1.000
 5098.00    2.21684   2.22626  124.334
 5099.00    2.17298   2.20662   -1.000
 5100.00    2.23740   2.21767  124.500
 5101.00    2.32936   2.24943   -1.000
 5102.00    2.39404   2.28429   -1.000
 5103.00    2.38549   2.30511   -1.000
 5104.00    2.36361   2.30599   -1.000
 5105.00    2.34175   2.28989   -1.000
 5106.00    2.30099   2.26418   -1.000
 5107.00    2.25711   2.23771   -1.000
 5108.00    2.25749   2.21807   -1.000
 5109.00    2.24496   2.21187   -1.000
 5110.00    2.27251   2.22275   -1.000
 5111.00    2.31854   2.24941   -1.000
 5112.00    2.36234   2.28674   -1.000
 5113.00    2.41411   2.32677   -1.000
 5114.00    2.45124   2.36481   -1.000
 5115.00    2.46565   2.39880   -1.000
 5116.00    2.49965   2.42678   -1.000
 5117.00    2.54414   2.44539   -1.000
 5118.00    2.54933   2.44970   -1.000
 5119.00    2.53352   2.43542   -1.000
 5120.00    2.47268   2.40185   -1.000
 5121.00    2.41791   2.35265   -1.000
 5122.00    2.34732   2.29543   -1.000
 5123.00    2.24529   2.24070  131.581
 5124.00    2.20518   2.19840  130.933
 5125.00    2.21358   2.17459   -1.000
 5126.00    2.24522   2.16852   -1.000
 5127.00    2.26796   2.17447   -1.000
 5128.00    2.27202   2.18765   -1.000
 5129.00    2.27548   2.20634   -1.000
 5130.00    2.29264   2.23046   -1.000
 5131.00    2.35773   2.25932   -1.000
 5132.00    2.41221   2.28930   -1.000
 5133.00    2.45435   2.31581   -1.000
 5134.00    2.47451   2.33369   -1.000
 5135.00    2.49608   2.33777   -1.000
 5136.00    2.46897   2.32540   -1.000
 5137.00    2.39682   2.29802   -1.000
 5138.00    2.31132   2.26494   -1.000
 5139.00    2.27139   2.23774   -1.000
 5140.00    2.29638   2.22146   -1.000
 5141.00    2.31830   2.21541   -1.000
 5142.00    2.30982   2.21523   -1.000
 5143.00    2.27430   2.21729   -1.000
 5144.00    2.27997   2.21970   -1.000
 5145.00    2.30772   2.21888   -1.000
 5146.00    2.28991   2.21380   -1.000
 5147.00    2.26270   2.20864   -1.000
 5148.00    2.25380   2.20677   -1.000
 5149.00    2.28323   2.20844   -1.000
 5150.00    2.30451   2.21004   -1.000
 5151.00    2.28804   2.20903   -1.000
 5152.00    2.27038   2.20831   -1.000
 5153.00    2.28988   2.21413   -1.000
 5154.00    2.29686   2.23293   -1.000
 5155.00    2.36977   2.26685   -1.000
 5156.00    2.45553   2.31152   -1.000
 5157.00    2.52329   2.35710   -1.000
 5158.00    2.56974   2.39305   -1.000
 5159.00    2.56143   2.41198   -1.000
 5160.00    2.53967   2.40946   -1.000
 5161.00    2.50477   2.38376   -1.000
 5162.00    2.46990   2.33381   -1.000
 5163.00    2.40854   2.25788   -1.000
 5164.00    2.29982   2.15750   -1.000
 5165.00    2.12865   2.03941   -1.000
 5166.00    1.87382   1.91746   -1.000
 5167.00    1.67847   1.81607   -1.000
 5168.00    1.65444   1.75454   -1.000
 5169.00    1.77046   1.72999   -1.000
 5170.00    1.88801   1.72392   -1.000
 5171.00    1.82685   1.71804   -1.000
 5172.00    1.66040   1.71990   -1.000
 5173.00    1.63849   1.75299   -1.000
 5174.00    1.83191   1.83142  127.890
 5175.00    2.09593   1.94599   -1.000
 5176.00    2.26728   2.06272   -1.000
 5177.00    2.31431   2.15155   -1.000
 5178.00    2.32988   2.19384   -1.000
 5179.00    2.31407   2.18134   -1.000
 5180.00    2.22840   2.11672   -1.000
 5181.00    2.07338   2.01179   -1.000
 5182.00    1.86191   1.89504   -1.000
 5183.00    1.66236   1.80944   -1.000
 5184.00    1.65071   1.79221   -1.000
 5185.00    1.88062   1.85475  127.948
 5186.00    2.16627   1.97031   -1.000
 5187.00    2.35435   2.09588   -1.000
 5188.00    2.42275   2.19344   -1.000
 5189.00    2.44738   2.24432   -1.000
 5190.00    2.44317   2.24951   -1.000
 5191.00    2.36279   2.22345   -1.000
 5192.00    2.24585   2.18838   -1.000
 5193.00    2.22679   2.16687   -1.000
 5194.00    2.31392   2.16916   -1.000
 5195.00    2.36037   2.19286   -1.000
 5196.00    2.39757   2.23288   -1.000
 5197.00    2.47396   2.28065   -1.000
 5198.00    2.49099   2.32705   -1.000
 5199.00    2.51988   2.36356   -1.000
 5200.00    2.54591   2.38146   -1.000
 5201.00    2.54921   2.37414   -1.000
 5202.00    2.49629   2.33943   -1.000
 5203.00    2.42451   2.28030   -1.000
 5204.00    2.32340   2.20544   -1.000
 5205.00    2.19247   2.13022   -1.000
 5206.00    2.13671   2.07064   -1.000
 5207.00    2.13573   2.03906   -1.000
 5208.00    2.12582   2.04134   -1.000
 5209.00    2.16878   2.07772   -1.000
 5210.00    2.28756   2.14279   -1.000
 5211.00    2.42874   2.22259   -1.000
 5212.00    2.54719   2.29738   -1.000
 5213.00    2.63165   2.34969   -1.000
 5214.00    2.63430   2.37186   -1.000
 5215.00    2.55719   2.37219   -1.000
 5216.00    2.50560   2.36886   -1.000
 5217.00    2.52337   2.37920   -1.000
 5218.00    2.60639   2.40782   -1.000
 5219.00    2.67181   2.44534   -1.000
 5220.00    2.69634   2.47556   -1.000
 5221.00    2.71630   2.48258   -1.000
 5222.00    2.68998   2.45658   -1.000
 5223.00    2.58541   2.39723   -1.000
 5224.00    2.48358   2.31583   -1.000
 5225.00    2.35476   2.23346   -1.000
 5226.00    2.24072   2.17625   -1.000
 5227.00    2.26021   2.16534   -1.000
 5228.00    2.39662   2.20243   -1.000
 5229.00    2.56978   2.26806   -1.000
 5230.00    2.67224   2.33175   -1.000
 5231.00    2.69328   2.36976   -1.000
 5232.00    2.64330   2.38044   -1.000
 5233.00    2.55380   2.37906   -1.000
 5234.00    2.51826   2.38687   -1.000
 5235.00    2.59679   2.41554   -1.000
 5236.00    2.69226   2.46109   -1.000
 5237.00    2.77351   2.51067   -1.000
 5238.00    2.79717   2.55021   -1.000
 5239.00    2.77533   2.57341   -1.000
 5240.00    2.75556   2.58253   -1.000
 5241.00    2.74955   2.58354   -1.000
 5242.00    2.75978   2.58179   -1.000
 5243.00    2.77122   2.57791   -1.000
 5244.00    2.79835   2.56704   -1.000
 5245.00    2.76968   2.54261   -1.000
 5246.00    2.68526   2.50356   -1.000
 5247.00    2.58458   2.45770   -1.000
 5248.00    2.55723   2.41724   -1.000
 5249.00    2.57990   2.39079   -1.000
 5250.00    2.57314   2.38089   -1.000
 5251.00    2.57126   2.38604   -1.000
 5252.00    2.60491   2.40123   -1.000
 5253.00    2.63779   2.42107   -1.000
 5254.00    2.63886   2.44536   -1.000
 5255.00    2.62790   2.47776   -1.000
 5256.00    2.68507   2.52040   -1.000
 5257.00    2.80814   2.56538   -1.000
 5258.00    2.86774   2.59466   -1.000
 5259.00    2.84629   2.59156   -1.000
 5260.00    2.78276   2.54704   -1.000
 5261.00    2.67254   2.46414   -1.000
 5262.00    2.53980   2.35790   -1.000
 5263.00    2.38403   2.24944   -1.000
 5264.00    2.28123   2.15756   -1.000
 5265.00    2.23399   2.09287   -1.000
 5266.00    2.24341   2.05513   -1.000
 5267.00    2.31368   2.03519   -1.000
 5268.00    2.31944   2.02298   -1.000
 5269.00    2.21612   2.02078   -1.000
 5270.00    2.17446   2.04173   -1.000
 5271.00    2.31366   2.09517   -1.000
 5272.00    2.52718   2.17444   -1.000
 5273.00    2.62431   2.25731   -1.000
 5274.00    2.63686   2.33051   -1.000
 5275.00    2.63356   2.39565   -1.000
 5276.00    2.70193   2.45645   -1.000
 5277.00    2.81707   2.51325   -1.000
 5278.00    2.90482   2.55572   -1.000
 5279.00    2.92410   2.57077   -1.000
 5280.00    2.86315   2.55588   -1.000
 5281.00    2.77215   2.52168   -1.000
 5282.00    2.67637   2.48860   -1.000
 5283.00    2.58569   2.47798   -1.000
 5284.00    2.68276   2.50212   -1.000
 5285.00    2.84250   2.55747   -1.000
 5286.00    2.95874   2.62655   -1.000
 5287.00    3.02908   2.68820   -1.000
 5288.00    3.01961   2.73211   -1.000
 5289.00    3.01341   2.75807   -1.000
 5290.00    3.03329   2.76979   -1.000
 5291.00    3.04748   2.77006   -1.000
 5292.00    3.03930   2.75713   -1.000
 5293.00    3.00317   2.72858   -1.000
 5294.00    2.93326   2.68277   -1.000
 5295.00    2.84949   2.62000   -1.000
 5296.00    2.75024   2.54837   -1.000
 5297.00    2.62607   2.48500   -1.000
 5298.00    2.58984   2.44788   -1.000
 5299.00    2.67431   2.44662   -1.000
 5300.00    2.77720   2.47638   -1.000
 5301.00    2.82882   2.52599   -1.000
 5302.00    2.86165   2.58601   -1.000
 5303.00    2.95473   2.64866   -1.000
 5304.00    3.04696   2.70628   -1.000
 5305.00    3.08714   2.75052   -1.000
 5306.00    3.07982   2.77759   -1.000
 5307.00    3.06102   2.79211   -1.000
 5308.00    3.07242   2.80116   -1.000
 5309.00    3.09835   2.80949   -1.000
 5310.00    3.10908   2.81583   -1.000
 5311.00    3.11293   2.81503   -1.000
 5312.00    3.09348   2.80474   -1.000
 5313.00    3.08697   2.78566   -1.000
 5314.00    3.05664   2.76134   -1.000
 5315.00    3.04077   2.73702   -1.000
 5316.00    3.00229   2.71707   -1.000
 5317.00    2.95771   2.70469   -1.000
 5318.00    2.98191   2.69965   -1.000
 5319.00    2.99780   2.69666   -1.000
 5320.00    2.99260   2.68908   -1.000
 5321.00    2.99169   2.67111   -1.000
 5322.00    2.94037   2.63827   -1.000
 5323.00    2.87180   2.58937   -1.000
 5324.00    2.80171   2.52714   -1.000
 5325.00    2.77917   2.45509   -1.000
 5326.00    2.73830   2.37837   -1.000
 5327.00    2.57846   2.31050   -1.000
 5328.00    2.42255   2.27412   -1.000
 5329.00    2.44871   2.28857   -1.000
 5330.00    2.64698   2.35355   -1.000
 5331.00    2.83600   2.44520   -1.000
 5332.00    2.91570   2.53787   -1.000
 5333.00    2.95183   2.61629   -1.000
 5334.00    3.00793   2.67407   -1.000
 5335.00    3.05463   2.71009   -1.000
 5336.00    3.06201   2.72164   -1.000
 5337.00    3.03975   2.70743   -1.000
 5338.00    2.99011   2.67143   -1.000
 5339.00    2.90287   2.62409   -1.000
 5340.00    2.80533   2.58317   -1.000
 5341.00    2.77981   2.56570   -1.000
 5342.00    2.85503   2.57545   -1.000
 5343.00    2.94790   2.60008   -1.000
 5344.00    2.98710   2.62349   -1.000
 5345.00    2.98052   2.63489   -1.000
 5346.00    2.96988   2.63256   -1.000
 5347.00    2.96058   2.62321   -1.000
 5348.00    2.94001   2.61681   -1.000
 5349.00    2.93136   2.62365   -1.000
 5350.00    2.98044   2.64974   -1.000
 5351.00    3.05013   2.69273   -1.000
 5352.00    3.11330   2.74454   -1.000
 5353.00    3.13558   2.79658   -1.000
 5354.00    3.16354   2.84294   -1.000
 5355.00    3.21413   2.88048   -1.000
 5356.00    3.24330   2.90592   -1.000
 5357.00    3.27005   2.91735   -1.000
 5358.00    3.25599   2.91531   -1.000
 5359.00    3.22986   2.90028   -1.000
 5360.00    3.18842   2.87360   -1.000
 5361.00    3.12655   2.83902   -1.000
 5362.00    3.08415   2.80123   -1.000
 5363.00    3.07307   2.76403   -1.000
 5364.00    3.05943   2.73000   -1.000
 5365.00    3.01994   2.69942   -1.000
 5366.00    2.98779   2.67010   -1.000
 5367.00    2.98525   2.63772   -1.000
 5368.00    2.97733   2.59712   -1.000
 5369.00    2.88250   2.55021   -1.000
 5370.00    2.76929   2.51110   -1.000
 5371.00    2.71471   2.49906   11.453
 5372.00    2.80360   2.52662   -1.000
 5373.00    2.99618   2.58880   -1.000
 5374.00    3.15375   2.66463   -1.000
 5375.00    3.21986   2.73178   -1.000
 5376.00    3.20006   2.77691   -1.000
 5377.00    3.16788   2.79984   -1.000
 5378.00    3.17254   2.80692   -1.000
 5379.00    3.17471   2.80356   -1.000
 5380.00    3.15985   2.79309   -1.000
 5381.00    3.11747   2.77839   -1.000
 5382.00    3.06930   2.76479   -1.000
 5383.00    3.06163   2.75769   -1.000
 5384.00    3.09257   2.75893   -1.000
 5385.00    3.13786   2.76507   -1.000
 5386.00    3.15728   2.76795   -1.000
 5387.00    3.14432   2.75927   -1.000
 5388.00    3.10439   2.73593   -1.000
 5389.00    3.03070   2.70189   -1.000
 5390.00    2.96749   2.66518   -1.000
 5391.00    2.95050   2.63359   -1.000
 5392.00    2.95111   2.61021   -1.000
 5393.00    2.95680   2.59238   -1.000
 5394.00    2.95343   2.57514   -1.000
 5395.00    2.89850   2.55561   -1.000
 5396.00    2.82115   2.53743   -1.000
 5397.00    2.79243   2.53055   -1.000
 5398.00    2.85894   2.54324   -1.000
 5399.00    2.96474   2.57228   -1.000
 5400.00    3.01003   2.60343   -1.000
 5401.00    3.01796   2.61954   -1.000
 5402.00    3.01528   2.60891   -1.000
 5403.00    2.94824   2.57018   -1.000
 5404.00    2.80118   2.51451   -1.000
 5405.00    2.69762   2.46369   -1.000
 5406.00    2.69573   2.43829   -1.000
 5407.00    2.77677   2.44270   -1.000
 5408.00    2.85993   2.46736   -1.000
 5409.00    2.86711   2.50244   -1.000
 5410.00    2.86800   2.54398   -1.000
 5411.00    2.94865   2.59335   -1.000
 5412.00    3.07008   2.64737   -1.000
 5413.00    3.13628   2.69814   -1.000
 5414.00    3.13681   2.74166   -1.000
 5415.00    3.12911   2.77676   -1.000
 5416.00    3.14943   2.80357   -1.000
 5417.00    3.18635   2.82061   -1.000
 5418.00    3.20186   2.82486   -1.000
 5419.00    3.18118   2.81721   -1.000
 5420.00    3.14987   2.80203   -1.000
 5421.00    3.13808   2.78500   -1.000
 5422.00    3.15021   2.77090   -1.000
 5423.00    3.13137   2.76260   -1.000
 5424.00    3.09879   2.76294   -1.000
 5425.00    3.12402   2.77138   -1.000
 5426.00    3.19501   2.77895   -1.000
 5427.00    3.21593   2.77218   -1.000
 5428.00    3.12060   2.74347   -1.000
 5429.00    2.97000   2.70037   -1.000
 5430.00    2.89758   2.66006   -1.000
 5431.00    2.95520   2.63235   -1.000
 5432.00    3.01643   2.61598   -1.000
 5433.00    2.98622   2.60606   -1.000
 5434.00    2.92300   2.60381   -1.000
 5435.00    2.92909   2.61821   -1.000
 5436.00    2.99266   2.65574   -1.000
 5437.00    3.06495   2.71540   -1.000
 5438.00    3.15114   2.78707   -1.000
 5439.00    3.25884   2.85516   -1.000
 5440.00    3.34305   2.90609   -1.000
 5441.00    3.34309   2.93190   -1.000
 5442.00    3.31000   2.92911   -1.000
 5443.00    3.27553   2.89702   -1.000
 5444.00    3.17334   2.83942   -1.000
 5445.00    3.04250   2.76878   -1.000
 5446.00    2.88634   2.70637   11.824
 5447.00    2.82922   2.67387   11.768
 5448.00    2.89757   2.67950   11.813
 5449.00    3.01161   2.71256   -1.000
 5450.00    3.10154   2.74906   -1.000
 5451.00    3.12509   2.76723   -1.000
 5452.00    3.10029   2.75839   -1.000
 5453.00    3.02872   2.72517   -1.000
 5454.00    2.93493   2.68261   -1.000
 5455.00    2.86858   2.65292   11.778
 5456.00    2.90026   2.65335   -1.000
 5457.00    3.01541   2.68531   -1.000
 5458.00    3.14169   2.73118   -1.000
 5459.00    3.18111   2.76633   -1.000
 5460.00    3.12745   2.77707   -1.000
 5461.00    3.08570   2.76451   -1.000
 5462.00    3.05296   2.74145   -1.000
 5463.00    3.01688   2.72504   -1.000
 5464.00    3.02686   2.72526   -1.000
 5465.00    3.08722   2.74071   -1.000
 5466.00    3.13889   2.76275   -1.000
 5467.00    3.15450   2.78225   -1.000
 5468.00    3.15586   2.79252   -1.000
 5469.00    3.15407   2.79092   -1.000
 5470.00    3.12738   2.77872   -1.000
 5471.00    3.08094   2.75857   -1.000
 5472.00    3.06663   2.73234   -1.000
 5473.00    3.04425   2.70022   -1.000
 5474.00    3.00385   2.66333   -1.000
 5475.00    2.96840   2.62695   -1.000
 5476.00    2.89221   2.60073   -1.000
 5477.00    2.87462   2.59453   -1.000
 5478.00    2.95089   2.60920   -1.000
 5479.00    3.04824   2.63290   -1.000
 5480.00    3.05658   2.65394   -1.000
 5481.00    2.98448   2.67096   -1.000
 5482.00    2.94097   2.69118   -1.000
 5483.00    2.98702   2.72048   -1.000
 5484.00    3.09390   2.75361   -1.000
 5485.00    3.16129   2.77898   -1.000
 5486.00    3.17970   2.78857   -1.000
 5487.00    3.13363   2.78365   -1.000
 5488.00    3.07756   2.77427   -1.000
 5489.00    3.09713   2.77051   -1.000
 5490.00    3.13654   2.77549   -1.000
 5491.00    3.15599   2.78490   -1.000
 5492.00    3.16336   2.79312   -1.000
 5493.00    3.17320   2.79728   -1.000
 5494.00    3.19204   2.79780   -1.000
 5495.00    3.19119   2.79679   -1.000
 5496.00    3.16797   2.79553   -1.000
 5497.00    3.13695   2.79585   -1.000
 5498.00    3.14908   2.79844   -1.000
 5499.00    3.18988   2.79924   -1.000
 5500.00    3.19812   2.79265   -1.000
 5501.00    3.11746   2.77707   -1.000
 5502.00    3.07774   2.75687   -1.000
 5503.00    3.09940   2.73879   -1.000
 5504.00    3.10571   2.72515   -1.000
 5505.00    3.09298   2.71612   -1.000
 5506.00    3.06048   2.71398   -1.000
 5507.00    3.07803   2.72009   -1.000
 5508.00    3.14261   2.73127   -1.000
 5509.00    3.16272   2.73863   -1.000
 5510.00    3.13721   2.73319   -1.000
 5511.00    3.10085   2.71457   -1.000
 5512.00    3.04164   2.69115   -1.000
 5513.00    2.99745   2.67506   -1.000
 5514.00    3.02195   2.67586   -1.000
 5515.00    3.07110   2.69608   -1.000
 5516.00    3.11624   2.73240   -1.000
 5517.00    3.18809   2.77797   -1.000
 5518.00    3.27179   2.82440   -1.000
 5519.00    3.30681   2.86341   -1.000
 5520.00    3.31012   2.88920   -1.000
 5521.00    3.31483   2.90115   -1.000
 5522.00    3.29763   2.90145   -1.000
 5523.00    3.28826   2.89071   -1.000
 5524.00    3.26701   2.86774   -1.000
 5525.00    3.22471   2.83212   -1.000
 5526.00    3.16786   2.78828   -1.000
 5527.00    3.08671   2.74721   -1.000
 5528.00    3.03140   2.72363   -1.000
 5529.00    3.06327   2.72709   -1.000
 5530.00    3.14671   2.75292   -1.000
 5531.00    3.21433   2.78648   -1.000
 5532.00    3.23328   2.81327   -1.000
 5533.00    3.22357   2.82701   -1.000
 5534.00    3.20996   2.82991   -1.000
 5535.00    3.22534   2.82851   -1.000
 5536.00    3.22168   2.83016   -1.000
 5537.00    3.21910   2.83934   -1.000
 5538.00    3.25804   2.85578   -1.000
 5539.00    3.30797   2.87603   -1.000
 5540.00    3.35447   2.89473   -1.000
 5541.00    3.38800   2.90588   -1.000
 5542.00    3.35290   2.90674   -1.000
 5543.00    3.30164   2.90045   -1.000
 5544.00    3.29605   2.89377   -1.000
 5545.00    3.31408   2.89275   -1.000
 5546.00    3.32105   2.90083   -1.000
 5547.00    3.33348   2.91842   -1.000
 5548.00    3.37621   2.94166   -1.000
 5549.00    3.44153   2.96297   -1.000
 5550.00    3.45332   2.97521   -1.000
 5551.00    3.43463   2.97492   -1.000
 5552.00    3.41331   2.96287   -1.000
 5553.00    3.37206   2.94412   -1.000
 5554.00    3.33647   2.92603   -1.000
 5555.00    3.32794   2.91379   -1.000
 5556.00    3.32762   2.90818   -1.000
 5557.00    3.33561   2.90651   -1.000
 5558.00    3.35144   2.90562   -1.000
 5559.00    3.36491   2.90319   -1.000
 5560.00    3.36849   2.89673   -1.000
 5561.00    3.34523   2.88497   -1.000
 5562.00    3.30833   2.86981   -1.000
 5563.00    3.27516   2.85460   -1.000
 5564.00    3.25951   2.84123   -1.000
 5565.00    3.25937   2.83001   -1.000
 5566.00    3.25221   2.82110   -1.000
 5567.00    3.23262   2.81545   -1.000
 5568.00    3.22350   2.81380   -1.000
 5569.00    3.25236   2.81567   -1.000
 5570.00    3.28439   2.81956   -1.000
 5571.00    3.19741   2.82391   -1.000
 5572.00    2.98808   2.82850   11.861
 5573.00    3.33077   2.83543   -1.000
 5574.00    4.25598   2.84804   -1.000
 5575.00    4.53259   2.86591   -1.000
 5576.00    4.14857   2.88397   -1.000
 5577.00    3.66432   2.89936   -1.000
 5578.00    3.43362   2.91197   -1.000
 5579.00    3.39490   2.92027   -1.000
 5580.00    3.39291   2.92234   -1.000
 5581.00    3.36677   2.91664   -1.000
 5582.00    3.35223   2.90136   -1.000
 5583.00    3.34609   2.87485   -1.000
 5584.00    3.30680   2.83469   -1.000
 5585.00    3.25101   2.78121   -1.000
 5586.00    3.16875   2.72191   -1.000
 5587.00    3.07106   2.67019   -1.000
 5588.00    3.00953   2.63963   -1.000
 5589.00    3.01546   2.63585   -1.000
 5590.00    3.07549   2.65487   -1.000
 5591.00    3.15081   2.68701   -1.000
 5592.00    3.19396   2.72257   -1.000
 5593.00    3.17814   2.75687   -1.000
 5594.00    3.17910   2.78888   -1.000
 5595.00    3.24528   2.81659   -1.000
 5596.00    3.31808   2.83332   -1.000
 5597.00    3.31876   2.83222   -1.000
 5598.00    3.23174   2.81271   -1.000
 5599.00    3.14394   2.78237   -1.000
 5600.00    3.12183   2.75342   -1.000
 5601.00    3.12690   2.73758   -1.000
 5602.00    3.12418   2.74430   -1.000
 5603.00    3.15034   2.77822   -1.000
 5604.00    3.24764   2.83410   -1.000
 5605.00    3.36632   2.89788   -1.000
 5606.00    3.44229   2.95528   -1.000
 5607.00    3.47398   2.99743   -1.000
 5608.00    3.48261   3.02265   -1.000
 5609.00    3.48037   3.03386   -1.000
 5610.00    3.47436   3.03395   -1.000
 5611.00    3.48667   3.02161   -1.000
 5612.00    3.47963   2.99144   -1.000
 5613.00    3.41356   2.94052   -1.000
 5614.00    3.29313   2.87589   -1.000
 5615.00    3.16576   2.81660   -1.000
 5616.00    3.12389   2.78200   -1.000
 5617.00    3.18854   2.77952   -1.000
 5618.00    3.25118   2.80039   -1.000
 5619.00    3.26940   2.82915   -1.000
 5620.00    3.30171   2.85452   -1.000
 5621.00    3.34200   2.86802   -1.000
 5622.00    3.34769   2.86374   -1.000
 5623.00    3.28256   2.84428   -1.000
 5624.00    3.20333   2.82148   -1.000
 5625.00    3.17168   2.81084   -1.000
 5626.00    3.20154   2.82202   -1.000
 5627.00    3.28397   2.85281   -1.000
 5628.00    3.35839   2.89437   -1.000
 5629.00    3.41622   2.93582   -1.000
 5630.00    3.45974   2.96718   -1.000
 5631.00    3.46851   2.98231   -1.000
 5632.00    3.45656   2.98054   -1.000
 5633.00    3.42979   2.96515   -1.000
 5634.00    3.38695   2.94109   -1.000
 5635.00    3.34995   2.91399   -1.000
 5636.00    3.32819   2.88945   -1.000
 5637.00    3.31155   2.87139   -1.000
 5638.00    3.30945   2.86071   -1.000
 5639.00    3.30807   2.85517   -1.000
 5640.00    3.28867   2.85183   -1.000
 5641.00    3.28199   2.85001   -1.000
 5642.00    3.28329   2.85242   -1.000
 5643.00    3.30147   2.86089   -1.000
 5644.00    3.33210   2.87375   -1.000
 5645.00    3.36586   2.88819   -1.000
 5646.00    3.39046   2.90132   -1.000
 5647.00    3.40540   2.91084   -1.000
 5648.00    3.41070   2.91643   -1.000
 5649.00    3.39081   2.92032   -1.000
 5650.00    3.40459   2.92509   -1.000
 5651.00    3.44605   2.93066   -1.000
 5652.00    3.45463   2.93245   -1.000
 5653.00    3.44532   2.92502   -1.000
 5654.00    3.39807   2.90706   -1.000
 5655.00    3.34483   2.88015   -1.000
 5656.00    3.31915   2.84631   -1.000
 5657.00    3.25727   2.80980   -1.000
 5658.00    3.16920   2.77887   -1.000
 5659.00    3.14444   2.76399   -1.000
 5660.00    3.20843   2.76877   -1.000
 5661.00    3.26343   2.78668   -1.000
 5662.00    3.26390   2.81124   -1.000
 5663.00    3.27613   2.83971   -1.000
 5664.00    3.33303   2.86754   -1.000
 5665.00    3.39413   2.88859   -1.000
 5666.00    3.40871   2.89981   -1.000
 5667.00    3.36485   2.90363   -1.000
 5668.00    3.33114   2.90655   -1.000
 5669.00    3.34092   2.91445   -1.000
 5670.00    3.36870   2.93051   -1.000
 5671.00    3.40912   2.95490   -1.000
 5672.00    3.46608   2.98409   -1.000
 5673.00    3.54040   3.01140   -1.000
 5674.00    3.56975   3.03142   -1.000
 5675.00    3.55398   3.04249   -1.000
 5676.00    3.55229   3.04562   -1.000
 5677.00    3.56538   3.04169   -1.000
 5678.00    3.55274   3.02992   -1.000
 5679.00    3.52978   3.01059   -1.000
 5680.00    3.50490   2.98565   -1.000
 5681.00    3.46418   2.95817   -1.000
 5682.00    3.40732   2.93271   -1.000
 5683.00    3.36506   2.91486   -1.000
 5684.00    3.37498   2.90619   -1.000
 5685.00    3.41955   2.90269   -1.000
 5686.00    3.43383   2.90123   -1.000
 5687.00    3.39550   2.90328   -1.000
 5688.00    3.37331   2.91312   -1.000
 5689.00    3.41252   2.93327   -1.000
 5690.00    3.48401   2.96174   -1.000
 5691.00    3.54735   2.99278   -1.000
 5692.00    3.58355   3.01930   -1.000
 5693.00    3.58658   3.03598   -1.000
 5694.00    3.57036   3.04093   -1.000
 5695.00    3.54124   3.03512   -1.000
 5696.00    3.50868   3.02008   -1.000
 5697.00    3.47360   2.99731   -1.000
 5698.00    3.42172   2.96955   -1.000
 5699.00    3.36143   2.94102   -1.000
 5700.00    3.31017   2.91613   -1.000
 5701.00    3.28900   2.89879   -1.000
 5702.00    3.30503   2.89142   -1.000
 5703.00    3.34922   2.89039   -1.000
 5704.00    3.39787   2.88711   -1.000
 5705.00    3.38200   2.87379   -1.000
 5706.00    3.31283   2.84835   -1.000
 5707.00    3.25511   2.81647   -1.000
 5708.00    3.21144   2.78723   -1.000
 5709.00    3.18962   2.76946   -1.000
 5710.00    3.20519   2.77003   -1.000
 5711.00    3.23827   2.79134   -1.000
 5712.00    3.29049   2.83094   -1.000
 5713.00    3.38058   2.88188   -1.000
 5714.00    3.47843   2.93414   -1.000
 5715.00    3.53213   2.98023   -1.000
 5716.00    3.54912   3.01739   -1.000
 5717.00    3.56061   3.04655   -1.000
 5718.00    3.57584   3.07077   -1.000
 5719.00    3.59454   3.09321   -1.000
 5720.00    3.61943   3.11486   -1.000
 5721.00    3.65773   3.13403   -1.000
 5722.00    3.68175   3.14767   -1.000
 5723.00    3.68392   3.15252   -1.000
 5724.00    3.68614   3.14664   -1.000
 5725.00    3.66665   3.13137   -1.000
 5726.00    3.61413   3.11212   -1.000
 5727.00    3.57317   3.09614   -1.000
 5728.00    3.56897   3.08779   -1.000
 5729.00    3.59448   3.08501   -1.000
 5730.00    3.59278   3.08440   -1.000
 5731.00    3.55786   3.08607   -1.000
 5732.00    3.56171   3.09279   -1.000
 5733.00    3.61618   3.10538   -1.000
 5734.00    3.65898   3.11921   -1.000
 5735.00    3.66078   3.12880   -1.000
 5736.00    3.65887   3.13195   -1.000
 5737.00    3.64411   3.12996   -1.000
 5738.00    3.60733   3.12623   -1.000
 5739.00    3.58881   3.12287   -1.000
 5740.00    3.58615   3.12075   -1.000
 5741.00    3.59577   3.12036   -1.000
 5742.00    3.60539   3.12251   -1.000
 5743.00    3.60541   3.12809   -1.000
 5744.00    3.63468   3.13511   -1.000
 5745.00    3.67900   3.13918   -1.000
 5746.00    3.69149   3.13644   -1.000
 5747.00    3.65373   3.12763   -1.000
 5748.00    3.61014   3.11804   -1.000
 5749.00    3.62980   3.10973   -1.000
 5750.00    3.67898   3.09959   -1.000
 5751.00    3.66771   3.08310   -1.000
 5752.00    3.57493   3.06169   -1.000
 5753.00    3.49708   3.04556   -1.000
 5754.00    3.49819   3.04512   -1.000
 5755.00    3.56398   3.06378   -1.000
 5756.00    3.66310   3.09272   -1.000
 5757.00    3.72025   3.11710   -1.000
 5758.00    3.70218   3.12492   -1.000
 5759.00    3.64253   3.11234   -1.000
 5760.00    3.58825   3.08595   -1.000
 5761.00    3.51759   3.05990   -1.000
 5762.00    3.47245   3.04916   -1.000
 5763.00    3.51937   3.06215   -1.000
 5764.00    3.62594   3.09589   -1.000
 5765.00    3.69812   3.13765   -1.000
 5766.00    3.72594   3.17457   -1.000
 5767.00    3.72291   3.19903   -1.000
 5768.00    3.70415   3.20892   -1.000
 5769.00    3.68017   3.20636   -1.000
 5770.00    3.65150   3.19566   -1.000
 5771.00    3.62646   3.18133   -1.000
 5772.00    3.59461   3.16689   -1.000
 5773.00    3.53564   3.15555   -1.000
 5774.00    3.47353   3.14886   -1.000
 5775.00    3.40828   3.14591   -1.000
 5776.00    3.35380   3.14203   12.145
 5777.00    3.36876   3.12934   -1.000
 5778.00    3.42243   3.10128   -1.000
 5779.00    3.44888   3.05678   -1.000
 5780.00    3.41439   3.00270   -1.000
 5781.00    3.34759   2.95094   -1.000
 5782.00    3.34429   2.91308   -1.000
 5783.00    3.37204   2.89419   -1.000
 5784.00    3.35657   2.89371   -1.000
 5785.00    3.35835   2.91102   -1.000
 5786.00    3.43362   2.94349   -1.000
 5787.00    3.52813   2.98389   -1.000
 5788.00    3.59862   3.02306   -1.000
 5789.00    3.62918   3.05439   -1.000
 5790.00    3.60102   3.07748   -1.000
 5791.00    3.57036   3.09693   -1.000
 5792.00    3.57630   3.11807   -1.000
 5793.00    3.60783   3.14160   -1.000
 5794.00    3.67954   3.16280   -1.000
 5795.00    3.75187   3.17623   -1.000
 5796.00    3.74754   3.18078   -1.000
 5797.00    3.70642   3.18264   -1.000
 5798.00    3.71508   3.19047   -1.000
 5799.00    3.76665   3.20841   -1.000
 5800.00    3.82582   3.23127   -1.000
 5801.00    3.86455   3.24838   -1.000
 5802.00    3.85119   3.25200   -1.000
 5803.00    3.79193   3.24101   -1.000
 5804.00    3.71782   3.22175   -1.000
 5805.00    3.68302   3.20370   -1.000
 5806.00    3.69733   3.19395   -1.000
 5807.00    3.72270   3.19437   -1.000
 5808.00    3.74489   3.20264   -1.000
 5809.00    3.76954   3.21451   -1.000
 5810.00    3.78721   3.22506   -1.000
 5811.00    3.80023   3.22954   -1.000
 5812.00    3.80466   3.22517   -1.000
 5813.00    3.78802   3.21232   -1.000
 5814.00    3.75534   3.19531   -1.000
 5815.00    3.71092   3.18189   -1.000
 5816.00    3.69830   3.18057   -1.000
 5817.00    3.73203   3.19452   -1.000
 5818.00    3.78391   3.21940   -1.000
 5819.00    3.83784   3.24561   -1.000
 5820.00    3.87632   3.26479   -1.000
 5821.00    3.88826   3.27405   -1.000
 5822.00    3.87273   3.27556   -1.000
 5823.00    3.85165   3.27437   -1.000
 5824.00    3.84446   3.27420   -1.000
 5825.00    3.85518   3.27647   -1.000
 5826.00    3.87089   3.28089   -1.000
 5827.00    3.88586   3.28629   -1.000
 5828.00    3.88492   3.29174   -1.000
 5829.00    3.87863   3.29559   -1.000
 5830.00    3.89090   3.29606   -1.000
 5831.00    3.87465   3.29229   -1.000
 5832.00    3.86407   3.28445   -1.000
 5833.00    3.85242   3.27408   -1.000
 5834.00    3.83147   3.26379   -1.000
 5835.00    3.82687   3.25661   -1.000
 5836.00    3.83909   3.25402   -1.000
 5837.00    3.84258   3.25609   -1.000
 5838.00    3.81854   3.26339   -1.000
 5839.00    3.80474   3.27585   -1.000
 5840.00    3.83382   3.29110   -1.000
 5841.00    3.87514   3.30428   -1.000
 5842.00    3.88563   3.31003   -1.000
 5843.00    3.86975   3.30528   -1.000
 5844.00    3.82969   3.29030   -1.000
 5845.00    3.77827   3.26838   -1.000
 5846.00    3.74616   3.24472   -1.000
 5847.00    3.72764   3.22406   -1.000
 5848.00    3.71990   3.20840   -1.000
 5849.00    3.72680   3.19595   -1.000
 5850.00    3.73304   3.18237   -1.000
 5851.00    3.71361   3.16495   -1.000
 5852.00    3.67315   3.14417   -1.000
 5853.00    3.64144   3.12239   -1.000
 5854.00    3.62442   3.10085   -1.000
 5855.00    3.60841   3.07843   -1.000
 5856.00    3.56966   3.05614   -1.000
 5857.00    3.53942   3.03984   -1.000
 5858.00    3.54341   3.03697   -1.000
 5859.00    3.58743   3.05043   -1.000
 5860.00    3.64662   3.07456   -1.000
 5861.00    3.69148   3.10069   -1.000
 5862.00    3.69729   3.12205   -1.000
 5863.00    3.70040   3.13588   -1.000
 5864.00    3.70991   3.14281   -1.000
 5865.00    3.68251   3.14510   -1.000
 5866.00    3.65249   3.14722   -1.000
 5867.00    3.64153   3.15505   -1.000
 5868.00    3.69079   3.17009   -1.000
 5869.00    3.75045   3.18860   -1.000
 5870.00    3.78872   3.20497   -1.000
 5871.00    3.78758   3.21502   -1.000
 5872.00    3.72526   3.21816   -1.000
 5873.00    3.71915   3.21624   -1.000
 5874.00    3.75058   3.21091   -1.000
 5875.00    3.74576   3.20168   -1.000
 5876.00    3.72088   3.18713   -1.000
 5877.00    3.69318   3.16744   -1.000
 5878.00    3.66845   3.14514   -1.000
 5879.00    3.63243   3.12450   -1.000
 5880.00    3.59223   3.10924   -1.000
 5881.00    3.50218   3.10030   -1.000
 5882.00    3.34680   3.09356   -1.000
 5883.00    3.07886   3.08161   12.413
 5884.00    2.70791   3.05605   -1.000
 5885.00    2.41674   3.00570   -1.000
 5886.00    2.48544   2.91925   -1.000
 5887.00    2.70251   2.79381   14.224
 5888.00    2.69560   2.64357   13.676
 5889.00    2.41909   2.50231   13.320
 5890.00    2.11363   2.40668   -1.000
 5891.00    2.04295   2.37561   -1.000
 5892.00    2.27016   2.39378   13.791
 5893.00    2.59622   2.43015   13.474
 5894.00    2.77668   2.46183   -1.000
 5895.00    2.78536   2.48850   -1.000
 5896.00    2.78232   2.53074   -1.000
 5897.00    2.93238   2.60233   -1.000
 5898.00    3.18413   2.69929   -1.000
 5899.00    3.38287   2.80651   -1.000
 5900.00    3.50481   2.90660   -1.000
 5901.00    3.58674   2.98706   -1.000
 5902.00    3.61914   3.04351   -1.000
 5903.00    3.61767   3.07827   -1.000
 5904.00    3.60421   3.09760   -1.000
 5905.00    3.59122   3.10861   -1.000
 5906.00    3.58907   3.11775   -1.000
 5907.00    3.60307   3.12818   -1.000
 5908.00    3.63428   3.13940   -1.000
 5909.00    3.65828   3.14893   -1.000
 5910.00    3.67779   3.15292   -1.000
 5911.00    3.67610   3.14750   -1.000
 5912.00    3.64510   3.13141   -1.000
 5913.00    3.57892   3.10800   -1.000
 5914.00    3.51441   3.08582   -1.000
 5915.00    3.49568   3.07408   -1.000
 5916.00    3.52173   3.07661   -1.000
 5917.00    3.57877   3.09189   -1.000
 5918.00    3.62940   3.11373   -1.000
 5919.00    3.65529   3.13490   -1.000
 5920.00    3.64082   3.15052   -1.000
 5921.00    3.62943   3.15984   -1.000
 5922.00    3.64580   3.16545   -1.000
 5923.00    3.66453   3.17115   -1.000
 5924.00    3.68348   3.17785   -1.000
 5925.00    3.70648   3.18295   -1.000
 5926.00    3.71622   3.18253   -1.000
 5927.00    3.69529   3.17441   -1.000
 5928.00    3.66241   3.16137   -1.000
 5929.00    3.63515   3.14925   -1.000
 5930.00    3.63837   3.14370   -1.000
 5931.00    3.64641   3.14531   -1.000
 5932.00    3.67979   3.15011   -1.000
 5933.00    3.69462   3.15488   -1.000
 5934.00    3.66359   3.15975   -1.000
 5935.00    3.65536   3.16791   -1.000
 5936.00    3.68180   3.17946   -1.000
 5937.00    3.70723   3.19011   -1.000
 5938.00    3.71453   3.19549   -1.000
 5939.00    3.71092   3.19300   -1.000
 5940.00    3.67932   3.18408   -1.000
 5941.00    3.63426   3.17430   -1.000
 5942.00    3.62764   3.17012   -1.000
 5943.00    3.65491   3.17367   -1.000
 5944.00    3.71243   3.18197   -1.000
 5945.00    3.74663   3.18896   -1.000
 5946.00    3.74555   3.18954   -1.000
 5947.00    3.72672   3.18271   -1.000
 5948.00    3.67820   3.17249   -1.000
 5949.00    3.65067   3.16442   -1.000
 5950.00    3.67234   3.15977   -1.000
 5951.00    3.70190   3.15706   -1.000
 5952.00    3.67202   3.15488   -1.000
 5953.00    3.64274   3.15346   -1.000
 5954.00    3.64941   3.15345   -1.000
 5955.00    3.67154   3.15370   -1.000
 5956.00    3.67087   3.15461   -1.000
 5957.00    3.64142   3.15999   -1.000
 5958.00    3.65585   3.17261   -1.000
 5959.00    3.71682   3.19201   -1.000
 5960.00    3.77174   3.21411   -1.000
 5961.00    3.80031   3.23292   -1.000
 5962.00    3.79699   3.24419   -1.000
 5963.00    3.76379   3.24695   -1.000
 5964.00    3.73439   3.24381   -1.000
 5965.00    3.71154   3.23997   -1.000
 5966.00    3.71571   3.24078   -1.000
 5967.00    3.75601   3.24809   -1.000
 5968.00    3.77801   3.26024   -1.000
 5969.00    3.81277   3.27401   -1.000
 5970.00    3.84590   3.28544   -1.000
 5971.00    3.84063   3.29059   -1.000
 5972.00    3.82571   3.28675   -1.000
 5973.00    3.80039   3.27293   -1.000
 5974.00    3.77068   3.25056   -1.000
 5975.00    3.72863   3.22436   -1.000
 5976.00    3.70096   3.20168   -1.000
 5977.00    3.68330   3.18825   -1.000
 5978.00    3.68434   3.18604   -1.000
 5979.00    3.71313   3.19125   -1.000
 5980.00    3.74928   3.19622   -1.000
 5981.00    3.76155   3.19306   -1.000
 5982.00    3.73960   3.17993   -1.000
 5983.00    3.66569   3.16221   -1.000
 5984.00    3.61957   3.14992   -1.000
 5985.00    3.64470   3.15041   -1.000
 5986.00    3.69847   3.16310   -1.000
 5987.00    3.74764   3.18328   -1.000
 5988.00    3.76763   3.20554   -1.000
 5989.00    3.80338   3.22547   -1.000
 5990.00    3.80237   3.24163   -1.000
 5991.00    3.78049   3.25539   -1.000
 5992.00    3.79051   3.26795   -1.000
 5993.00    3.80547   3.27762   -1.000
 5994.00    3.83151   3.28016   -1.000
 5995.00    3.82866   3.27254   -1.000
 5996.00    3.79300   3.25711   -1.000
 5997.00    3.76185   3.23989   -1.000
 5998.00    3.72790   3.22777   -1.000
 5999.00    3.72175   3.22299   -1.000
 6000.00    3.74501   3.22318   -1.000
 6001.00    3.73717   3.22440   -1.000
 6002.00    3.72882   3.22346   -1.000
 6003.00    3.71524   3.21991   -1.000
 6004.00    3.69986   3.21266   -1.000
 6005.00    3.67652   3.20038   -1.000
 6006.00    3.64017   3.18559   -1.000
 6007.00    3.60512   3.17401   -1.000
 6008.00    3.62354   3.17217   -1.000
 6009.00    3.68969   3.18064   -1.000
 6010.00    3.75595   3.19205   -1.000
 6011.00    3.78330   3.19914   -1.000
 6012.00    3.74412   3.19892   -1.000
 6013.00    3.71821   3.19411   -1.000
 6014.00    3.70806   3.18860   -1.000
 6015.00    3.71493   3.18360   -1.000
 6016.00    3.72860   3.17930   -1.000
 6017.00    3.71063   3.17574   -1.000
 6018.00    3.71030   3.17149   -1.000
 6019.00    3.72321   3.16659   -1.000
 6020.00    3.72451   3.16468   -1.000
 6021.00    3.70684   3.16886   -1.000
 6022.00    3.71708   3.18075   -1.000
 6023.00    3.75130   3.19958   -1.000
 6024.00    3.77150   3.22302   -1.000
 6025.00    3.78962   3.24813   -1.000
 6026.00    3.82964   3.27257   -1.000
 6027.00    3.86952   3.29552   -1.000
 6028.00    3.88558   3.31677   -1.000
 6029.00    3.89551   3.33594   -1.000
 6030.00    3.88729   3.35353   -1.000
 6031.00    3.88076   3.37078   -1.000
 6032.00    3.89569   3.38839   -1.000
 6033.00    3.91989   3.40627   -1.000
 6034.00    3.92051   3.42154   -1.000
 6035.00    3.91023   3.42993   -1.000
 6036.00    3.91734   3.42961   -1.000
 6037.00    3.92051   3.42127   -1.000
 6038.00    3.91298   3.40860   -1.000
 6039.00    3.89509   3.39652   -1.000
 6040.00    3.88137   3.38995   -1.000
 6041.00    3.86376   3.39120   -1.000
 6042.00    3.88356   3.39944   -1.000
 6043.00    3.91494   3.41145   -1.000
 6044.00    3.93480   3.42315   -1.000
 6045.00    3.97377   3.43296   -1.000
 6046.00    3.98172   3.44003   -1.000
 6047.00    3.97538   3.44431   -1.000
 6048.00    3.97930   3.44579   -1.000
 6049.00    3.97529   3.44377   -1.000
 6050.00    3.98573   3.43673   -1.000
 6051.00    3.97435   3.42340   -1.000
 6052.00    3.95211   3.40440   -1.000
 6053.00    3.93049   3.38257   -1.000
 6054.00    3.91724   3.36180   -1.000
 6055.00    3.88307   3.34632   -1.000
 6056.00    3.85927   3.33972   -1.000
 6057.00    3.87998   3.34209   -1.000
 6058.00    3.81267   3.34998   -1.000
 6059.00    3.62638   3.35739   -1.000
 6060.00    3.86885   3.35842   -1.000
 6061.00    3.81805   3.35017   -1.000
 6062.00    2.66863   3.33421    4.613
 6063.00    1.82032   3.31673   -1.000
 6064.00    3.08162   3.30647   12.423
 6065.00    3.77851   3.31122   -1.000
 6066.00    3.91591   3.33267   -1.000
 6067.00    3.61781   3.36532   -1.000
 6068.00    1.64995   3.40027   -1.000
 6069.00    2.89893   3.43072   -1.000
 6070.00    3.98884   3.45315   -1.000
 6071.00    4.06110   3.46634   -1.000
 6072.00    4.05446   3.47050   -1.000
 6073.00    4.05294   3.46620   -1.000
 6074.00    4.03003   3.45397   -1.000
 6075.00    4.01210   3.43445   -1.000
 6076.00    3.98074   3.40963   -1.000
 6077.00    3.93679   3.38252   -1.000
 6078.00    3.87904   3.35688   -1.000
 6079.00    3.85303   3.33522   -1.000
 6080.00    3.87279   3.31863   -1.000
 6081.00    3.83884   3.30740   -1.000
 6082.00    3.81697   3.30220   -1.000
 6083.00    3.85542   3.30245   -1.000
 6084.00    3.87013   3.30661   -1.000
 6085.00    3.86669   3.31302   -1.000
 6086.00    3.86812   3.31896   -1.000
 6087.00    3.88182   3.32140   -1.000
 6088.00    3.88891   3.31863   -1.000
 6089.00    3.87251   3.31188   -1.000
 6090.00    3.83612   3.30576   -1.000
 6091.00    3.79399   3.30490   -1.000
 6092.00    3.79439   3.31204   -1.000
 6093.00    3.83907   3.32651   -1.000
 6094.00    3.89573   3.34458   -1.000
 6095.00    3.92705   3.36118   -1.000
 6096.00    3.92413   3.37251   -1.000
 6097.00    3.92416   3.37650   -1.000
 6098.00    3.92572   3.36996   -1.000
 6099.00    3.92764   3.34993   -1.000
 6100.00    3.91131   3.31781   -1.000
 6101.00    3.82916   3.28121   -1.000
 6102.00    3.70699   3.25458   -1.000
 6103.00    3.67177   3.24852   -1.000
 6104.00    3.74279   3.26430   -1.000
 6105.00    3.82045   3.29376   -1.000
 6106.00    3.86421   3.32706   -1.000
 6107.00    3.90163   3.35685   -1.000
 6108.00    3.88858   3.37979   -1.000
 6109.00    3.87605   3.39519   -1.000
 6110.00    3.88137   3.40502   -1.000
 6111.00    3.89202   3.41264   -1.000
 6112.00    3.92480   3.41950   -1.000
 6113.00    3.93542   3.42466   -1.000
 6114.00    3.93251   3.42509   -1.000
 6115.00    3.91855   3.41883   -1.000
 6116.00    3.90226   3.40517   -1.000
 6117.00    3.89610   3.38333   -1.000
 6118.00    3.88213   3.35320   -1.000
 6119.00    3.83042   3.31728   -1.000
 6120.00    3.76072   3.28236   -1.000
 6121.00    3.68346   3.25797   -1.000
 6122.00    3.65731   3.25151   -1.000
 6123.00    3.73956   3.26312   -1.000
 6124.00    3.84859   3.28436   -1.000
 6125.00    3.90146   3.30672   -1.000
 6126.00    3.89892   3.32547   -1.000
 6127.00    3.84733   3.34095   -1.000
 6128.00    3.81506   3.35665   -1.000
 6129.00    3.83322   3.37345   -1.000
 6130.00    3.85856   3.38771   -1.000
 6131.00    3.91213   3.39117   -1.000
 6132.00    3.93036   3.37543   -1.000
 6133.00    3.89771   3.33593   -1.000
 6134.00    3.79319   3.27789   -1.000
 6135.00    3.63707   3.21627   -1.000
 6136.00    3.52096   3.17249   -1.000
 6137.00    3.48789   3.16083   -1.000
 6138.00    3.58630   3.18235   -1.000
 6139.00    3.75116   3.22421   -1.000
 6140.00    3.84209   3.27140   -1.000
 6141.00    3.85740   3.31544   -1.000
 6142.00    3.84410   3.35294   -1.000
 6143.00    3.88068   3.38249   -1.000
 6144.00    3.92388   3.40205   -1.000
 6145.00    3.93018   3.40977   -1.000
 6146.00    3.90252   3.40547   -1.000
 6147.00    3.85490   3.39186   -1.000
 6148.00    3.80887   3.37437   -1.000
 6149.00    3.74745   3.35866   -1.000
 6150.00    3.74582   3.34884   -1.000
 6151.00    3.75732   3.34403   -1.000
 6152.00    3.74870   3.34053   -1.000
 6153.00    3.73559   3.33405   -1.000
 6154.00    3.69850   3.32269   -1.000
 6155.00    3.65156   3.30603   -1.000
 6156.00    3.66349   3.28183   -1.000
 6157.00    3.63620   3.24639   -1.000
 6158.00    3.57033   3.19602   -1.000
 6159.00    3.50202   3.13179   -1.000
 6160.00    3.36863   3.06302   -1.000
 6161.00    3.21497   3.00641   -1.000
 6162.00    3.15316   2.97767   12.973
 6163.00    3.19528   2.98119   -1.000
 6164.00    3.29500   3.00972   -1.000
 6165.00    3.37428   3.04719   -1.000
 6166.00    3.43107   3.07857   -1.000
 6167.00    3.45287   3.09534   -1.000
 6168.00    3.41940   3.10091   -1.000
 6169.00    3.37626   3.10588   -1.000
 6170.00    3.33780   3.12009   -1.000
 6171.00    3.39933   3.14478   -1.000
 6172.00    3.50226   3.17454   -1.000
 6173.00    3.52858   3.20315   -1.000
 6174.00    3.50415   3.22622   -1.000
 6175.00    3.49957   3.24321   -1.000
 6176.00    3.51585   3.25681   -1.000
 6177.00    3.56012   3.27017   -1.000
 6178.00    3.58508   3.28430   -1.000
 6179.00    3.58263   3.29875   -1.000
 6180.00    3.57670   3.31233   -1.000
 6181.00    3.58539   3.32227   -1.000
 6182.00    3.58882   3.32495   -1.000
 6183.00    3.58531   3.31813   -1.000
 6184.00    3.58819   3.30099   -1.000
 6185.00    3.56772   3.27519   -1.000
 6186.00    3.52016   3.24378   -1.000
 6187.00    3.48472   3.21061   -1.000
 6188.00    3.43009   3.17882   -1.000
 6189.00    3.38662   3.15192   -1.000
 6190.00    3.33109   3.13612   12.702
 6191.00    3.28184   3.13765   12.616
 6192.00    3.32122   3.15784   12.594
 6193.00    3.41565   3.19133   -1.000
 6194.00    3.49922   3.22804   -1.000
 6195.00    3.54703   3.25853   -1.000
 6196.00    3.53340   3.27623   -1.000
 6197.00    3.50686   3.28088   -1.000
 6198.00    3.45658   3.27799   12.633
 6199.00    3.39445   3.27712   12.590
 6200.00    3.41345   3.28459   12.590
 6201.00    3.46972   3.30091   12.570
 6202.00    3.55768   3.32239   -1.000
 6203.00    3.62108   3.34371   -1.000
 6204.00    3.63018   3.36120   -1.000
 6205.00    3.63352   3.37279   -1.000
 6206.00    3.63250   3.37767   -1.000
 6207.00    3.63725   3.37504   -1.000
 6208.00    3.60962   3.36349   -1.000
 6209.00    3.57529   3.34181   -1.000
 6210.00    3.55602   3.30949   -1.000
 6211.00    3.52495   3.26781   -1.000
 6212.00    3.46233   3.22170   -1.000
 6213.00    3.38199   3.17870   -1.000
 6214.00    3.33146   3.14657   13.238
 6215.00    3.30116   3.12887   13.198
 6216.00    3.32223   3.12374   -1.000
 6217.00    3.38504   3.12570   -1.000
 6218.00    3.40459   3.12965   -1.000
 6219.00    3.38715   3.13499   -1.000
 6220.00    3.38960   3.14283   -1.000
 6221.00    3.41554   3.15389   -1.000
 6222.00    3.42387   3.16700   -1.000
 6223.00    3.42958   3.17956   -1.000
 6224.00    3.45272   3.18865   -1.000
 6225.00    3.43207   3.19078   -1.000
 6226.00    3.44975   3.18235   -1.000
 6227.00    3.44290   3.16190   -1.000
 6228.00    3.40310   3.13183   -1.000
 6229.00    3.34491   3.10068   -1.000
 6230.00    3.25819   3.08036   12.968
 6231.00    3.24673   3.08027   12.902
 6232.00    3.29466   3.10221   12.983
 6233.00    3.35749   3.13924   -1.000
 6234.00    3.46853   3.17819   -1.000
 6235.00    3.53599   3.20564   -1.000
 6236.00    3.51583   3.21439   -1.000
 6237.00    3.47763   3.20437   -1.000
 6238.00    3.45578   3.18153   -1.000
 6239.00    3.39484   3.15356   -1.000
 6240.00    3.35253   3.12667   -1.000
 6241.00    3.33239   3.10416   -1.000
 6242.00    3.31095   3.08824   -1.000
 6243.00    3.30898   3.08134   -1.000
 6244.00    3.31204   3.08548   -1.000
 6245.00    3.33094   3.10107   -1.000
 6246.00    3.37227   3.12574   -1.000
 6247.00    3.44074   3.15298   -1.000
 6248.00    3.48744   3.17373   -1.000
 6249.00    3.48826   3.18054   -1.000
 6250.00    3.45850   3.17028   -1.000
 6251.00    3.39371   3.14600   -1.000
 6252.00    3.32430   3.11483   -1.000
 6253.00    3.28858   3.08370   -1.000
 6254.00    3.28132   3.05694   -1.000
 6255.00    3.27524   3.03662   -1.000
 6256.00    3.27203   3.02531   -1.000
 6257.00    3.23539   3.02715   -1.000
 6258.00    3.22835   3.04501   13.128
 6259.00    3.27476   3.07853   13.058
 6260.00    3.36361   3.12209   -1.000
 6261.00    3.44120   3.16739   -1.000
 6262.00    3.47506   3.20572   -1.000
 6263.00    3.48960   3.23200   -1.000
 6264.00    3.45496   3.24633   -1.000
 6265.00    3.41299   3.25288   13.203
 6266.00    3.39338   3.25592   13.189
 6267.00    3.43790   3.25773   13.144
 6268.00    3.46531   3.25991   -1.000
 6269.00    3.43341   3.26348   13.145
 6270.00    3.41975   3.26848   13.239
 6271.00    3.41408   3.27324   13.346
 6272.00    3.36713   3.27474   13.558
 6273.00    3.29158   3.26984   13.899
 6274.00    3.21710   3.25690   14.155
 6275.00    3.19941   3.23684   14.248
 6276.00    3.16125   3.21240   14.197
 6277.00    3.11831   3.18768   13.977
 6278.00    3.09275   3.16735   13.735
 6279.00    3.03575   3.15614   13.523
 6280.00    3.01399   3.15791   13.359
 6281.00    3.09472   3.17401   13.247
 6282.00    3.24728   3.20181   13.127
 6283.00    3.35128   3.23629   13.034
 6284.00    3.43949   3.27172   13.007
 6285.00    3.50024   3.30371   -1.000
 6286.00    3.53146   3.32904   -1.000
 6287.00    3.58169   3.34495   -1.000
 6288.00    3.61528   3.34959   -1.000
 6289.00    3.61220   3.34313   -1.000
 6290.00    3.59123   3.32858   -1.000
 6291.00    3.57901   3.31044   -1.000
 6292.00    3.55320   3.29206   -1.000
 6293.00    3.59625   3.27467   -1.000
 6294.00    3.59148   3.25727   -1.000
 6295.00    3.59468   3.23927   -1.000
 6296.00    3.58841   3.22217   -1.000
 6297.00    3.55833   3.20819   -1.000
 6298.00    3.53015   3.19831   -1.000
 6299.00    3.50780   3.19207   -1.000
 6300.00    3.47767   3.18977   -1.000
 6301.00    3.44947   3.19340   -1.000
 6302.00    3.41889   3.20467   -1.000
 6303.00    3.45147   3.22425   -1.000
 6304.00    3.47474   3.25063   -1.000
 6305.00    3.51515   3.28066   -1.000
 6306.00    3.55372   3.30970   -1.000
 6307.00    3.62482   3.33248   -1.000
 6308.00    3.67156   3.34464   -1.000
 6309.00    3.67636   3.34502   -1.000
 6310.00    3.62827   3.33522   -1.000
 6311.00    3.56142   3.31824   -1.000
 6312.00    3.53794   3.29697   -1.000
 6313.00    3.53784   3.27334   -1.000
 6314.00    3.52165   3.24966   -1.000
 6315.00    3.47834   3.22863   -1.000
 6316.00    3.44860   3.21328   -1.000
 6317.00    3.46978   3.20739   -1.000
 6318.00    3.50243   3.21428   -1.000
 6319.00    3.50780   3.23351   -1.000
 6320.00    3.55167   3.26145   -1.000
 6321.00    3.61893   3.29352   -1.000
 6322.00    3.64224   3.32554   -1.000
 6323.00    3.69302   3.35437   -1.000
 6324.00    3.72764   3.37784   -1.000
 6325.00    3.74007   3.39517   -1.000
 6326.00    3.72917   3.40706   -1.000
 6327.00    3.74066   3.41475   -1.000
 6328.00    3.73387   3.41937   -1.000
 6329.00    3.72756   3.42173   -1.000
 6330.00    3.72578   3.42168   -1.000
 6331.00    3.72607   3.41695   -1.000
 6332.00    3.74572   3.40442   -1.000
 6333.00    3.76491   3.38322   -1.000
 6334.00    3.72275   3.35699   -1.000
 6335.00    3.63047   3.33356   -1.000
 6336.00    3.58729   3.32028   -1.000
 6337.00    3.60806   3.32024   -1.000
 6338.00    3.67638   3.33114   -1.000
 6339.00    3.71220   3.34638   -1.000
 6340.00    3.73553   3.35829   -1.000
 6341.00    3.73297   3.36262   -1.000
 6342.00    3.71627   3.36066   -1.000
 6343.00    3.66343   3.35832   -1.000
 6344.00    3.63530   3.36210   -1.000
 6345.00    3.67595   3.37493   -1.000
 6346.00    3.73051   3.39578   -1.000
 6347.00    3.74836   3.42037   -1.000
 6348.00    3.78786   3.44327   -1.000
 6349.00    3.80577   3.45974   -1.000
 6350.00    3.77467   3.46652   -1.000
 6351.00    3.78543   3.46213   -1.000
 6352.00    3.79252   3.44708   -1.000
 6353.00    3.74012   3.42405   -1.000
 6354.00    3.67426   3.39658   -1.000
 6355.00    3.64661   3.36703   -1.000
 6356.00    3.64314   3.33615   -1.000
 6357.00    3.62639   3.30448   -1.000
 6358.00    3.59109   3.27371   -1.000
 6359.00    3.54932   3.24668   -1.000
 6360.00    3.55775   3.22707   -1.000
 6361.00    3.54903   3.21886   -1.000
 6362.00    3.51549   3.22492   -1.000
 6363.00    3.53429   3.24555   -1.000
 6364.00    3.58351   3.27810   -1.000
 6365.00    3.65158   3.31797   -1.000
 6366.00    3.70485   3.35965   -1.000
 6367.00    3.77015   3.39806   -1.000
 6368.00    3.81816   3.43015   -1.000
 6369.00    3.81723   3.45573   -1.000
 6370.00    3.82302   3.47637   -1.000
 6371.00    3.81542   3.49355   -1.000
 6372.00    3.80320   3.50721   -1.000
 6373.00    3.80961   3.51638   -1.000
 6374.00    3.79280   3.52010   -1.000
 6375.00    3.78495   3.51771   -1.000
 6376.00    3.80324   3.50962   -1.000
 6377.00    3.77534   3.49802   -1.000
 6378.00    3.72555   3.48610   -1.000
 6379.00    3.70073   3.47698   -1.000
 6380.00    3.68816   3.47268   -1.000
 6381.00    3.72830   3.47346   -1.000
 6382.00    3.74785   3.47819   -1.000
 6383.00    3.74849   3.48551   -1.000
 6384.00    3.73453   3.49440   -1.000
 6385.00    3.73332   3.50363   -1.000
 6386.00    3.73969   3.51136   -1.000
 6387.00    3.71715   3.51520   -1.000
 6388.00    3.71331   3.51248   -1.000
 6389.00    3.69940   3.50092   -1.000
 6390.00    3.69334   3.48060   -1.000
 6391.00    3.62345   3.45562   13.347
 6392.00    3.52020   3.43355   13.327
 6393.00    3.45790   3.42172   13.412
 6394.00    3.46513   3.42193   13.618
 6395.00    3.54221   3.42946   13.935
 6396.00    3.58907   3.43563   14.034
 6397.00    3.58258   3.43419   13.885
 6398.00    3.53177   3.42628   13.660
 6399.00    3.44181   3.42023   13.595
 6400.00    3.37748   3.42482   13.635
 6401.00    3.41886   3.44230   13.710
 6402.00    3.47523   3.46749   13.912
 6403.00    3.49538   3.49080   14.129
 6404.00    3.51622   3.50365   14.271
 6405.00    3.47542   3.50311   14.331
 6406.00    3.40650   3.49263   14.405
 6407.00    3.33949   3.47859   14.525
 6408.00    3.29813   3.46607   14.603
 6409.00    3.32249   3.45720   14.624
 6410.00    3.31002   3.45224   14.637
 6411.00    3.24873   3.45129   14.718
 6412.00    3.20648   3.45440   -1.000
 6413.00    3.19550   3.46080   -1.000
 6414.00    3.18618   3.46852   -1.000
 6415.00    3.18121   3.47386   -1.000
 6416.00    3.16945   3.47296   -1.000
 6417.00    3.14601   3.46427   -1.000
 6418.00    3.12759   3.45042   -1.000
 6419.00    3.05335   3.43803   -1.000
 6420.00    2.97933   3.43480   -1.000
 6421.00    2.94118   3.44486   -1.000
 6422.00    2.96223   3.46671   -1.000
 6423.00    3.01087   3.49460   -1.000
 6424.00    2.98423   3.52113   -1.000
 6425.00    2.93188   3.53963   -1.000
 6426.00    2.94016   3.54528   -1.000
 6427.00    0.17232   3.53650   -1.000
 6428.00    0.00000   3.51633   -2.000
