###################################################################
## OUTPUT of StarlightChains_v04.for    [Cid@UFSC - 01/Apr/2007] ##
###################################################################

## Some input info
NGC6362_a_1.cxt                          [arq_obs]
Base.BC03.N                              [arq_base]
NGC6362_a_1.msk                          [arq_masks]
StCv04.C99.config                        [arq_config]
   45                                    [N_base]
    0                                    [N_YAV_components = # of components with extra extinction!]
    0                                    [i_FitPowerLaw (1/0 = Yes/No)]
-9.99                                    [alpha_PowerLaw]
CCM                                      [red_law_option]
 1.458241                                [q_norm = A(l_norm)/A(V)]

## (Re)Sampling Parameters
 3359.00                                 [l_ini (A)]
 6428.00                                 [l_fin (A)]
    1.00                                 [dl    (A)]     (OBS: dl_cushion =    50.00 A)

## Normalization info
 4020.00                                 [l_norm (A) - for base]
 4010.00                                 [llow_norm (A) - window for f_obs]
 4060.00                                 [lupp_norm (A) - window for f_obs]
1.238399E-14                             [fobs_norm (in input units)]

## S/N
 4730.00                                 [llow_SN (A) - window for S/N]
 4780.00                                 [lupp_SN (A) - window for S/N]
  69.165                                 [S/N in S/N window]
  59.492                                 [S/N in norm. window]
  54.471                                 [S/N_err in S/N window]
  46.853                                 [S/N_err in norm. window]
  1.0000                                 [fscale_chi2]

## etc...
  2147483611                             [idum_orig]
  3061                                   [NOl_eff]
  2294                                   [Nl_eff]
   767    NSIGMA                         [Ntot_cliped & clip_method]
  1011360                                [Nglobal_steps]
   7                                     [N_chains]
   5                                     [NEX0s_base = N_base in EX0s-fits]
 0   0   1      376   2.0   8.432E+02    [Clip-Bug, RC-Crash & Burn-In warning-flags, n_censored_weights, wei_nsig_threshold & wei_limit]
    19     18.840     18.836      0.004  [idt_all, wdt_TotTime, wdt_UsrTime & wdt_SysTime (sec)]

## Synthesis Results - Best model ##

 1.46023E+00                             [chi2/Nl_eff]
     1.73410                             [adev (%)]

   103.55611                             [sum-of-x (%)]
 2.03545E-14                             [Flux_tot (units of input spectrum!)]
 2.25823E-10                             [Mini_tot (???)]
 1.20720E-10                             [Mcor_tot (???)]

  -7.61                                  [v0_min  (km/s)]
  83.32                                  [vd_min  (km/s)]
 0.3439                                  [AV_min  (mag)]
 0.0000                                  [YAV_min (mag)]

# j     x_j(%)      Mini_j(%)     Mcor_j(%)     age_j(yr)     Z_j      (L/M)_j    YAV?  Mstars   component_j        a/Fe...       SSP_chi2r SSP_adev(%)   SSP_AV   SSP_x(%)
  1      0.0000     0.0000E+00    0.0000E+00    1.000000E+06  0.00400  1.114E-02    0   1.0000   age020_m42            0.0000     1.5128E+02    11.5008   4.0000    71.6790
  2     11.9939     2.5631E-02    4.7941E-02    3.160000E+06  0.00400  4.073E-02    0   0.9999   age045_m42            0.0000     3.3988E+01     6.0449   2.8832    89.7057
  3      0.0000     0.0000E+00    0.0000E+00    5.010000E+06  0.00400  2.534E-02    0   0.9488   age055_m42            0.0000     6.4351E+01     8.8811   3.3710    80.9835
  4      0.2636     1.8048E-03    2.9920E-03    1.000000E+07  0.00400  1.271E-02    0   0.8862   age070_m42            0.0000     5.1068E+01     9.2071   2.5803    84.7048
  5      0.0000     0.0000E+00    0.0000E+00    2.512000E+07  0.00400  5.070E-03    0   0.8174   age090_m42            0.0000     4.6118E+01     8.6923   2.4369    86.7818
  6      0.0000     0.0000E+00    0.0000E+00    4.000000E+07  0.00400  3.505E-03    0   0.7851   age104_m42            0.0000     3.4867E+01     6.9410   2.0783    91.3203
  7     10.2102     3.9184E-01    5.2826E-01    1.015200E+08  0.00400  2.268E-03    0   0.7207   age116_m42            0.0000     2.6981E+02     6.0615   1.7695   111.0819
  8      0.0000     0.0000E+00    0.0000E+00    2.861200E+08  0.00400  1.079E-03    0   0.6613   age125_m42            0.0000     2.7390E+02     6.9005   1.2337   115.2640
  9      0.0000     0.0000E+00    0.0000E+00    6.405400E+08  0.00400  5.077E-04    0   0.6197   age132_m42            0.0000     2.8732E+02     7.3817   0.8395   121.0788
 10      0.0000     0.0000E+00    0.0000E+00    9.047900E+08  0.00400  3.535E-04    0   0.6024   age135_m42            0.0000     1.6952E+02     5.9900   0.6558   118.3537
 11      0.0000     0.0000E+00    0.0000E+00    1.434000E+09  0.00400  1.910E-04    0   0.5716   age139_m42            0.0000     5.1199E+01     4.9462   0.1678   116.3000
 12     52.1902     4.6268E+01    4.7283E+01    2.500000E+09  0.00400  9.818E-05    0   0.5463   age150_m42            0.0000     6.1153E+00     2.9207  -0.0164   108.3871
 13     28.8983     5.3313E+01    5.2138E+01    5.000000E+09  0.00400  4.718E-05    0   0.5228   age161_m42            0.0000     2.1263E+01     2.4833  -0.1358   103.3588
 14      0.0000     0.0000E+00    0.0000E+00    1.100000E+10  0.00400  2.205E-05    0   0.4980   age185_m42            0.0000     7.0876E+01     3.4673  -0.3939   101.4369
 15      0.0000     0.0000E+00    0.0000E+00    1.300000E+10  0.00400  1.883E-05    0   0.4927   age193_m42            0.0000     8.0504E+01     3.6091  -0.4078   101.2225
 16      0.0000     0.0000E+00    0.0000E+00    1.000000E+06  0.02000  1.989E-02    0   1.0000   age020_m62            0.0000     1.5771E+02    11.5012   3.9593    72.4306
 17      0.0000     0.0000E+00    0.0000E+00    3.160000E+06  0.02000  3.772E-02    0   0.9858   age045_m62            0.0000     1.3013E+02    11.0929   3.8086    74.7599
 18      0.0000     0.0000E+00    0.0000E+00    5.010000E+06  0.02000  3.227E-02    0   0.9342   age055_m62            0.0000     4.1837E+01     7.4080   3.1829    85.2298
 19      0.0000     0.0000E+00    0.0000E+00    1.000000E+07  0.02000  1.011E-02    0   0.8751   age070_m62            0.0000     1.2676E+02    13.4966   2.6940    78.1985
 20      0.0000     0.0000E+00    0.0000E+00    2.512000E+07  0.02000  4.206E-03    0   0.8099   age090_m62            0.0000     1.0099E+02    11.3705   2.5935    80.5213
 21      0.0000     0.0000E+00    0.0000E+00    4.000000E+07  0.02000  3.373E-03    0   0.7799   age104_m62            0.0000     4.7633E+01     6.4557   2.2550    93.9126
 22      0.0000     0.0000E+00    0.0000E+00    1.015200E+08  0.02000  1.878E-03    0   0.7221   age116_m62            0.0000     2.2092E+02     5.5254   1.8485   109.7422
 23      0.0000     0.0000E+00    0.0000E+00    2.861200E+08  0.02000  8.869E-04    0   0.6700   age125_m62            0.0000     4.7125E+02     9.3242   1.1351   125.0204
 24      0.0000     0.0000E+00    0.0000E+00    6.405400E+08  0.02000  3.657E-04    0   0.6322   age132_m62            0.0000     2.2802E+02     9.2493   0.4449   130.4439
 25      0.0000     0.0000E+00    0.0000E+00    9.047900E+08  0.02000  2.312E-04    0   0.6152   age135_m62            0.0000     1.0052E+02     7.3325   0.1599   126.0593
 26      0.0000     0.0000E+00    0.0000E+00    1.434000E+09  0.02000  1.168E-04    0   0.5865   age139_m62            0.0000     1.2675E+01     4.2708  -0.1220   114.8709
 27      0.0000     0.0000E+00    0.0000E+00    2.500000E+09  0.02000  5.505E-05    0   0.5610   age150_m62            0.0000     4.2915E+01     4.3613  -0.4585   110.9229
 28      0.0000     0.0000E+00    0.0000E+00    5.000000E+09  0.02000  2.596E-05    0   0.5353   age161_m62            0.0000     1.5709E+02     6.1369  -0.8273   113.0572
 29      0.0000     0.0000E+00    0.0000E+00    1.100000E+10  0.02000  1.169E-05    0   0.5103   age185_m62            0.0000     3.3842E+02    10.9317  -1.0000   115.0219
 30      0.0000     0.0000E+00    0.0000E+00    1.300000E+10  0.02000  9.691E-06    0   0.5047   age193_m62            0.0000     3.8461E+02    12.3989  -1.0000   115.0123
 31      0.0000     0.0000E+00    0.0000E+00    1.000000E+06  0.05000  2.651E-02    0   0.9998   age020_m72            0.0000     1.5132E+02    10.9774   3.9521    73.5459
 32      0.0000     0.0000E+00    0.0000E+00    3.160000E+06  0.05000  4.817E-02    0   0.9577   age045_m72            0.0000     8.4032E+01     9.3852   3.6245    79.0898
 33      0.0000     0.0000E+00    0.0000E+00    5.010000E+06  0.05000  3.101E-02    0   0.9147   age055_m72            0.0000     7.2657E+01     9.3451   3.2597    81.6537
 34      0.0000     0.0000E+00    0.0000E+00    1.000000E+07  0.05000  8.954E-03    0   0.8524   age070_m72            0.0000     9.5894E+01     9.1969   3.4966    80.5471
 35      0.0000     0.0000E+00    0.0000E+00    2.512000E+07  0.05000  4.207E-03    0   0.7902   age090_m72            0.0000     4.5333E+01     6.6443   2.9837    88.5655
 36      0.0000     0.0000E+00    0.0000E+00    4.000000E+07  0.05000  3.198E-03    0   0.7618   age104_m72            0.0000     1.1179E+02     4.2895   2.2971   102.5722
 37      0.0000     0.0000E+00    0.0000E+00    1.015200E+08  0.05000  1.716E-03    0   0.7092   age116_m72            0.0000     2.7248E+02     6.0444   1.9024   110.9877
 38      0.0000     0.0000E+00    0.0000E+00    2.861200E+08  0.05000  7.047E-04    0   0.6618   age125_m72            0.0000     4.5194E+02     9.7567   0.9067   126.5207
 39      0.0000     0.0000E+00    0.0000E+00    6.405400E+08  0.05000  2.633E-04    0   0.6253   age132_m72            0.0000     1.6252E+02     8.6198   0.0976   128.6224
 40      0.0000     0.0000E+00    0.0000E+00    9.047900E+08  0.05000  1.484E-04    0   0.6088   age135_m72            0.0000     2.7489E+01     6.3553  -0.2739   119.4564
 41      0.0000     0.0000E+00    0.0000E+00    1.434000E+09  0.05000  7.827E-05    0   0.5847   age139_m72            0.0000     5.9075E+01     6.1295  -0.6135   114.2582
 42      0.0000     0.0000E+00    0.0000E+00    2.500000E+09  0.05000  3.759E-05    0   0.5583   age150_m72            0.0000     1.6632E+02     6.7230  -0.9242   113.4483
 43      0.0000     0.0000E+00    0.0000E+00    5.000000E+09  0.05000  1.548E-05    0   0.5320   age161_m72            0.0000     3.5841E+02    14.3872  -1.0000   111.5703
 44      0.0000     0.0000E+00    0.0000E+00    1.100000E+10  0.05000  6.532E-06    0   0.5070   age185_m72            0.0000     7.2969E+02    25.9069  -1.0000   107.7480
 45      0.0000     0.0000E+00    0.0000E+00    1.300000E+10  0.05000  5.316E-06    0   0.5018   age193_m72            0.0000     9.0259E+02    29.2277  -1.0000   106.1296


## Synthesis Results - Average & Chains ##

# j      x_j: min, <> & last-chain-values for 1 ...  7 chains
  1      0.0000      0.0094      0.0000      0.0000      0.0000      0.0000      0.0000      0.0000      0.0036
  2     11.9939      9.7901     10.3071     10.6180     10.0196     10.3627     10.3658      9.8173      9.7790
  3      0.0000      0.1117      0.0000      0.0000      0.2161      0.0000      0.0000      0.0000      0.2209
  4      0.2636      0.6120      0.8149      0.5988      0.8471      0.6508      0.6351      0.7431      0.6145
  5      0.0000      0.2144      0.0000      0.0633      0.2110      0.3429      0.1220      0.1843      0.5277
  6      0.0000      0.0355      0.0000      0.0000      0.0000      0.0000      0.0298      0.0000      0.0000
  7     10.2102     10.4779     10.4698     10.1073     10.7606     10.2356     10.6132     10.2093     10.5224
  8      0.0000      0.0346      0.0082      0.0840      0.0000      0.0000      0.0000      0.0000      0.0000
  9      0.0000      0.0668      0.0000      0.0000      0.0000      0.0000      0.0000      0.0000      0.0000
 10      0.0000      0.1863      0.1855      0.3269      0.1313      1.0492      0.1387      0.5501      0.4682
 11      0.0000      0.0935      0.0735      0.0000      0.0000      0.0000      0.0243      0.0753      0.0000
 12     52.1902     50.9667     51.1368     51.0508     51.0897     50.0355     50.9628     51.0373     51.0731
 13     28.8983     30.0563     30.0657     29.9198     29.8921     30.1804     29.8042     30.2187     30.0511
 14      0.0000      0.0513      0.0000      0.0000      0.0000      0.0000      0.0000      0.0000      0.0000
 15      0.0000      0.0432      0.0003      0.0584      0.0000      0.2451      0.0000      0.0153      0.0329
 16      0.0000      0.0069      0.0000      0.0000      0.0000      0.0000      0.0000      0.0000      0.0000
 17      0.0000      0.0161      0.0000      0.0000      0.0000      0.0000      0.0894      0.0000      0.0000
 18      0.0000      0.2538      0.2939      0.2082      0.1431      0.2331      0.2535      0.6846      0.3654
 19      0.0000      0.0257      0.0000      0.0000      0.0000      0.0000      0.0000      0.0000      0.0000
 20      0.0000      0.0058      0.0000      0.0000      0.0000      0.0000      0.0000      0.0000      0.0000
 21      0.0000      0.0259      0.0000      0.0000      0.0000      0.0000      0.0000      0.0581      0.0000
 22      0.0000      0.0281      0.0000      0.0000      0.0000      0.0000      0.0000      0.0000      0.0000
 23      0.0000      0.0109      0.0000      0.0000      0.0000      0.0000      0.0000      0.0063      0.0000
 24      0.0000      0.0121      0.0000      0.0000      0.0000      0.0000      0.0000      0.0000      0.0000
 25      0.0000      0.0297      0.0000      0.0000      0.0000      0.0000      0.0000      0.0000      0.0000
 26      0.0000      0.1116      0.2028      0.0000      0.0768      0.0215      0.0000      0.0000      0.0000
 27      0.0000      0.1053      0.0000      0.3240      0.3195      0.0000      0.0729      0.1139      0.0000
 28      0.0000      0.0283      0.0000      0.0000      0.0000      0.0000      0.0000      0.0000      0.0000
 29      0.0000      0.0079      0.0000      0.0000      0.0000      0.0000      0.0000      0.0000      0.0000
 30      0.0000      0.0094      0.0000      0.0000      0.0000      0.0000      0.0079      0.0000      0.0000
 31      0.0000      0.0046      0.0000      0.0000      0.0000      0.0000      0.0000      0.0000      0.0000
 32      0.0000      0.0142      0.0000      0.0000      0.0000      0.0000      0.0000      0.0000      0.0046
 33      0.0000      0.0564      0.0000      0.0000      0.0000      0.0000      0.0000      0.0000      0.0000
 34      0.0000      0.0079      0.0000      0.0000      0.0040      0.0000      0.0249      0.0000      0.0000
 35      0.0000      0.0125      0.0000      0.0000      0.0000      0.0000      0.0000      0.0000      0.0000
 36      0.0000      0.0419      0.0064      0.2973      0.0000      0.0000      0.0000      0.0000      0.0213
 37      0.0000      0.0333      0.0000      0.0000      0.0000      0.0021      0.0000      0.0000      0.0000
 38      0.0000      0.0128      0.0240      0.0000      0.0000      0.0000      0.0000      0.0000      0.0000
 39      0.0000      0.0178      0.0000      0.0000      0.0000      0.0000      0.0000      0.0000      0.0000
 40      0.0000      0.0381      0.0000      0.0700      0.0000      0.0000      0.0000      0.0087      0.0000
 41      0.0000      0.0816      0.1663      0.0000      0.0000      0.4104      0.5519      0.0000      0.0000
 42      0.0000      0.0327      0.0000      0.0000      0.0000      0.0000      0.0000      0.0000      0.0000
 43      0.0000      0.0142      0.0053      0.0000      0.0000      0.0048      0.0000      0.0000      0.0000
 44      0.0000      0.0086      0.0000      0.0000      0.0000      0.0000      0.0000      0.0000      0.0000
 45      0.0000      0.0032      0.0000      0.0000      0.0000      0.0000      0.0000      0.0000      0.0000

# j      m_j: min, <> & last-chain-values for 1 ...  7 chains
  1  0.0000E+00  1.3466E-04  0.0000E+00  0.0000E+00  0.0000E+00  0.0000E+00  0.0000E+00  0.0000E+00  5.1727E-05
  2  4.7941E-02  3.8194E-02  4.0527E-02  4.1711E-02  3.9473E-02  4.0510E-02  4.0838E-02  3.8549E-02  3.8561E-02
  3  0.0000E+00  6.6450E-04  0.0000E+00  0.0000E+00  1.2983E-03  0.0000E+00  0.0000E+00  0.0000E+00  1.3285E-03
  4  2.9920E-03  6.7810E-03  9.1008E-03  6.6805E-03  9.4781E-03  7.2262E-03  7.1066E-03  8.2871E-03  6.8816E-03
  5  0.0000E+00  5.4940E-03  0.0000E+00  1.6339E-03  5.4594E-03  8.8034E-03  3.1566E-03  4.7535E-03  1.3666E-02
  6  0.0000E+00  1.2627E-03  0.0000E+00  0.0000E+00  0.0000E+00  0.0000E+00  1.0705E-03  0.0000E+00  0.0000E+00
  7  5.2826E-01  5.2911E-01  5.3286E-01  5.1395E-01  5.4873E-01  5.1793E-01  5.4123E-01  5.1890E-01  5.3707E-01
  8  0.0000E+00  3.3733E-03  8.0142E-04  8.2420E-03  0.0000E+00  0.0000E+00  0.0000E+00  0.0000E+00  0.0000E+00
  9  0.0000E+00  1.2965E-02  0.0000E+00  0.0000E+00  0.0000E+00  0.0000E+00  0.0000E+00  0.0000E+00  0.0000E+00
 10  0.0000E+00  5.0461E-02  5.0628E-02  8.9147E-02  3.5899E-02  2.8471E-01  3.7918E-02  1.4994E-01  1.2814E-01
 11  0.0000E+00  4.4446E-02  3.5254E-02  0.0000E+00  0.0000E+00  0.0000E+00  1.1666E-02  3.6036E-02  0.0000E+00
 12  4.7283E+01  4.5067E+01  4.5573E+01  4.5455E+01  4.5620E+01  4.4333E+01  4.5508E+01  4.5423E+01  4.5647E+01
 13  5.2138E+01  5.2927E+01  5.3360E+01  5.3053E+01  5.3155E+01  5.3254E+01  5.3000E+01  5.3559E+01  5.3487E+01
 14  0.0000E+00  1.8400E-01  0.0000E+00  0.0000E+00  0.0000E+00  0.0000E+00  0.0000E+00  0.0000E+00  0.0000E+00
 15  0.0000E+00  1.7955E-01  1.2062E-03  2.4432E-01  0.0000E+00  1.0211E+00  0.0000E+00  6.3861E-02  1.3832E-01
 16  0.0000E+00  5.4966E-05  0.0000E+00  0.0000E+00  0.0000E+00  0.0000E+00  0.0000E+00  0.0000E+00  0.0000E+00
 17  0.0000E+00  6.6989E-05  0.0000E+00  0.0000E+00  0.0000E+00  0.0000E+00  3.7498E-04  0.0000E+00  0.0000E+00
 18  0.0000E+00  1.1677E-03  1.3627E-03  9.6460E-04  6.6488E-04  1.0743E-03  1.1776E-03  3.1701E-03  1.6991E-03
 19  0.0000E+00  3.5377E-04  0.0000E+00  0.0000E+00  0.0000E+00  0.0000E+00  0.0000E+00  0.0000E+00  0.0000E+00
 20  0.0000E+00  1.7733E-04  0.0000E+00  0.0000E+00  0.0000E+00  0.0000E+00  0.0000E+00  0.0000E+00  0.0000E+00
 21  0.0000E+00  9.5245E-04  0.0000E+00  0.0000E+00  0.0000E+00  0.0000E+00  0.0000E+00  2.1491E-03  0.0000E+00
 22  0.0000E+00  1.7161E-03  0.0000E+00  0.0000E+00  0.0000E+00  0.0000E+00  0.0000E+00  0.0000E+00  0.0000E+00
 23  0.0000E+00  1.3138E-03  0.0000E+00  0.0000E+00  0.0000E+00  0.0000E+00  0.0000E+00  7.6428E-04  0.0000E+00
 24  0.0000E+00  3.3355E-03  0.0000E+00  0.0000E+00  0.0000E+00  0.0000E+00  0.0000E+00  0.0000E+00  0.0000E+00
 25  0.0000E+00  1.2556E-02  0.0000E+00  0.0000E+00  0.0000E+00  0.0000E+00  0.0000E+00  0.0000E+00  0.0000E+00
 26  0.0000E+00  8.9063E-02  1.6311E-01  0.0000E+00  6.1908E-02  1.7211E-02  0.0000E+00  0.0000E+00  0.0000E+00
 27  0.0000E+00  1.7059E-01  0.0000E+00  5.2830E-01  5.2244E-01  0.0000E+00  1.1927E-01  1.8561E-01  0.0000E+00
 28  0.0000E+00  9.2843E-02  0.0000E+00  0.0000E+00  0.0000E+00  0.0000E+00  0.0000E+00  0.0000E+00  0.0000E+00
 29  0.0000E+00  5.4709E-02  0.0000E+00  0.0000E+00  0.0000E+00  0.0000E+00  0.0000E+00  0.0000E+00  0.0000E+00
 30  0.0000E+00  7.7770E-02  0.0000E+00  0.0000E+00  0.0000E+00  0.0000E+00  6.6168E-02  0.0000E+00  0.0000E+00
 31  0.0000E+00  2.7309E-05  0.0000E+00  0.0000E+00  0.0000E+00  0.0000E+00  0.0000E+00  0.0000E+00  0.0000E+00
 32  0.0000E+00  4.4807E-05  0.0000E+00  0.0000E+00  0.0000E+00  0.0000E+00  0.0000E+00  0.0000E+00  1.4808E-05
 33  0.0000E+00  2.6451E-04  0.0000E+00  0.0000E+00  0.0000E+00  0.0000E+00  0.0000E+00  0.0000E+00  0.0000E+00
 34  0.0000E+00  1.1979E-04  0.0000E+00  0.0000E+00  6.1355E-05  0.0000E+00  3.8087E-04  0.0000E+00  0.0000E+00
 35  0.0000E+00  3.7456E-04  0.0000E+00  0.0000E+00  0.0000E+00  0.0000E+00  0.0000E+00  0.0000E+00  0.0000E+00
 36  0.0000E+00  1.5873E-03  2.4472E-04  1.1332E-02  0.0000E+00  0.0000E+00  0.0000E+00  0.0000E+00  8.1647E-04
 37  0.0000E+00  2.1880E-03  0.0000E+00  0.0000E+00  0.0000E+00  1.3651E-04  0.0000E+00  0.0000E+00  0.0000E+00
 38  0.0000E+00  1.9095E-03  3.6153E-03  0.0000E+00  0.0000E+00  0.0000E+00  0.0000E+00  0.0000E+00  0.0000E+00
 39  0.0000E+00  6.7292E-03  0.0000E+00  0.0000E+00  0.0000E+00  0.0000E+00  0.0000E+00  0.0000E+00  0.0000E+00
 40  0.0000E+00  2.4867E-02  0.0000E+00  4.5922E-02  0.0000E+00  0.0000E+00  0.0000E+00  5.7224E-03  0.0000E+00
 41  0.0000E+00  9.6908E-02  1.9901E-01  0.0000E+00  0.0000E+00  4.8813E-01  6.6165E-01  0.0000E+00  0.0000E+00
 42  0.0000E+00  7.7114E-02  0.0000E+00  0.0000E+00  0.0000E+00  0.0000E+00  0.0000E+00  0.0000E+00  0.0000E+00
 43  0.0000E+00  7.7460E-02  2.9122E-02  0.0000E+00  0.0000E+00  2.6117E-02  0.0000E+00  0.0000E+00  0.0000E+00
 44  0.0000E+00  1.0569E-01  0.0000E+00  0.0000E+00  0.0000E+00  0.0000E+00  0.0000E+00  0.0000E+00  0.0000E+00
 45  0.0000E+00  4.7608E-02  0.0000E+00  0.0000E+00  0.0000E+00  0.0000E+00  0.0000E+00  0.0000E+00  0.0000E+00

# AV, chi2 & Mass for <> & i_chain = 1 ...  7 solutions
AV       0.3439      0.3217      0.3262      0.3283      0.3305      0.3282      0.3288      0.3276      0.3330
chi2 1.4602E+00  1.4804E+00  1.4708E+00  1.4696E+00  1.4699E+00  1.4713E+00  1.4709E+00  1.4712E+00  1.4697E+00
Mass 1.2072E-10  1.2004E-10  1.1984E-10  1.2028E-10  1.2029E-10  1.2085E-10  1.2001E-10  1.2022E-10  1.2058E-10
  -7.35                                  [v0_min (km/s) before EX0s...]
  84.16                                  [vd_min (km/s) before EX0s...]


## Synthetic spectrum (Best Model) ##l_obs f_obs f_syn wei
 3070    [Nl_obs]
 3359.00    0.00000   0.50604   -2.000
 3360.00    0.04239   0.48251   -1.000
 3361.00    0.28427   0.48107   -1.000
 3362.00    0.30571   0.50329   -1.000
 3363.00    0.34639   0.53557   -1.000
 3364.00    0.33084   0.55909   -1.000
 3365.00    0.35083   0.56284   -1.000
 3366.00    0.36539   0.54822   -1.000
 3367.00    0.35746   0.52567   -1.000
 3368.00    0.33949   0.50693   -1.000
 3369.00    0.34000   0.49660   -1.000
 3370.00    0.34346   0.49174   -1.000
 3371.00    0.32823   0.48853   -1.000
 3372.00    0.33358   0.48982   -1.000
 3373.00    0.36769   0.50274   -1.000
 3374.00    0.38750   0.52829   -1.000
 3375.00    0.40662   0.55765   -1.000
 3376.00    0.42218   0.57539   -1.000
 3377.00    0.41473   0.57126   -1.000
 3378.00    0.38889   0.55004   -1.000
 3379.00    0.39442   0.52671   -1.000
 3380.00    0.41423   0.51582   -1.000
 3381.00    0.42314   0.52190   -1.000
 3382.00    0.41692   0.53843   -1.000
 3383.00    0.43029   0.55531   -1.000
 3384.00    0.42840   0.56861   -1.000
 3385.00    0.45168   0.57945   -1.000
 3386.00    0.46077   0.58604   -1.000
 3387.00    0.46866   0.58631   -1.000
 3388.00    0.46457   0.58271   -1.000
 3389.00    0.45067   0.57822   -1.000
 3390.00    0.46372   0.57201   -1.000
 3391.00    0.47688   0.56210   -1.000
 3392.00    0.48937   0.55118   -1.000
 3393.00    0.48932   0.54751   -1.000
 3394.00    0.45873   0.55709   -1.000
 3395.00    0.47724   0.57706   -1.000
 3396.00    0.50602   0.59972   -1.000
 3397.00    0.51740   0.61821   -1.000
 3398.00    0.51406   0.62782   -1.000
 3399.00    0.53534   0.62636   -1.000
 3400.00    0.53210   0.61538   -1.000
 3401.00    0.51045   0.59895   -1.000
 3402.00    0.51700   0.58188   -1.000
 3403.00    0.50656   0.56947   -1.000
 3404.00    0.50407   0.56375   -1.000
 3405.00    0.49307   0.56041   -1.000
 3406.00    0.49647   0.55441   -1.000
 3407.00    0.48964   0.54684   -1.000
 3408.00    0.49332   0.54389   -1.000
 3409.00    0.50833   0.54929   -1.000
 3410.00    0.48662   0.55848   -1.000
 3411.00    0.47748   0.56283   -1.000
 3412.00    0.50846   0.55874   -1.000
 3413.00    0.45820   0.55092   -1.000
 3414.00    0.43706   0.54725   -1.000
 3415.00    0.47692   0.55172   -1.000
 3416.00    0.49728   0.56368   -1.000
 3417.00    0.50865   0.58001   -1.000
 3418.00    0.51771   0.59709   -1.000
 3419.00    0.50670   0.61027   -1.000
 3420.00    0.53551   0.61491   -1.000
 3421.00    0.54113   0.61041   -1.000
 3422.00    0.52472   0.60154   -1.000
 3423.00    0.53713   0.59359   -1.000
 3424.00    0.52670   0.58944   -1.000
 3425.00    0.53017   0.58977   -1.000
 3426.00    0.53959   0.59527   -1.000
 3427.00    0.55904   0.60762   -1.000
 3428.00    0.56883   0.62506   -1.000
 3429.00    0.58783   0.63811   -1.000
 3430.00    0.58598   0.63774   -1.000
 3431.00    0.59223   0.62441   -1.000
 3432.00    0.56861   0.60776   -1.000
 3433.00    0.55250   0.59814   -1.000
 3434.00    0.54385   0.59855   -1.000
 3435.00    0.55541   0.60385   -1.000
 3436.00    0.57623   0.60530   -1.000
 3437.00    0.57541   0.59739   -1.000
 3438.00    0.56158   0.57888  125.909
 3439.00    0.52000   0.55226   -1.000
 3440.00    0.49294   0.52390   -1.000
 3441.00    0.49650   0.50360  150.919
 3442.00    0.48344   0.49777  156.167
 3443.00    0.49583   0.50452  156.242
 3444.00    0.51317   0.51809  154.813
 3445.00    0.50641   0.53554   -1.000
 3446.00    0.54213   0.55736  140.124
 3447.00    0.54925   0.58243   -1.000
 3448.00    0.57597   0.60499   -1.000
 3449.00    0.58491   0.61706   -1.000
 3450.00    0.57327   0.61376   -1.000
 3451.00    0.56755   0.59804   -1.000
 3452.00    0.55703   0.57968   -1.000
 3453.00    0.57077   0.56970  843.194
 3454.00    0.57134   0.57138  843.194
 3455.00    0.56734   0.57843   -1.000
 3456.00    0.57623   0.58097  843.194
 3457.00    0.60243   0.57375   -1.000
 3458.00    0.60449   0.56016   -1.000
 3459.00    0.55250   0.54617   -1.000
 3460.00    0.54003   0.53710  125.750
 3461.00    0.54780   0.53892  127.143
 3462.00    0.55081   0.55253  142.321
 3463.00    0.54676   0.56861   -1.000
 3464.00    0.57296   0.57735  843.194
 3465.00    0.55784   0.57897   -1.000
 3466.00    0.54711   0.58020   -1.000
 3467.00    0.56380   0.58610   -1.000
 3468.00    0.58564   0.59523   -1.000
 3469.00    0.58594   0.60280   -1.000
 3470.00    0.61020   0.60483   -1.000
 3471.00    0.60297   0.59926   -1.000
 3472.00    0.58588   0.58597  843.194
 3473.00    0.57535   0.56625   -1.000
 3474.00    0.55311   0.54410   -1.000
 3475.00    0.51767   0.52847   -1.000
 3476.00    0.53101   0.52759  127.146
 3477.00    0.54053   0.54108  131.026
 3478.00    0.57134   0.56083  143.901
 3479.00    0.59099   0.57794   -1.000
 3480.00    0.57795   0.58700   -1.000
 3481.00    0.57065   0.58699   -1.000
 3482.00    0.60170   0.58076   -1.000
 3483.00    0.61312   0.57456   -1.000
 3484.00    0.62491   0.57584   -1.000
 3485.00    0.60642   0.58714   -1.000
 3486.00    0.60664   0.60112   -1.000
 3487.00    0.63299   0.60483   -1.000
 3488.00    0.61699   0.59314   -1.000
 3489.00    0.62395   0.57350   -1.000
 3490.00    0.57889   0.55903   -1.000
 3491.00    0.56448   0.55662   -1.000
 3492.00    0.56751   0.56137   -1.000
 3493.00    0.57217   0.56382   -1.000
 3494.00    0.57192   0.55867   -1.000
 3495.00    0.57564   0.54927   -1.000
 3496.00    0.57249   0.54552   -1.000
 3497.00    0.56003   0.55552   -1.000
 3498.00    0.56769   0.57552   -1.000
 3499.00    0.58621   0.59225   -1.000
 3500.00    0.59244   0.59924   -1.000
 3501.00    0.61919   0.60140   -1.000
 3502.00    0.65714   0.60438   -1.000
 3503.00    0.62991   0.60653   -1.000
 3504.00    0.60127   0.60280  843.194
 3505.00    0.59347   0.59485  843.194
 3506.00    0.60179   0.58941   -1.000
 3507.00    0.59971   0.58855   -1.000
 3508.00    0.60106   0.58812   -1.000
 3509.00    0.60031   0.58361   -1.000
 3510.00    0.61400   0.57541   -1.000
 3511.00    0.60640   0.56677   -1.000
 3512.00    0.60326   0.55885   -1.000
 3513.00    0.58794   0.55316   -1.000
 3514.00    0.59117   0.55558   -1.000
 3515.00    0.56144   0.56992   -1.000
 3516.00    0.60582   0.59164   -1.000
 3517.00    0.63149   0.60988   -1.000
 3518.00    0.61856   0.61508   -1.000
 3519.00    0.60418   0.60577  843.194
 3520.00    0.61646   0.58789   -1.000
 3521.00    0.57675   0.56951   -1.000
 3522.00    0.57619   0.55331   -1.000
 3523.00    0.55781   0.53763   -1.000
 3524.00    0.52932   0.52443   -1.000
 3525.00    0.53293   0.52018  125.963
 3526.00    0.52177   0.53066  129.943
 3527.00    0.54486   0.55384  142.973
 3528.00    0.55571   0.57939   -1.000
 3529.00    0.57877   0.59684   -1.000
 3530.00    0.59644   0.60283   -1.000
 3531.00    0.61734   0.60219   -1.000
 3532.00    0.61144   0.60214   -1.000
 3533.00    0.63249   0.60601   -1.000
 3534.00    0.62476   0.61185   -1.000
 3535.00    0.60879   0.61664   -1.000
 3536.00    0.61452   0.62052   -1.000
 3537.00    0.60193   0.62586   -1.000
 3538.00    0.59729   0.63278   -1.000
 3539.00    0.70047   0.63728   -1.000
 3540.00    0.64753   0.63620   -1.000
 3541.00    0.63854   0.63307   -1.000
 3542.00    0.63035   0.63359   -1.000
 3543.00    0.62906   0.63823   -1.000
 3544.00    0.62408   0.64283   -1.000
 3545.00    0.63647   0.64324   -1.000
 3546.00    0.62776   0.64016   -1.000
 3547.00    0.63796   0.63782  843.194
 3548.00    0.59969   0.63874   -1.000
 3549.00    0.62576   0.64155   -1.000
 3550.00    0.62021   0.64251   -1.000
 3551.00    0.60736   0.63901   -1.000
 3552.00    0.60875   0.63154   -1.000
 3553.00    0.57574   0.62410   -1.000
 3554.00    0.59194   0.62038   -1.000
 3555.00    0.60417   0.62058   -1.000
 3556.00    0.59633   0.62181   -1.000
 3557.00    0.59258   0.62062   -1.000
 3558.00    0.58682   0.61705   -1.000
 3559.00    0.60067   0.61540   -1.000
 3560.00    0.60542   0.62017   -1.000
 3561.00    0.59210   0.62984   -1.000
 3562.00    0.62466   0.63459   -1.000
 3563.00    0.60527   0.62270   -1.000
 3564.00    0.60127   0.59403   -1.000
 3565.00    0.56266   0.56493  644.056
 3566.00    0.53183   0.54925  127.261
 3567.00    0.52738   0.54465  131.828
 3568.00    0.51703   0.54024  130.314
 3569.00    0.49189   0.53059   -1.000
 3570.00    0.48922   0.52253   -1.000
 3571.00    0.50611   0.52425  136.186
 3572.00    0.52903   0.53374  131.654
 3573.00    0.54234   0.54350  138.292
 3574.00    0.54871   0.54931  843.194
 3575.00    0.54318   0.55253   -1.000
 3576.00    0.55986   0.55522   -1.000
 3577.00    0.56202   0.55498   -1.000
 3578.00    0.56091   0.54661   -1.000
 3579.00    0.55187   0.52919   -1.000
 3580.00    0.52951   0.50986  131.946
 3581.00    0.50082   0.49747  142.229
 3582.00    0.49353   0.49426  149.338
 3583.00    0.50852   0.49400  150.195
 3584.00    0.50730   0.48864   -1.000
 3585.00    0.48655   0.47915  155.082
 3586.00    0.47892   0.47405  159.950
 3587.00    0.48536   0.47939  161.149
 3588.00    0.50378   0.49579  152.843
 3589.00    0.51295   0.52009  144.760
 3590.00    0.52249   0.54690  137.168
 3591.00    0.56863   0.56906  137.242
 3592.00    0.55303   0.58174   -1.000
 3593.00    0.56965   0.58688   -1.000
 3594.00    0.58867   0.59172   -1.000
 3595.00    0.57978   0.60153   -1.000
 3596.00    0.58637   0.61496   -1.000
 3597.00    0.61780   0.62807   -1.000
 3598.00    0.62668   0.63795   -1.000
 3599.00    0.62900   0.64120   -1.000
 3600.00    0.61147   0.63424   -1.000
 3601.00    0.61426   0.61659   -1.000
 3602.00    0.60937   0.59373   -1.000
 3603.00    0.58345   0.57461   -1.000
 3604.00    0.58741   0.56584   -1.000
 3605.00    0.57694   0.56636   -1.000
 3606.00    0.56082   0.56797   -1.000
 3607.00    0.57867   0.56360   -1.000
 3608.00    0.55258   0.55429  843.194
 3609.00    0.54691   0.54880  843.194
 3610.00    0.54452   0.55304   -1.000
 3611.00    0.54894   0.56282   -1.000
 3612.00    0.56266   0.57241   -1.000
 3613.00    0.56863   0.58175   -1.000
 3614.00    0.58208   0.59238   -1.000
 3615.00    0.59831   0.59991  843.194
 3616.00    0.59172   0.59379  843.194
 3617.00    0.56933   0.57239  843.194
 3618.00    0.54903   0.55182  843.194
 3619.00    0.54465   0.54855  700.563
 3620.00    0.54404   0.56359  135.111
 3621.00    0.56374   0.58553   -1.000
 3622.00    0.59750   0.60372   -1.000
 3623.00    0.61769   0.61670  843.194
 3624.00    0.62741   0.63059   -1.000
 3625.00    0.62320   0.64984   -1.000
 3626.00    0.65001   0.67018   -1.000
 3627.00    0.66236   0.68124   -1.000
 3628.00    0.67578   0.67223  843.194
 3629.00    0.62167   0.64131   -1.000
 3630.00    0.57786   0.60156   -1.000
 3631.00    0.54361   0.57222   -1.000
 3632.00    0.53229   0.56434   -1.000
 3633.00    0.55191   0.57393   -1.000
 3634.00    0.58053   0.58870   -1.000
 3635.00    0.59052   0.59987   -1.000
 3636.00    0.60901   0.60841  843.194
 3637.00    0.62819   0.62027   -1.000
 3638.00    0.61755   0.63674   -1.000
 3639.00    0.64244   0.65190   -1.000
 3640.00    0.64906   0.65692   -1.000
 3641.00    0.62324   0.64795   -1.000
 3642.00    0.63165   0.62905  843.194
 3643.00    0.60536   0.60897   -1.000
 3644.00    0.59730   0.59491  843.194
 3645.00    0.57176   0.58726   -1.000
 3646.00    0.59296   0.58254   -1.000
 3647.00    0.56344   0.57989   -1.000
 3648.00    0.57231   0.58134   -1.000
 3649.00    0.57552   0.58877   -1.000
 3650.00    0.60282   0.60254  843.194
 3651.00    0.60362   0.62073   -1.000
 3652.00    0.62280   0.63915   -1.000
 3653.00    0.62951   0.65382   -1.000
 3654.00    0.64538   0.66349   -1.000
 3655.00    0.65827   0.67089   -1.000
 3656.00    0.65691   0.67897   -1.000
 3657.00    0.65810   0.68655   -1.000
 3658.00    0.66036   0.69083   -1.000
 3659.00    0.64815   0.69052   -1.000
 3660.00    0.64077   0.68579   -1.000
 3661.00    0.65093   0.67778   -1.000
 3662.00    0.65531   0.66866   -1.000
 3663.00    0.64722   0.66132   -1.000
 3664.00    0.64216   0.65814   -1.000
 3665.00    0.65191   0.65807   -1.000
 3666.00    0.66545   0.65692   -1.000
 3667.00    0.68449   0.65108   -1.000
 3668.00    0.66716   0.64269   -1.000
 3669.00    0.63233   0.63973   -1.000
 3670.00    0.62698   0.64684   -1.000
 3671.00    0.63201   0.66022   -1.000
 3672.00    0.65068   0.67135   -1.000
 3673.00    0.64474   0.67449   -1.000
 3674.00    0.64952   0.66943   -1.000
 3675.00    0.66187   0.65800  843.194
 3676.00    0.64651   0.64278  843.194
 3677.00    0.62956   0.62708  843.194
 3678.00    0.61312   0.61464   -1.000
 3679.00    0.61855   0.60856   -1.000
 3680.00    0.60385   0.60963   -1.000
 3681.00    0.60867   0.61619   -1.000
 3682.00    0.63511   0.62398   -1.000
 3683.00    0.64336   0.62704   -1.000
 3684.00    0.60662   0.62049   -1.000
 3685.00    0.61642   0.60561   -1.000
 3686.00    0.60200   0.59191   -1.000
 3687.00    0.59887   0.58997   -1.000
 3688.00    0.60682   0.60349  843.194
 3689.00    0.62197   0.62715   -1.000
 3690.00    0.64907   0.65027  843.194
 3691.00    0.66648   0.66352  843.194
 3692.00    0.66229   0.66599   -1.000
 3693.00    0.65793   0.66301   -1.000
 3694.00    0.66586   0.65859   -1.000
 3695.00    0.66433   0.65446   -1.000
 3696.00    0.65261   0.65400   -1.000
 3697.00    0.67611   0.66249   -1.000
 3698.00    0.67849   0.68079   -1.000
 3699.00    0.68330   0.70053   -1.000
 3700.00    0.70120   0.70813   -1.000
 3701.00    0.70863   0.69365   -1.000
 3702.00    0.68900   0.65820   -1.000
 3703.00    0.63479   0.61449   -1.000
 3704.00    0.60117   0.57887   -1.000
 3705.00    0.57815   0.56294   -1.000
 3706.00    0.57459   0.56628   -1.000
 3707.00    0.58496   0.57867   -1.000
 3708.00    0.60888   0.58985   -1.000
 3709.00    0.60574   0.59598   -1.000
 3710.00    0.63493   0.60103   -1.000
 3711.00    0.64840   0.61351   -1.000
 3712.00    0.67550   0.63790   -1.000
 3713.00    0.68900   0.66924   -1.000
 3714.00    0.70694   0.69769   -1.000
 3715.00    0.71997   0.71423  813.781
 3716.00    0.71261   0.71343  813.017
 3717.00    0.70415   0.69262   -1.000
 3718.00    0.69776   0.65041   -1.000
 3719.00    0.62224   0.59369   -1.000
 3720.00    0.55446   0.54277   -1.000
 3721.00    0.51977   0.51865  815.192
 3722.00    0.55028   0.53015  134.482
 3723.00    0.57460   0.57058   -1.000
 3724.00    0.62487   0.62007   -1.000
 3725.00    0.67702   0.65620   -1.000
 3726.00    0.69411   0.67235   -1.000
 3727.00    0.67957   0.67874  843.194
 3728.00    0.69568   0.68379   -1.000
 3729.00    0.68769   0.68378   -1.000
 3730.00    0.66612   0.66719  843.194
 3731.00    0.65622   0.62708   -1.000
 3732.00    0.61008   0.57013   -1.000
 3733.00    0.53566   0.51321   -1.000
 3734.00    0.50715   0.47475   -1.000
 3735.00    0.51411   0.46736   -1.000
 3736.00    0.52866   0.49265   -1.000
 3737.00    0.56342   0.54260   -1.000
 3738.00    0.59463   0.60387  131.378
 3739.00    0.64486   0.65944   -1.000
 3740.00    0.68790   0.69479   -1.000
 3741.00    0.71147   0.70479   -1.000
 3742.00    0.70604   0.69311   -1.000
 3743.00    0.67135   0.66776   -1.000
 3744.00    0.66190   0.63703   -1.000
 3745.00    0.62707   0.60470   -1.000
 3746.00    0.60104   0.56960   -1.000
 3747.00    0.57042   0.53006   -1.000
 3748.00    0.53646   0.49291   -1.000
 3749.00    0.51610   0.47587   -1.000
 3750.00    0.52806   0.49263   -1.000
 3751.00    0.58196   0.54025   -1.000
 3752.00    0.64948   0.60330   -1.000
 3753.00    0.69735   0.66457   -1.000
 3754.00    0.73279   0.70998   -1.000
 3755.00    0.75828   0.72907   -1.000
 3756.00    0.71492   0.71884   -1.000
 3757.00    0.68532   0.69012   -1.000
 3758.00    0.67124   0.66319   -1.000
 3759.00    0.64415   0.65312   -1.000
 3760.00    0.64549   0.65968   -1.000
 3761.00    0.67990   0.67279   -1.000
 3762.00    0.70426   0.68445   -1.000
 3763.00    0.71297   0.69062   -1.000
 3764.00    0.70206   0.68792   -1.000
 3765.00    0.71601   0.67436   -1.000
 3766.00    0.69875   0.65180   -1.000
 3767.00    0.67597   0.62416   -1.000
 3768.00    0.64409   0.59560   -1.000
 3769.00    0.63731   0.57216   -1.000
 3770.00    0.61894   0.56319   -1.000
 3771.00    0.62185   0.57698   -1.000
 3772.00    0.65719   0.61054   -1.000
 3773.00    0.69472   0.64931   -1.000
 3774.00    0.71810   0.68170   -1.000
 3775.00    0.74944   0.70667   -1.000
 3776.00    0.75362   0.72888   -1.000
 3777.00    0.75943   0.75252   -1.000
 3778.00    0.76188   0.77775   -1.000
 3779.00    0.79620   0.80144   -1.000
 3780.00    0.80875   0.81993   -1.000
 3781.00    0.82284   0.83153   -1.000
 3782.00    0.81309   0.83645   -1.000
 3783.00    0.81476   0.83354   -1.000
 3784.00    0.81157   0.81953   -1.000
 3785.00    0.78810   0.79402   -1.000
 3786.00    0.76484   0.76373  843.194
 3787.00    0.72892   0.73839   -1.000
 3788.00    0.71751   0.72360   -1.000
 3789.00    0.73589   0.71821   -1.000
 3790.00    0.73873   0.71641   -1.000
 3791.00    0.74523   0.71005   -1.000
 3792.00    0.71621   0.69277   -1.000
 3793.00    0.70103   0.66348   -1.000
 3794.00    0.67361   0.62541   -1.000
 3795.00    0.62497   0.58332   -1.000
 3796.00    0.58641   0.54209   -1.000
 3797.00    0.57829   0.51126   -1.000
 3798.00    0.57990   0.50665   -1.000
 3799.00    0.59944   0.53664   -1.000
 3800.00    0.63177   0.59239   -1.000
 3801.00    0.68954   0.65569   -1.000
 3802.00    0.73789   0.70966   -1.000
 3803.00    0.78366   0.74551   -1.000
 3804.00    0.80033   0.76201   -1.000
 3805.00    0.77177   0.76332   -1.000
 3806.00    0.75939   0.76073   -1.000
 3807.00    0.76580   0.76775   -1.000
 3808.00    0.78003   0.78798   -1.000
 3809.00    0.78541   0.81182   -1.000
 3810.00    0.81947   0.82405   -1.000
 3811.00    0.81116   0.81513   -1.000
 3812.00    0.77224   0.78723   -1.000
 3813.00    0.74797   0.75231   -1.000
 3814.00    0.72860   0.72584  843.194
 3815.00    0.69641   0.71797   -1.000
 3816.00    0.73382   0.72554   -1.000
 3817.00    0.73160   0.73366  843.194
 3818.00    0.73436   0.72922   -1.000
 3819.00    0.71422   0.71231  843.194
 3820.00    0.70126   0.69617   -1.000
 3821.00    0.70179   0.69145   -1.000
 3822.00    0.71075   0.69193   -1.000
 3823.00    0.69652   0.68381   -1.000
 3824.00    0.70179   0.66323   -1.000
 3825.00    0.64943   0.63918   -1.000
 3826.00    0.63224   0.62196  131.221
 3827.00    0.61059   0.61355  133.873
 3828.00    0.61150   0.60832  132.596
 3829.00    0.62191   0.59872   -1.000
 3830.00    0.59628   0.57915  128.399
 3831.00    0.57830   0.54793   -1.000
 3832.00    0.55874   0.50841   -1.000
 3833.00    0.51455   0.46956   -1.000
 3834.00    0.49769   0.44322   -1.000
 3835.00    0.51258   0.43625   -1.000
 3836.00    0.52841   0.44664   -1.000
 3837.00    0.52313   0.46740   -1.000
 3838.00    0.54631   0.49369   -1.000
 3839.00    0.56796   0.52682   -1.000
 3840.00    0.60412   0.56951   -1.000
 3841.00    0.63900   0.61914   -1.000
 3842.00    0.70001   0.66809   -1.000
 3843.00    0.75064   0.70813   -1.000
 3844.00    0.77166   0.73594   -1.000
 3845.00    0.79853   0.75486   -1.000
 3846.00    0.80025   0.76944   -1.000
 3847.00    0.77358   0.77936   -1.000
 3848.00    0.78416   0.78241  843.194
 3849.00    0.77001   0.78169   -1.000
 3850.00    0.76848   0.78366   -1.000
 3851.00    0.77097   0.79123   -1.000
 3852.00    0.77735   0.79982   -1.000
 3853.00    0.79031   0.80138   -1.000
 3854.00    0.79412   0.79354  843.194
 3855.00    0.75765   0.78018   -1.000
 3856.00    0.74227   0.76462   -1.000
 3857.00    0.72656   0.74819   -1.000
 3858.00    0.70985   0.73413   -1.000
 3859.00    0.70328   0.73005   -1.000
 3860.00    0.70934   0.74198   -1.000
 3861.00    0.73028   0.76656   -1.000
 3862.00    0.77107   0.79159   -1.000
 3863.00    0.80818   0.80570  843.194
 3864.00    0.81080   0.80802  843.194
 3865.00    0.80865   0.80513  843.194
 3866.00    0.79822   0.80269   -1.000
 3867.00    0.78988   0.80183   -1.000
 3868.00    0.79035   0.79838   -1.000
 3869.00    0.79162   0.78650  843.194
 3870.00    0.75811   0.76491   -1.000
 3871.00    0.72361   0.74122   -1.000
 3872.00    0.70047   0.72807   -1.000
 3873.00    0.71254   0.73367   -1.000
 3874.00    0.72719   0.75244   -1.000
 3875.00    0.76164   0.76627   -1.000
 3876.00    0.76143   0.76183  843.194
 3877.00    0.72166   0.74325   -1.000
 3878.00    0.69842   0.72525   -1.000
 3879.00    0.70236   0.71658   -1.000
 3880.00    0.71729   0.71359   -1.000
 3881.00    0.71560   0.70866   -1.000
 3882.00    0.70336   0.69855   -1.000
 3883.00    0.71481   0.68250   -1.000
 3884.00    0.70435   0.65736   -1.000
 3885.00    0.67320   0.61926   -1.000
 3886.00    0.64402   0.57255   -1.000
 3887.00    0.60315   0.53121   -1.000
 3888.00    0.57442   0.51080   -1.000
 3889.00    0.58798   0.52038   -1.000
 3890.00    0.63429   0.55763   -1.000
 3891.00    0.68576   0.60781   -1.000
 3892.00    0.70560   0.65188   -1.000
 3893.00    0.71051   0.68092   -1.000
 3894.00    0.73251   0.69961   -1.000
 3895.00    0.72488   0.71697   -1.000
 3896.00    0.75856   0.73546   -1.000
 3897.00    0.77582   0.75059   -1.000
 3898.00    0.75044   0.76019   -1.000
 3899.00    0.75950   0.76834   -1.000
 3900.00    0.77973   0.77869  841.529
 3901.00    0.81722   0.78857   -1.000
 3902.00    0.81006   0.79168   -1.000
 3903.00    0.77972   0.78557   -1.000
 3904.00    0.75619   0.77599   -1.000
 3905.00    0.76524   0.77302   -1.000
 3906.00    0.75466   0.78390   -1.000
 3907.00    0.78730   0.80876   -1.000
 3908.00    0.80349   0.83919   -1.000
 3909.00    0.82332   0.86430   -1.000
 3910.00    0.83548   0.87920   -1.000
 3911.00    0.86295   0.88425   76.878
 3912.00    0.85731   0.88095   76.144
 3913.00    0.85595   0.87215   75.716
 3914.00    0.85511   0.86186   76.660
 3915.00    0.81828   0.85296   -1.000
 3916.00    0.81870   0.84546   80.125
 3917.00    0.81301   0.83679   81.117
 3918.00    0.80138   0.82494   82.215
 3919.00    0.77449   0.81124   -1.000
 3920.00    0.76292   0.80051   -1.000
 3921.00    0.77042   0.79739   92.720
 3922.00    0.76193   0.80110   -1.000
 3923.00    0.75837   0.80446   -1.000
 3924.00    0.75060   0.79836   -1.000
 3925.00    0.73964   0.77774   -1.000
 3926.00    0.69312   0.74237   -1.000
 3927.00    0.65478   0.69504   -1.000
 3928.00    0.60895   0.63967   -1.000
 3929.00    0.53664   0.57805   13.897
 3930.00    0.47329   0.51160   16.296
 3931.00    0.39743   0.44470   19.064
 3932.00    0.32778   0.38796   22.567
 3933.00    0.30822   0.35779   26.382
 3934.00    0.30994   0.36652   28.767
 3935.00    0.35909   0.41162   27.492
 3936.00    0.41448   0.47909   23.816
 3937.00    0.48461   0.55315   19.677
 3938.00    0.56900   0.62190   16.159
 3939.00    0.63898   0.67837   13.651
 3940.00    0.66268   0.71854   -1.000
 3941.00    0.69005   0.74173   -1.000
 3942.00    0.69987   0.75241   -1.000
 3943.00    0.72074   0.75867   -1.000
 3944.00    0.74632   0.76816  106.422
 3945.00    0.77150   0.78277  100.930
 3946.00    0.77754   0.79736   91.583
 3947.00    0.78093   0.80721   86.350
 3948.00    0.78927   0.81379   85.501
 3949.00    0.80154   0.81988   84.885
 3950.00    0.82213   0.82460   81.697
 3951.00    0.82354   0.82718   79.034
 3952.00    0.80450   0.82991   79.470
 3953.00    0.82722   0.83380   80.666
 3954.00    0.83895   0.83462   79.173
 3955.00    0.82800   0.82816   77.169
 3956.00    0.81103   0.81790   78.083
 3957.00    0.80461   0.81016   81.015
 3958.00    0.79966   0.80260   82.293
 3959.00    0.79609   0.78523   80.764
 3960.00    0.76657   0.75171   82.732
 3961.00    0.71072   0.70725   91.794
 3962.00    0.66203   0.66204  103.799
 3963.00    0.62136   0.61827  114.809
 3964.00    0.56464   0.56850  120.341
 3965.00    0.50189   0.50382   13.083
 3966.00    0.43224   0.42707   15.336
 3967.00    0.36591   0.35639   18.941
 3968.00    0.32284   0.31391   23.168
 3969.00    0.31124   0.31173   25.559
 3970.00    0.34711   0.34776   23.684
 3971.00    0.42805   0.40916   19.496
 3972.00    0.50635   0.48114   16.016
 3973.00    0.57772   0.55357   13.401
 3974.00    0.64242   0.62068  111.836
 3975.00    0.71836   0.68005   -1.000
 3976.00    0.75932   0.73110   92.045
 3977.00    0.78243   0.77543   84.854
 3978.00    0.82630   0.81377   79.883
 3979.00    0.84144   0.84279   75.702
 3980.00    0.84165   0.85828   71.615
 3981.00    0.85622   0.86204   70.817
 3982.00    0.85099   0.86269   71.340
 3983.00    0.85347   0.86824   72.749
 3984.00    0.88435   0.87932   72.184
 3985.00    0.87894   0.89199   70.655
 3986.00    0.89317   0.90401   69.262
 3987.00    0.90935   0.91581   68.149
 3988.00    0.91749   0.92737   66.833
 3989.00    0.92132   0.93778   66.204
 3990.00    0.94032   0.94762   66.469
 3991.00    0.93552   0.95796   66.032
 3992.00    0.95844   0.96640   64.472
 3993.00    0.97075   0.96798   62.901
 3994.00    0.95072   0.96025   63.708
 3995.00    0.92632   0.94620   65.271
 3996.00    0.92213   0.93323   66.774
 3997.00    0.90093   0.92937   68.050
 3998.00    0.92096   0.93754   68.609
 3999.00    0.93529   0.95443   67.020
 4000.00    0.95218   0.97279   63.894
 4001.00    0.97795   0.98433   61.743
 4002.00    0.98661   0.98262   60.778
 4003.00    0.96963   0.96644   59.910
 4004.00    0.94733   0.94182   61.135
 4005.00    0.91238   0.92334   65.388
 4006.00    0.91134   0.92450   68.756
 4007.00    0.92782   0.94457   68.156
 4008.00    0.98406   0.97058   64.134
 4009.00    0.98208   0.99026   61.614
 4010.00    0.98704   0.99992   60.831
 4011.00    0.99957   1.00278   60.176
 4012.00    1.00850   1.00389   59.983
 4013.00    0.94049   1.00616   -1.000
 4014.00    1.01123   1.00899   60.755
 4015.00    1.00784   1.01078   60.287
 4016.00    0.97682   1.01185   59.418
 4017.00    0.97893   1.01469   59.956
 4018.00    1.00657   1.02049   60.706
 4019.00    0.98671   1.02692   -1.000
 4020.00    1.00000   1.02999   59.445
 4021.00    1.01462   1.02768   59.605
 4022.00    1.00701   1.02116   60.498
 4023.00    0.97994   1.01356   60.845
 4024.00    0.99220   1.00978   61.244
 4025.00    1.00410   1.01426   61.727
 4026.00    1.00243   1.02550   60.164
 4027.00    1.00647   1.03321   57.998
 4028.00    1.01027   1.02612   56.835
 4029.00    0.98753   1.00306   57.374
 4030.00    0.96496   0.97338   59.781
 4031.00    0.94422   0.94981   63.930
 4032.00    0.92484   0.94046   66.609
 4033.00    0.92219   0.94685   67.386
 4034.00    0.95619   0.96641   66.509
 4035.00    0.97533   0.99549   64.312
 4036.00    1.00987   1.02832   61.107
 4037.00    1.04412   1.05517   58.090
 4038.00    1.03151   1.06660   56.053
 4039.00    1.01156   1.06277   -1.000
 4040.00    1.01627   1.05223   57.070
 4041.00    1.00127   1.04035   -1.000
 4042.00    1.01925   1.02283   59.071
 4043.00    0.98862   0.99233   59.352
 4044.00    0.93612   0.95553   62.259
 4045.00    0.89893   0.93322   -1.000
 4046.00    0.89069   0.94002   -1.000
 4047.00    0.93594   0.97117   -1.000
 4048.00    1.00121   1.00867   63.711
 4049.00    1.02738   1.03615   59.858
 4050.00    1.03568   1.04736   58.160
 4051.00    1.02349   1.04396   57.495
 4052.00    1.01593   1.03077   57.902
 4053.00    0.99090   1.01519   59.514
 4054.00    0.99765   1.00367   61.059
 4055.00    1.00538   0.99689   62.004
 4056.00    0.99058   0.99332   62.494
 4057.00    0.98805   0.99452   62.916
 4058.00    0.98713   1.00315   63.580
 4059.00    1.00915   1.01537   62.820
 4060.00    1.00885   1.01878   60.518
 4061.00    0.99359   1.00434   59.321
 4062.00    0.96816   0.97644   60.357
 4063.00    0.93608   0.94996   64.837
 4064.00    0.93277   0.93736   69.352
 4065.00    0.93298   0.94036   68.253
 4066.00    0.95822   0.95322   64.855
 4067.00    0.98306   0.96987   63.280
 4068.00    1.00904   0.98325   61.567
 4069.00    1.00819   0.98496   59.571
 4070.00    1.00213   0.97351   58.814
 4071.00    0.98051   0.95895   61.163
 4072.00    0.97474   0.95339   63.987
 4073.00    0.98707   0.95608   63.522
 4074.00    0.97161   0.95376   61.160
 4075.00    0.96113   0.93769   60.833
 4076.00    0.92342   0.91447   63.810
 4077.00    0.91637   0.90056   69.310
 4078.00    0.90892   0.90782   71.413
 4079.00    0.91189   0.93455   69.044
 4080.00    0.95825   0.96567   64.276
 4081.00    0.99427   0.98416   59.835
 4082.00    0.99856   0.98382   58.019
 4083.00    0.99474   0.97230   59.007
 4084.00    0.97116   0.96361   61.049
 4085.00    0.97112   0.96733   61.986
 4086.00    0.99670   0.98333   61.061
 4087.00    1.01700   1.00298   58.986
 4088.00    1.04663   1.01557   56.711
 4089.00    1.04740   1.01528   54.883
 4090.00    1.03484   1.00464   55.131
 4091.00    1.02927   0.99061   56.281
 4092.00    1.01090   0.97694   57.337
 4093.00    1.01133   0.96154   57.985
 4094.00    0.98780   0.94018   58.036
 4095.00    0.95900   0.91215   59.106
 4096.00    0.93984   0.87985   -1.000
 4097.00    0.91146   0.84355   -1.000
 4098.00    0.87569   0.79943   -1.000
 4099.00    0.82313   0.74541   -1.000
 4100.00    0.77046   0.69091   -1.000
 4101.00    0.73002   0.65702   -1.000
 4102.00    0.73510   0.66109   -1.000
 4103.00    0.76104   0.70298   -1.000
 4104.00    0.83130   0.76430   -1.000
 4105.00    0.87390   0.82205   -1.000
 4106.00    0.90989   0.86396   63.211
 4107.00    0.92580   0.89000   61.271
 4108.00    0.92768   0.90516   60.964
 4109.00    0.95031   0.91547   61.546
 4110.00    0.95524   0.92610   62.755
 4111.00    0.94800   0.93965   63.688
 4112.00    0.96059   0.95621   62.903
 4113.00    0.98337   0.97495   61.475
 4114.00    1.00477   0.99306   60.417
 4115.00    0.99218   1.00541   59.487
 4116.00    1.01660   1.00776   58.904
 4117.00    0.98743   1.00106   59.191
 4118.00    0.96925   0.99108   60.455
 4119.00    0.96243   0.98418   62.511
 4120.00    0.96958   0.98295   63.254
 4121.00    0.96785   0.98582   62.468
 4122.00    0.98518   0.99088   61.818
 4123.00    0.98884   0.99790   61.878
 4124.00    0.99988   1.00538   61.217
 4125.00    0.99908   1.00874   60.127
 4126.00    1.01470   1.00488   59.917
 4127.00    0.99446   0.99654   60.722
 4128.00    0.99141   0.98900   62.039
 4129.00    0.97622   0.98303   62.560
 4130.00    0.97707   0.97440   62.876
 4131.00    0.95504   0.96197   63.666
 4132.00    0.95170   0.95249   65.676
 4133.00    0.94879   0.95520   67.759
 4134.00    0.95062   0.97288   67.960
 4135.00    0.97289   0.99993   65.738
 4136.00    1.01700   1.02741   62.410
 4137.00    1.01525   1.04939   60.364
 4138.00    1.03756   1.06354   59.381
 4139.00    1.04472   1.06651   58.452
 4140.00    1.04122   1.05345   58.214
 4141.00    1.00963   1.02549   59.396
 4142.00    0.97371   0.99336   62.522
 4143.00    0.92987   0.97300   -1.000
 4144.00    0.93845   0.97484   -1.000
 4145.00    0.96443   0.99401   68.913
 4146.00    0.99137   1.01498   64.757
 4147.00    1.01718   1.02601   62.318
 4148.00    1.00748   1.02717   61.650
 4149.00    0.99514   1.02565   62.808
 4150.00    0.99529   1.02571   64.574
 4151.00    0.99386   1.02496   65.394
 4152.00    0.99998   1.01928   64.932
 4153.00    0.99053   1.00911   64.554
 4154.00    0.97335   1.00025   65.148
 4155.00    0.98153   0.99888   66.224
 4156.00    0.97544   1.00651   64.598
 4157.00    1.04479   1.02005   64.033
 4158.00    1.32995   1.03482   -1.000
 4159.00    1.26937   1.04684   -1.000
 4160.00    0.63434   1.05496   -1.000
 4161.00    0.83003   1.06106   -1.000
 4162.00    1.12842   1.06694   60.349
 4163.00    1.04325   1.07169   59.661
 4164.00    1.03082   1.07223   -1.000
 4165.00    1.02080   1.06671   -1.000
 4166.00    1.01614   1.05720   -1.000
 4167.00    1.01768   1.04823   63.300
 4168.00    1.02086   1.04098   64.280
 4169.00    1.00821   1.02980   63.816
 4170.00    0.99300   1.00845   62.707
 4171.00    0.95322   0.97926   63.333
 4172.00    0.92606   0.95476   67.081
 4173.00    0.91725   0.94787   -1.000
 4174.00    0.93378   0.95934   71.482
 4175.00    0.96369   0.97735   68.942
 4176.00    0.96541   0.99049   66.440
 4177.00    0.96623   0.99800   66.340
 4178.00    0.98862   1.00545   66.733
 4179.00    0.99417   1.01418   66.456
 4180.00    1.00713   1.01961   65.421
 4181.00    0.97786   1.01931   -1.000
 4182.00    1.00108   1.01766   64.822
 4183.00    1.00294   1.01979   64.139
 4184.00    0.99641   1.02375   62.854
 4185.00    0.98933   1.02327   61.737
 4186.00    0.97074   1.01677   -1.000
 4187.00    0.95984   1.00987   -1.000
 4188.00    0.96428   1.00899   -1.000
 4189.00    0.98017   1.01487   -1.000
 4190.00    0.99433   1.02430   63.711
 4191.00    1.00230   1.03507   63.304
 4192.00    1.00783   1.04463   -1.000
 4193.00    1.02258   1.04756   61.117
 4194.00    1.00926   1.03903   60.295
 4195.00    0.98940   1.01957   62.012
 4196.00    0.97181   0.99529   65.277
 4197.00    0.95152   0.97372   67.470
 4198.00    0.92731   0.95967   -1.000
 4199.00    0.91906   0.95441   -1.000
 4200.00    0.93667   0.95629   68.106
 4201.00    0.94352   0.96213   67.012
 4202.00    0.94077   0.97035   66.814
 4203.00    0.95392   0.98194   66.389
 4204.00    0.96166   0.99760   -1.000
 4205.00    0.97514   1.01578   -1.000
 4206.00    0.98861   1.03329   -1.000
 4207.00    0.99867   1.04626   -1.000
 4208.00    1.02286   1.05256   60.813
 4209.00    1.00595   1.05413   -1.000
 4210.00    0.99968   1.05552   -1.000
 4211.00    1.00931   1.05826   -1.000
 4212.00    1.00706   1.05753   -1.000
 4213.00    1.00172   1.04727   -1.000
 4214.00    0.96604   1.02878   -1.000
 4215.00    0.94280   1.01198   -1.000
 4216.00    0.94864   1.00766   -1.000
 4217.00    0.95390   1.01913   -1.000
 4218.00    0.97150   1.03967   -1.000
 4219.00    1.00694   1.05782   -1.000
 4220.00    1.03576   1.06473   56.513
 4221.00    1.01618   1.05575   55.883
 4222.00    0.99895   1.02859   56.365
 4223.00    0.95390   0.98477   58.657
 4224.00    0.90978   0.93276   62.755
 4225.00    0.86254   0.88857   68.947
 4226.00    0.81256   0.87091   -1.000
 4227.00    0.81700   0.89006   -1.000
 4228.00    0.86069   0.93660   -1.000
 4229.00    0.92191   0.98571   -1.000
 4230.00    0.97776   1.01646   61.922
 4231.00    0.98655   1.02374   58.614
 4232.00    0.98713   1.01512   58.094
 4233.00    0.97519   1.00163   59.369
 4234.00    0.97199   0.99047   60.936
 4235.00    0.95274   0.98370   61.563
 4236.00    0.94393   0.98172   -1.000
 4237.00    0.94354   0.98565   -1.000
 4238.00    0.95724   0.99566   -1.000
 4239.00    0.96483   1.00907   -1.000
 4240.00    0.97359   1.02207   -1.000
 4241.00    0.96798   1.03243   -1.000
 4242.00    0.99038   1.04036   -1.000
 4243.00    1.01114   1.04614   59.069
 4244.00    1.01699   1.04713   58.070
 4245.00    0.99449   1.03918   -1.000
 4246.00    0.97696   1.02215   -1.000
 4247.00    0.93580   1.00248   -1.000
 4248.00    0.92079   0.98877   -1.000
 4249.00    0.92986   0.98566   -1.000
 4250.00    0.93308   0.99195   -1.000
 4251.00    0.95196   1.00183   -1.000
 4252.00    0.96849   1.00785   -1.000
 4253.00    0.96408   1.00652   -1.000
 4254.00    0.95731   1.00309   -1.000
 4255.00    0.95634   1.00520   -1.000
 4256.00    0.97683   1.01114   62.095
 4257.00    0.98030   1.01068   59.687
 4258.00    0.97648   0.99805   59.143
 4259.00    0.94878   0.98089   61.352
 4260.00    0.93486   0.97456   -1.000
 4261.00    0.93125   0.98775   -1.000
 4262.00    0.95787   1.01527   -1.000
 4263.00    0.98284   1.04358   -1.000
 4264.00    1.02139   1.06179   57.262
 4265.00    1.00891   1.06666   -1.000
 4266.00    1.00897   1.06028   -1.000
 4267.00    0.98910   1.04519   -1.000
 4268.00    0.97776   1.02212   -1.000
 4269.00    0.94082   0.99216   -1.000
 4270.00    0.91816   0.96004   -1.000
 4271.00    0.89641   0.93403   -1.000
 4272.00    0.89049   0.92174   70.804
 4273.00    0.88108   0.92525   -1.000
 4274.00    0.89217   0.94205   -1.000
 4275.00    0.92631   0.96877   -1.000
 4276.00    0.94925   0.99955   -1.000
 4277.00    0.98507   1.02401   61.105
 4278.00    1.00032   1.03321   58.222
 4279.00    0.97290   1.02771   -1.000
 4280.00    0.95733   1.01684   -1.000
 4281.00    0.94120   1.00939   -1.000
 4282.00    0.94871   1.00657   -1.000
 4283.00    0.96114   1.00360   -1.000
 4284.00    0.94611   0.99661   -1.000
 4285.00    0.93412   0.98517   -1.000
 4286.00    0.92376   0.96951   -1.000
 4287.00    0.90462   0.94956   -1.000
 4288.00    0.88988   0.92733   -1.000
 4289.00    0.86298   0.91031   -1.000
 4290.00    0.83924   0.90809   -1.000
 4291.00    0.86016   0.92190   -1.000
 4292.00    0.89447   0.94120   -1.000
 4293.00    0.91378   0.95303   -1.000
 4294.00    0.92152   0.95179   63.665
 4295.00    0.91284   0.93932   64.201
 4296.00    0.90091   0.91821   65.254
 4297.00    0.86638   0.88913   66.736
 4298.00    0.82272   0.85520   70.058
 4299.00    0.78530   0.82495   -1.000
 4300.00    0.76475   0.80687   -1.000
 4301.00    0.76220   0.80318   -1.000
 4302.00    0.76769   0.81032   -1.000
 4303.00    0.78179   0.82285   -1.000
 4304.00    0.80850   0.83400   78.194
 4305.00    0.81520   0.83625   77.238
 4306.00    0.78465   0.82686   -1.000
 4307.00    0.75381   0.81223   -1.000
 4308.00    0.74668   0.80428   -1.000
 4309.00    0.74572   0.81120   -1.000
 4310.00    0.76790   0.83107   -1.000
 4311.00    0.81372   0.85618   -1.000
 4312.00    0.83235   0.88303   -1.000
 4313.00    0.85299   0.91514   -1.000
 4314.00    0.89308   0.95675   -1.000
 4315.00    0.95280   1.00546   -1.000
 4316.00    1.00320   1.05058   -1.000
 4317.00    1.02210   1.08025   -1.000
 4318.00    1.04127   1.08963   -1.000
 4319.00    1.04309   1.08205   52.484
 4320.00    1.02975   1.06276   53.284
 4321.00    1.00616   1.03345   54.485
 4322.00    0.97703   0.99438   56.315
 4323.00    0.93595   0.95098   59.066
 4324.00    0.88757   0.91646   63.392
 4325.00    0.86807   0.90565   -1.000
 4326.00    0.87970   0.92421   -1.000
 4327.00    0.92415   0.96176   -1.000
 4328.00    0.98207   0.99807   60.552
 4329.00    1.00441   1.01922   56.117
 4330.00    0.99483   1.02558   54.929
 4331.00    0.99220   1.02525   55.126
 4332.00    0.99727   1.02319   54.845
 4333.00    1.00891   1.01679   53.901
 4334.00    1.00329   0.99891   53.333
 4335.00    0.97676   0.96226   53.202
 4336.00    0.93881   0.90392   54.080
 4337.00    0.88848   0.83080   57.474
 4338.00    0.81587   0.76015   63.017
 4339.00    0.74924   0.71243   68.904
 4340.00    0.73180   0.70273   74.645
 4341.00    0.74644   0.73303   76.650
 4342.00    0.79209   0.78897   71.272
 4343.00    0.87392   0.84942   64.256
 4344.00    0.92101   0.90135   60.203
 4345.00    0.94206   0.94314   58.241
 4346.00    0.96571   0.97711   56.652
 4347.00    0.98857   1.00290   55.670
 4348.00    0.99706   1.01575   55.072
 4349.00    0.99383   1.01068   54.177
 4350.00    0.96702   0.99060   54.284
 4351.00    0.94388   0.96956   57.192
 4352.00    0.93447   0.96366   61.479
 4353.00    0.93186   0.97806   -1.000
 4354.00    0.95725   1.00442   -1.000
 4355.00    0.98598   1.02978   -1.000
 4356.00    0.99239   1.04641   -1.000
 4357.00    1.01033   1.05399   -1.000
 4358.00    1.01827   1.05678   54.341
 4359.00    1.01059   1.06077   -1.000
 4360.00    1.02763   1.06996   -1.000
 4361.00    1.03233   1.08323   -1.000
 4362.00    1.03226   1.09625   -1.000
 4363.00    1.04661   1.10589   -1.000
 4364.00    1.04928   1.10986   -1.000
 4365.00    1.06467   1.10527   52.071
 4366.00    1.04526   1.09213   -1.000
 4367.00    1.01371   1.07553   -1.000
 4368.00    1.01247   1.06145   -1.000
 4369.00    1.01200   1.05198   -1.000
 4370.00    1.00307   1.04484   -1.000
 4371.00    1.00267   1.03556   55.325
 4372.00    0.99087   1.02092   55.264
 4373.00    0.97862   1.00296   55.792
 4374.00    0.96667   0.99015   58.010
 4375.00    0.95046   0.99204   -1.000
 4376.00    0.97690   1.00980   60.482
 4377.00    1.00858   1.03380   58.078
 4378.00    1.03608   1.05130   55.164
 4379.00    1.03434   1.05314   54.105
 4380.00    1.02465   1.03424   54.377
 4381.00    0.99725   0.99482   55.329
 4382.00    0.94739   0.94472   57.879
 4383.00    0.89112   0.90434   64.143
 4384.00    0.87224   0.89361   71.458
 4385.00    0.89979   0.91470   72.581
 4386.00    0.95366   0.95011   66.178
 4387.00    0.99215   0.97967   59.899
 4388.00    0.99445   0.99558   57.774
 4389.00    1.00064   1.00226   57.733
 4390.00    0.98778   1.00733   58.346
 4391.00    0.99251   1.01415   58.556
 4392.00    1.00882   1.02016   57.479
 4393.00    1.01863   1.02198   56.183
 4394.00    0.99675   1.02241   56.484
 4395.00    0.99588   1.02804   57.714
 4396.00    1.00528   1.03917   57.577
 4397.00    1.01145   1.04721   55.033
 4398.00    1.02414   1.04484   53.379
 4399.00    1.01162   1.03507   54.020
 4400.00    0.99500   1.02676   55.981
 4401.00    1.00835   1.02358   57.675
 4402.00    1.01331   1.02012   57.114
 4403.00    0.99884   1.01055   56.084
 4404.00    0.96702   0.99801   57.907
 4405.00    0.96124   0.99112   61.268
 4406.00    0.96480   0.99401   61.937
 4407.00    0.97880   1.00462   59.960
 4408.00    0.98550   1.02104   59.020
 4409.00    1.00744   1.04366   58.483
 4410.00    1.03285   1.06899   56.324
 4411.00    1.05695   1.08697   53.910
 4412.00    1.06951   1.08808   52.055
 4413.00    1.06962   1.07073   51.384
 4414.00    1.03212   1.04321   52.678
 4415.00    0.99551   1.02078   55.658
 4416.00    0.98500   1.01705   57.748
 4417.00    1.00416   1.03455   57.539
 4418.00    1.04448   1.06374   55.595
 4419.00    1.06950   1.08983   53.292
 4420.00    1.06449   1.10171   51.749
 4421.00    1.06155   1.09908   51.960
 4422.00    1.06562   1.09061   53.295
 4423.00    1.05044   1.08442   54.289
 4424.00    1.04635   1.08189   54.051
 4425.00    1.04599   1.08035   53.776
 4426.00    1.03202   1.07904   -1.000
 4427.00    1.04397   1.07961   54.208
 4428.00    1.04645   1.08235   53.867
 4429.00    1.03141   1.08560   -1.000
 4430.00    1.03528   1.08741   -1.000
 4431.00    1.04199   1.08572   -1.000
 4432.00    1.03860   1.07810   53.747
 4433.00    1.03157   1.06434   53.308
 4434.00    1.01773   1.05080   54.960
 4435.00    1.00303   1.04872   -1.000
 4436.00    1.01892   1.06413   -1.000
 4437.00    1.05479   1.09056   56.224
 4438.00    1.08290   1.11316   52.801
 4439.00    1.09533   1.11922   50.515
 4440.00    1.09149   1.10559   50.261
 4441.00    1.05958   1.08054   51.770
 4442.00    1.02136   1.05967   54.229
 4443.00    0.99533   1.05615   -1.000
 4444.00    1.01038   1.07167   -1.000
 4445.00    1.04244   1.09601   -1.000
 4446.00    1.06940   1.11614   -1.000
 4447.00    1.07690   1.12585   -1.000
 4448.00    1.07274   1.12692   -1.000
 4449.00    1.06496   1.12387   -1.000
 4450.00    1.06504   1.11909   -1.000
 4451.00    1.06119   1.11112   -1.000
 4452.00    1.05505   1.09606   52.243
 4453.00    1.04572   1.07278   52.546
 4454.00    1.02314   1.04777   54.398
 4455.00    1.01331   1.03135   56.901
 4456.00    1.00882   1.02832   58.178
 4457.00    1.01431   1.03418   57.320
 4458.00    1.03583   1.04118   56.289
 4459.00    1.02956   1.04571   56.259
 4460.00    1.01853   1.04930   56.541
 4461.00    1.01422   1.05529   -1.000
 4462.00    1.02403   1.06574   -1.000
 4463.00    1.04256   1.07922   56.600
 4464.00    1.06838   1.09096   54.421
 4465.00    1.06685   1.09625   53.079
 4466.00    1.06018   1.09356   52.930
 4467.00    1.05323   1.08552   52.966
 4468.00    1.03654   1.07825   -1.000
 4469.00    1.03503   1.07853   -1.000
 4470.00    1.03929   1.08950   -1.000
 4471.00    1.05447   1.10866   -1.000
 4472.00    1.08365   1.13003   -1.000
 4473.00    1.10873   1.14772   50.759
 4474.00    1.11735   1.15864   49.354
 4475.00    1.11230   1.16335   -1.000
 4476.00    1.12623   1.16371   48.937
 4477.00    1.12299   1.15937   48.546
 4478.00    1.11755   1.14735   48.249
 4479.00    1.11646   1.12638   48.636
 4480.00    1.09099   1.10207   50.352
 4481.00    1.04578   1.08600   -1.000
 4482.00    1.03928   1.08716   -1.000
 4483.00    1.07307   1.10504   53.727
 4484.00    1.10416   1.13050   51.550
 4485.00    1.12079   1.15134   49.576
 4486.00    1.12494   1.15869   48.459
 4487.00    1.12278   1.15152   48.456
 4488.00    1.10722   1.13656   49.496
 4489.00    1.08282   1.12388   51.357
 4490.00    1.08526   1.12062   52.607
 4491.00    1.08985   1.12647   52.160
 4492.00    1.09989   1.13457   50.805
 4493.00    1.09607   1.13781   49.951
 4494.00    1.08415   1.13556   -1.000
 4495.00    1.07458   1.13341   -1.000
 4496.00    1.07864   1.13606   -1.000
 4497.00    1.09376   1.14281   -1.000
 4498.00    1.10398   1.14944   -1.000
 4499.00    1.10830   1.15266   49.594
 4500.00    1.10390   1.15369   -1.000
 4501.00    1.10979   1.15802   -1.000
 4502.00    1.12387   1.16984   -1.000
 4503.00    1.13938   1.18693   -1.000
 4504.00    1.15219   1.20239   -1.000
 4505.00    1.16505   1.21013   46.107
 4506.00    1.16089   1.20900   -1.000
 4507.00    1.15275   1.20305   -1.000
 4508.00    1.15439   1.19815   47.757
 4509.00    1.15252   1.19706   47.826
 4510.00    1.15366   1.19741   47.486
 4511.00    1.15262   1.19487   47.150
 4512.00    1.14918   1.18756   47.493
 4513.00    1.13085   1.17730   -1.000
 4514.00    1.11816   1.16748   -1.000
 4515.00    1.12279   1.16071   49.630
 4516.00    1.11725   1.15716   49.424
 4517.00    1.10448   1.15475   -1.000
 4518.00    1.09228   1.15236   -1.000
 4519.00    1.10369   1.15133   -1.000
 4520.00    1.11760   1.15216   49.482
 4521.00    1.11555   1.15218   48.505
 4522.00    1.11133   1.14810   48.559
 4523.00    1.09475   1.13954   -1.000
 4524.00    1.08419   1.12825   -1.000
 4525.00    1.08518   1.11464   51.152
 4526.00    1.07173   1.09787   51.972
 4527.00    1.05199   1.07949   53.510
 4528.00    1.04669   1.06491   55.041
 4529.00    1.04319   1.05943   55.778
 4530.00    1.04904   1.06271   55.458
 4531.00    1.06011   1.06822   54.522
 4532.00    1.06223   1.06858   53.524
 4533.00    1.04697   1.06309   53.199
 4534.00    1.02791   1.05953   54.543
 4535.00    1.02723   1.06778   -1.000
 4536.00    1.05846   1.09103   55.888
 4537.00    1.09776   1.12220   52.884
 4538.00    1.12602   1.14868   49.754
 4539.00    1.13300   1.16170   48.274
 4540.00    1.12236   1.16223   48.591
 4541.00    1.12308   1.15787   49.719
 4542.00    1.11888   1.15463   49.787
 4543.00    1.11965   1.15248   49.441
 4544.00    1.12099   1.14839   49.239
 4545.00    1.12640   1.14126   67.927
 4546.00    1.01742   1.13188   -1.000
 4547.00    0.42657   1.12024   -1.000
 4548.00    0.36366   1.10711   -1.000
 4549.00    0.21336   1.09710   -1.000
 4550.00    0.70220   1.09557   -1.000
 4551.00    0.37228   1.10150   -1.000
 4552.00    0.84518   1.10724   -1.000
 4553.00    1.08101   1.10708   51.577
 4554.00    1.05654   1.10378   -1.000
 4555.00    1.06796   1.10534   52.859
 4556.00    1.08869   1.11707   52.183
 4557.00    1.11069   1.13696   50.369
 4558.00    1.11808   1.15805   48.347
 4559.00    1.13191   1.17445   47.390
 4560.00    1.13944   1.18356   47.554
 4561.00    1.13261   1.18440   -1.000
 4562.00    1.11897   1.17688   -1.000
 4563.00    1.10622   1.16382   -1.000
 4564.00    1.09346   1.15180   -1.000
 4565.00    1.10302   1.14788   -1.000
 4566.00    1.12437   1.15437   50.264
 4567.00    1.13822   1.16665   49.046
 4568.00    1.15253   1.17613   47.746
 4569.00    1.15136   1.17628   47.188
 4570.00    1.13256   1.16705   47.612
 4571.00    1.11906   1.15526   48.762
 4572.00    1.10594   1.15014   -1.000
 4573.00    1.11975   1.15563   49.858
 4574.00    1.13906   1.16702   48.450
 4575.00    1.15118   1.17613   47.671
 4576.00    1.14167   1.17838   47.631
 4577.00    1.11998   1.17338   -1.000
 4578.00    1.11787   1.16184   48.109
 4579.00    1.11972   1.14531   48.878
 4580.00    1.10747   1.12757   50.285
 4581.00    1.10463   1.11353   51.381
 4582.00    1.10368   1.10646   51.362
 4583.00    1.09282   1.10629   50.687
 4584.00    1.08979   1.11063   50.272
 4585.00    1.09453   1.11727   50.369
 4586.00    1.10471   1.12566   50.674
 4587.00    1.11787   1.13581   50.082
 4588.00    1.13920   1.14610   48.822
 4589.00    1.15780   1.15299   47.754
 4590.00    1.15044   1.15356   47.582
 4591.00    1.13024   1.14853   48.203
 4592.00    1.11455   1.14226   49.090
 4593.00    1.11234   1.13948   49.959
 4594.00    1.11910   1.14175   50.098
 4595.00    1.12214   1.14732   49.716
 4596.00    1.13765   1.15341   49.317
 4597.00    1.14344   1.15784   49.158
 4598.00    1.14974   1.15901   49.054
 4599.00    1.13888   1.15627   48.944
 4600.00    1.13127   1.15091   49.316
 4601.00    1.12518   1.14578   49.763
 4602.00    1.11797   1.14352   49.937
 4603.00    1.12126   1.14488   49.479
 4604.00    1.12801   1.14898   48.921
 4605.00    1.13558   1.15477   48.931
 4606.00    1.13833   1.16207   48.872
 4607.00    1.14409   1.17106   48.389
 4608.00    1.14942   1.18079   47.475
 4609.00    1.16607   1.18847   46.462
 4610.00    1.16393   1.19089   45.863
 4611.00    1.16032   1.18768   45.986
 4612.00    1.16338   1.18206   46.579
 4613.00    1.15361   1.17754   47.115
 4614.00    1.14690   1.17508   47.444
 4615.00    1.14584   1.17332   47.270
 4616.00    1.15254   1.17051   46.865
 4617.00    1.13558   1.16642   46.649
 4618.00    1.14463   1.16303   46.906
 4619.00    1.14729   1.16348   47.255
 4620.00    1.16019   1.16935   47.257
 4621.00    1.17158   1.17870   46.848
 4622.00    1.17805   1.18693   46.132
 4623.00    1.16673   1.19052   46.031
 4624.00    1.16904   1.18971   46.139
 4625.00    1.17293   1.18668   46.233
 4626.00    1.16547   1.18303   46.621
 4627.00    1.15253   1.17947   46.775
 4628.00    1.15354   1.17666   46.763
 4629.00    1.14863   1.17564   47.027
 4630.00    1.15099   1.17727   47.155
 4631.00    1.14902   1.18055   46.956
 4632.00    1.15744   1.18219   46.445
 4633.00    1.15719   1.17954   46.561
 4634.00    1.14446   1.17358   47.194
 4635.00    1.13299   1.16745   47.740
 4636.00    1.14872   1.16303   47.763
 4637.00    1.14789   1.16062   48.095
 4638.00    1.13461   1.16074   48.709
 4639.00    1.13217   1.16445   48.965
 4640.00    1.13944   1.17192   48.924
 4641.00    1.16148   1.18112   48.181
 4642.00    1.17901   1.18781   47.034
 4643.00    1.18291   1.18765   46.325
 4644.00    1.17173   1.17920   46.417
 4645.00    1.15033   1.16465   47.209
 4646.00    1.13657   1.14872   48.494
 4647.00    1.13111   1.13774   49.846
 4648.00    1.13011   1.13680   50.203
 4649.00    1.13730   1.14551   49.436
 4650.00    1.14858   1.15793   48.302
 4651.00    1.14845   1.16718   47.580
 4652.00    1.14913   1.16977   47.431
 4653.00    1.15626   1.16621   47.339
 4654.00    1.13971   1.15942   47.821
 4655.00    1.11514   1.15396   48.873
 4656.00    1.10668   1.15507   -1.000
 4657.00    1.12590   1.16585   49.207
 4658.00    1.16347   1.18410   47.768
 4659.00    1.18998   1.20232   45.960
 4660.00    1.20118   1.21240   44.835
 4661.00    1.19967   1.21111   44.675
 4662.00    1.18441   1.20084   45.164
 4663.00    1.17964   1.18580   46.213
 4664.00    1.17021   1.16826   47.160
 4665.00    1.15724   1.14820   47.371
 4666.00    1.13295   1.12652   48.057
 4667.00    1.10219   1.10822   49.970
 4668.00    1.10253   1.10058   52.079
 4669.00    1.11341   1.10723   52.403
 4670.00    1.11993   1.12464   50.981
 4671.00    1.14800   1.14482   48.897
 4672.00    1.15883   1.16111   47.477
 4673.00    1.16862   1.17180   47.074
 4674.00    1.16244   1.17907   47.079
 4675.00    1.16969   1.18463   47.044
 4676.00    1.17850   1.18667   46.501
 4677.00    1.18896   1.18189   45.806
 4678.00    1.17379   1.17020   45.916
 4679.00    1.16206   1.15610   46.826
 4680.00    1.15057   1.14516   47.773
 4681.00    1.14122   1.14042   48.582
 4682.00    1.14634   1.14188   49.094
 4683.00    1.14907   1.14774   48.620
 4684.00    1.15250   1.15515   47.458
 4685.00    1.17129   1.16135   46.755
 4686.00    1.18153   1.16505   46.819
 4687.00    1.17315   1.16663   46.864
 4688.00    1.16530   1.16688   47.098
 4689.00    1.17266   1.16626   47.138
 4690.00    1.17567   1.16506   47.139
 4691.00    1.16516   1.16424   47.436
 4692.00    1.16982   1.16542   47.571
 4693.00    1.18902   1.16920   47.090
 4694.00    1.19447   1.17406   46.400
 4695.00    1.20289   1.17725   45.407
 4696.00    1.20970   1.17624   44.767
 4697.00    1.20591   1.16952   44.886
 4698.00    1.18487   1.15797   46.045
 4699.00    1.15751   1.14461   47.444
 4700.00    1.14815   1.13223   48.117
 4701.00    1.14762   1.12203   47.848
 4702.00    1.14612   1.11501   48.096
 4703.00    1.14653   1.11315   48.892
 4704.00    1.13949   1.11697   49.236
 4705.00    1.14065   1.12278   48.454
 4706.00    1.15322   1.12505   47.699
 4707.00    1.14631   1.12234   48.178
 4708.00    1.12612   1.11904   49.122
 4709.00    1.12047   1.12067   49.671
 4710.00    1.13749   1.12868   49.507
 4711.00    1.15883   1.13975   48.199
 4712.00    1.17332   1.14873   46.852
 4713.00    1.17741   1.15245   46.277
 4714.00    1.16324   1.15249   46.603
 4715.00    1.16519   1.15398   47.437
 4716.00    1.17342   1.16045   47.568
 4717.00    1.16772   1.17055   46.742
 4718.00    1.17453   1.17991   45.829
 4719.00    1.18639   1.18543   45.463
 4720.00    1.18619   1.18709   45.292
 4721.00    1.18047   1.18686   45.137
 4722.00    1.17707   1.18674   45.446
 4723.00    1.17839   1.18739   45.785
 4724.00    1.18832   1.18745   45.599
 4725.00    1.19025   1.18404   45.129
 4726.00    1.18553   1.17494   45.117
 4727.00    1.17211   1.16103   46.073
 4728.00    1.15957   1.14669   47.750
 4729.00    1.14911   1.13673   48.939
 4730.00    1.14500   1.13304   48.932
 4731.00    1.14939   1.13465   48.464
 4732.00    1.15809   1.13957   48.063
 4733.00    1.15397   1.14527   47.513
 4734.00    1.15808   1.14918   47.075
 4735.00    1.16442   1.15027   46.790
 4736.00    1.15494   1.14981   46.530
 4737.00    1.14427   1.15014   46.920
 4738.00    1.16073   1.15274   47.054
 4739.00    1.16593   1.15704   46.534
 4740.00    1.16589   1.16116   46.457
 4741.00    1.16159   1.16427   46.698
 4742.00    1.17101   1.16724   46.793
 4743.00    1.17945   1.17073   46.479
 4744.00    1.18705   1.17403   45.985
 4745.00    1.17954   1.17645   45.989
 4746.00    1.18046   1.17875   46.044
 4747.00    1.18638   1.18236   45.755
 4748.00    1.19703   1.18761   45.305
 4749.00    1.19630   1.19319   45.154
 4750.00    1.18691   1.19691   45.203
 4751.00    1.18597   1.19650   45.241
 4752.00    1.18249   1.19084   45.525
 4753.00    1.17807   1.18136   46.019
 4754.00    1.17895   1.17190   46.428
 4755.00    1.17999   1.16630   46.755
 4756.00    1.16804   1.16598   46.733
 4757.00    1.15924   1.16979   46.871
 4758.00    1.15777   1.17522   47.198
 4759.00    1.15592   1.17907   47.296
 4760.00    1.15188   1.17772   46.967
 4761.00    1.14827   1.16873   46.830
 4762.00    1.14488   1.15339   47.441
 4763.00    1.13283   1.13713   48.572
 4764.00    1.12972   1.12611   49.295
 4765.00    1.12961   1.12324   49.449
 4766.00    1.12916   1.12820   49.367
 4767.00    1.14357   1.13938   49.055
 4768.00    1.15385   1.15397   48.424
 4769.00    1.15612   1.16731   47.383
 4770.00    1.15389   1.17520   46.657
 4771.00    1.15350   1.17733   46.627
 4772.00    1.14975   1.17763   46.981
 4773.00    1.15341   1.18046   47.399
 4774.00    1.15856   1.18682   47.001
 4775.00    1.16543   1.19391   46.053
 4776.00    1.17187   1.19797   45.628
 4777.00    1.17147   1.19729   45.617
 4778.00    1.17416   1.19283   45.739
 4779.00    1.17347   1.18705   46.013
 4780.00    1.15421   1.18208   46.500
 4781.00    1.14698   1.17824   46.817
 4782.00    1.14421   1.17444   46.957
 4783.00    1.14146   1.16999   47.167
 4784.00    1.13963   1.16516   47.526
 4785.00    1.14937   1.16060   47.572
 4786.00    1.15521   1.15703   47.699
 4787.00    1.14714   1.15541   48.128
 4788.00    1.12415   1.15652   48.442
 4789.00    1.13006   1.16055   48.443
 4790.00    1.14192   1.16741   48.232
 4791.00    1.14821   1.17699   47.942
 4792.00    1.16222   1.18872   47.473
 4793.00    1.17093   1.20107   46.736
 4794.00    1.17485   1.21153   45.734
 4795.00    1.19071   1.21726   44.908
 4796.00    1.18823   1.21640   44.647
 4797.00    1.17527   1.20967   45.003
 4798.00    1.15297   1.20048   45.845
 4799.00    1.15302   1.19338   46.721
 4800.00    1.16448   1.19172   47.329
 4801.00    1.16678   1.19550   47.072
 4802.00    1.17348   1.20108   46.194
 4803.00    1.17479   1.20388   45.480
 4804.00    1.17114   1.20196   45.430
 4805.00    1.16490   1.19700   45.957
 4806.00    1.15578   1.19217   46.557
 4807.00    1.16142   1.18969   47.009
 4808.00    1.16657   1.19010   47.069
 4809.00    1.16153   1.19273   46.963
 4810.00    1.16674   1.19624   46.766
 4811.00    1.17062   1.19951   46.376
 4812.00    1.16853   1.20265   46.027
 4813.00    1.17240   1.20647   45.776
 4814.00    1.17863   1.21128   45.700
 4815.00    1.18492   1.21659   45.602
 4816.00    1.18840   1.22143   45.446
 4817.00    1.18776   1.22476   45.179
 4818.00    1.18184   1.22609   44.897
 4819.00    1.18021   1.22534   44.698
 4820.00    1.18819   1.22160   44.655
 4821.00    1.19125   1.21284   44.656
 4822.00    1.18087   1.19856   44.982
 4823.00    1.16597   1.18273   46.040
 4824.00    1.15968   1.17249   46.988
 4825.00    1.16496   1.17230   47.066
 4826.00    1.16698   1.17962   46.348
 4827.00    1.17659   1.18745   45.606
 4828.00    1.17537   1.19080   45.640
 4829.00    1.16749   1.18936   46.131
 4830.00    1.17105   1.18504   46.468
 4831.00    1.16833   1.17961   46.505
 4832.00    1.17066   1.17494   46.855
 4833.00    1.17379   1.17323   47.003
 4834.00    1.18077   1.17523   46.389
 4835.00    1.18840   1.17913   45.742
 4836.00    1.17776   1.18178   45.497
 4837.00    1.17652   1.18073   45.534
 4838.00    1.18111   1.17533   45.729
 4839.00    1.16431   1.16704   46.284
 4840.00    1.15401   1.15881   47.085
 4841.00    1.14871   1.15368   47.262
 4842.00    1.15712   1.15280   47.175
 4843.00    1.16659   1.15517   46.961
 4844.00    1.16977   1.15919   46.629
 4845.00    1.17510   1.16328   46.183
 4846.00    1.18615   1.16513   45.501
 4847.00    1.17569   1.16272   45.177
 4848.00    1.16207   1.15733   45.890
 4849.00    1.14852   1.15277   46.636
 4850.00    1.15417   1.15085   46.757
 4851.00    1.15614   1.14891   46.209
 4852.00    1.15511   1.14214   45.995
 4853.00    1.15625   1.12718   46.196
 4854.00    1.13221   1.10455   46.570
 4855.00    1.11085   1.07844   47.779
 4856.00    1.09878   1.05285   49.163
 4857.00    1.08668   1.02585   49.332
 4858.00    1.06091   0.98899   48.885
 4859.00    0.98467   0.93688   49.870
 4860.00    0.88339   0.87845   53.616
 4861.00    0.84575   0.83625   59.655
 4862.00    0.88050   0.83048   63.386
 4863.00    0.94021   0.86318   -1.000
 4864.00    1.00887   0.91833   -1.000
 4865.00    1.06496   0.97560   -1.000
 4866.00    1.09625   1.02274   -1.000
 4867.00    1.10618   1.05603   48.717
 4868.00    1.11122   1.07526   48.168
 4869.00    1.11547   1.08071   47.922
 4870.00    1.10588   1.07493   48.221
 4871.00    1.10169   1.06513   49.408
 4872.00    1.09300   1.06149   50.669
 4873.00    1.09283   1.07015   50.557
 4874.00    1.11446   1.08790   49.286
 4875.00    1.11995   1.10558   48.314
 4876.00    1.12287   1.11745   47.856
 4877.00    1.13285   1.12544   47.578
 4878.00    1.14248   1.13471   47.400
 4879.00    1.15507   1.14654   46.812
 4880.00    1.15103   1.15698   46.271
 4881.00    1.15247   1.16144   46.505
 4882.00    1.14766   1.15926   47.216
 4883.00    1.14338   1.15322   47.602
 4884.00    1.14420   1.14612   47.523
 4885.00    1.14606   1.13902   47.691
 4886.00    1.13510   1.13272   48.339
 4887.00    1.13829   1.12756   48.702
 4888.00    1.14423   1.12204   48.540
 4889.00    1.14279   1.11423   48.429
 4890.00    1.12138   1.10594   48.990
 4891.00    1.12337   1.10449   50.018
 4892.00    1.13153   1.11763   49.981
 4893.00    1.16416   1.14561   48.288
 4894.00    1.19112   1.17931   46.081
 4895.00    1.20081   1.20711   44.560
 4896.00    1.20644   1.22279   43.634
 4897.00    1.20937   1.22688   43.304
 4898.00    1.20332   1.22253   43.341
 4899.00    1.18120   1.21372   44.110
 4900.00    1.16910   1.20423   45.149
 4901.00    1.17111   1.19641   45.769
 4902.00    1.16840   1.19056   45.689
 4903.00    1.16472   1.18711   45.687
 4904.00    1.17287   1.18798   46.153
 4905.00    1.18996   1.19420   45.877
 4906.00    1.19295   1.20205   44.979
 4907.00    1.19219   1.20456   44.496
 4908.00    1.18636   1.19747   44.755
 4909.00    1.17092   1.18290   45.704
 4910.00    1.15253   1.16780   46.993
 4911.00    1.15647   1.16003   47.757
 4912.00    1.17260   1.16313   47.378
 4913.00    1.17463   1.17459   46.556
 4914.00    1.18397   1.18780   45.872
 4915.00    1.19522   1.19545   45.270
 4916.00    1.19971   1.19107   44.829
 4917.00    1.18271   1.17113   44.914
 4918.00    1.14767   1.13847   46.198
 4919.00    1.10354   1.10341   48.553
 4920.00    1.08120   1.07863   50.964
 4921.00    1.09657   1.07164   51.951
 4922.00    1.11581   1.08048   50.724
 4923.00    1.12833   1.09705   48.898
 4924.00    1.13805   1.11499   47.946
 4925.00    1.15517   1.13328   47.766
 4926.00    1.16851   1.15327   47.283
 4927.00    1.16784   1.17404   46.172
 4928.00    1.18624   1.19235   45.258
 4929.00    1.19926   1.20470   44.754
 4930.00    1.20417   1.20842   44.425
 4931.00    1.20713   1.20220   44.150
 4932.00    1.18169   1.18711   44.432
 4933.00    1.15270   1.16847   45.480
 4934.00    1.14696   1.15395   47.058
 4935.00    1.15572   1.14736   47.534
 4936.00    1.14882   1.14490   46.873
 4937.00    1.13910   1.14024   46.654
 4938.00    1.13330   1.13295   47.725
 4939.00    1.12919   1.13043   49.082
 4940.00    1.14749   1.13976   49.048
 4941.00    1.16375   1.15961   47.626
 4942.00    1.17432   1.18173   46.064
 4943.00    1.18605   1.19757   45.076
 4944.00    1.18244   1.20408   44.575
 4945.00    1.17632   1.20400   44.513
 4946.00    1.18550   1.20246   44.772
 4947.00    1.19840   1.20381   44.921
 4948.00    1.20867   1.20905   44.625
 4949.00    1.21062   1.21546   44.118
 4950.00    1.20793   1.21898   43.897
 4951.00    1.19591   1.21792   43.726
 4952.00    1.19670   1.21346   43.861
 4953.00    1.19842   1.20668   44.151
 4954.00    1.18874   1.19558   44.617
 4955.00    1.17368   1.17635   45.167
 4956.00    1.14205   1.14927   46.228
 4957.00    1.10656   1.12352   48.360
 4958.00    1.09325   1.11326   50.459
 4959.00    1.11962   1.12527   50.125
 4960.00    1.16032   1.15198   47.627
 4961.00    1.18313   1.17870   45.726
 4962.00    1.18875   1.19492   45.103
 4963.00    1.17793   1.19909   45.195
 4964.00    1.16919   1.19427   45.527
 4965.00    1.16013   1.18437   46.028
 4966.00    1.14629   1.17329   46.910
 4967.00    1.13783   1.16442   47.614
 4968.00    1.13813   1.15982   47.763
 4969.00    1.15001   1.16010   47.653
 4970.00    1.16093   1.16496   47.348
 4971.00    1.16198   1.17323   46.875
 4972.00    1.17274   1.18293   46.371
 4973.00    1.18450   1.19186   45.828
 4974.00    1.18590   1.19806   45.369
 4975.00    1.19329   1.20010   45.128
 4976.00    1.19870   1.19743   45.329
 4977.00    1.18456   1.19064   45.773
 4978.00    1.18259   1.18045   46.365
 4979.00    1.16364   1.16674   47.094
 4980.00    1.14422   1.14822   47.721
 4981.00    1.11525   1.12428   48.374
 4982.00    1.09353   1.09840   49.755
 4983.00    1.09027   1.07902   51.388
 4984.00    1.09499   1.07485   51.785
 4985.00    1.10804   1.08788   51.023
 4986.00    1.12385   1.11157   49.691
 4987.00    1.14052   1.13533   48.149
 4988.00    1.15183   1.15093   46.875
 4989.00    1.15420   1.15565   46.632
 4990.00    1.14905   1.15224   47.176
 4991.00    1.15101   1.14679   47.719
 4992.00    1.14822   1.14435   47.851
 4993.00    1.14862   1.14639   47.525
 4994.00    1.15893   1.15145   47.267
 4995.00    1.15591   1.15724   47.205
 4996.00    1.15665   1.16124   47.015
 4997.00    1.15769   1.16069   46.776
 4998.00    1.14420   1.15331   46.936
 4999.00    1.13299   1.13964   47.487
 5000.00    1.13381   1.12404   48.375
 5001.00    1.13228   1.11248   49.075
 5002.00    1.13200   1.10786   49.247
 5003.00    1.13970   1.10739   48.895
 5004.00    1.13894   1.10511   48.533
 5005.00    1.12792   1.09835   48.983
 5006.00    1.11755   1.09168   50.112
 5007.00    1.11704   1.09272   50.643
 5008.00    1.12927   1.10379   49.756
 5009.00    1.14683   1.11784   48.295
 5010.00    1.14900   1.12433   47.545
 5011.00    1.12540   1.11761   47.898
 5012.00    1.09325   1.10053   49.149
 5013.00    1.08068   1.08204   50.914
 5014.00    1.08439   1.07019   52.287
 5015.00    1.09330   1.06742   52.389
 5016.00    1.10454   1.07029   51.433
 5017.00    1.11461   1.07476   50.333
 5018.00    1.12503   1.07988   49.915
 5019.00    1.12386   1.08696   49.879
 5020.00    1.12925   1.09589   49.453
 5021.00    1.13409   1.10408   49.004
 5022.00    1.13493   1.11010   49.071
 5023.00    1.14139   1.11568   49.212
 5024.00    1.14904   1.12247   49.025
 5025.00    1.14106   1.12908   48.560
 5026.00    1.14338   1.13228   48.185
 5027.00    1.15114   1.13193   48.281
 5028.00    1.14872   1.13199   48.517
 5029.00    1.15344   1.13601   48.240
 5030.00    1.16702   1.14450   47.437
 5031.00    1.18100   1.15548   46.703
 5032.00    1.18136   1.16498   45.967
 5033.00    1.17636   1.16817   45.383
 5034.00    1.16857   1.16184   45.311
 5035.00    1.14362   1.14723   46.423
 5036.00    1.12634   1.12966   48.197
 5037.00    1.12332   1.11359   49.283
 5038.00    1.11878   1.09788   49.607
 5039.00    1.10170   1.07945   50.105
 5040.00    1.07189   1.06032   51.739
 5041.00    1.05481   1.05036   53.848
 5042.00    1.08118   1.05910   54.418
 5043.00    1.11247   1.08601   52.403
 5044.00    1.14580   1.12089   49.303
 5045.00    1.17261   1.15093   47.034
 5046.00    1.16885   1.16767   45.825
 5047.00    1.19938   1.16907   44.264
 5048.00    0.90987   1.15740   -1.000
 5049.00    0.42757   1.13891   -1.000
 5050.00    0.14513   1.12190   -1.000
 5051.00    0.29344   1.11383   -1.000
 5052.00    0.90188   1.11785   -1.000
 5053.00    1.15366   1.13163   48.037
 5054.00    1.17442   1.14880   46.847
 5055.00    1.18802   1.16330   45.910
 5056.00    1.19952   1.17304   45.376
 5057.00    1.20295   1.17986   45.162
 5058.00    1.19969   1.18526   45.190
 5059.00    1.19444   1.18935   45.276
 5060.00    1.18520   1.19141   45.284
 5061.00    1.17419   1.19003   45.046
 5062.00    1.17734   1.18329   44.985
 5063.00    1.16875   1.17017   45.448
 5064.00    1.14227   1.15291   46.599
 5065.00    1.12948   1.13746   48.196
 5066.00    1.13853   1.12921   49.053
 5067.00    1.15187   1.12820   48.735
 5068.00    1.15850   1.13101   48.020
 5069.00    1.16091   1.13392   47.721
 5070.00    1.15685   1.13528   47.519
 5071.00    1.16384   1.13455   47.226
 5072.00    1.15629   1.13211   47.431
 5073.00    1.15326   1.13009   47.818
 5074.00    1.15812   1.13074   47.470
 5075.00    1.16024   1.13329   47.035
 5076.00    1.16621   1.13355   46.897
 5077.00    1.16218   1.12719   46.857
 5078.00    1.13869   1.11329   47.188
 5079.00    1.10739   1.09606   48.534
 5080.00    1.09619   1.08267   50.707
 5081.00    1.10610   1.07875   51.775
 5082.00    1.12035   1.08427   51.085
 5083.00    1.12406   1.09554   49.980
 5084.00    1.12541   1.10944   49.208
 5085.00    1.14174   1.12392   48.349
 5086.00    1.16337   1.13729   47.495
 5087.00    1.16868   1.14745   47.036
 5088.00    1.16542   1.15394   46.908
 5089.00    1.17039   1.15832   46.718
 5090.00    1.17049   1.16241   46.403
 5091.00    1.17281   1.16727   46.126
 5092.00    1.18333   1.17264   45.884
 5093.00    1.19175   1.17644   45.428
 5094.00    1.20125   1.17509   44.986
 5095.00    1.19978   1.16560   45.188
 5096.00    1.17895   1.14843   46.006
 5097.00    1.15190   1.12830   47.000
 5098.00    1.13886   1.11221   48.109
 5099.00    1.13798   1.10572   49.161
 5100.00    1.14674   1.11032   49.542
 5101.00    1.15367   1.12242   48.661
 5102.00    1.16203   1.13538   47.287
 5103.00    1.16879   1.14285   46.624
 5104.00    1.17071   1.14233   46.733
 5105.00    1.16162   1.13521   47.271
 5106.00    1.14745   1.12437   47.880
 5107.00    1.13358   1.11354   48.471
 5108.00    1.12160   1.10642   49.076
 5109.00    1.12603   1.10562   49.180
 5110.00    1.12876   1.11155   48.918
 5111.00    1.14030   1.12254   48.573
 5112.00    1.15704   1.13573   47.963
 5113.00    1.17443   1.14834   47.344
 5114.00    1.18303   1.15875   46.768
 5115.00    1.17918   1.16712   46.308
 5116.00    1.18745   1.17360   46.018
 5117.00    1.19852   1.17763   45.595
 5118.00    1.19022   1.17785   45.184
 5119.00    1.17788   1.17317   45.186
 5120.00    1.17446   1.16364   45.665
 5121.00    1.16662   1.15038   46.336
 5122.00    1.14888   1.13532   47.086
 5123.00    1.12211   1.12044   48.186
 5124.00    1.11138   1.10797   49.593
 5125.00    1.11648   1.09978   50.244
 5126.00    1.12835   1.09642   49.988
 5127.00    1.13103   1.09618   49.681
 5128.00    1.12883   1.09731   49.401
 5129.00    1.13620   1.09956   49.376
 5130.00    1.13689   1.10393   49.367
 5131.00    1.13370   1.11067   48.876
 5132.00    1.14978   1.11864   48.083
 5133.00    1.16660   1.12611   47.578
 5134.00    1.16935   1.13146   47.148
 5135.00    1.16696   1.13318   46.722
 5136.00    1.16336   1.12977   46.526
 5137.00    1.15161   1.12119   47.114
 5138.00    1.13469   1.10984   48.198
 5139.00    1.12574   1.09981   49.081
 5140.00    1.12281   1.09397   49.331
 5141.00    1.12220   1.09272   49.011
 5142.00    1.11657   1.09445   49.155
 5143.00    1.11606   1.09772   49.855
 5144.00    1.12261   1.10150   49.861
 5145.00    1.13400   1.10423   49.147
 5146.00    1.12305   1.10467   48.795
 5147.00    1.12086   1.10350   49.096
 5148.00    1.13577   1.10295   49.316
 5149.00    1.14201   1.10376   48.896
 5150.00    1.13174   1.10356   48.524
 5151.00    1.11812   1.10017   48.897
 5152.00    1.11193   1.09526   49.729
 5153.00    1.11806   1.09269   50.216
 5154.00    1.11999   1.09585   50.108
 5155.00    1.14250   1.10601   49.325
 5156.00    1.16880   1.12129   48.141
 5157.00    1.19036   1.13762   46.913
 5158.00    1.19388   1.15074   45.952
 5159.00    1.18943   1.15841   45.479
 5160.00    1.19483   1.15997   45.392
 5161.00    1.19207   1.15576   45.506
 5162.00    1.18894   1.14558   45.741
 5163.00    1.17130   1.12774   46.192
 5164.00    1.14653   1.09911   46.860
 5165.00    1.09801   1.05785   48.363
 5166.00    1.02971   1.00870   51.777
 5167.00    0.97157   0.96513   56.921
 5168.00    0.95732   0.94112   61.378
 5169.00    0.98710   0.93821   61.524
 5170.00    0.99914   0.94396   58.487
 5171.00    0.97868   0.94407   56.981
 5172.00    0.95411   0.94034   59.451
 5173.00    0.95853   0.94834   63.539
 5174.00    1.01293   0.97861   62.742
 5175.00    1.08134   1.02595   56.874
 5176.00    1.12390   1.07274   51.752
 5177.00    1.13996   1.10535   49.217
 5178.00    1.14013   1.11994   48.342
 5179.00    1.13719   1.11636   48.140
 5180.00    1.12430   1.09434   48.468
 5181.00    1.08406   1.05448   49.840
 5182.00    1.01371   1.00510   52.948
 5183.00    0.95580   0.96423   58.479
 5184.00    0.96481   0.95034   63.758
 5185.00    1.01994   0.96987   62.842
 5186.00    1.07778   1.01081   -1.000
 5187.00    1.10885   1.05311   51.383
 5188.00    1.12694   1.08237   49.039
 5189.00    1.14088   1.09558   48.349
 5190.00    1.13337   1.09705   48.105
 5191.00    1.11618   1.09082   48.430
 5192.00    1.09771   1.08166   49.704
 5193.00    1.08789   1.07534   51.157
 5194.00    1.09707   1.07535   51.251
 5195.00    1.11435   1.08109   50.470
 5196.00    1.12671   1.09076   49.683
 5197.00    1.13776   1.10302   48.958
 5198.00    1.14866   1.11727   48.044
 5199.00    1.17024   1.13099   47.182
 5200.00    1.18234   1.13977   46.686
 5201.00    1.17469   1.13981   46.555
 5202.00    1.15622   1.12945   46.822
 5203.00    1.13701   1.10985   47.550
 5204.00    1.11835   1.08519   48.586
 5205.00    1.09362   1.06131   50.007
 5206.00    1.07496   1.04348   51.566
 5207.00    1.06578   1.03447   52.136
 5208.00    1.06683   1.03481   52.364
 5209.00    1.07596   1.04431   52.674
 5210.00    1.09565   1.06312   52.200
 5211.00    1.12429   1.08927   50.728
 5212.00    1.15986   1.11670   48.771
 5213.00    1.19421   1.13697   46.841
 5214.00    1.19551   1.14409   45.639
 5215.00    1.17479   1.13967   45.759
 5216.00    1.16574   1.13192   46.712
 5217.00    1.16800   1.13050   47.441
 5218.00    1.17649   1.13944   47.302
 5219.00    1.18514   1.15542   46.431
 5220.00    1.19690   1.17133   45.634
 5221.00    1.21662   1.18056   45.196
 5222.00    1.20797   1.17933   44.975
 5223.00    1.16548   1.16542   45.349
 5224.00    1.13601   1.13913   46.527
 5225.00    1.10798   1.10540   48.326
 5226.00    1.08440   1.07510   50.529
 5227.00    1.09352   1.06104   52.210
 5228.00    1.11038   1.06868   51.777
 5229.00    1.14949   1.09104   49.317
 5230.00    1.17796   1.11410   47.074
 5231.00    1.18610   1.12636   45.952
 5232.00    1.18409   1.12642   45.693
 5233.00    1.17479   1.12081   46.354
 5234.00    1.16725   1.11878   47.234
 5235.00    1.17257   1.12623   47.389
 5236.00    1.18643   1.14222   46.550
 5237.00    1.19029   1.16058   45.432
 5238.00    1.20115   1.17511   44.763
 5239.00    1.20701   1.18325   44.605
 5240.00    1.21158   1.18574   44.705
 5241.00    1.21760   1.18531   44.690
 5242.00    1.22276   1.18457   44.472
 5243.00    1.21338   1.18484   44.444
 5244.00    1.21045   1.18504   44.404
 5245.00    1.20413   1.18206   44.324
 5246.00    1.18153   1.17345   44.944
 5247.00    1.16853   1.16061   46.234
 5248.00    1.16036   1.14794   47.428
 5249.00    1.15575   1.13907   47.815
 5250.00    1.15079   1.13521   47.894
 5251.00    1.14694   1.13542   48.141
 5252.00    1.15250   1.13816   48.067
 5253.00    1.15501   1.14186   47.510
 5254.00    1.15857   1.14602   46.978
 5255.00    1.17104   1.15200   46.857
 5256.00    1.18914   1.16168   46.626
 5257.00    1.20132   1.17371   45.736
 5258.00    1.20905   1.18266   44.529
 5259.00    1.21487   1.18217   43.906
 5260.00    1.20640   1.16832   44.109
 5261.00    1.17509   1.14191   45.108
 5262.00    1.13560   1.10787   46.847
 5263.00    1.10769   1.07360   49.026
 5264.00    1.09416   1.04665   50.914
 5265.00    1.08924   1.03150   52.154
 5266.00    1.09316   1.02716   -1.000
 5267.00    1.09741   1.02731   -1.000
 5268.00    1.08342   1.02491   50.966
 5269.00    1.06403   1.01993   51.496
 5270.00    1.06115   1.01968   53.347
 5271.00    1.08435   1.03100   53.337
 5272.00    1.12403   1.05292   -1.000
 5273.00    1.14574   1.07624   -1.000
 5274.00    1.15815   1.09446   47.329
 5275.00    1.17037   1.10888   47.241
 5276.00    1.17073   1.12421   47.178
 5277.00    1.18612   1.14245   46.491
 5278.00    1.20647   1.15917   45.076
 5279.00    1.21101   1.16738   44.024
 5280.00    1.20922   1.16337   43.994
 5281.00    1.18671   1.14996   44.849
 5282.00    1.15555   1.13513   46.012
 5283.00    1.15168   1.12705   46.959
 5284.00    1.16847   1.13087   47.363
 5285.00    1.18759   1.14667   46.727
 5286.00    1.20674   1.16888   45.407
 5287.00    1.19531   1.18940   43.978
 5288.00    1.20531   1.20316   43.345
 5289.00    1.21590   1.20987   43.437
 5290.00    1.21284   1.21215   43.510
 5291.00    1.21549   1.21208   43.320
 5292.00    1.22219   1.20999   43.176
 5293.00    1.21626   1.20537   43.334
 5294.00    1.21157   1.19643   43.708
 5295.00    1.19722   1.18108   44.244
 5296.00    1.16191   1.16051   45.270
 5297.00    1.13832   1.14018   46.877
 5298.00    1.14154   1.12732   48.310
 5299.00    1.15252   1.12606   48.455
 5300.00    1.16714   1.13395   47.453
 5301.00    1.17334   1.14584   46.459
 5302.00    1.17856   1.15860   46.006
 5303.00    1.19019   1.17128   45.530
 5304.00    1.19953   1.18325   44.485
 5305.00    1.21298   1.19190   43.542
 5306.00    1.21751   1.19551   43.239
 5307.00    1.21170   1.19621   43.521
 5308.00    1.20848   1.19763   43.925
 5309.00    1.21614   1.20202   43.830
 5310.00    1.22455   1.20815   43.405
 5311.00    1.22274   1.21239   43.072
 5312.00    1.22724   1.21205   43.026
 5313.00    1.22194   1.20631   43.218
 5314.00    1.22607   1.19619   43.426
 5315.00    1.22315   1.18432   43.702
 5316.00    1.20938   1.17453   44.105
 5317.00    1.20387   1.17089   44.513
 5318.00    1.20132   1.17454   44.637
 5319.00    1.20528   1.18169   44.398
 5320.00    1.21519   1.18606   44.160
 5321.00    1.21130   1.18285   44.223
 5322.00    1.19762   1.17203   44.499
 5323.00    1.19204   1.15652   44.964
 5324.00    1.19596   1.13926   45.682
 5325.00    1.18086   1.12107   46.224
 5326.00    1.15671   1.10068   46.328
 5327.00    1.12422   1.07946   47.204
 5328.00    1.09371   1.06386   49.753
 5329.00    1.09283   1.06348   51.885
 5330.00    1.12815   1.08118   50.888
 5331.00    1.16846   1.10898   48.067
 5332.00    1.18855   1.13561   46.114
 5333.00    1.20223   1.15410   45.365
 5334.00    1.19999   1.16500   44.940
 5335.00    1.19840   1.17081   44.444
 5336.00    1.20354   1.17177   44.153
 5337.00    1.19609   1.16735   44.304
 5338.00    1.18238   1.15781   44.602
 5339.00    1.17757   1.14530   45.031
 5340.00    1.16672   1.13434   45.982
 5341.00    1.15902   1.13060   46.915
 5342.00    1.16976   1.13625   46.876
 5343.00    1.18648   1.14742   45.835
 5344.00    1.19693   1.15684   44.870
 5345.00    1.19838   1.15928   44.640
 5346.00    1.19241   1.15566   44.862
 5347.00    1.18661   1.15010   45.159
 5348.00    1.18025   1.14670   45.401
 5349.00    1.18060   1.14786   45.754
 5350.00    1.19122   1.15412   45.959
 5351.00    1.20186   1.16428   45.483
 5352.00    1.21050   1.17583   44.508
 5353.00    1.22066   1.18646   43.804
 5354.00    1.23061   1.19545   43.555
 5355.00    1.22643   1.20357   43.282
 5356.00    1.22716   1.21072   42.785
 5357.00    1.23536   1.21562   42.391
 5358.00    1.23904   1.21721   42.328
 5359.00    1.23072   1.21487   42.394
 5360.00    1.22608   1.20846   42.522
 5361.00    1.21130   1.19808   42.920
 5362.00    1.20168   1.18484   43.585
 5363.00    1.20116   1.17142   44.258
 5364.00    1.19415   1.16055   44.668
 5365.00    1.18142   1.15366   44.935
 5366.00    1.17909   1.14984   45.202
 5367.00    1.18363   1.14602   45.187
 5368.00    1.18805   1.13843   45.133
 5369.00    1.17228   1.12562   45.457
 5370.00    1.15191   1.11098   46.399
 5371.00    1.14412   1.10182   47.754
 5372.00    1.14756   1.10553   48.303
 5373.00    1.16736   1.12318   47.064
 5374.00    1.20042   1.14868   44.976
 5375.00    1.22992   1.17249   43.576
 5376.00    1.23524   1.18783   43.054
 5377.00    1.23580   1.19383   43.064
 5378.00    1.22917   1.19275   43.126
 5379.00    1.22243   1.18765   43.187
 5380.00    1.21327   1.18070   43.389
 5381.00    1.19740   1.17354   43.770
 5382.00    1.19216   1.16798   44.207
 5383.00    1.19563   1.16602   44.490
 5384.00    1.19725   1.16905   44.529
 5385.00    1.19892   1.17623   44.367
 5386.00    1.20193   1.18423   43.965
 5387.00    1.21193   1.18880   43.754
 5388.00    1.21530   1.18751   43.877
 5389.00    1.20299   1.18093   44.241
 5390.00    1.19580   1.17120   44.849
 5391.00    1.18922   1.16082   45.416
 5392.00    1.17924   1.15176   45.706
 5393.00    1.17562   1.14430   45.776
 5394.00    1.17126   1.13730   45.875
 5395.00    1.16137   1.12929   46.159
 5396.00    1.14781   1.12018   46.693
 5397.00    1.14647   1.11384   47.548
 5398.00    1.15997   1.11466   47.875
 5399.00    1.17784   1.12342   46.859
 5400.00    1.18761   1.13575   45.460
 5401.00    1.19277   1.14398   44.876
 5402.00    1.18905   1.14252   44.881
 5403.00    1.16827   1.13069   45.162
 5404.00    1.14501   1.11292   46.229
 5405.00    1.13487   1.09719   47.740
 5406.00    1.13785   1.09064   48.719
 5407.00    1.14733   1.09355   48.551
 5408.00    1.15369   1.10103   47.639
 5409.00    1.15391   1.10820   47.033
 5410.00    1.15275   1.11423   47.212
 5411.00    1.16557   1.12240   47.205
 5412.00    1.18901   1.13342   46.240
 5413.00    1.20015   1.14462   45.091
 5414.00    1.20549   1.15351   44.450
 5415.00    1.20202   1.15999   44.343
 5416.00    1.19963   1.16626   44.379
 5417.00    1.20120   1.17271   44.152
 5418.00    1.19866   1.17748   43.845
 5419.00    1.19721   1.17930   43.887
 5420.00    1.20356   1.17800   44.259
 5421.00    1.20515   1.17413   44.586
 5422.00    1.20440   1.16846   44.537
 5423.00    1.19600   1.16197   44.345
 5424.00    1.19207   1.15771   44.719
 5425.00    1.19657   1.15822   45.222
 5426.00    1.19645   1.16160   45.006
 5427.00    1.19390   1.16266   44.302
 5428.00    1.17896   1.15618   44.159
 5429.00    1.16102   1.14410   45.072
 5430.00    1.15179   1.13345   46.492
 5431.00    1.15775   1.12830   47.018
 5432.00    1.16443   1.12756   46.412
 5433.00    1.15618   1.12676   46.113
 5434.00    1.14950   1.12538   46.589
 5435.00    1.15300   1.12788   47.187
 5436.00    1.16214   1.13794   47.231
 5437.00    1.17405   1.15525   46.503
 5438.00    1.19394   1.17453   45.306
 5439.00    1.21424   1.19052   44.256
 5440.00    1.22641   1.20060   43.552
 5441.00    1.23796   1.20469   43.123
 5442.00    1.24212   1.20297   42.968
 5443.00    1.22347   1.19366   42.952
 5444.00    1.19740   1.17638   43.265
 5445.00    1.16983   1.15417   44.215
 5446.00    1.14157   1.13444   45.862
 5447.00    1.13430   1.12561   47.523
 5448.00    1.14828   1.13081   47.760
 5449.00    1.16900   1.14660   46.523
 5450.00    1.18658   1.16434   45.129
 5451.00    1.19694   1.17582   44.448
 5452.00    1.19308   1.17681   44.345
 5453.00    1.17770   1.16734   44.620
 5454.00    1.16230   1.15178   45.463
 5455.00    1.14498   1.13853   46.718
 5456.00    1.14179   1.13505   47.847
 5457.00    1.15466   1.14386   47.683
 5458.00    1.18167   1.15967   46.268
 5459.00    1.19137   1.17298   44.872
 5460.00    1.18762   1.17732   44.326
 5461.00    1.18152   1.17209   44.634
 5462.00    1.17898   1.16221   45.400
 5463.00    1.17854   1.15416   46.101
 5464.00    1.18285   1.15261   46.463
 5465.00    1.18385   1.15772   46.133
 5466.00    1.18897   1.16639   45.558
 5467.00    1.19115   1.17488   45.247
 5468.00    1.18629   1.18081   44.843
 5469.00    1.18057   1.18350   44.546
 5470.00    1.18167   1.18274   44.785
 5471.00    1.18206   1.17870   45.259
 5472.00    1.17390   1.17189   45.519
 5473.00    1.16989   1.16224   45.718
 5474.00    1.16445   1.14946   46.116
 5475.00    1.14688   1.13511   46.722
 5476.00    1.13091   1.12299   47.621
 5477.00    1.13337   1.11832   48.467
 5478.00    1.15115   1.12324   48.394
 5479.00    1.16044   1.13409   47.195
 5480.00    1.16220   1.14511   46.094
 5481.00    1.16745   1.15224   46.072
 5482.00    1.16969   1.15699   46.617
 5483.00    1.17620   1.16272   46.746
 5484.00    1.18169   1.16979   46.134
 5485.00    1.18572   1.17580   45.208
 5486.00    1.18774   1.17756   44.642
 5487.00    1.18419   1.17513   44.830
 5488.00    1.17487   1.17156   45.437
 5489.00    1.17256   1.16999   45.833
 5490.00    1.17558   1.17153   45.909
 5491.00    1.18054   1.17454   45.683
 5492.00    1.18167   1.17723   45.342
 5493.00    1.18259   1.17853   45.123
 5494.00    1.18699   1.17792   45.144
 5495.00    1.18379   1.17539   45.197
 5496.00    1.17306   1.17132   45.194
 5497.00    1.16801   1.16705   45.416
 5498.00    1.17765   1.16408   45.753
 5499.00    1.17918   1.16195   45.687
 5500.00    1.17181   1.15918   45.235
 5501.00    1.17064   1.15533   45.304
 5502.00    1.16531   1.15139   45.951
 5503.00    1.17104   1.14930   46.256
 5504.00    1.17576   1.14823   45.996
 5505.00    1.17660   1.14592   45.794
 5506.00    1.16856   1.14294   46.195
 5507.00    1.15669   1.14147   46.735
 5508.00    1.16253   1.14375   46.585
 5509.00    1.17465   1.14832   45.905
 5510.00    1.17882   1.15088   45.523
 5511.00    1.16903   1.14876   45.683
 5512.00    1.15210   1.14284   46.403
 5513.00    1.14127   1.13748   47.241
 5514.00    1.13527   1.13687   47.772
 5515.00    1.14518   1.14267   47.513
 5516.00    1.17063   1.15313   46.730
 5517.00    1.18735   1.16513   45.979
 5518.00    1.19423   1.17583   45.174
 5519.00    1.20172   1.18357   44.385
 5520.00    1.20614   1.18781   44.074
 5521.00    1.20296   1.18905   44.106
 5522.00    1.20142   1.18809   44.192
 5523.00    1.20483   1.18460   44.325
 5524.00    1.19823   1.17747   44.429
 5525.00    1.18309   1.16532   44.631
 5526.00    1.16951   1.14959   45.134
 5527.00    1.15266   1.13453   46.048
 5528.00    1.14543   1.12642   47.214
 5529.00    1.15540   1.12905   47.803
 5530.00    1.16439   1.14056   47.156
 5531.00    1.17680   1.15465   45.936
 5532.00    1.18552   1.16411   45.130
 5533.00    1.17891   1.16653   45.021
 5534.00    1.17622   1.16445   45.359
 5535.00    1.17854   1.16245   45.660
 5536.00    1.18258   1.16341   45.621
 5537.00    1.18713   1.16728   45.304
 5538.00    1.19579   1.17241   45.098
 5539.00    1.20243   1.17724   44.941
 5540.00    1.20757   1.18084   44.577
 5541.00    1.20270   1.18237   44.187
 5542.00    1.19930   1.18096   44.088
 5543.00    1.20199   1.17749   44.413
 5544.00    1.20008   1.17443   44.883
 5545.00    1.18446   1.17378   45.110
 5546.00    1.17981   1.17619   45.052
 5547.00    1.19210   1.18089   44.934
 5548.00    1.21402   1.18646   44.713
 5549.00    1.21834   1.19155   44.314
 5550.00    1.21725   1.19456   43.915
 5551.00    1.21587   1.19445   43.727
 5552.00    1.21003   1.19169   43.859
 5553.00    1.20445   1.18760   44.205
 5554.00    1.20024   1.18413   44.678
 5555.00    1.19965   1.18263   44.999
 5556.00    1.19359   1.18321   45.015
 5557.00    1.18783   1.18495   44.887
 5558.00    1.19353   1.18660   44.787
 5559.00    1.19009   1.18718   44.726
 5560.00    1.18512   1.18571   44.676
 5561.00    1.19273   1.18173   44.724
 5562.00    1.18938   1.17597   44.915
 5563.00    1.17065   1.16989   45.302
 5564.00    1.15741   1.16492   45.677
 5565.00    1.16376   1.16143   45.864
 5566.00    1.17733   1.15901   45.963
 5567.00    1.17406   1.15705   46.026
 5568.00    1.16335   1.15521   45.976
 5569.00    1.16063   1.15321   45.873
 5570.00    1.16753   1.15101   45.929
 5571.00    1.17045   1.14860   45.962
 5572.00    1.14022   1.14674   45.946
 5573.00    1.04873   1.14665   -1.000
 5574.00    0.49594   1.14878   -1.000
 5575.00   -0.85274   1.15301    0.000
 5576.00   -2.42951   1.15816    0.000
 5577.00   -3.69668   1.16351    0.000
 5578.00   -3.57595   1.16878    0.000
 5579.00   -1.21205   1.17294    0.000
 5580.00    1.72919   1.17519   -1.000
 5581.00    2.35605   1.17552   -1.000
 5582.00    1.58147   1.17432   -1.000
 5583.00    1.23722   1.17146   45.518
 5584.00    1.19796   1.16488   45.285
 5585.00    1.17623   1.15237   45.440
 5586.00    1.15568   1.13457   46.208
 5587.00    1.13626   1.11530   47.366
 5588.00    1.12786   1.10161   48.482
 5589.00    1.13255   1.09784   49.092
 5590.00    1.13343   1.10381   48.808
 5591.00    1.14680   1.11499   47.992
 5592.00    1.15772   1.12593   47.242
 5593.00    1.15051   1.13356   46.929
 5594.00    1.14785   1.13812   47.026
 5595.00    1.14748   1.14162   46.918
 5596.00    1.15180   1.14390   46.353
 5597.00    1.15420   1.14361   45.855
 5598.00    1.14856   1.14005   46.020
 5599.00    1.14350   1.13396   46.735
 5600.00    1.14299   1.12775   47.358
 5601.00    1.13840   1.12364   47.497
 5602.00    1.13000   1.12388   47.641
 5603.00    1.13089   1.13138   47.901
 5604.00    1.15174   1.14623   47.460
 5605.00    1.17554   1.16483   46.292
 5606.00    1.18559   1.18234   45.142
 5607.00    1.19743   1.19494   44.444
 5608.00    1.20439   1.20212   44.217
 5609.00    1.20057   1.20523   44.245
 5610.00    1.19851   1.20564   44.334
 5611.00    1.19920   1.20304   44.337
 5612.00    1.19537   1.19533   44.224
 5613.00    1.18030   1.18103   44.309
 5614.00    1.16673   1.16164   44.994
 5615.00    1.15268   1.14400   46.373
 5616.00    1.13535   1.13475   47.670
 5617.00    1.14034   1.13701   47.774
 5618.00    1.15845   1.14748   46.821
 5619.00    1.17049   1.15961   45.982
 5620.00    1.18410   1.16897   45.714
 5621.00    1.18269   1.17352   45.563
 5622.00    1.17690   1.17272   45.335
 5623.00    1.17122   1.16784   45.382
 5624.00    1.15636   1.16174   46.055
 5625.00    1.15616   1.15846   46.964
 5626.00    1.16588   1.16091   47.131
 5627.00    1.17169   1.16837   46.490
 5628.00    1.17813   1.17818   45.756
 5629.00    1.18542   1.18717   45.188
 5630.00    1.19402   1.19323   44.793
 5631.00    1.19533   1.19558   44.604
 5632.00    1.19542   1.19429   44.451
 5633.00    1.19196   1.19010   44.415
 5634.00    1.18627   1.18445   44.669
 5635.00    1.18739   1.17845   45.015
 5636.00    1.18272   1.17306   45.309
 5637.00    1.17276   1.16914   45.625
 5638.00    1.17178   1.16688   45.947
 5639.00    1.17025   1.16583   46.057
 5640.00    1.17110   1.16541   46.013
 5641.00    1.17767   1.16532   46.096
 5642.00    1.17129   1.16593   46.178
 5643.00    1.15489   1.16771   46.059
 5644.00    1.15820   1.17039   45.846
 5645.00    1.17333   1.17329   45.723
 5646.00    1.17654   1.17573   45.496
 5647.00    1.17718   1.17707   45.288
 5648.00    1.18269   1.17706   45.178
 5649.00    1.18434   1.17645   45.092
 5650.00    1.18261   1.17592   45.143
 5651.00    1.17952   1.17573   45.189
 5652.00    1.18481   1.17514   44.947
 5653.00    1.18724   1.17275   44.727
 5654.00    1.17765   1.16762   44.809
 5655.00    1.16767   1.15919   45.117
 5656.00    1.15743   1.14779   45.534
 5657.00    1.14030   1.13557   46.257
 5658.00    1.12441   1.12612   47.517
 5659.00    1.12303   1.12259   48.567
 5660.00    1.12641   1.12551   48.355
 5661.00    1.13081   1.13197   47.354
 5662.00    1.13775   1.13925   46.856
 5663.00    1.14394   1.14652   46.885
 5664.00    1.15423   1.15362   46.581
 5665.00    1.16222   1.15994   45.938
 5666.00    1.16207   1.16388   45.584
 5667.00    1.16295   1.16488   45.699
 5668.00    1.15517   1.16463   45.981
 5669.00    1.15323   1.16523   46.116
 5670.00    1.16301   1.16788   46.049
 5671.00    1.17204   1.17213   45.806
 5672.00    1.17467   1.17683   45.435
 5673.00    1.16823   1.18069   44.996
 5674.00    1.17145   1.18316   44.553
 5675.00    1.18165   1.18437   44.408
 5676.00    1.17882   1.18476   44.530
 5677.00    1.18174   1.18456   44.497
 5678.00    1.18338   1.18314   44.386
 5679.00    1.17626   1.17951   44.512
 5680.00    1.17460   1.17309   44.725
 5681.00    1.16969   1.16452   44.956
 5682.00    1.16375   1.15565   45.394
 5683.00    1.15507   1.14903   45.945
 5684.00    1.15126   1.14610   46.207
 5685.00    1.15995   1.14608   46.048
 5686.00    1.15966   1.14684   45.804
 5687.00    1.14684   1.14671   45.874
 5688.00    1.14388   1.14656   46.322
 5689.00    1.15405   1.14862   46.633
 5690.00    1.16515   1.15399   46.329
 5691.00    1.17874   1.16177   45.559
 5692.00    1.18850   1.16952   44.966
 5693.00    1.18249   1.17551   44.653
 5694.00    1.17820   1.17910   44.503
 5695.00    1.18068   1.18055   44.520
 5696.00    1.17905   1.17991   44.567
 5697.00    1.17198   1.17704   44.660
 5698.00    1.16561   1.17215   44.993
 5699.00    1.15854   1.16587   45.506
 5700.00    1.14731   1.15981   45.956
 5701.00    1.14385   1.15535   46.411
 5702.00    1.15008   1.15338   46.733
 5703.00    1.15420   1.15327   46.571
 5704.00    1.15550   1.15319   46.105
 5705.00    1.15258   1.15105   45.854
 5706.00    1.14218   1.14540   46.031
 5707.00    1.12980   1.13653   46.581
 5708.00    1.11339   1.12631   47.393
 5709.00    1.10182   1.11776   48.195
 5710.00    1.10449   1.11403   48.637
 5711.00    1.11162   1.11716   48.642
 5712.00    1.12625   1.12660   48.262
 5713.00    1.14297   1.13993   47.426
 5714.00    1.15716   1.15337   46.296
 5715.00    1.16863   1.16412   45.422
 5716.00    1.17522   1.17133   45.090
 5717.00    1.17314   1.17623   44.994
 5718.00    1.16944   1.18047   44.869
 5719.00    1.17361   1.18486   44.675
 5720.00    1.18154   1.18940   44.406
 5721.00    1.19104   1.19355   44.166
 5722.00    1.19536   1.19660   44.029
 5723.00    1.19107   1.19797   43.952
 5724.00    1.19185   1.19717   43.895
 5725.00    1.18848   1.19420   43.943
 5726.00    1.17816   1.18984   44.226
 5727.00    1.16213   1.18556   44.675
 5728.00    1.15946   1.18297   45.077
 5729.00    1.17007   1.18220   45.047
 5730.00    1.17086   1.18248   44.754
 5731.00    1.16903   1.18302   44.736
 5732.00    1.18135   1.18400   44.948
 5733.00    1.19701   1.18623   44.928
 5734.00    1.18860   1.18949   44.564
 5735.00    1.17547   1.19267   44.214
 5736.00    1.17285   1.19457   44.147
 5737.00    1.17979   1.19500   44.211
 5738.00    1.18332   1.19464   44.314
 5739.00    1.17777   1.19405   44.389
 5740.00    1.17577   1.19324   44.456
 5741.00    1.18112   1.19218   44.538
 5742.00    1.18834   1.19115   44.624
 5743.00    1.18552   1.19085   44.596
 5744.00    1.18249   1.19128   44.519
 5745.00    1.18780   1.19166   44.300
 5746.00    1.18830   1.19127   44.012
 5747.00    1.18529   1.19015   44.082
 5748.00    1.18763   1.18915   44.476
 5749.00    1.18558   1.18823   44.756
 5750.00    1.18242   1.18617   44.635
 5751.00    1.18100   1.18174   44.429
 5752.00    1.16814   1.17531   44.608
 5753.00    1.15198   1.16980   45.109
 5754.00    1.14866   1.16821   45.606
 5755.00    1.15676   1.17200   45.763
 5756.00    1.17072   1.17955   45.365
 5757.00    1.18432   1.18745   44.590
 5758.00    1.18832   1.19240   43.939
 5759.00    1.18471   1.19271   43.847
 5760.00    1.17544   1.18863   44.241
 5761.00    1.16213   1.18238   44.807
 5762.00    1.15539   1.17717   45.414
 5763.00    1.15731   1.17613   45.791
 5764.00    1.16309   1.18031   45.544
 5765.00    1.17912   1.18776   44.811
 5766.00    1.19330   1.19523   44.155
 5767.00    1.19563   1.20002   43.882
 5768.00    1.19525   1.20159   43.823
 5769.00    1.18843   1.20075   43.762
 5770.00    1.18076   1.19843   43.788
 5771.00    1.18628   1.19516   43.922
 5772.00    1.18498   1.19144   44.131
 5773.00    1.17745   1.18796   44.401
 5774.00    1.17894   1.18566   44.575
 5775.00    1.17866   1.18494   44.642
 5776.00    1.17684   1.18509   44.603
 5777.00    1.17624   1.18427   44.419
 5778.00    1.17352   1.18060   44.302
 5779.00    1.16532   1.17344   44.383
 5780.00    1.15589   1.16445   44.845
 5781.00    1.13911   1.15634   45.751
 5782.00    1.12938   1.15131   46.535
 5783.00    1.14251   1.14993   46.689
 5784.00    1.14794   1.15137   46.511
 5785.00    1.14847   1.15483   46.337
 5786.00    1.15950   1.15977   46.170
 5787.00    1.16472   1.16555   45.787
 5788.00    1.17030   1.17073   45.196
 5789.00    1.17361   1.17365   44.748
 5790.00    1.16977   1.17442   44.660
 5791.00    1.16334   1.17479   44.823
 5792.00    1.17006   1.17671   44.866
 5793.00    1.18536   1.18077   44.597
 5794.00    1.19763   1.18569   44.252
 5795.00    1.19942   1.18961   43.977
 5796.00    1.18873   1.19128   43.856
 5797.00    1.18518   1.19104   44.017
 5798.00    1.18951   1.19052   44.307
 5799.00    1.19651   1.19141   44.288
 5800.00    1.20104   1.19385   43.833
 5801.00    1.20109   1.19639   43.231
 5802.00    1.20012   1.19737   42.936
 5803.00    1.19471   1.19596   43.142
 5804.00    1.18210   1.19286   43.511
 5805.00    1.17428   1.18971   43.856
 5806.00    1.17603   1.18810   44.118
 5807.00    1.17779   1.18845   44.125
 5808.00    1.18364   1.19018   43.969
 5809.00    1.19384   1.19245   43.822
 5810.00    1.19693   1.19463   43.772
 5811.00    1.19635   1.19611   43.752
 5812.00    1.20202   1.19625   43.632
 5813.00    1.19654   1.19467   43.483
 5814.00    1.18537   1.19174   43.487
 5815.00    1.18436   1.18869   43.752
 5816.00    1.19126   1.18724   44.033
 5817.00    1.19913   1.18845   43.966
 5818.00    1.19977   1.19188   43.672
 5819.00    1.19696   1.19579   43.407
 5820.00    1.19967   1.19867   43.188
 5821.00    1.20671   1.20022   43.017
 5822.00    1.20282   1.20095   43.005
 5823.00    1.20217   1.20129   43.137
 5824.00    1.20438   1.20143   43.154
 5825.00    1.20239   1.20150   43.072
 5826.00    1.20358   1.20182   43.000
 5827.00    1.21183   1.20246   42.942
 5828.00    1.21328   1.20317   42.936
 5829.00    1.20496   1.20354   42.995
 5830.00    1.20711   1.20335   42.982
 5831.00    1.21067   1.20260   42.945
 5832.00    1.20647   1.20129   42.921
 5833.00    1.20497   1.19966   42.943
 5834.00    1.20201   1.19822   43.161
 5835.00    1.19469   1.19772   43.330
 5836.00    1.20039   1.19839   43.257
 5837.00    1.20683   1.19981   43.138
 5838.00    1.19786   1.20119   43.193
 5839.00    1.19483   1.20212   43.320
 5840.00    1.19956   1.20265   43.273
 5841.00    1.19939   1.20285   43.013
 5842.00    1.20590   1.20255   42.742
 5843.00    1.20762   1.20143   42.665
 5844.00    1.20371   1.19933   42.766
 5845.00    1.19538   1.19645   42.929
 5846.00    1.18584   1.19338   43.169
 5847.00    1.18884   1.19094   43.421
 5848.00    1.18963   1.18940   43.632
 5849.00    1.18062   1.18806   43.690
 5850.00    1.17563   1.18549   43.697
 5851.00    1.17163   1.18090   43.884
 5852.00    1.16552   1.17461   44.159
 5853.00    1.15968   1.16770   44.531
 5854.00    1.15499   1.16087   44.847
 5855.00    1.15288   1.15372   44.964
 5856.00    1.14740   1.14615   45.018
 5857.00    1.14562   1.13966   45.312
 5858.00    1.15064   1.13704   45.777
 5859.00    1.14886   1.14005   45.754
 5860.00    1.15436   1.14738   45.241
 5861.00    1.17181   1.15602   44.779
 5862.00    1.16677   1.16357   44.554
 5863.00    1.15800   1.16892   44.393
 5864.00    1.16169   1.17178   44.275
 5865.00    1.15934   1.17217   44.331
 5866.00    1.15333   1.17101   44.483
 5867.00    1.14776   1.17040   44.676
 5868.00    1.16324   1.17212   44.743
 5869.00    1.17739   1.17639   44.455
 5870.00    1.17925   1.18147   44.041
 5871.00    1.18594   1.18506   43.782
 5872.00    1.18466   1.18599   43.709
 5873.00    1.18233   1.18463   43.785
 5874.00    1.18410   1.18217   43.843
 5875.00    1.18100   1.17960   43.799
 5876.00    1.17946   1.17720   43.845
 5877.00    1.17870   1.17477   44.022
 5878.00    1.17149   1.17198   44.140
 5879.00    1.16406   1.16867   44.362
 5880.00    1.15787   1.16481   44.693
 5881.00    1.15222   1.16037   44.808
 5882.00    1.15279   1.15530   44.717
 5883.00    1.15689   1.14954   44.660
 5884.00    1.15076   1.14265   44.784
 5885.00    1.11307   1.13247   44.898
 5886.00    1.00052   1.11476   -1.000
 5887.00    0.71086   1.08583   -1.000
 5888.00    0.21546   1.04731   -1.000
 5889.00   -0.18740   1.00942    0.000
 5890.00   -0.35141   0.98477    0.000
 5891.00   -0.13393   0.97976    0.000
 5892.00    0.42563   0.98811   -1.000
 5893.00    0.73959   0.99736   -1.000
 5894.00    0.59395   0.99937   -1.000
 5895.00    0.31765   0.99599   -1.000
 5896.00    0.23185   0.99633   -1.000
 5897.00    0.44744   1.00777   -1.000
 5898.00    0.84337   1.03075   -1.000
 5899.00    1.12663   1.05930   -1.000
 5900.00    1.18902   1.08689   -1.000
 5901.00    1.16444   1.10994   46.463
 5902.00    1.14762   1.12732   45.560
 5903.00    1.14740   1.13910   45.090
 5904.00    1.14578   1.14633   44.998
 5905.00    1.13579   1.15063   44.979
 5906.00    1.14467   1.15367   45.019
 5907.00    1.15756   1.15636   45.040
 5908.00    1.15431   1.15883   44.974
 5909.00    1.15722   1.16070   44.872
 5910.00    1.15980   1.16138   44.918
 5911.00    1.15393   1.16016   45.039
 5912.00    1.15305   1.15669   45.085
 5913.00    1.14485   1.15153   45.204
 5914.00    1.11925   1.14643   45.668
 5915.00    1.10737   1.14342   46.176
 5916.00    1.12376   1.14361   46.241
 5917.00    1.14342   1.14674   46.019
 5918.00    1.15214   1.15140   45.801
 5919.00    1.15304   1.15590   45.629
 5920.00    1.14483   1.15895   45.483
 5921.00    1.13899   1.16041   45.345
 5922.00    1.14034   1.16094   45.278
 5923.00    1.13536   1.16154   45.324
 5924.00    1.13520   1.16276   45.234
 5925.00    1.14866   1.16428   45.060
 5926.00    1.16059   1.16492   44.959
 5927.00    1.15653   1.16351   44.909
 5928.00    1.14637   1.16004   44.947
 5929.00    1.14453   1.15605   45.182
 5930.00    1.14057   1.15366   45.542
 5931.00    1.13565   1.15380   45.665
 5932.00    1.13499   1.15567   45.355
 5933.00    1.13865   1.15771   45.023
 5934.00    1.14970   1.15930   45.151
 5935.00    1.15840   1.16100   45.509
 5936.00    1.15741   1.16317   45.675
 5937.00    1.15204   1.16519   45.518
 5938.00    1.15252   1.16588   45.149
 5939.00    1.16146   1.16459   44.887
 5940.00    1.16416   1.16197   44.928
 5941.00    1.14924   1.15942   45.289
 5942.00    1.13722   1.15825   45.650
 5943.00    1.13759   1.15865   45.717
 5944.00    1.13658   1.15983   45.530
 5945.00    1.13756   1.16049   45.248
 5946.00    1.14459   1.15972   45.037
 5947.00    1.14875   1.15767   45.043
 5948.00    1.14465   1.15539   45.353
 5949.00    1.13829   1.15403   45.821
 5950.00    1.13568   1.15371   46.086
 5951.00    1.13399   1.15369   45.963
 5952.00    1.12631   1.15328   45.747
 5953.00    1.12254   1.15264   45.752
 5954.00    1.12819   1.15218   45.799
 5955.00    1.13525   1.15186   45.718
 5956.00    1.14055   1.15169   45.687
 5957.00    1.14192   1.15235   45.808
 5958.00    1.15020   1.15461   45.938
 5959.00    1.16022   1.15851   45.850
 5960.00    1.16138   1.16304   45.452
 5961.00    1.16581   1.16682   44.956
 5962.00    1.17454   1.16894   44.682
 5963.00    1.16567   1.16918   44.596
 5964.00    1.14838   1.16798   44.642
 5965.00    1.14815   1.16617   44.839
 5966.00    1.15208   1.16475   45.040
 5967.00    1.15083   1.16441   45.190
 5968.00    1.15208   1.16535   45.201
 5969.00    1.15121   1.16726   44.936
 5970.00    1.14744   1.16950   44.714
 5971.00    1.15494   1.17118   44.681
 5972.00    1.16575   1.17136   44.623
 5973.00    1.16081   1.16938   44.546
 5974.00    1.14315   1.16523   44.670
 5975.00    1.13183   1.15984   44.999
 5976.00    1.13033   1.15494   45.354
 5977.00    1.12955   1.15237   45.685
 5978.00    1.13890   1.15296   45.941
 5979.00    1.15112   1.15578   45.900
 5980.00    1.15080   1.15867   45.557
 5981.00    1.15443   1.15933   45.283
 5982.00    1.15167   1.15684   45.290
 5983.00    1.13515   1.15225   45.567
 5984.00    1.13255   1.14805   45.973
 5985.00    1.13597   1.14643   46.275
 5986.00    1.13745   1.14796   46.265
 5987.00    1.14723   1.15154   45.888
 5988.00    1.15159   1.15540   45.506
 5989.00    1.15067   1.15834   45.321
 5990.00    1.15363   1.16024   45.135
 5991.00    1.15683   1.16194   45.074
 5992.00    1.15970   1.16419   45.187
 5993.00    1.16764   1.16684   45.103
 5994.00    1.16968   1.16864   44.768
 5995.00    1.15784   1.16849   44.527
 5996.00    1.15170   1.16653   44.669
 5997.00    1.15619   1.16391   45.010
 5998.00    1.16225   1.16188   45.252
 5999.00    1.16280   1.16070   45.384
 6000.00    1.15727   1.15983   45.373
 6001.00    1.15348   1.15851   45.350
 6002.00    1.15263   1.15661   45.534
 6003.00    1.14856   1.15458   45.753
 6004.00    1.14726   1.15267   45.797
 6005.00    1.15065   1.15034   45.709
 6006.00    1.14423   1.14706   45.665
 6007.00    1.12663   1.14358   45.878
 6008.00    1.12179   1.14189   46.306
 6009.00    1.13817   1.14330   46.513
 6010.00    1.14361   1.14704   46.171
 6011.00    1.14555   1.15067   45.637
 6012.00    1.14943   1.15227   45.452
 6013.00    1.14634   1.15181   45.694
 6014.00    1.14625   1.15035   46.002
 6015.00    1.13774   1.14897   45.967
 6016.00    1.13796   1.14778   45.830
 6017.00    1.13880   1.14637   45.963
 6018.00    1.13530   1.14423   46.114
 6019.00    1.14658   1.14136   46.076
 6020.00    1.14985   1.13847   46.088
 6021.00    1.13805   1.13667   46.338
 6022.00    1.14128   1.13674   46.376
 6023.00    1.14889   1.13869   46.084
 6024.00    1.14091   1.14237   45.887
 6025.00    1.13726   1.14742   45.827
 6026.00    1.14674   1.15315   45.647
 6027.00    1.15451   1.15869   45.434
 6028.00    1.16567   1.16355   45.226
 6029.00    1.17419   1.16750   44.976
 6030.00    1.16759   1.17045   44.864
 6031.00    1.16229   1.17247   44.852
 6032.00    1.16693   1.17391   44.920
 6033.00    1.16921   1.17513   44.927
 6034.00    1.17110   1.17616   44.764
 6035.00    1.16943   1.17668   44.606
 6036.00    1.16304   1.17637   44.552
 6037.00    1.16764   1.17512   44.503
 6038.00    1.17228   1.17296   44.487
 6039.00    1.16794   1.17023   44.662
 6040.00    1.16662   1.16756   44.840
 6041.00    1.16349   1.16571   44.944
 6042.00    1.16058   1.16529   44.961
 6043.00    1.16482   1.16640   44.865
 6044.00    1.16895   1.16861   44.716
 6045.00    1.17229   1.17126   44.401
 6046.00    1.17538   1.17385   44.250
 6047.00    1.16892   1.17623   44.297
 6048.00    1.16005   1.17810   44.255
 6049.00    1.16025   1.17921   44.241
 6050.00    1.17069   1.17930   44.357
 6051.00    1.18660   1.17826   44.489
 6052.00    1.18888   1.17595   44.550
 6053.00    1.17557   1.17242   44.611
 6054.00    1.16635   1.16833   44.755
 6055.00    1.16569   1.16485   44.920
 6056.00    1.16512   1.16327   45.114
 6057.00    1.16375   1.16399   45.312
 6058.00    1.16193   1.16633   45.321
 6059.00    1.15827   1.16884   45.140
 6060.00    1.16444   1.17006   44.894
 6061.00    1.16959   1.16883   44.821
 6062.00    1.16018   1.16461   44.922
 6063.00    1.14978   1.15803   45.320
 6064.00    1.13656   1.15119   46.143
 6065.00    1.12608   1.14703   45.710
 6066.00    1.11636   1.14773   55.943
 6067.00    1.11097   1.15287   23.896
 6068.00    1.12002   1.16018   20.400
 6069.00    1.13870   1.16717   48.668
 6070.00    1.14750   1.17235   44.918
 6071.00    1.16895   1.17566   44.308
 6072.00    1.09254   1.17758   -1.000
 6073.00    0.72448   1.17854   -1.000
 6074.00    0.77740   1.17843   -1.000
 6075.00    1.16929   1.17685   44.459
 6076.00    1.17211   1.17359   44.551
 6077.00    1.16296   1.16907   44.755
 6078.00    1.16451   1.16429   45.005
 6079.00    1.16080   1.16041   45.314
 6080.00    1.15590   1.15776   45.633
 6081.00    1.15206   1.15580   45.769
 6082.00    1.15467   1.15407   45.785
 6083.00    1.15762   1.15259   45.879
 6084.00    1.15649   1.15190   45.945
 6085.00    1.15599   1.15255   45.915
 6086.00    1.14952   1.15441   45.872
 6087.00    1.14535   1.15658   45.777
 6088.00    1.14846   1.15785   45.610
 6089.00    1.14523   1.15772   45.569
 6090.00    1.14668   1.15668   45.780
 6091.00    1.14690   1.15587   46.024
 6092.00    1.14289   1.15625   46.095
 6093.00    1.14674   1.15800   45.911
 6094.00    1.15292   1.16077   45.633
 6095.00    1.15871   1.16378   45.397
 6096.00    1.16484   1.16632   45.168
 6097.00    1.16671   1.16741   45.090
 6098.00    1.15910   1.16576   45.172
 6099.00    1.15425   1.16008   45.246
 6100.00    1.15260   1.14990   45.254
 6101.00    1.14986   1.13722   45.540
 6102.00    1.15255   1.12624   46.427
 6103.00    1.15769   1.12159   47.400
 6104.00    1.16291   1.12496   47.544
 6105.00    1.16334   1.13390   46.827
 6106.00    1.15843   1.14449   46.002
 6107.00    1.15081   1.15355   45.607
 6108.00    1.14845   1.16009   45.659
 6109.00    1.14632   1.16429   45.820
 6110.00    1.14414   1.16659   45.857
 6111.00    1.14538   1.16767   45.787
 6112.00    1.14655   1.16822   45.629
 6113.00    1.15079   1.16874   45.522
 6114.00    1.15883   1.16927   45.405
 6115.00    1.15613   1.16942   45.213
 6116.00    1.14477   1.16864   45.265
 6117.00    1.14301   1.16629   45.525
 6118.00    1.14062   1.16124   45.709
 6119.00    1.13012   1.15256   45.837
 6120.00    1.12101   1.14067   46.304
 6121.00    1.11570   1.12815   46.971
 6122.00    1.11077   1.11927   47.487
 6123.00    1.11770   1.11703   47.714
 6124.00    1.13178   1.12149   47.298
 6125.00    1.13909   1.12977   46.560
 6126.00    1.13991   1.13826   46.283
 6127.00    1.13649   1.14497   46.456
 6128.00    1.13836   1.14990   46.571
 6129.00    1.14675   1.15442   46.463
 6130.00    1.15211   1.15913   46.218
 6131.00    1.15283   1.16319   45.789
 6132.00    1.14839   1.16449   45.530
 6133.00    1.14351   1.16035   45.554
 6134.00    1.13110   1.14928   45.829
 6135.00    1.11074   1.13287   46.598
 6136.00    1.09625   1.11568   47.865
 6137.00    1.08574   1.10331   49.196
 6138.00    1.08799   1.09871   49.851
 6139.00    1.10333   1.10064   49.193
 6140.00    1.11869   1.10695   47.790
 6141.00    1.11787   1.11610   46.863
 6142.00    1.10928   1.12683   46.711
 6143.00    1.12126   1.13776   46.826
 6144.00    1.14348   1.14646   46.612
 6145.00    1.15332   1.15135   46.057
 6146.00    1.14948   1.15230   45.751
 6147.00    1.14822   1.15034   45.861
 6148.00    1.14554   1.14709   46.130
 6149.00    1.14168   1.14410   46.449
 6150.00    1.14010   1.14247   46.754
 6151.00    1.13790   1.14256   46.884
 6152.00    1.13847   1.14359   46.778
 6153.00    1.14114   1.14401   46.516
 6154.00    1.13942   1.14301   46.318
 6155.00    1.13118   1.14079   46.513
 6156.00    1.12890   1.13788   46.860
 6157.00    1.12649   1.13370   46.978
 6158.00    1.12351   1.12630   47.081
 6159.00    1.11395   1.11361   47.447
 6160.00    1.09187   1.09587   48.177
 6161.00    1.06329   1.07690   49.401
 6162.00    1.04531   1.06259   50.910
 6163.00    1.04904   1.05761   51.876
 6164.00    1.06228   1.06190   51.651
 6165.00    1.07444   1.07141   50.461
 6166.00    1.08069   1.08043   49.348
 6167.00    1.08531   1.08512   48.921
 6168.00    1.08072   1.08552   48.915
 6169.00    1.06510   1.08499   49.324
 6170.00    1.06019   1.08760   49.932
 6171.00    1.07945   1.09437   49.974
 6172.00    1.09991   1.10399   49.234
 6173.00    1.10768   1.11365   48.379
 6174.00    1.11371   1.12145   48.096
 6175.00    1.11070   1.12690   48.190
 6176.00    1.10524   1.13048   48.139
 6177.00    1.10882   1.13309   48.023
 6178.00    1.11503   1.13526   47.916
 6179.00    1.11613   1.13740   47.727
 6180.00    1.11635   1.13974   47.516
 6181.00    1.11874   1.14228   47.360
 6182.00    1.12206   1.14449   47.174
 6183.00    1.12238   1.14541   47.000
 6184.00    1.11904   1.14443   46.998
 6185.00    1.11501   1.14151   47.145
 6186.00    1.11432   1.13699   47.421
 6187.00    1.10861   1.13123   47.889
 6188.00    1.10222   1.12421   48.408
 6189.00    1.08311   1.11623   48.884
 6190.00    1.07392   1.10869   49.290
 6191.00    1.07501   1.10436   49.785
 6192.00    1.07159   1.10556   50.296
 6193.00    1.08190   1.11175   50.135
 6194.00    1.09831   1.12052   49.157
 6195.00    1.11072   1.12881   48.104
 6196.00    1.11522   1.13438   47.609
 6197.00    1.11290   1.13658   47.461
 6198.00    1.10265   1.13585   47.596
 6199.00    1.08868   1.13382   48.060
 6200.00    1.08609   1.13260   48.551
 6201.00    1.09029   1.13364   48.706
 6202.00    1.10351   1.13700   48.399
 6203.00    1.11173   1.14172   47.816
 6204.00    1.11857   1.14641   47.447
 6205.00    1.12765   1.15009   47.423
 6206.00    1.12605   1.15235   47.389
 6207.00    1.11460   1.15315   47.340
 6208.00    1.11095   1.15228   47.441
 6209.00    1.10452   1.14936   47.544
 6210.00    1.09543   1.14396   47.629
 6211.00    1.09319   1.13622   47.976
 6212.00    1.08718   1.12726   48.400
 6213.00    1.07703   1.11890   48.818
 6214.00    1.07280   1.11277   49.441
 6215.00    1.07160   1.10924   50.090
 6216.00    1.06901   1.10758   50.381
 6217.00    1.07843   1.10657   50.085
 6218.00    1.09624   1.10577   49.575
 6219.00    1.08532   1.10588   49.691
 6220.00    1.06059   1.10755   49.833
 6221.00    1.05788   1.11092   49.499
 6222.00    1.08021   1.11478   49.463
 6223.00    1.08883   1.11809   51.467
 6224.00    1.17517   1.12011   52.802
 6225.00    1.29568   1.12031   -1.000
 6226.00    1.18829   1.11827   -1.000
 6227.00    1.07998   1.11320   49.112
 6228.00    1.09329   1.10517   49.248
 6229.00    1.06907   1.09575   49.747
 6230.00    1.04589   1.08796   50.530
 6231.00    1.03525   1.08485   51.282
 6232.00    1.02888   1.08747   -1.000
 6233.00    1.02583   1.09436   -1.000
 6234.00    1.01946   1.10214   -1.000
 6235.00    1.01402   1.10777   -1.000
 6236.00    1.01358   1.10978   -1.000
 6237.00    1.02957   1.10857   -1.000
 6238.00    1.05475   1.10576   49.198
 6239.00    1.05679   1.10257   49.705
 6240.00    1.04631   1.09950   50.222
 6241.00    1.04379   1.09606   50.600
 6242.00    1.04291   1.09162   50.669
 6243.00    1.04594   1.08624   50.828
 6244.00    1.05531   1.08116   51.218
 6245.00    1.06087   1.07831   51.364
 6246.00    1.06733   1.07957   51.158
 6247.00    1.07302   1.08500   50.723
 6248.00    1.07335   1.09249   50.138
 6249.00    1.07538   1.09841   49.546
 6250.00    1.07404   1.09972   49.267
 6251.00    1.06661   1.09589   49.499
 6252.00    1.04869   1.08873   50.217
 6253.00    1.03151   1.08152   51.031
 6254.00    1.02952   1.07635   51.493
 6255.00    1.02217   1.07388   51.726
 6256.00    0.99860   1.07344   -1.000
 6257.00    0.97218   1.07446   -1.000
 6258.00    0.96984   1.07709   -1.000
 6259.00    0.99699   1.08167   -1.000
 6260.00    1.03713   1.08826   52.064
 6261.00    1.06723   1.09586   51.245
 6262.00    1.07577   1.10310   50.517
 6263.00    1.07646   1.10864   49.789
 6264.00    1.07378   1.11232   49.260
 6265.00    1.06810   1.11478   49.361
 6266.00    1.06573   1.11663   49.768
 6267.00    1.06743   1.11794   49.821
 6268.00    1.07050   1.11819   49.490
 6269.00    1.07856   1.11745   49.379
 6270.00    1.08434   1.11642   49.633
 6271.00    1.08074   1.11542   49.733
 6272.00    1.07867   1.11405   49.593
 6273.00    1.07772   1.11081   49.443
 6274.00    1.07036   1.10476   49.448
 6275.00    1.05987   1.09634   49.706
 6276.00    1.05279   1.08691   50.103
 6277.00    1.04453   1.07862   50.697
 6278.00    1.02382   1.07291   51.766
 6279.00    1.01325   1.07079   -1.000
 6280.00    1.01105   1.07291   -1.000
 6281.00    1.01620   1.07881   -1.000
 6282.00    1.03096   1.08738   53.057
 6283.00    1.03893   1.09680   52.140
 6284.00    1.04228   1.10522   -1.000
 6285.00    1.04847   1.11164   -1.000
 6286.00    1.04896   1.11559   -1.000
 6287.00    1.04768   1.11726   -1.000
 6288.00    1.05025   1.11686   -1.000
 6289.00    1.06905   1.11493   49.029
 6290.00    1.08829   1.11243   49.117
 6291.00    1.09230   1.11019   49.477
 6292.00    1.07542   1.10864   49.882
 6293.00    1.05672   1.10743   50.120
 6294.00    1.06186   1.10572   50.178
 6295.00    1.06286   1.10279   50.248
 6296.00    1.04626   1.09863   50.480
 6297.00    1.04129   1.09403   50.868
 6298.00    1.03917   1.08979   51.075
 6299.00    1.06144   1.08639   51.062
 6300.00    1.09433   1.08420   50.912
 6301.00    1.12995   1.08409   50.683
 6302.00    1.14461   1.08720   50.761
 6303.00    1.13406   1.09363   51.311
 6304.00    1.10609   1.10188   51.431
 6305.00    1.07880   1.10980   50.746
 6306.00    1.05239   1.11569   -1.000
 6307.00    1.04301   1.11905   -1.000
 6308.00    1.05671   1.12031   -1.000
 6309.00    1.10002   1.12032   48.791
 6310.00    1.11830   1.11935   48.875
 6311.00    1.10064   1.11742   49.163
 6312.00    1.08669   1.11437   49.438
 6313.00    1.07762   1.11005   49.622
 6314.00    1.06641   1.10512   49.756
 6315.00    1.05908   1.10026   49.980
 6316.00    1.06544   1.09646   50.347
 6317.00    1.07044   1.09472   50.403
 6318.00    1.07948   1.09569   50.350
 6319.00    1.07802   1.09942   50.357
 6320.00    1.07201   1.10500   50.319
 6321.00    1.07908   1.11111   49.920
 6322.00    1.08690   1.11698   49.340
 6323.00    1.09473   1.12239   49.003
 6324.00    1.10309   1.12677   48.845
 6325.00    1.09946   1.12986   48.635
 6326.00    1.08553   1.13138   48.414
 6327.00    1.08476   1.13161   48.328
 6328.00    1.07873   1.13137   48.211
 6329.00    1.07113   1.13109   48.082
 6330.00    1.08160   1.13082   48.146
 6331.00    1.10829   1.12992   48.176
 6332.00    1.12702   1.12730   48.115
 6333.00    1.13079   1.12227   47.968
 6334.00    1.11634   1.11549   47.992
 6335.00    1.09892   1.10888   48.132
 6336.00    1.10269   1.10494   48.699
 6337.00    1.11007   1.10507   49.453
 6338.00    1.10261   1.10882   49.245
 6339.00    1.11665   1.11469   48.764
 6340.00    1.13251   1.12053   48.246
 6341.00    1.13030   1.12449   47.844
 6342.00    1.12165   1.12588   47.632
 6343.00    1.12064   1.12507   47.516
 6344.00    1.11735   1.12344   47.748
 6345.00    1.11456   1.12268   48.045
 6346.00    1.11376   1.12393   47.995
 6347.00    1.11098   1.12747   47.795
 6348.00    1.11207   1.13235   47.493
 6349.00    1.12872   1.13696   47.223
 6350.00    1.14453   1.13988   47.140
 6351.00    1.13900   1.14030   47.111
 6352.00    1.12705   1.13832   47.064
 6353.00    1.12238   1.13479   47.189
 6354.00    1.10721   1.13066   47.409
 6355.00    1.08777   1.12677   47.772
 6356.00    1.08329   1.12332   48.286
 6357.00    1.08889   1.12008   48.516
 6358.00    1.10309   1.11700   48.565
 6359.00    1.11245   1.11410   48.900
 6360.00    1.11229   1.11139   49.334
 6361.00    1.10873   1.10920   49.336
 6362.00    1.11392   1.10801   49.131
 6363.00    1.12827   1.10827   49.028
 6364.00    1.14282   1.11019   48.935
 6365.00    1.15462   1.11330   48.688
 6366.00    1.16029   1.11680   48.362
 6367.00    1.15581   1.11976   48.077
 6368.00    1.14751   1.12155   47.800
 6369.00    1.14327   1.12241   47.486
 6370.00    1.14666   1.12316   47.253
 6371.00    1.14690   1.12461   47.212
 6372.00    1.15076   1.12686   47.171
 6373.00    1.15821   1.12918   46.986
 6374.00    1.14518   1.13051   46.934
 6375.00    1.13471   1.13037   47.041
 6376.00    1.14113   1.12878   47.098
 6377.00    1.13325   1.12639   47.236
 6378.00    1.11842   1.12378   47.445
 6379.00    1.11369   1.12126   47.726
 6380.00    1.11421   1.11906   47.995
 6381.00    1.11019   1.11735   48.103
 6382.00    1.11039   1.11644   48.153
 6383.00    1.11456   1.11665   48.205
 6384.00    1.11501   1.11801   48.135
 6385.00    1.10960   1.12012   48.150
 6386.00    1.10757   1.12215   48.350
 6387.00    1.10690   1.12336   48.386
 6388.00    1.10854   1.12323   48.417
 6389.00    1.10262   1.12141   48.581
 6390.00    1.08778   1.11781   48.842
 6391.00    1.08286   1.11277   49.255
 6392.00    1.07473   1.10788   49.713
 6393.00    1.06716   1.10499   50.376
 6394.00    1.06081   1.10522   51.014
 6395.00    1.06080   1.10772   51.173
 6396.00    1.06969   1.10995   50.719
 6397.00    1.07073   1.10979   50.210
 6398.00    1.06395   1.10682   50.337
 6399.00    1.05593   1.10330   50.861
 6400.00    1.04023   1.10211   -1.000
 6401.00    1.01812   1.10475   -1.000
 6402.00    1.02362   1.11047   -1.000
 6403.00    1.04409   1.11659   -1.000
 6404.00    1.05087   1.12057   -1.000
 6405.00    1.04401   1.12107   -1.000
 6406.00    1.03818   1.11883   -1.000
 6407.00    1.03274   1.11561   -1.000
 6408.00    1.02334   1.11306   -1.000
 6409.00    1.01601   1.11165   -1.000
 6410.00    1.00813   1.11107   -1.000
 6411.00    0.99577   1.11136   -1.000
 6412.00    0.98476   1.11244   -1.000
 6413.00    0.98203   1.11418   -1.000
 6414.00    0.98759   1.11608   -1.000
 6415.00    0.99128   1.11748   -1.000
 6416.00    0.98126   1.11777   -1.000
 6417.00    0.96813   1.11638   -1.000
 6418.00    0.95956   1.11331   -1.000
 6419.00    0.94566   1.10970   -1.000
 6420.00    0.92992   1.10738   -1.000
 6421.00    0.92328   1.10829   -1.000
 6422.00    0.93041   1.11304   -1.000
 6423.00    0.93430   1.12001   -1.000
 6424.00    0.92514   1.12734   -1.000
 6425.00    0.92111   1.13303   -1.000
 6426.00    0.91734   1.13557   -1.000
 6427.00    0.90931   1.13442   -1.000
 6428.00    0.89877   1.12957   -1.000
