###################################################################
## OUTPUT of StarlightChains_v04.for    [Cid@UFSC - 01/Apr/2007] ##
###################################################################

## Some input info
NGC6171_b_1.cxt                          [arq_obs]
Base.BC03.N                              [arq_base]
NGC6171_b_1.msk                          [arq_masks]
StCv04.C99.config                        [arq_config]
   45                                    [N_base]
    0                                    [N_YAV_components = # of components with extra extinction!]
    0                                    [i_FitPowerLaw (1/0 = Yes/No)]
-9.99                                    [alpha_PowerLaw]
CCM                                      [red_law_option]
 1.458241                                [q_norm = A(l_norm)/A(V)]

## (Re)Sampling Parameters
 3359.00                                 [l_ini (A)]
 6428.00                                 [l_fin (A)]
    1.00                                 [dl    (A)]     (OBS: dl_cushion =    50.00 A)

## Normalization info
 4020.00                                 [l_norm (A) - for base]
 4010.00                                 [llow_norm (A) - window for f_obs]
 4060.00                                 [lupp_norm (A) - window for f_obs]
4.350830E-15                             [fobs_norm (in input units)]

## S/N
 4730.00                                 [llow_SN (A) - window for S/N]
 4780.00                                 [lupp_SN (A) - window for S/N]
  48.767                                 [S/N in S/N window]
  32.704                                 [S/N in norm. window]
 245.356                                 [S/N_err in S/N window]
 164.540                                 [S/N_err in norm. window]
  1.0000                                 [fscale_chi2]

## etc...
  2147483626                             [idum_orig]
  3069                                   [NOl_eff]
   851                                   [Nl_eff]
  2218    NSIGMA                         [Ntot_cliped & clip_method]
  1814400                                [Nglobal_steps]
   7                                     [N_chains]
   9                                     [NEX0s_base = N_base in EX0s-fits]
 0   0   1      192   2.0   3.636E+02    [Clip-Bug, RC-Crash & Burn-In warning-flags, n_censored_weights, wei_nsig_threshold & wei_limit]
    24     24.145     24.137      0.008  [idt_all, wdt_TotTime, wdt_UsrTime & wdt_SysTime (sec)]

## Synthesis Results - Best model ##

 2.88700E+00                             [chi2/Nl_eff]
     1.11850                             [adev (%)]

    99.48799                             [sum-of-x (%)]
 3.61445E-14                             [Flux_tot (units of input spectrum!)]
 5.45618E-10                             [Mini_tot (???)]
 2.85041E-10                             [Mcor_tot (???)]

 -25.31                                  [v0_min  (km/s)]
  50.71                                  [vd_min  (km/s)]
 1.5802                                  [AV_min  (mag)]
 0.0000                                  [YAV_min (mag)]

# j     x_j(%)      Mini_j(%)     Mcor_j(%)     age_j(yr)     Z_j      (L/M)_j    YAV?  Mstars   component_j        a/Fe...       SSP_chi2r SSP_adev(%)   SSP_AV   SSP_x(%)
  1      5.8578     3.5013E-02    6.7021E-02    1.000000E+06  0.00400  1.114E-02    0   1.0000   age020_m42            0.0000     2.2750E+03    22.8001   4.0000    99.1660
  2      4.6193     7.5516E-03    1.4454E-02    3.160000E+06  0.00400  4.073E-02    0   0.9999   age045_m42            0.0000     1.8697E+02     5.9464   3.8922    95.5872
  3      4.7649     1.2521E-02    2.2740E-02    5.010000E+06  0.00400  2.534E-02    0   0.9488   age055_m42            0.0000     4.4265E+02    10.9955   4.0000    96.6780
  4      5.4872     2.8747E-02    4.8764E-02    1.000000E+07  0.00400  1.271E-02    0   0.8862   age070_m42            0.0000     2.2179E+02     7.4420   3.5048    94.0337
  5      0.0000     0.0000E+00    0.0000E+00    2.512000E+07  0.00400  5.070E-03    0   0.8174   age090_m42            0.0000     1.8785E+02     6.8589   3.3747    95.7580
  6      0.0000     0.0000E+00    0.0000E+00    4.000000E+07  0.00400  3.505E-03    0   0.7851   age104_m42            0.0000     1.3290E+02     5.4200   3.0711    98.4981
  7      0.0000     0.0000E+00    0.0000E+00    1.015200E+08  0.00400  2.268E-03    0   0.7207   age116_m42            0.0000     6.9621E+02    10.3041   3.1343   105.5728
  8      0.0000     0.0000E+00    0.0000E+00    2.861200E+08  0.00400  1.079E-03    0   0.6613   age125_m42            0.0000     7.5580E+02    10.9909   2.6475   107.4192
  9      0.0000     0.0000E+00    0.0000E+00    6.405400E+08  0.00400  5.077E-04    0   0.6197   age132_m42            0.0000     7.9436E+02    11.3993   2.2898   111.4210
 10      0.0000     0.0000E+00    0.0000E+00    9.047900E+08  0.00400  3.535E-04    0   0.6024   age135_m42            0.0000     5.5771E+02     9.7046   2.0450   110.8039
 11      0.0000     0.0000E+00    0.0000E+00    1.434000E+09  0.00400  1.910E-04    0   0.5716   age139_m42            0.0000     3.2491E+02     7.8493   1.5219   109.4293
 12     23.0746     1.5649E+01    1.6365E+01    2.500000E+09  0.00400  9.818E-05    0   0.5463   age150_m42            0.0000     1.4282E+02     5.6156   1.2319   105.0414
 13     47.0076     6.6343E+01    6.6391E+01    5.000000E+09  0.00400  4.718E-05    0   0.5228   age161_m42            0.0000     9.4925E+01     4.7331   1.0574   101.8996
 14      5.9339     1.7919E+01    1.7082E+01    1.100000E+10  0.00400  2.205E-05    0   0.4980   age185_m42            0.0000     1.6479E+02     5.8953   0.7997    99.5991
 15      0.0000     0.0000E+00    0.0000E+00    1.300000E+10  0.00400  1.883E-05    0   0.4927   age193_m42            0.0000     1.7673E+02     6.0757   0.7823    99.4548
 16      0.0000     0.0000E+00    0.0000E+00    1.000000E+06  0.02000  1.989E-02    0   1.0000   age020_m62            0.0000     2.1088E+03    21.9081   4.0000    99.4675
 17      1.0146     1.7910E-03    3.3796E-03    3.160000E+06  0.02000  3.772E-02    0   0.9858   age045_m62            0.0000     1.5321E+03    19.2379   4.0000    99.6227
 18      1.7282     3.5660E-03    6.3769E-03    5.010000E+06  0.02000  3.227E-02    0   0.9342   age055_m62            0.0000     2.8554E+02     8.3851   4.0000    96.4070
 19      0.0000     0.0000E+00    0.0000E+00    1.000000E+07  0.02000  1.011E-02    0   0.8751   age070_m62            0.0000     4.8344E+02    11.4994   3.5071    91.3727
 20      0.0000     0.0000E+00    0.0000E+00    2.512000E+07  0.02000  4.206E-03    0   0.8099   age090_m62            0.0000     3.2623E+02     9.5560   3.4413    92.1462
 21      0.0000     0.0000E+00    0.0000E+00    4.000000E+07  0.02000  3.373E-03    0   0.7799   age104_m62            0.0000     2.0405E+02     5.9311   3.2897    99.8792
 22      0.0000     0.0000E+00    0.0000E+00    1.015200E+08  0.02000  1.878E-03    0   0.7221   age116_m62            0.0000     6.1023E+02     9.5794   3.1504   106.5574
 23      0.0000     0.0000E+00    0.0000E+00    2.861200E+08  0.02000  8.869E-04    0   0.6700   age125_m62            0.0000     1.1449E+03    13.5224   2.6703   112.3399
 24      0.0000     0.0000E+00    0.0000E+00    6.405400E+08  0.02000  3.657E-04    0   0.6322   age132_m62            0.0000     8.5080E+02    12.2330   1.9979   115.2572
 25      0.0000     0.0000E+00    0.0000E+00    9.047900E+08  0.02000  2.312E-04    0   0.6152   age135_m62            0.0000     5.4992E+02    10.0628   1.6215   114.3012
 26      0.0000     0.0000E+00    0.0000E+00    1.434000E+09  0.02000  1.168E-04    0   0.5865   age139_m62            0.0000     2.4487E+02     6.9995   1.1885   108.8932
 27      0.0000     0.0000E+00    0.0000E+00    2.500000E+09  0.02000  5.505E-05    0   0.5610   age150_m62            0.0000     2.3690E+02     7.0743   0.8170   105.8826
 28      0.0000     0.0000E+00    0.0000E+00    5.000000E+09  0.02000  2.596E-05    0   0.5353   age161_m62            0.0000     4.0318E+02     9.0942   0.4965   105.4642
 29      0.0000     0.0000E+00    0.0000E+00    1.100000E+10  0.02000  1.169E-05    0   0.5103   age185_m62            0.0000     6.4590E+02    11.2890   0.1452   106.4868
 30      0.0000     0.0000E+00    0.0000E+00    1.300000E+10  0.02000  9.691E-06    0   0.5047   age193_m62            0.0000     6.9362E+02    11.6578   0.1018   106.6313
 31      0.0000     0.0000E+00    0.0000E+00    1.000000E+06  0.05000  2.651E-02    0   0.9998   age020_m72            0.0000     2.0988E+03    21.6528   4.0000   100.5194
 32      0.0000     0.0000E+00    0.0000E+00    3.160000E+06  0.05000  4.817E-02    0   0.9577   age045_m72            0.0000     1.0058E+03    15.7130   4.0000   100.4127
 33      0.0000     0.0000E+00    0.0000E+00    5.010000E+06  0.05000  3.101E-02    0   0.9147   age055_m72            0.0000     3.3843E+02     9.8004   4.0000    95.1664
 34      0.0000     0.0000E+00    0.0000E+00    1.000000E+07  0.05000  8.954E-03    0   0.8524   age070_m72            0.0000     6.9042E+02    13.2956   4.0000    99.3069
 35      0.0000     0.0000E+00    0.0000E+00    2.512000E+07  0.05000  4.207E-03    0   0.7902   age090_m72            0.0000     2.0177E+02     6.3439   3.9653    95.4603
 36      0.0000     0.0000E+00    0.0000E+00    4.000000E+07  0.05000  3.198E-03    0   0.7618   age104_m72            0.0000     3.9939E+02     7.6600   3.5012   102.7905
 37      0.0000     0.0000E+00    0.0000E+00    1.015200E+08  0.05000  1.716E-03    0   0.7092   age116_m72            0.0000     7.0699E+02    10.2866   3.2431   106.5440
 38      0.0000     0.0000E+00    0.0000E+00    2.861200E+08  0.05000  7.047E-04    0   0.6618   age125_m72            0.0000     1.1042E+03    13.3965   2.4716   112.5643
 39      0.0000     0.0000E+00    0.0000E+00    6.405400E+08  0.05000  2.633E-04    0   0.6253   age132_m72            0.0000     6.8103E+02    11.0910   1.6283   114.3791
 40      0.0000     0.0000E+00    0.0000E+00    9.047900E+08  0.05000  1.484E-04    0   0.6088   age135_m72            0.0000     3.7957E+02     8.8496   1.1368   109.3024
 41      0.0000     0.0000E+00    0.0000E+00    1.434000E+09  0.05000  7.827E-05    0   0.5847   age139_m72            0.0000     3.4952E+02     8.6945   0.7436   105.8600
 42      0.0000     0.0000E+00    0.0000E+00    2.500000E+09  0.05000  3.759E-05    0   0.5583   age150_m72            0.0000     4.4089E+02     9.5619   0.4204   105.1031
 43      0.0000     0.0000E+00    0.0000E+00    5.000000E+09  0.05000  1.548E-05    0   0.5320   age161_m72            0.0000     6.6342E+02    11.2175   0.0216   104.4873
 44      0.0000     0.0000E+00    0.0000E+00    1.100000E+10  0.05000  6.532E-06    0   0.5070   age185_m72            0.0000     1.0159E+03    13.5977  -0.3401   103.8809
 45      0.0000     0.0000E+00    0.0000E+00    1.300000E+10  0.05000  5.316E-06    0   0.5018   age193_m72            0.0000     1.1714E+03    14.5640  -0.4508   103.7634


## Synthesis Results - Average & Chains ##

# j      x_j: min, <> & last-chain-values for 1 ...  7 chains
  1      5.8578      5.6755      5.6255      5.6797      5.6248      5.6256      5.7248      5.7726      5.6744
  2      4.6193      3.4875      3.5443      3.5599      3.5719      3.4734      3.5494      3.5870      3.6235
  3      4.7649      3.9874      3.9332      4.0971      4.1179      4.0643      3.9938      4.0560      4.1477
  4      5.4872      5.2313      5.4282      5.2537      5.3667      5.2291      5.2881      5.3759      5.2237
  5      0.0000      0.0688      0.0000      0.0803      0.0012      0.0685      0.0000      0.1422      0.0742
  6      0.0000      0.0496      0.0000      0.3374      0.0000      0.0000      0.0000      0.0707      0.0000
  7      0.0000      0.0338      0.0000      0.0362      0.0000      0.0000      0.0000      0.0000      0.2005
  8      0.0000      0.0222      0.0000      0.0000      0.0005      0.0000      0.0000      0.0000      0.0145
  9      0.0000      0.0406      0.0000      0.0000      0.0712      0.0680      0.1538      0.0000      0.0000
 10      0.0000      0.0907      0.2078      0.1247      0.1029      0.1065      0.0000      0.4121      0.0267
 11      0.0000      0.0896      0.1917      0.0000      0.1016      0.0000      0.0734      0.0000      0.0000
 12     23.0746     24.8105     24.4580     24.6533     25.0177     24.7100     24.5071     24.6711     24.9453
 13     47.0076     45.2614     45.5134     45.7969     45.1729     45.5222     45.9837     45.4801     45.5953
 14      5.9339      5.6693      5.6313      5.5651      5.6411      5.9696      5.5071      5.7767      5.7001
 15      0.0000      0.0609      0.0000      0.0201      0.1008      0.0000      0.0778      0.0145      0.0000
 16      0.0000      0.9336      0.8108      0.9243      0.9324      0.8572      0.8528      0.8717      0.9697
 17      1.0146      1.2158      1.3304      1.0958      1.2135      1.1797      1.1122      1.1927      1.2118
 18      1.7282      1.7668      1.9870      1.8532      1.7875      2.0794      1.8079      1.7301      1.8246
 19      0.0000      0.1354      0.1890      0.0544      0.1814      0.1854      0.1057      0.0837      0.0000
 20      0.0000      0.0270      0.0000      0.0000      0.0148      0.0000      0.0076      0.0000      0.0158
 21      0.0000      0.0271      0.0735      0.0000      0.0149      0.0000      0.0000      0.0000      0.0000
 22      0.0000      0.0257      0.0000      0.0000      0.0000      0.0790      0.0000      0.0009      0.0000
 23      0.0000      0.0135      0.0000      0.0000      0.0000      0.0000      0.0079      0.0000      0.0000
 24      0.0000      0.0132      0.0000      0.0000      0.0000      0.0000      0.0078      0.0028      0.0000
 25      0.0000      0.0218      0.0000      0.0000      0.0000      0.0000      0.0654      0.0000      0.0000
 26      0.0000      0.0455      0.0000      0.0128      0.0015      0.0000      0.0000      0.0106      0.0000
 27      0.0000      0.0704      0.0568      0.0000      0.0000      0.0000      0.0000      0.0216      0.0000
 28      0.0000      0.0604      0.0771      0.0252      0.0000      0.0000      0.0000      0.0108      0.1102
 29      0.0000      0.0298      0.0996      0.0659      0.0360      0.0298      0.0000      0.0000      0.0000
 30      0.0000      0.0165      0.0000      0.0000      0.0444      0.0000      0.0000      0.0000      0.0000
 31      0.0000      0.0155      0.0000      0.0000      0.0000      0.0000      0.0000      0.0000      0.0001
 32      0.0000      0.0294      0.0000      0.0268      0.0000      0.0000      0.1836      0.0044      0.0000
 33      0.0000      0.0841      0.0268      0.0000      0.0448      0.0467      0.1396      0.0000      0.0000
 34      0.0000      0.0182      0.0000      0.0000      0.0000      0.0000      0.0000      0.0000      0.0000
 35      0.0000      0.0193      0.0000      0.0000      0.0031      0.0260      0.0000      0.0572      0.0000
 36      0.0000      0.0142      0.0000      0.0338      0.0451      0.0000      0.0000      0.0000      0.0000
 37      0.0000      0.0262      0.0752      0.0842      0.0000      0.0000      0.0945      0.0000      0.0000
 38      0.0000      0.0124      0.0000      0.0000      0.0000      0.0000      0.0000      0.0000      0.0000
 39      0.0000      0.0179      0.0000      0.0000      0.0000      0.0000      0.0000      0.0000      0.0000
 40      0.0000      0.0363      0.0000      0.0000      0.0000      0.0000      0.0283      0.0000      0.0000
 41      0.0000      0.0383      0.0170      0.0160      0.0152      0.0316      0.0166      0.0000      0.0078
 42      0.0000      0.0348      0.0000      0.0000      0.0000      0.0000      0.0000      0.0787      0.0000
 43      0.0000      0.0260      0.0000      0.0000      0.1042      0.0000      0.0007      0.0000      0.0000
 44      0.0000      0.1028      0.1109      0.0933      0.1004      0.1272      0.1658      0.0000      0.1097
 45      0.0000      0.1030      0.1741      0.0652      0.1003      0.0523      0.1028      0.1022      0.0457

# j      m_j: min, <> & last-chain-values for 1 ...  7 chains
  1  6.7021E-02  6.4078E-02  6.3002E-02  6.4583E-02  6.3392E-02  6.3548E-02  6.4474E-02  6.5976E-02  6.4533E-02
  2  1.4454E-02  1.0768E-02  1.0855E-02  1.1070E-02  1.1009E-02  1.0730E-02  1.0932E-02  1.1212E-02  1.1270E-02
  3  2.2740E-02  1.8778E-02  1.8374E-02  1.9432E-02  1.9358E-02  1.9150E-02  1.8761E-02  1.9336E-02  1.9675E-02
  4  4.8764E-02  4.5876E-02  4.7219E-02  4.6401E-02  4.6979E-02  4.5881E-02  4.6259E-02  4.7724E-02  4.6143E-02
  5  0.0000E+00  1.3951E-03  0.0000E+00  1.6392E-03  2.5217E-05  1.3901E-03  0.0000E+00  2.9186E-03  1.5158E-03
  6  0.0000E+00  1.3965E-03  0.0000E+00  9.5735E-03  0.0000E+00  0.0000E+00  0.0000E+00  2.0166E-03  0.0000E+00
  7  0.0000E+00  1.3528E-03  0.0000E+00  1.4552E-03  0.0000E+00  0.0000E+00  0.0000E+00  0.0000E+00  8.0730E-03
  8  0.0000E+00  1.7104E-03  0.0000E+00  0.0000E+00  3.6240E-05  0.0000E+00  0.0000E+00  0.0000E+00  1.1225E-03
  9  0.0000E+00  6.2278E-03  0.0000E+00  0.0000E+00  1.0906E-02  1.0446E-02  2.3550E-02  0.0000E+00  0.0000E+00
 10  0.0000E+00  1.9449E-02  4.4177E-02  2.6912E-02  2.2012E-02  2.2841E-02  0.0000E+00  8.9413E-02  5.7716E-03
 11  0.0000E+00  3.3725E-02  7.1560E-02  0.0000E+00  3.8162E-02  0.0000E+00  2.7558E-02  0.0000E+00  0.0000E+00
 12  1.6365E+01  1.7363E+01  1.6979E+01  1.7376E+01  1.7477E+01  1.7302E+01  1.7108E+01  1.7478E+01  1.7585E+01
 13  6.6391E+01  6.3080E+01  6.2921E+01  6.4282E+01  6.2845E+01  6.3477E+01  6.3928E+01  6.4165E+01  6.4009E+01
 14  1.7082E+01  1.6104E+01  1.5867E+01  1.5921E+01  1.5995E+01  1.6966E+01  1.5605E+01  1.6611E+01  1.6310E+01
 15  0.0000E+00  2.0051E-01  0.0000E+00  6.6598E-02  3.3117E-01  0.0000E+00  2.5551E-01  4.8326E-02  0.0000E+00
 16  0.0000E+00  5.9033E-03  5.0861E-03  5.8863E-03  5.8856E-03  5.4230E-03  5.3790E-03  5.5799E-03  6.1763E-03
 17  3.3796E-03  3.9964E-03  4.3380E-03  3.6276E-03  3.9817E-03  3.8799E-03  3.6467E-03  3.9687E-03  4.0123E-03
 18  6.3769E-03  6.4332E-03  7.1765E-03  6.7957E-03  6.4968E-03  7.5751E-03  6.5665E-03  6.3767E-03  6.6919E-03
 19  0.0000E+00  1.4740E-03  2.0408E-03  5.9677E-04  1.9710E-03  2.0194E-03  1.1484E-03  9.2227E-04  0.0000E+00
 20  0.0000E+00  6.5504E-04  0.0000E+00  0.0000E+00  3.5697E-04  0.0000E+00  1.8447E-04  0.0000E+00  3.8562E-04
 21  0.0000E+00  7.8780E-04  2.1195E-03  0.0000E+00  4.3383E-04  0.0000E+00  0.0000E+00  0.0000E+00  0.0000E+00
 22  0.0000E+00  1.2420E-03  0.0000E+00  0.0000E+00  0.0000E+00  3.8217E-03  0.0000E+00  4.3364E-05  0.0000E+00
 23  0.0000E+00  1.2816E-03  0.0000E+00  0.0000E+00  0.0000E+00  0.0000E+00  7.5345E-04  0.0000E+00  0.0000E+00
 24  0.0000E+00  2.8651E-03  0.0000E+00  0.0000E+00  0.0000E+00  0.0000E+00  1.6857E-03  6.0654E-04  0.0000E+00
 25  0.0000E+00  7.3089E-03  0.0000E+00  0.0000E+00  0.0000E+00  0.0000E+00  2.1833E-02  0.0000E+00  0.0000E+00
 26  0.0000E+00  2.8717E-02  0.0000E+00  8.1363E-03  9.4336E-04  0.0000E+00  0.0000E+00  6.7877E-03  0.0000E+00
 27  0.0000E+00  9.0177E-02  7.2248E-02  0.0000E+00  0.0000E+00  0.0000E+00  0.0000E+00  2.7976E-02  0.0000E+00
 28  0.0000E+00  1.5660E-01  1.9841E-01  6.5699E-02  0.0000E+00  0.0000E+00  0.0000E+00  2.8280E-02  2.8794E-01
 29  0.0000E+00  1.6357E-01  5.4267E-01  3.6422E-01  1.9756E-01  1.6393E-01  0.0000E+00  0.0000E+00  0.0000E+00
 30  0.0000E+00  1.0795E-01  0.0000E+00  0.0000E+00  2.9010E-01  0.0000E+00  0.0000E+00  0.0000E+00  0.0000E+00
 31  0.0000E+00  7.3584E-05  0.0000E+00  0.0000E+00  0.0000E+00  0.0000E+00  0.0000E+00  0.0000E+00  3.8658E-07
 32  0.0000E+00  7.3570E-05  0.0000E+00  6.7436E-05  0.0000E+00  0.0000E+00  4.5785E-04  1.1127E-05  0.0000E+00
 33  0.0000E+00  3.1218E-04  9.8479E-05  0.0000E+00  1.6599E-04  1.7335E-04  5.1646E-04  0.0000E+00  0.0000E+00
 34  0.0000E+00  2.1740E-04  0.0000E+00  0.0000E+00  0.0000E+00  0.0000E+00  0.0000E+00  0.0000E+00  0.0000E+00
 35  0.0000E+00  4.5612E-04  0.0000E+00  0.0000E+00  7.3782E-05  6.1429E-04  0.0000E+00  1.3676E-03  0.0000E+00
 36  0.0000E+00  4.2533E-04  0.0000E+00  1.0205E-03  1.3490E-03  0.0000E+00  0.0000E+00  0.0000E+00  0.0000E+00
 37  0.0000E+00  1.3619E-03  3.8767E-03  4.4090E-03  0.0000E+00  0.0000E+00  4.9004E-03  0.0000E+00  0.0000E+00
 38  0.0000E+00  1.4615E-03  0.0000E+00  0.0000E+00  0.0000E+00  0.0000E+00  0.0000E+00  0.0000E+00  0.0000E+00
 39  0.0000E+00  5.3591E-03  0.0000E+00  0.0000E+00  0.0000E+00  0.0000E+00  0.0000E+00  0.0000E+00  0.0000E+00
 40  0.0000E+00  1.8725E-02  0.0000E+00  0.0000E+00  0.0000E+00  0.0000E+00  1.4568E-02  0.0000E+00  0.0000E+00
 41  0.0000E+00  3.6018E-02  1.5809E-02  1.5174E-02  1.4302E-02  2.9721E-02  1.5564E-02  0.0000E+00  7.4100E-03
 42  0.0000E+00  6.4967E-02  0.0000E+00  0.0000E+00  0.0000E+00  0.0000E+00  0.0000E+00  1.4879E-01  0.0000E+00
 43  0.0000E+00  1.1234E-01  0.0000E+00  0.0000E+00  4.4952E-01  0.0000E+00  3.0440E-03  0.0000E+00  0.0000E+00
 44  0.0000E+00  1.0040E+00  1.0735E+00  9.1757E-01  9.7859E-01  1.2426E+00  1.6145E+00  0.0000E+00  1.0791E+00
 45  0.0000E+00  1.2223E+00  2.0498E+00  7.7940E-01  1.1882E+00  6.2070E-01  1.2173E+00  1.2286E+00  5.4641E-01

# AV, chi2 & Mass for <> & i_chain = 1 ...  7 solutions
AV       1.5802      1.5701      1.5703      1.5740      1.5711      1.5710      1.5700      1.5765      1.5733
chi2 2.8870E+00  2.9265E+00  2.9167E+00  2.9141E+00  2.9149E+00  2.9147E+00  2.9189E+00  2.9116E+00  2.9137E+00
Mass 2.8504E-10  2.8497E-10  2.8736E-10  2.8444E-10  2.8588E-10  2.8518E-10  2.8566E-10  2.8394E-10  2.8415E-10
 -25.05                                  [v0_min (km/s) before EX0s...]
  50.65                                  [vd_min (km/s) before EX0s...]


## Synthetic spectrum (Best Model) ##l_obs f_obs f_syn wei
 3070    [Nl_obs]
 3359.00    0.00000   0.48712   -2.000
 3360.00    0.09619   0.46843   -1.000
 3361.00    0.24693   0.47158   -1.000
 3362.00    0.31239   0.49610   -1.000
 3363.00    0.36019   0.52564   -1.000
 3364.00    0.35750   0.54300   -1.000
 3365.00    0.34773   0.54107   -1.000
 3366.00    0.39063   0.52399   -1.000
 3367.00    0.36396   0.50249   -1.000
 3368.00    0.36215   0.48827   -1.000
 3369.00    0.41520   0.48348   -1.000
 3370.00    0.38647   0.48218   -1.000
 3371.00    0.35018   0.47877   -1.000
 3372.00    0.35225   0.47882   -1.000
 3373.00    0.34655   0.49132   -1.000
 3374.00    0.36732   0.51591   -1.000
 3375.00    0.43248   0.54410   -1.000
 3376.00    0.48558   0.55735   -1.000
 3377.00    0.45689   0.54824   -1.000
 3378.00    0.38853   0.52686   -1.000
 3379.00    0.39747   0.50700   -1.000
 3380.00    0.41412   0.50105   -1.000
 3381.00    0.37710   0.51032   -1.000
 3382.00    0.37266   0.52712   -1.000
 3383.00    0.40480   0.54042   -1.000
 3384.00    0.41659   0.55011   -1.000
 3385.00    0.41337   0.55965   -1.000
 3386.00    0.44044   0.56424   -1.000
 3387.00    0.48299   0.56206   -1.000
 3388.00    0.46849   0.55816   -1.000
 3389.00    0.45801   0.55527   -1.000
 3390.00    0.50170   0.55125   57.356
 3391.00    0.47421   0.54307   -1.000
 3392.00    0.44936   0.53318   -1.000
 3393.00    0.45170   0.53158   -1.000
 3394.00    0.45339   0.54334   -1.000
 3395.00    0.46809   0.56198   -1.000
 3396.00    0.47601   0.58000   -1.000
 3397.00    0.48820   0.59318   -1.000
 3398.00    0.48443   0.59769   -1.000
 3399.00    0.52086   0.59268   -1.000
 3400.00    0.55629   0.58282   45.787
 3401.00    0.53830   0.57043   45.672
 3402.00    0.50422   0.55620   46.833
 3403.00    0.47248   0.54633   -1.000
 3404.00    0.47759   0.54337   -1.000
 3405.00    0.47703   0.54145   -1.000
 3406.00    0.48268   0.53611   50.561
 3407.00    0.50405   0.53018   51.105
 3408.00    0.48256   0.52955   51.607
 3409.00    0.44712   0.53689   -1.000
 3410.00    0.47782   0.54516   -1.000
 3411.00    0.49562   0.54575   51.243
 3412.00    0.42986   0.53885   -1.000
 3413.00    0.41383   0.53102   -1.000
 3414.00    0.47054   0.52990   -1.000
 3415.00    0.47980   0.53656   -1.000
 3416.00    0.46967   0.54847   -1.000
 3417.00    0.50903   0.56241   50.640
 3418.00    0.53809   0.57692   48.346
 3419.00    0.53027   0.58832   45.980
 3420.00    0.52875   0.59163   44.656
 3421.00    0.52287   0.58634   44.436
 3422.00    0.51935   0.57805   44.398
 3423.00    0.52748   0.57157   45.154
 3424.00    0.51645   0.56961   46.353
 3425.00    0.52656   0.57147   46.270
 3426.00    0.59372   0.57663   44.970
 3427.00    0.60815   0.58776   44.228
 3428.00    0.53233   0.60447   -1.000
 3429.00    0.50850   0.61493   -1.000
 3430.00    0.53057   0.61168   -1.000
 3431.00    0.53571   0.59728   -1.000
 3432.00    0.56392   0.58226   -1.000
 3433.00    0.58727   0.57573   86.390
 3434.00    0.56938   0.57906   44.151
 3435.00    0.52390   0.58592   -1.000
 3436.00    0.51472   0.58668   -1.000
 3437.00    0.53584   0.57810   -1.000
 3438.00    0.53295   0.55989   44.901
 3439.00    0.53705   0.53464   47.289
 3440.00    0.52565   0.50799   50.555
 3441.00    0.49687   0.49225   53.694
 3442.00    0.48646   0.49230   54.887
 3443.00    0.48176   0.50258   54.814
 3444.00    0.50001   0.51524   53.662
 3445.00    0.51611   0.52875   51.133
 3446.00    0.51592   0.54669   48.313
 3447.00    0.53673   0.56850   46.105
 3448.00    0.55166   0.58810   76.204
 3449.00    0.57320   0.59654   -1.000
 3450.00    0.60746   0.58981   -1.000
 3451.00    0.60063   0.57341   -1.000
 3452.00    0.55937   0.55694  363.595
 3453.00    0.55059   0.55161  363.595
 3454.00    0.56882   0.55722   -1.000
 3455.00    0.58941   0.56611   -1.000
 3456.00    0.60516   0.56794   -1.000
 3457.00    0.58046   0.55833   -1.000
 3458.00    0.56751   0.54498   -1.000
 3459.00    0.58558   0.53287   -1.000
 3460.00    0.59577   0.52477   -1.000
 3461.00    0.55997   0.52846   44.567
 3462.00    0.54067   0.54537   74.685
 3463.00    0.55253   0.56094   -1.000
 3464.00    0.54468   0.56556   -1.000
 3465.00    0.56108   0.56419  363.595
 3466.00    0.58117   0.56437   -1.000
 3467.00    0.56573   0.57090  363.595
 3468.00    0.57648   0.57985  363.595
 3469.00    0.60610   0.58668   -1.000
 3470.00    0.60139   0.58776   -1.000
 3471.00    0.58679   0.58114  363.595
 3472.00    0.56944   0.56849  363.595
 3473.00    0.55095   0.55092  363.595
 3474.00    0.52868   0.53044  363.595
 3475.00    0.53306   0.51785   87.524
 3476.00    0.54060   0.52053   45.217
 3477.00    0.53286   0.53467   45.686
 3478.00    0.54400   0.55188   75.344
 3479.00    0.60114   0.56569   -1.000
 3480.00    0.61343   0.57233   -1.000
 3481.00    0.56889   0.57092  363.595
 3482.00    0.56718   0.56312  363.595
 3483.00    0.58909   0.55618   -1.000
 3484.00    0.61337   0.55851   -1.000
 3485.00    0.62575   0.57272   -1.000
 3486.00    0.62099   0.58921   -1.000
 3487.00    0.61805   0.59233   -1.000
 3488.00    0.63045   0.57937   -1.000
 3489.00    0.59352   0.55921   -1.000
 3490.00    0.56851   0.54696   -1.000
 3491.00    0.58159   0.54857   -1.000
 3492.00    0.57171   0.55598   -1.000
 3493.00    0.58809   0.55913   -1.000
 3494.00    0.59012   0.55346   -1.000
 3495.00    0.60053   0.54359   -1.000
 3496.00    0.61145   0.53980   -1.000
 3497.00    0.58838   0.55140   -1.000
 3498.00    0.58681   0.57194   -1.000
 3499.00    0.60330   0.58380   -1.000
 3500.00    0.61521   0.58517   -1.000
 3501.00    0.64029   0.58584   -1.000
 3502.00    0.65107   0.59059   -1.000
 3503.00    0.64660   0.59423   -1.000
 3504.00    0.63214   0.58887   -1.000
 3505.00    0.61027   0.57958   -1.000
 3506.00    0.58263   0.57527  359.113
 3507.00    0.57778   0.57638  361.018
 3508.00    0.59146   0.57717   -1.000
 3509.00    0.60906   0.57228   -1.000
 3510.00    0.62914   0.56386   -1.000
 3511.00    0.62815   0.55670   -1.000
 3512.00    0.59216   0.54949   -1.000
 3513.00    0.55854   0.54275   -1.000
 3514.00    0.54249   0.54606  363.595
 3515.00    0.58362   0.56237   -1.000
 3516.00    0.60518   0.58507   -1.000
 3517.00    0.60903   0.60155  363.595
 3518.00    0.60429   0.60308  351.782
 3519.00    0.61493   0.59101   -1.000
 3520.00    0.60758   0.57207   -1.000
 3521.00    0.58371   0.55610   -1.000
 3522.00    0.56638   0.54318   -1.000
 3523.00    0.54872   0.52962   -1.000
 3524.00    0.54555   0.51873   88.123
 3525.00    0.52090   0.51623   44.780
 3526.00    0.51930   0.52830   45.545
 3527.00    0.54353   0.55210   74.978
 3528.00    0.56433   0.57586   -1.000
 3529.00    0.60090   0.58989   -1.000
 3530.00    0.60179   0.59259   -1.000
 3531.00    0.58914   0.59053  363.595
 3532.00    0.59582   0.59092  363.595
 3533.00    0.59930   0.59600  363.595
 3534.00    0.62460   0.60243   -1.000
 3535.00    0.60541   0.60619  362.379
 3536.00    0.58667   0.60811   -1.000
 3537.00    0.61229   0.61232  353.495
 3538.00    0.61468   0.61960  352.940
 3539.00    0.60717   0.62372   -1.000
 3540.00    0.61277   0.62035  347.578
 3541.00    0.60537   0.61650   -1.000
 3542.00    0.61445   0.61884  357.386
 3543.00    0.63465   0.62507   -1.000
 3544.00    0.65680   0.63017   -1.000
 3545.00    0.64483   0.62898   -1.000
 3546.00    0.63606   0.62440   -1.000
 3547.00    0.63044   0.62190  360.444
 3548.00    0.60935   0.62315   -1.000
 3549.00    0.59940   0.62629   -1.000
 3550.00    0.58121   0.62747   -1.000
 3551.00    0.58859   0.62414   -1.000
 3552.00    0.60575   0.61608   -1.000
 3553.00    0.61220   0.60867  363.595
 3554.00    0.60730   0.60584  363.595
 3555.00    0.60615   0.60776  363.595
 3556.00    0.62493   0.61040   -1.000
 3557.00    0.64261   0.60870   -1.000
 3558.00    0.61927   0.60406   -1.000
 3559.00    0.59590   0.60231  363.595
 3560.00    0.61476   0.60872  363.595
 3561.00    0.62018   0.62082  363.595
 3562.00    0.61930   0.62665   -1.000
 3563.00    0.59725   0.61180   -1.000
 3564.00    0.55559   0.57799   -1.000
 3565.00    0.54123   0.55139   89.524
 3566.00    0.54114   0.54321   45.318
 3567.00    0.50982   0.54405   46.124
 3568.00    0.49572   0.54051   45.698
 3569.00    0.51726   0.52717   46.233
 3570.00    0.50646   0.51807   47.511
 3571.00    0.50720   0.52289   47.320
 3572.00    0.51827   0.53442   45.533
 3573.00    0.54633   0.54384   72.709
 3574.00    0.56820   0.54784   -1.000
 3575.00    0.55290   0.55040  363.595
 3576.00    0.55039   0.55416  363.595
 3577.00    0.55343   0.55401  363.595
 3578.00    0.55163   0.54371  363.595
 3579.00    0.50830   0.52393   93.167
 3580.00    0.49289   0.50497   47.562
 3581.00    0.49997   0.49571   50.865
 3582.00    0.48540   0.49714   52.571
 3583.00    0.48612   0.50041   52.841
 3584.00    0.49258   0.49415   53.543
 3585.00    0.47416   0.48332   55.087
 3586.00    0.45438   0.47932   56.457
 3587.00    0.45660   0.48632   55.599
 3588.00    0.47998   0.50396   52.693
 3589.00    0.50831   0.52814   50.002
 3590.00    0.52790   0.55363   46.635
 3591.00    0.55826   0.57192   71.988
 3592.00    0.58106   0.57910  363.595
 3593.00    0.56718   0.57989   -1.000
 3594.00    0.55864   0.58390   -1.000
 3595.00    0.58379   0.59537   -1.000
 3596.00    0.59489   0.60856   -1.000
 3597.00    0.59689   0.62016   -1.000
 3598.00    0.61891   0.62940   -1.000
 3599.00    0.61385   0.63267   -1.000
 3600.00    0.61373   0.62556   -1.000
 3601.00    0.60464   0.60734  341.627
 3602.00    0.57034   0.58490   -1.000
 3603.00    0.55891   0.56760   -1.000
 3604.00    0.55209   0.56213   -1.000
 3605.00    0.53591   0.56556   -1.000
 3606.00    0.53891   0.56717   -1.000
 3607.00    0.54434   0.56084   -1.000
 3608.00    0.53938   0.54954   -1.000
 3609.00    0.54656   0.54587  363.595
 3610.00    0.56289   0.55507  363.595
 3611.00    0.56658   0.56628  363.595
 3612.00    0.56655   0.57423   -1.000
 3613.00    0.56745   0.58183   -1.000
 3614.00    0.55439   0.59189   -1.000
 3615.00    0.55925   0.60018   -1.000
 3616.00    0.56533   0.59045   -1.000
 3617.00    0.55517   0.56190  363.595
 3618.00    0.53965   0.54161  363.595
 3619.00    0.52253   0.54488   90.245
 3620.00    0.52619   0.56567   70.952
 3621.00    0.55721   0.58909   -1.000
 3622.00    0.58468   0.60495   -1.000
 3623.00    0.59368   0.61383   -1.000
 3624.00    0.60631   0.62573   -1.000
 3625.00    0.63246   0.64547   -1.000
 3626.00    0.65023   0.66564   -1.000
 3627.00    0.65267   0.67607   -1.000
 3628.00    0.64220   0.66385   -1.000
 3629.00    0.60500   0.62798   -1.000
 3630.00    0.57295   0.58769   -1.000
 3631.00    0.53625   0.56345   -1.000
 3632.00    0.51676   0.56327   -1.000
 3633.00    0.55542   0.57732   -1.000
 3634.00    0.60558   0.59136   -1.000
 3635.00    0.59574   0.59776  363.595
 3636.00    0.59152   0.60258   -1.000
 3637.00    0.60099   0.61501   -1.000
 3638.00    0.62400   0.63310   -1.000
 3639.00    0.65068   0.64876  324.840
 3640.00    0.64475   0.65173  318.516
 3641.00    0.63052   0.64048   -1.000
 3642.00    0.61097   0.62083   -1.000
 3643.00    0.60645   0.60185  345.337
 3644.00    0.60645   0.59086   -1.000
 3645.00    0.56759   0.58528   -1.000
 3646.00    0.56401   0.57972   -1.000
 3647.00    0.59162   0.57646   -1.000
 3648.00    0.58198   0.57868  363.595
 3649.00    0.57585   0.58691   -1.000
 3650.00    0.57961   0.60133   -1.000
 3651.00    0.58841   0.61985   -1.000
 3652.00    0.61354   0.63695   -1.000
 3653.00    0.63386   0.64920   -1.000
 3654.00    0.65467   0.65561  317.969
 3655.00    0.64934   0.66123   -1.000
 3656.00    0.65272   0.66976   -1.000
 3657.00    0.67189   0.67688  309.388
 3658.00    0.68243   0.67991  305.279
 3659.00    0.67528   0.67938  302.414
 3660.00    0.67114   0.67537  302.655
 3661.00    0.66197   0.66804  304.071
 3662.00    0.64923   0.65910   -1.000
 3663.00    0.65327   0.65169  311.591
 3664.00    0.65783   0.64944  315.707
 3665.00    0.65397   0.65090  315.373
 3666.00    0.65769   0.65097  313.188
 3667.00    0.65498   0.64435  316.173
 3668.00    0.63419   0.63376  321.584
 3669.00    0.61001   0.63148   -1.000
 3670.00    0.60397   0.64123   -1.000
 3671.00    0.62671   0.65631   -1.000
 3672.00    0.66403   0.66616  314.112
 3673.00    0.66094   0.66658  310.099
 3674.00    0.65989   0.66016  309.503
 3675.00    0.66072   0.64818   -1.000
 3676.00    0.63053   0.63347  314.254
 3677.00    0.63054   0.61897   -1.000
 3678.00    0.61914   0.60785   -1.000
 3679.00    0.60337   0.60347  343.601
 3680.00    0.61002   0.60579  348.190
 3681.00    0.60105   0.61392   -1.000
 3682.00    0.60832   0.62316   -1.000
 3683.00    0.62065   0.62702  327.186
 3684.00    0.61077   0.61923  328.870
 3685.00    0.60784   0.60090  339.350
 3686.00    0.61212   0.58569   -1.000
 3687.00    0.60045   0.58524   -1.000
 3688.00    0.60904   0.60199  363.595
 3689.00    0.61654   0.62793   -1.000
 3690.00    0.62104   0.65051   -1.000
 3691.00    0.63476   0.65932   -1.000
 3692.00    0.65427   0.65725  303.242
 3693.00    0.67440   0.65288   -1.000
 3694.00    0.65317   0.64857  315.110
 3695.00    0.65744   0.64416   -1.000
 3696.00    0.66397   0.64355   -1.000
 3697.00    0.65845   0.65323  311.585
 3698.00    0.67617   0.67320  304.968
 3699.00    0.68971   0.69344  295.837
 3700.00    0.69956   0.69969  289.878
 3701.00    0.70763   0.68173   -1.000
 3702.00    0.67885   0.64195   -1.000
 3703.00    0.63555   0.59730   -1.000
 3704.00    0.60331   0.56413   -1.000
 3705.00    0.58356   0.55452   -1.000
 3706.00    0.59814   0.56426   -1.000
 3707.00    0.60184   0.57895   -1.000
 3708.00    0.58609   0.58936  363.595
 3709.00    0.59988   0.59364  363.595
 3710.00    0.61199   0.59702   -1.000
 3711.00    0.63554   0.60957   -1.000
 3712.00    0.65805   0.63542   -1.000
 3713.00    0.66850   0.66560  301.502
 3714.00    0.68870   0.69055  290.071
 3715.00    0.69104   0.70206   -1.000
 3716.00    0.69284   0.69575  288.328
 3717.00    0.69364   0.67268   -1.000
 3718.00    0.66099   0.62936   -1.000
 3719.00    0.59833   0.57047   -1.000
 3720.00    0.53786   0.52384   -1.000
 3721.00    0.51387   0.50953   94.741
 3722.00    0.54164   0.53045   70.707
 3723.00    0.57093   0.57661  363.595
 3724.00    0.59006   0.62475   -1.000
 3725.00    0.59302   0.64993   -1.000
 3726.00    0.58561   0.65368   -1.000
 3727.00    0.58754   0.65597   -1.000
 3728.00    0.57771   0.66222   -1.000
 3729.00    0.60124   0.66474   -1.000
 3730.00    0.65320   0.64987  329.887
 3731.00    0.63573   0.61003   -1.000
 3732.00    0.60483   0.55546   -1.000
 3733.00    0.56117   0.50262   -1.000
 3734.00    0.50967   0.46896   45.977
 3735.00    0.49197   0.46763   50.008
 3736.00    0.48814   0.49750   49.996
 3737.00    0.51899   0.54751   46.502
 3738.00    0.57085   0.60553   68.852
 3739.00    0.62403   0.65398   -1.000
 3740.00    0.66754   0.67912   -1.000
 3741.00    0.69177   0.68029   -1.000
 3742.00    0.67922   0.66310   -1.000
 3743.00    0.66232   0.63581   -1.000
 3744.00    0.62018   0.60903   -1.000
 3745.00    0.57909   0.58471  363.595
 3746.00    0.56401   0.55794   -1.000
 3747.00    0.53439   0.52323   94.965
 3748.00    0.49831   0.48679   45.700
 3749.00    0.49162   0.47370   47.666
 3750.00    0.52876   0.49830   75.130
 3751.00    0.59487   0.55019   -1.000
 3752.00    0.65940   0.61010   -1.000
 3753.00    0.69338   0.66335   -1.000
 3754.00    0.71288   0.69829   -1.000
 3755.00    0.73414   0.70568   -1.000
 3756.00    0.71152   0.68370   -1.000
 3757.00    0.64916   0.64734  325.183
 3758.00    0.59602   0.61995   -1.000
 3759.00    0.61041   0.61559  363.595
 3760.00    0.64594   0.62790   -1.000
 3761.00    0.66310   0.64243   -1.000
 3762.00    0.67978   0.65406   -1.000
 3763.00    0.68271   0.66088   -1.000
 3764.00    0.68544   0.65937   -1.000
 3765.00    0.68121   0.64774   -1.000
 3766.00    0.65803   0.62965   -1.000
 3767.00    0.64416   0.60850   -1.000
 3768.00    0.63884   0.58541   -1.000
 3769.00    0.62656   0.56487   -1.000
 3770.00    0.64142   0.55730   -1.000
 3771.00    0.64395   0.57477   -1.000
 3772.00    0.65674   0.61263   -1.000
 3773.00    0.70353   0.64846   -1.000
 3774.00    0.72807   0.67213   -1.000
 3775.00    0.72836   0.68816   -1.000
 3776.00    0.71395   0.70233   -1.000
 3777.00    0.72396   0.71924  303.201
 3778.00    0.74788   0.73820   -1.000
 3779.00    0.75960   0.75602  294.193
 3780.00    0.77159   0.76938  285.469
 3781.00    0.78298   0.77713  280.807
 3782.00    0.77279   0.78061  279.052
 3783.00    0.76227   0.77727   -1.000
 3784.00    0.76383   0.76188  280.856
 3785.00    0.73014   0.73505  290.862
 3786.00    0.69297   0.70650   -1.000
 3787.00    0.69334   0.68601   -1.000
 3788.00    0.68602   0.67701   -1.000
 3789.00    0.68864   0.67614   -1.000
 3790.00    0.68550   0.67811   -1.000
 3791.00    0.67198   0.67491  337.142
 3792.00    0.67616   0.66060   -1.000
 3793.00    0.66408   0.63660   -1.000
 3794.00    0.62971   0.60589   -1.000
 3795.00    0.61018   0.57182   -1.000
 3796.00    0.58853   0.53513   -1.000
 3797.00    0.56395   0.50418   -1.000
 3798.00    0.53925   0.50324   -1.000
 3799.00    0.56772   0.54119   -1.000
 3800.00    0.62798   0.59951   -1.000
 3801.00    0.66804   0.65787   -1.000
 3802.00    0.69534   0.70070  326.394
 3803.00    0.71877   0.72372  315.161
 3804.00    0.73550   0.72979  310.393
 3805.00    0.72768   0.72160  311.347
 3806.00    0.71582   0.71172  319.095
 3807.00    0.70954   0.71747  329.021
 3808.00    0.71696   0.73872   -1.000
 3809.00    0.75003   0.76158   -1.000
 3810.00    0.78033   0.76953   -1.000
 3811.00    0.77104   0.75567   -1.000
 3812.00    0.73466   0.72593   -1.000
 3813.00    0.70152   0.69158   -1.000
 3814.00    0.67109   0.66723  360.176
 3815.00    0.64584   0.66360   -1.000
 3816.00    0.66313   0.67567   -1.000
 3817.00    0.69871   0.68310   -1.000
 3818.00    0.69233   0.67303   -1.000
 3819.00    0.66219   0.64952   -1.000
 3820.00    0.64287   0.63376   -1.000
 3821.00    0.64886   0.63898   -1.000
 3822.00    0.66293   0.64819   -1.000
 3823.00    0.65585   0.64181   -1.000
 3824.00    0.61124   0.62060  363.595
 3825.00    0.58881   0.59862  100.293
 3826.00    0.59168   0.58679   46.451
 3827.00    0.56558   0.58445   46.874
 3828.00    0.55613   0.58422   46.305
 3829.00    0.57686   0.57858   45.546
 3830.00    0.58701   0.56324   45.325
 3831.00    0.57311   0.53680   46.506
 3832.00    0.54714   0.50202   49.287
 3833.00    0.52049   0.46639   52.312
 3834.00    0.51043   0.44462   -1.000
 3835.00    0.50776   0.44403   -1.000
 3836.00    0.51902   0.45842   -1.000
 3837.00    0.53875   0.47824   -1.000
 3838.00    0.53256   0.49923   50.489
 3839.00    0.52223   0.52653   50.852
 3840.00    0.54742   0.56522   49.077
 3841.00    0.60228   0.61035   72.748
 3842.00    0.65701   0.65361  363.595
 3843.00    0.68593   0.68610  363.595
 3844.00    0.70875   0.70433  360.916
 3845.00    0.73431   0.71555   -1.000
 3846.00    0.73100   0.72630  357.127
 3847.00    0.73576   0.73378  357.271
 3848.00    0.73919   0.73244   -1.000
 3849.00    0.70929   0.72835   -1.000
 3850.00    0.70585   0.72972   -1.000
 3851.00    0.71431   0.73879   -1.000
 3852.00    0.71492   0.74870   -1.000
 3853.00    0.71857   0.74714   -1.000
 3854.00    0.70017   0.73421   -1.000
 3855.00    0.68806   0.71921   -1.000
 3856.00    0.68425   0.70387   -1.000
 3857.00    0.65807   0.68700   -1.000
 3858.00    0.64019   0.67158   95.965
 3859.00    0.64300   0.66788   44.671
 3860.00    0.63125   0.68368   45.973
 3861.00    0.65555   0.71269   -1.000
 3862.00    0.70183   0.73947   -1.000
 3863.00    0.73368   0.74943   -1.000
 3864.00    0.76092   0.74744   -1.000
 3865.00    0.75189   0.74365   -1.000
 3866.00    0.72358   0.74154   -1.000
 3867.00    0.71288   0.74225   -1.000
 3868.00    0.71296   0.74009   -1.000
 3869.00    0.70782   0.72760   -1.000
 3870.00    0.68538   0.70445   -1.000
 3871.00    0.64885   0.68030   98.156
 3872.00    0.63868   0.67051   67.740
 3873.00    0.66552   0.68341   -1.000
 3874.00    0.69975   0.71115   -1.000
 3875.00    0.70092   0.72649   -1.000
 3876.00    0.70597   0.71653  343.940
 3877.00    0.68752   0.69418  362.075
 3878.00    0.66054   0.67939   -1.000
 3879.00    0.66345   0.67822   -1.000
 3880.00    0.67219   0.68113  363.595
 3881.00    0.65312   0.67923   -1.000
 3882.00    0.63390   0.67278   -1.000
 3883.00    0.65741   0.66305  363.595
 3884.00    0.66486   0.64465   -1.000
 3885.00    0.63634   0.60931   -1.000
 3886.00    0.61495   0.56264   -1.000
 3887.00    0.58691   0.52391   -1.000
 3888.00    0.56447   0.50849   -1.000
 3889.00    0.57663   0.52590   -1.000
 3890.00    0.62201   0.57147   -1.000
 3891.00    0.66616   0.62596   -1.000
 3892.00    0.69624   0.66366   -1.000
 3893.00    0.71761   0.67976   -1.000
 3894.00    0.72285   0.68785   -1.000
 3895.00    0.70956   0.70066   -1.000
 3896.00    0.72480   0.71790  299.261
 3897.00    0.75844   0.72915   -1.000
 3898.00    0.75392   0.73266   -1.000
 3899.00    0.74843   0.73665   -1.000
 3900.00    0.74877   0.74535  293.985
 3901.00    0.76137   0.75364  290.225
 3902.00    0.77254   0.75356   -1.000
 3903.00    0.75763   0.74261   -1.000
 3904.00    0.74218   0.72956   -1.000
 3905.00    0.72565   0.72620  315.247
 3906.00    0.72392   0.73822   -1.000
 3907.00    0.74366   0.76500   -1.000
 3908.00    0.77159   0.79541   -1.000
 3909.00    0.78961   0.81546   -1.000
 3910.00    0.80918   0.82576   -1.000
 3911.00    0.84395   0.83028   -1.000
 3912.00    0.83861   0.82802  266.938
 3913.00    0.82170   0.82029  267.221
 3914.00    0.82114   0.81104  271.406
 3915.00    0.82032   0.80271   -1.000
 3916.00    0.78650   0.79595  282.781
 3917.00    0.78617   0.78656  286.389
 3918.00    0.79758   0.77206   -1.000
 3919.00    0.76593   0.75545   -1.000
 3920.00    0.73929   0.74289  316.255
 3921.00    0.72516   0.74089   -1.000
 3922.00    0.72813   0.74725   -1.000
 3923.00    0.74306   0.75227  326.493
 3924.00    0.74406   0.74571  323.737
 3925.00    0.72150   0.72440  331.636
 3926.00    0.68966   0.68999  354.251
 3927.00    0.64075   0.64492  363.595
 3928.00    0.56606   0.59557  108.272
 3929.00    0.51152   0.54222   51.652
 3930.00    0.44263   0.48366   60.522
 3931.00    0.37793   0.42426   71.086
 3932.00    0.33368   0.37158   83.806
 3933.00    0.30864   0.34728   -1.000
 3934.00    0.30098   0.36644   -1.000
 3935.00    0.33447   0.41861   -1.000
 3936.00    0.39287   0.48431   -1.000
 3937.00    0.46353   0.55194   -1.000
 3938.00    0.54822   0.61109   -1.000
 3939.00    0.60159   0.65885   -1.000
 3940.00    0.62876   0.69205   -1.000
 3941.00    0.65654   0.70829   -1.000
 3942.00    0.68398   0.71341   -1.000
 3943.00    0.68912   0.71590   -1.000
 3944.00    0.69729   0.72526   -1.000
 3945.00    0.72517   0.74294   -1.000
 3946.00    0.75893   0.75862  314.619
 3947.00    0.75751   0.76645  302.250
 3948.00    0.75797   0.77301   -1.000
 3949.00    0.78722   0.78241  293.933
 3950.00    0.80408   0.78856   -1.000
 3951.00    0.82169   0.78934   -1.000
 3952.00    0.80991   0.79104   -1.000
 3953.00    0.80173   0.79657  281.417
 3954.00    0.83045   0.79877   -1.000
 3955.00    0.82300   0.79035   -1.000
 3956.00    0.77671   0.77937  278.092
 3957.00    0.76234   0.77673   -1.000
 3958.00    0.78470   0.77511   -1.000
 3959.00    0.78429   0.75869   -1.000
 3960.00    0.74269   0.72208   -1.000
 3961.00    0.69719   0.67656   -1.000
 3962.00    0.65634   0.63844   -1.000
 3963.00    0.61192   0.60539   -1.000
 3964.00    0.56209   0.56535  104.027
 3965.00    0.50539   0.50584   48.578
 3966.00    0.42751   0.42835   58.018
 3967.00    0.34792   0.35972   71.441
 3968.00    0.29843   0.32406   84.377
 3969.00    0.30832   0.33130   87.235
 3970.00    0.35173   0.37655   77.019
 3971.00    0.40620   0.44401   63.331
 3972.00    0.49839   0.51560   52.430
 3973.00    0.57099   0.58417   70.071
 3974.00    0.61629   0.64442   -1.000
 3975.00    0.65886   0.69535   -1.000
 3976.00    0.71923   0.73800   -1.000
 3977.00    0.77357   0.77441  291.274
 3978.00    0.79788   0.80840  274.935
 3979.00    0.84757   0.83282   -1.000
 3980.00    0.86506   0.84187   -1.000
 3981.00    0.84669   0.83901  249.469
 3982.00    0.84583   0.83575  252.466
 3983.00    0.85031   0.84118  254.866
 3984.00    0.85482   0.85247  251.568
 3985.00    0.86671   0.86321  246.363
 3986.00    0.88866   0.87328   -1.000
 3987.00    0.89385   0.88504  237.664
 3988.00    0.89971   0.89693  233.953
 3989.00    0.90827   0.90528  232.926
 3990.00    0.91883   0.91248  232.954
 3991.00    0.93524   0.92231  229.912
 3992.00    0.93785   0.93091  224.393
 3993.00    0.93822   0.93063  222.002
 3994.00    0.95918   0.91990   -1.000
 3995.00    0.95555   0.90350   -1.000
 3996.00    0.90970   0.89016   -1.000
 3997.00    0.88254   0.88913  239.834
 3998.00    0.89627   0.90111  238.948
 3999.00    0.92817   0.92008  231.220
 4000.00    0.96092   0.93986   -1.000
 4001.00    0.96615   0.95156  215.598
 4002.00    0.96976   0.94841   -1.000
 4003.00    0.96727   0.92893   -1.000
 4004.00    0.93435   0.89910   -1.000
 4005.00    0.90168   0.87790   -1.000
 4006.00    0.90560   0.88481   -1.000
 4007.00    0.93463   0.91225   -1.000
 4008.00    0.95762   0.94028   -1.000
 4009.00    0.96117   0.95728  215.370
 4010.00    0.97237   0.96383  212.835
 4011.00    1.02762   0.96584   -1.000
 4012.00    1.01327   0.96751   -1.000
 4013.00    0.98846   0.97073   -1.000
 4014.00    0.99380   0.97357   -1.000
 4015.00    0.99253   0.97405   -1.000
 4016.00    1.00802   0.97341   -1.000
 4017.00    1.00598   0.97568   -1.000
 4018.00    0.99173   0.98259  212.902
 4019.00    0.98846   0.98967  210.931
 4020.00    1.01221   0.99241   -1.000
 4021.00    1.03431   0.98958   -1.000
 4022.00    1.01982   0.98350   -1.000
 4023.00    0.99674   0.97519   -1.000
 4024.00    0.98721   0.96950   -1.000
 4025.00    0.98789   0.97441  214.817
 4026.00    1.02146   0.99018   -1.000
 4027.00    1.05601   1.00328   -1.000
 4028.00    1.05125   0.99579   -1.000
 4029.00    1.01746   0.96856   -1.000
 4030.00    0.96056   0.93602   -1.000
 4031.00    0.93476   0.91225   -1.000
 4032.00    0.93681   0.90536   -1.000
 4033.00    0.94292   0.91425   -1.000
 4034.00    0.96703   0.93623   -1.000
 4035.00    1.01568   0.96801   -1.000
 4036.00    1.04421   1.00494   -1.000
 4037.00    1.05620   1.03362   -1.000
 4038.00    1.05157   1.04031  196.589
 4039.00    1.03206   1.02907  197.790
 4040.00    1.03041   1.01733  202.314
 4041.00    1.03213   1.00929   -1.000
 4042.00    1.02300   0.99431   -1.000
 4043.00    0.99272   0.95787   -1.000
 4044.00    0.93594   0.91037   -1.000
 4045.00    0.89876   0.88860  247.308
 4046.00    0.92006   0.90573   -1.000
 4047.00    0.97300   0.94788   -1.000
 4048.00    0.99991   0.99146  218.340
 4049.00    1.00295   1.01857   -1.000
 4050.00    1.03521   1.02708  203.382
 4051.00    1.05401   1.02166   -1.000
 4052.00    1.03920   1.00636   -1.000
 4053.00    1.00655   0.98967   -1.000
 4054.00    0.98876   0.98075  215.813
 4055.00    0.99896   0.97554   -1.000
 4056.00    1.00000   0.96999   -1.000
 4057.00    0.99029   0.96990   -1.000
 4058.00    0.98068   0.98096  222.423
 4059.00    0.98374   0.99923   -1.000
 4060.00    1.01937   1.00445  210.921
 4061.00    1.03258   0.98344   -1.000
 4062.00    0.99153   0.94748   -1.000
 4063.00    0.93828   0.91747   -1.000
 4064.00    0.94910   0.90839   -1.000
 4065.00    0.97465   0.91721   -1.000
 4066.00    0.98327   0.93508   -1.000
 4067.00    0.98520   0.95612   -1.000
 4068.00    1.01399   0.97303   -1.000
 4069.00    1.06071   0.97252   -1.000
 4070.00    1.04545   0.95387   -1.000
 4071.00    0.98586   0.93548   -1.000
 4072.00    0.94692   0.93511  224.396
 4073.00    0.99352   0.94729   -1.000
 4074.00    1.02116   0.94737   -1.000
 4075.00    0.96596   0.92608   -1.000
 4076.00    0.88166   0.89812   -1.000
 4077.00    0.84972   0.88531   -1.000
 4078.00    0.85778   0.89970   -1.000
 4079.00    0.91659   0.93540   -1.000
 4080.00    0.99210   0.97253   -1.000
 4081.00    1.03909   0.98809   -1.000
 4082.00    1.03088   0.98001   -1.000
 4083.00    1.00158   0.96214   -1.000
 4084.00    0.97129   0.95390   -1.000
 4085.00    0.97136   0.96417  216.638
 4086.00    0.99507   0.98786  211.730
 4087.00    1.04664   1.01269   -1.000
 4088.00    1.08141   1.02496   -1.000
 4089.00    1.08581   1.02102   -1.000
 4090.00    1.07802   1.00765   -1.000
 4091.00    1.04863   0.99594   -1.000
 4092.00    1.03143   0.98762   -1.000
 4093.00    1.03422   0.97670   -1.000
 4094.00    1.03885   0.95705   -1.000
 4095.00    1.02147   0.92899   -1.000
 4096.00    0.97636   0.89974   -1.000
 4097.00    0.94808   0.86897   -1.000
 4098.00    0.92117   0.82881   -1.000
 4099.00    0.86600   0.77216   -1.000
 4100.00    0.78174   0.71053   -1.000
 4101.00    0.71463   0.67690   -1.000
 4102.00    0.73030   0.69219   -1.000
 4103.00    0.79493   0.75014   -1.000
 4104.00    0.87096   0.82330   -1.000
 4105.00    0.92538   0.87949   -1.000
 4106.00    0.94770   0.91256   -1.000
 4107.00    0.96514   0.93045   -1.000
 4108.00    0.96910   0.93794   -1.000
 4109.00    0.95317   0.94244  217.809
 4110.00    0.95264   0.95023  221.767
 4111.00    0.96902   0.96211  222.823
 4112.00    0.99115   0.97654   -1.000
 4113.00    1.00285   0.99353  214.486
 4114.00    1.01982   1.01122  210.970
 4115.00    1.04506   1.02142   -1.000
 4116.00    1.02626   1.01963  207.261
 4117.00    1.00735   1.00860  209.577
 4118.00    1.00225   0.99638  215.089
 4119.00    0.98732   0.98973  220.759
 4120.00    0.98423   0.99097  221.281
 4121.00    0.99383   0.99616  218.555
 4122.00    1.00991   1.00222  217.199
 4123.00    1.02249   1.01044  216.554
 4124.00    1.01774   1.01975  213.603
 4125.00    1.04071   1.02312   -1.000
 4126.00    1.05232   1.01640   -1.000
 4127.00    1.02481   1.00601   -1.000
 4128.00    1.00385   1.00007  218.753
 4129.00    1.00634   0.99707  220.239
 4130.00    1.00900   0.98678   -1.000
 4131.00    1.00177   0.96858   -1.000
 4132.00    0.96884   0.95523   -1.000
 4133.00    0.96518   0.95965  238.527
 4134.00    0.97815   0.98308  235.884
 4135.00    1.01493   1.01516  226.362
 4136.00    1.05723   1.04427  216.284
 4137.00    1.05894   1.06443  210.615
 4138.00    1.05993   1.07780   -1.000
 4139.00    1.08246   1.07991  204.961
 4140.00    1.07736   1.06145   -1.000
 4141.00    1.03385   1.02513  212.658
 4142.00    0.97400   0.98698  226.425
 4143.00    0.94301   0.96646   -1.000
 4144.00    0.96333   0.97823   -1.000
 4145.00    1.00678   1.00930  236.340
 4146.00    1.03784   1.03447  223.922
 4147.00    1.06139   1.04221   -1.000
 4148.00    1.05597   1.03851   -1.000
 4149.00    1.03809   1.03697  223.006
 4150.00    1.03614   1.04040  228.102
 4151.00    1.02729   1.04100   -1.000
 4152.00    1.01363   1.03277   -1.000
 4153.00    1.01812   1.01858  227.503
 4154.00    1.11101   1.00888   -1.000
 4155.00    1.32821   1.01101   -1.000
 4156.00    1.17320   1.02271   -1.000
 4157.00    0.69700   1.03867   -1.000
 4158.00    0.87176   1.05526   -1.000
 4159.00    1.12369   1.06796   -1.000
 4160.00    1.08365   1.07583  219.602
 4161.00    1.07314   1.08251  216.194
 4162.00    1.08502   1.09002  210.924
 4163.00    1.07276   1.09595   -1.000
 4164.00    1.06191   1.09496   -1.000
 4165.00    1.05304   1.08459   -1.000
 4166.00    1.04503   1.07014   -1.000
 4167.00    1.03544   1.06016   -1.000
 4168.00    1.04086   1.05762   -1.000
 4169.00    1.05757   1.05071  222.719
 4170.00    1.04222   1.02832  220.955
 4171.00    1.00888   0.99495   -1.000
 4172.00    0.96814   0.96854  241.208
 4173.00    0.93768   0.96804   -1.000
 4174.00    0.96378   0.98927   -1.000
 4175.00    0.98856   1.01151   -1.000
 4176.00    1.00144   1.02226   -1.000
 4177.00    0.98690   1.02823   -1.000
 4178.00    0.98906   1.03876   -1.000
 4179.00    1.01054   1.05016   -1.000
 4180.00    1.03244   1.05189   -1.000
 4181.00    1.03655   1.04465  227.568
 4182.00    1.03012   1.04051  226.881
 4183.00    1.03347   1.04702   -1.000
 4184.00    1.04888   1.05489  219.234
 4185.00    1.05657   1.05148  216.842
 4186.00    1.03973   1.03902  219.709
 4187.00    1.00128   1.02908   -1.000
 4188.00    1.00743   1.03042   -1.000
 4189.00    1.04191   1.04007  227.044
 4190.00    1.04448   1.05100  223.123
 4191.00    1.04616   1.06350   -1.000
 4192.00    1.04934   1.07617   -1.000
 4193.00    1.06345   1.07978   -1.000
 4194.00    1.06183   1.06821  213.850
 4195.00    1.03790   1.04371  222.112
 4196.00    1.01556   1.01560  232.530
 4197.00    1.00777   0.99350   -1.000
 4198.00    0.97235   0.97983  241.657
 4199.00    0.96733   0.97535  240.954
 4200.00    0.99190   0.97972  237.777
 4201.00    1.00029   0.98849  235.030
 4202.00    0.99858   0.99924  234.179
 4203.00    0.99139   1.01476   -1.000
 4204.00    1.00282   1.03468   -1.000
 4205.00    1.01061   1.05588   -1.000
 4206.00    1.03790   1.07528   -1.000
 4207.00    1.06933   1.08794   -1.000
 4208.00    1.08737   1.09151  213.086
 4209.00    1.07611   1.08942   -1.000
 4210.00    1.05822   1.09002   -1.000
 4211.00    1.05914   1.09630   -1.000
 4212.00    1.07300   1.09805   -1.000
 4213.00    1.06409   1.08412   -1.000
 4214.00    1.03571   1.05908   -1.000
 4215.00    1.01752   1.03906   -1.000
 4216.00    1.01606   1.03691   -1.000
 4217.00    1.03975   1.05613   -1.000
 4218.00    1.08141   1.08470  209.792
 4219.00    1.08949   1.10525   -1.000
 4220.00    1.11456   1.11069  197.522
 4221.00    1.12576   1.09845   -1.000
 4222.00    1.09155   1.06469   -1.000
 4223.00    1.03883   1.01076   -1.000
 4224.00    0.97423   0.94839   -1.000
 4225.00    0.91936   0.89738   -1.000
 4226.00    0.85949   0.88204   -1.000
 4227.00    0.86145   0.91703   -1.000
 4228.00    0.92887   0.98396   -1.000
 4229.00    1.01869   1.04040   -1.000
 4230.00    1.08516   1.06716   -1.000
 4231.00    1.11072   1.06690   -1.000
 4232.00    1.08010   1.05360   -1.000
 4233.00    1.05644   1.03994   -1.000
 4234.00    1.04791   1.03012   -1.000
 4235.00    1.02756   1.02363  218.136
 4236.00    1.01338   1.02128  222.989
 4237.00    1.02068   1.02710  225.012
 4238.00    1.02599   1.04137   -1.000
 4239.00    1.01921   1.05812   -1.000
 4240.00    1.04331   1.07228   -1.000
 4241.00    1.07858   1.08196  210.135
 4242.00    1.08153   1.09011  208.012
 4243.00    1.07570   1.09868   -1.000
 4244.00    1.08489   1.10319   -1.000
 4245.00    1.08738   1.09492  200.185
 4246.00    1.05988   1.07243  204.922
 4247.00    1.02910   1.04703   -1.000
 4248.00    1.02365   1.03124  221.324
 4249.00    1.03312   1.03058  225.637
 4250.00    1.04514   1.04195  226.775
 4251.00    1.03936   1.05609   -1.000
 4252.00    1.05312   1.06241  217.591
 4253.00    1.04230   1.05356  213.984
 4254.00    1.03631   1.04414  217.043
 4255.00    1.03625   1.05153   -1.000
 4256.00    1.04734   1.06729   -1.000
 4257.00    1.08029   1.06978  208.599
 4258.00    1.07387   1.04931   -1.000
 4259.00    1.01350   1.02270  220.066
 4260.00    0.97837   1.01655   -1.000
 4261.00    1.00312   1.04023   -1.000
 4262.00    1.05083   1.07946   -1.000
 4263.00    1.09392   1.11196   -1.000
 4264.00    1.12928   1.12812  198.980
 4265.00    1.13798   1.12817  195.913
 4266.00    1.11669   1.11836  196.825
 4267.00    1.09837   1.10178  201.312
 4268.00    1.08351   1.07593  207.958
 4269.00    1.05720   1.04074   -1.000
 4270.00    1.00694   1.00345  225.136
 4271.00    0.96054   0.97491   -1.000
 4272.00    0.95030   0.96585   -1.000
 4273.00    0.96100   0.97521   -1.000
 4274.00    0.97127   0.99637   -1.000
 4275.00    1.00154   1.02930   -1.000
 4276.00    1.04263   1.06919   -1.000
 4277.00    1.07030   1.09821   -1.000
 4278.00    1.08324   1.10256   -1.000
 4279.00    1.06822   1.08778   -1.000
 4280.00    1.04329   1.07252   -1.000
 4281.00    1.03038   1.06804   -1.000
 4282.00    1.03458   1.07114   -1.000
 4283.00    1.05411   1.06883   -1.000
 4284.00    1.04738   1.05909  217.119
 4285.00    1.03205   1.04618   -1.000
 4286.00    1.01571   1.03048   -1.000
 4287.00    0.99664   1.01071   -1.000
 4288.00    0.98485   0.98450  237.648
 4289.00    0.95474   0.96232  247.968
 4290.00    0.94841   0.96333   -1.000
 4291.00    0.95914   0.98765   -1.000
 4292.00    0.98160   1.01571   -1.000
 4293.00    1.02314   1.02939  225.907
 4294.00    1.03853   1.02421   -1.000
 4295.00    1.02214   1.00717   -1.000
 4296.00    0.99342   0.98229  231.272
 4297.00    0.95785   0.94716  238.739
 4298.00    0.90743   0.90504  253.925
 4299.00    0.84804   0.87197   -1.000
 4300.00    0.82200   0.85789   -1.000
 4301.00    0.82753   0.86064   -1.000
 4302.00    0.84144   0.87210   -1.000
 4303.00    0.85002   0.88799   -1.000
 4304.00    0.86415   0.90160   -1.000
 4305.00    0.85709   0.90116   -1.000
 4306.00    0.85923   0.88344   -1.000
 4307.00    0.84560   0.86013   -1.000
 4308.00    0.81099   0.84928   -1.000
 4309.00    0.81739   0.86270   -1.000
 4310.00    0.84865   0.89308   -1.000
 4311.00    0.88017   0.92509   -1.000
 4312.00    0.90502   0.95842   -1.000
 4313.00    0.93999   0.99994   -1.000
 4314.00    0.98623   1.05386   -1.000
 4315.00    1.05658   1.11555   -1.000
 4316.00    1.14626   1.16680   -1.000
 4317.00    1.19992   1.19427  188.335
 4318.00    1.20501   1.19644  184.189
 4319.00    1.19411   1.18373  185.383
 4320.00    1.18905   1.16209   -1.000
 4321.00    1.14726   1.12738   -1.000
 4322.00    1.08532   1.07694  201.543
 4323.00    1.04849   1.02088   -1.000
 4324.00    0.99029   0.98109  230.377
 4325.00    0.94680   0.97656   -1.000
 4326.00    0.95256   1.01360   -1.000
 4327.00    1.02676   1.07278   -1.000
 4328.00    1.09524   1.11895   -1.000
 4329.00    1.12342   1.13911   -1.000
 4330.00    1.14246   1.14130  193.028
 4331.00    1.14508   1.14196  193.395
 4332.00    1.15130   1.14565  191.445
 4333.00    1.15451   1.14476  188.456
 4334.00    1.14794   1.12964   -1.000
 4335.00    1.13691   1.09057   -1.000
 4336.00    1.08317   1.02066   -1.000
 4337.00    1.00979   0.93050   -1.000
 4338.00    0.92507   0.84700   -1.000
 4339.00    0.83135   0.79566   -1.000
 4340.00    0.77732   0.79656   -1.000
 4341.00    0.83625   0.85069   -1.000
 4342.00    0.95145   0.93003   -1.000
 4343.00    1.02787   0.99880   -1.000
 4344.00    1.05991   1.04872  208.283
 4345.00    1.09769   1.08594  202.262
 4346.00    1.10791   1.11659  197.482
 4347.00    1.12894   1.14166  194.645
 4348.00    1.14923   1.15293  192.256
 4349.00    1.14197   1.13944  190.259
 4350.00    1.11624   1.10393  194.188
 4351.00    1.06836   1.07137  206.712
 4352.00    1.04494   1.06608   -1.000
 4353.00    1.07861   1.09055  216.711
 4354.00    1.13282   1.12725  207.026
 4355.00    1.16012   1.15518  198.621
 4356.00    1.16943   1.16946  193.295
 4357.00    1.15393   1.17350   -1.000
 4358.00    1.14679   1.17258   -1.000
 4359.00    1.15175   1.17471   -1.000
 4360.00    1.16869   1.18686   -1.000
 4361.00    1.18566   1.20452   -1.000
 4362.00    1.19477   1.21855   -1.000
 4363.00    1.21484   1.22887  185.372
 4364.00    1.22144   1.23462  184.221
 4365.00    1.21795   1.22770  182.708
 4366.00    1.20014   1.20832  184.535
 4367.00    1.17035   1.18817   -1.000
 4368.00    1.14805   1.17421   -1.000
 4369.00    1.14539   1.16593   -1.000
 4370.00    1.17162   1.15942  195.042
 4371.00    1.16750   1.14950   -1.000
 4372.00    1.14644   1.13156  194.787
 4373.00    1.12713   1.10812   -1.000
 4374.00    1.09248   1.09177  207.174
 4375.00    1.07645   1.09826   -1.000
 4376.00    1.10275   1.12646   -1.000
 4377.00    1.14903   1.15758  199.794
 4378.00    1.19436   1.17642   -1.000
 4379.00    1.21055   1.17532   -1.000
 4380.00    1.19182   1.14826   -1.000
 4381.00    1.14686   1.09458   -1.000
 4382.00    1.07963   1.02718   -1.000
 4383.00    1.00941   0.97731   -1.000
 4384.00    0.96931   0.97921  254.440
 4385.00    1.01059   1.02515   -1.000
 4386.00    1.07065   1.07618  222.898
 4387.00    1.11456   1.10539  206.422
 4388.00    1.13002   1.11392   -1.000
 4389.00    1.13568   1.11659   -1.000
 4390.00    1.13536   1.12305  205.411
 4391.00    1.12845   1.13587  204.446
 4392.00    1.14533   1.14711  200.051
 4393.00    1.16093   1.14791  197.420
 4394.00    1.14754   1.14621  200.035
 4395.00    1.14321   1.15638   -1.000
 4396.00    1.16333   1.17684   -1.000
 4397.00    1.18779   1.18829  190.637
 4398.00    1.19028   1.18031  187.914
 4399.00    1.16556   1.16377  192.337
 4400.00    1.14934   1.15363  199.247
 4401.00    1.15715   1.15350  202.382
 4402.00    1.16246   1.14931  199.188
 4403.00    1.14632   1.12986   -1.000
 4404.00    1.11426   1.10769  207.949
 4405.00    1.09967   1.10081  217.025
 4406.00    1.11947   1.11113  215.245
 4407.00    1.12315   1.12829  208.946
 4408.00    1.13262   1.14898   -1.000
 4409.00    1.16555   1.18147   -1.000
 4410.00    1.19342   1.21976   -1.000
 4411.00    1.23490   1.24255  186.515
 4412.00    1.26301   1.23839   -1.000
 4413.00    1.24016   1.20952   -1.000
 4414.00    1.19016   1.16901   -1.000
 4415.00    1.15426   1.14120  198.912
 4416.00    1.13607   1.14657  203.166
 4417.00    1.16235   1.18025   -1.000
 4418.00    1.19696   1.22284   -1.000
 4419.00    1.22639   1.25439   -1.000
 4420.00    1.24671   1.25992  181.676
 4421.00    1.22537   1.24647   -1.000
 4422.00    1.20320   1.23167   -1.000
 4423.00    1.20361   1.22538   -1.000
 4424.00    1.21251   1.22459  189.457
 4425.00    1.19534   1.22117   -1.000
 4426.00    1.18382   1.21753   -1.000
 4427.00    1.19158   1.22022   -1.000
 4428.00    1.20128   1.22657   -1.000
 4429.00    1.19958   1.23285   -1.000
 4430.00    1.19375   1.23703   -1.000
 4431.00    1.19259   1.23682   -1.000
 4432.00    1.18568   1.22778   -1.000
 4433.00    1.18268   1.20578   -1.000
 4434.00    1.15176   1.18187   -1.000
 4435.00    1.12715   1.17950   -1.000
 4436.00    1.16532   1.20778   -1.000
 4437.00    1.23262   1.25069   -1.000
 4438.00    1.25899   1.28225   -1.000
 4439.00    1.27176   1.28705  176.590
 4440.00    1.25511   1.26316  178.344
 4441.00    1.21410   1.22560  185.243
 4442.00    1.17203   1.20066   -1.000
 4443.00    1.16088   1.20559   -1.000
 4444.00    1.17360   1.23643   -1.000
 4445.00    1.20391   1.27106   -1.000
 4446.00    1.25292   1.29186   -1.000
 4447.00    1.26868   1.29698   -1.000
 4448.00    1.27114   1.29504   -1.000
 4449.00    1.26447   1.29218   -1.000
 4450.00    1.24654   1.28819   -1.000
 4451.00    1.23396   1.27983   -1.000
 4452.00    1.24103   1.25896   -1.000
 4453.00    1.22675   1.22304  186.886
 4454.00    1.19631   1.18707  194.645
 4455.00    1.16580   1.16980  202.197
 4456.00    1.15725   1.17527   -1.000
 4457.00    1.18776   1.18982  199.818
 4458.00    1.20192   1.19991  197.427
 4459.00    1.18653   1.20422   -1.000
 4460.00    1.17975   1.20805   -1.000
 4461.00    1.16809   1.21560   -1.000
 4462.00    1.18464   1.23086   -1.000
 4463.00    1.24033   1.25166  195.845
 4464.00    1.26096   1.26845  188.928
 4465.00    1.25170   1.27411   -1.000
 4466.00    1.24797   1.26791   -1.000
 4467.00    1.24224   1.25527  186.764
 4468.00    1.24238   1.24467  189.466
 4469.00    1.21640   1.24562   -1.000
 4470.00    1.21260   1.26204   -1.000
 4471.00    1.24236   1.28917   -1.000
 4472.00    1.26725   1.31834   -1.000
 4473.00    1.30839   1.34028   -1.000
 4474.00    1.33608   1.35054  172.424
 4475.00    1.33405   1.35296   -1.000
 4476.00    1.33005   1.35362   -1.000
 4477.00    1.34599   1.35112  170.059
 4478.00    1.35559   1.33789  169.882
 4479.00    1.33439   1.30902   -1.000
 4480.00    1.28169   1.27381  180.139
 4481.00    1.24226   1.25475  187.468
 4482.00    1.23621   1.26252   -1.000
 4483.00    1.26303   1.29236   -1.000
 4484.00    1.31235   1.33017   -1.000
 4485.00    1.36234   1.35728  172.266
 4486.00    1.38081   1.36180  169.939
 4487.00    1.35631   1.34631  171.494
 4488.00    1.30421   1.32333   -1.000
 4489.00    1.27087   1.30718   -1.000
 4490.00    1.29096   1.30813   -1.000
 4491.00    1.31722   1.32233  181.417
 4492.00    1.32891   1.33601  177.032
 4493.00    1.33323   1.33559  175.994
 4494.00    1.30129   1.32476   -1.000
 4495.00    1.25840   1.31986   -1.000
 4496.00    1.26089   1.32657   -1.000
 4497.00    1.29621   1.33919   -1.000
 4498.00    1.33321   1.35025   -1.000
 4499.00    1.35902   1.35479  173.128
 4500.00    1.34235   1.35417  172.691
 4501.00    1.31897   1.36016   -1.000
 4502.00    1.33472   1.37879   -1.000
 4503.00    1.35232   1.40347   -1.000
 4504.00    1.37143   1.42333   -1.000
 4505.00    1.39612   1.43003   -1.000
 4506.00    1.39790   1.42456   -1.000
 4507.00    1.38483   1.41462   -1.000
 4508.00    1.37484   1.40963   -1.000
 4509.00    1.38026   1.41132   -1.000
 4510.00    1.39799   1.41339  166.309
 4511.00    1.39202   1.40889   -1.000
 4512.00    1.38479   1.39753  168.056
 4513.00    1.37693   1.38478  171.390
 4514.00    1.35945   1.37433  173.825
 4515.00    1.35029   1.36911   -1.000
 4516.00    1.34423   1.36854   -1.000
 4517.00    1.34246   1.36604   -1.000
 4518.00    1.32475   1.36206   -1.000
 4519.00    1.32327   1.36334   -1.000
 4520.00    1.35537   1.36943  172.383
 4521.00    1.36229   1.37242  170.151
 4522.00    1.34047   1.36576   -1.000
 4523.00    1.32059   1.35209   -1.000
 4524.00    1.31244   1.33742   -1.000
 4525.00    1.29889   1.32042   -1.000
 4526.00    1.27991   1.29718   -1.000
 4527.00    1.27079   1.27042  190.334
 4528.00    1.24757   1.25229  194.753
 4529.00    1.22720   1.25121   -1.000
 4530.00    1.24912   1.26310  193.576
 4531.00    1.28291   1.27537  190.037
 4532.00    1.29027   1.27418  187.330
 4533.00    1.26054   1.26064  188.368
 4534.00    1.23190   1.25064   -1.000
 4535.00    1.22352   1.26217   -1.000
 4536.00    1.25306   1.29957   -1.000
 4537.00    1.32648   1.34787   -1.000
 4538.00    1.36530   1.38338   -1.000
 4539.00    1.37373   1.39272   -1.000
 4540.00    1.35601   1.38453   -1.000
 4541.00    1.33815   1.37594   -1.000
 4542.00    1.34613   1.37545   -1.000
 4543.00    1.08411   1.37681   -1.000
 4544.00    0.27553   1.37127   -1.000
 4545.00    0.04494   1.36123   -1.000
 4546.00    0.40298   1.35139   -1.000
 4547.00    1.04213   1.33862   -1.000
 4548.00    0.62748   1.32134   -1.000
 4549.00    1.00989   1.30935   -1.000
 4550.00    1.33423   1.31399   94.444
 4551.00    1.29600   1.32983   -1.000
 4552.00    1.30495   1.33846   -1.000
 4553.00    1.28053   1.33334   -1.000
 4554.00    1.27168   1.32484   -1.000
 4555.00    1.27682   1.32708   -1.000
 4556.00    1.31152   1.34824   -1.000
 4557.00    1.36470   1.38017   -1.000
 4558.00    1.39198   1.40798   -1.000
 4559.00    1.40721   1.42582   -1.000
 4560.00    1.40451   1.43407   -1.000
 4561.00    1.39567   1.43305   -1.000
 4562.00    1.38543   1.42153   -1.000
 4563.00    1.35588   1.40192   -1.000
 4564.00    1.35345   1.38470   -1.000
 4565.00    1.36615   1.38136  177.879
 4566.00    1.36586   1.39559   -1.000
 4567.00    1.39028   1.41738   -1.000
 4568.00    1.41616   1.43076  166.638
 4569.00    1.41139   1.42720  166.115
 4570.00    1.39454   1.40907  168.799
 4571.00    1.36310   1.39008   -1.000
 4572.00    1.34143   1.38647   -1.000
 4573.00    1.36607   1.40208   -1.000
 4574.00    1.39950   1.42231   -1.000
 4575.00    1.40623   1.43302   -1.000
 4576.00    1.40106   1.43327   -1.000
 4577.00    1.40000   1.42570   -1.000
 4578.00    1.37947   1.40929   -1.000
 4579.00    1.34958   1.38570   -1.000
 4580.00    1.32711   1.36246   -1.000
 4581.00    1.31999   1.34806   -1.000
 4582.00    1.33716   1.34611  179.587
 4583.00    1.34566   1.35230  177.319
 4584.00    1.35393   1.35908  176.600
 4585.00    1.36853   1.36442  177.378
 4586.00    1.36172   1.37351  177.471
 4587.00    1.36735   1.38906   -1.000
 4588.00    1.38927   1.40678   -1.000
 4589.00    1.39376   1.41741   -1.000
 4590.00    1.39288   1.41495   -1.000
 4591.00    1.38625   1.40276   -1.000
 4592.00    1.36903   1.39107   -1.000
 4593.00    1.34171   1.38872   -1.000
 4594.00    1.35077   1.39535   -1.000
 4595.00    1.36909   1.40485   -1.000
 4596.00    1.38227   1.41333   -1.000
 4597.00    1.38609   1.41914   -1.000
 4598.00    1.39001   1.41964   -1.000
 4599.00    1.38183   1.41370   -1.000
 4600.00    1.37727   1.40449   -1.000
 4601.00    1.37548   1.39754   -1.000
 4602.00    1.36478   1.39678   -1.000
 4603.00    1.37859   1.40124   -1.000
 4604.00    1.38502   1.40827   -1.000
 4605.00    1.39489   1.41604   -1.000
 4606.00    1.39545   1.42545   -1.000
 4607.00    1.41219   1.43828   -1.000
 4608.00    1.42917   1.45360   -1.000
 4609.00    1.45514   1.46661  162.156
 4610.00    1.45740   1.46848  161.068
 4611.00    1.44644   1.45997  162.331
 4612.00    1.42779   1.45118   -1.000
 4613.00    1.40392   1.44679   -1.000
 4614.00    1.41873   1.44680   -1.000
 4615.00    1.43968   1.44759  165.503
 4616.00    1.42661   1.44542   -1.000
 4617.00    1.41710   1.44008   -1.000
 4618.00    1.43416   1.43569  165.326
 4619.00    1.44565   1.43775  166.163
 4620.00    1.44275   1.44857  165.530
 4621.00    1.45206   1.46394  163.580
 4622.00    1.45165   1.47395   -1.000
 4623.00    1.44402   1.47420   -1.000
 4624.00    1.44345   1.47040   -1.000
 4625.00    1.44002   1.46621   -1.000
 4626.00    1.42703   1.46217   -1.000
 4627.00    1.43540   1.45978   -1.000
 4628.00    1.44741   1.45860  164.578
 4629.00    1.44086   1.45858   -1.000
 4630.00    1.43936   1.46200   -1.000
 4631.00    1.44137   1.46909   -1.000
 4632.00    1.43303   1.47216   -1.000
 4633.00    1.42670   1.46626   -1.000
 4634.00    1.42659   1.45683   -1.000
 4635.00    1.42232   1.44989   -1.000
 4636.00    1.41812   1.44496   -1.000
 4637.00    1.41682   1.44072   -1.000
 4638.00    1.41923   1.43950   -1.000
 4639.00    1.41457   1.44453   -1.000
 4640.00    1.42070   1.45689   -1.000
 4641.00    1.44199   1.47313   -1.000
 4642.00    1.45470   1.48483   -1.000
 4643.00    1.45599   1.48315   -1.000
 4644.00    1.44442   1.46836   -1.000
 4645.00    1.41995   1.44574   -1.000
 4646.00    1.39197   1.42111   -1.000
 4647.00    1.37689   1.40680   -1.000
 4648.00    1.38534   1.41207   -1.000
 4649.00    1.40607   1.43156   -1.000
 4650.00    1.42165   1.45178   -1.000
 4651.00    1.44888   1.46205  166.732
 4652.00    1.44936   1.46190  166.515
 4653.00    1.42856   1.45519   -1.000
 4654.00    1.39833   1.44492   -1.000
 4655.00    1.37603   1.43761   -1.000
 4656.00    1.37822   1.44221   -1.000
 4657.00    1.42261   1.46311   -1.000
 4658.00    1.46810   1.49511   -1.000
 4659.00    1.50698   1.52283  159.438
 4660.00    1.52685   1.53265  156.931
 4661.00    1.48804   1.52469   -1.000
 4662.00    1.47726   1.50701   -1.000
 4663.00    1.45072   1.48702   -1.000
 4664.00    1.44227   1.46613   -1.000
 4665.00    1.42703   1.44042  167.216
 4666.00    1.39600   1.40881  171.294
 4667.00    1.35724   1.38177   -1.000
 4668.00    1.33940   1.37535   -1.000
 4669.00    1.35574   1.39396   -1.000
 4670.00    1.40253   1.42593   -1.000
 4671.00    1.44047   1.45496  169.279
 4672.00    1.46426   1.47215  165.813
 4673.00    1.46069   1.48042   -1.000
 4674.00    1.45029   1.48745   -1.000
 4675.00    1.46225   1.49741   -1.000
 4676.00    1.48765   1.50256  162.309
 4677.00    1.49301   1.49359  160.748
 4678.00    1.48976   1.47313  162.447
 4679.00    1.45448   1.45182  166.029
 4680.00    1.42207   1.43891  169.147
 4681.00    1.40703   1.43565   -1.000
 4682.00    1.42306   1.44028   -1.000
 4683.00    1.44814   1.45082  169.206
 4684.00    1.45921   1.46217  165.401
 4685.00    1.47604   1.46962  164.081
 4686.00    1.45834   1.47306  164.630
 4687.00    1.44119   1.47510   -1.000
 4688.00    1.45592   1.47645   -1.000
 4689.00    1.45010   1.47714   -1.000
 4690.00    1.44716   1.47647   -1.000
 4691.00    1.45565   1.47527   -1.000
 4692.00    1.47092   1.47843  166.626
 4693.00    1.49543   1.48681  164.398
 4694.00    1.51090   1.49532  161.585
 4695.00    1.52342   1.50046   -1.000
 4696.00    1.52376   1.49978   -1.000
 4697.00    1.50550   1.48908  159.087
 4698.00    1.48579   1.47072  163.935
 4699.00    1.46165   1.45213  168.077
 4700.00    1.44512   1.43722  168.975
 4701.00    1.46312   1.42485   -1.000
 4702.00    1.44339   1.41463   -1.000
 4703.00    1.41874   1.41367  172.560
 4704.00    1.44387   1.42528   -1.000
 4705.00    1.46004   1.43862   -1.000
 4706.00    1.44685   1.44007  167.791
 4707.00    1.43364   1.43049  170.646
 4708.00    1.41674   1.42342  173.646
 4709.00    1.40693   1.42901   -1.000
 4710.00    1.42269   1.44490   -1.000
 4711.00    1.45738   1.46398  167.143
 4712.00    1.48613   1.47718  163.378
 4713.00    1.49175   1.47760  162.753
 4714.00    1.48501   1.47218  164.874
 4715.00    1.47570   1.47383  167.232
 4716.00    1.46163   1.48759   -1.000
 4717.00    1.47420   1.50617   -1.000
 4718.00    1.50368   1.51952  160.199
 4719.00    1.52167   1.52496  159.423
 4720.00    1.50909   1.52491  158.879
 4721.00    1.49499   1.52356   -1.000
 4722.00    1.48594   1.52387   -1.000
 4723.00    1.49396   1.52676   -1.000
 4724.00    1.50385   1.52919   -1.000
 4725.00    1.52572   1.52544  158.301
 4726.00    1.51077   1.51063  159.596
 4727.00    1.44840   1.48702   -1.000
 4728.00    1.43295   1.46605   -1.000
 4729.00    1.44731   1.45696  172.420
 4730.00    1.44870   1.45781  171.272
 4731.00    1.45860   1.46391  169.581
 4732.00    1.49140   1.47382  168.076
 4733.00    1.49111   1.48325  166.165
 4734.00    1.47772   1.48735  164.886
 4735.00    1.48425   1.48670  163.976
 4736.00    1.47774   1.48476  163.774
 4737.00    1.45071   1.48502   -1.000
 4738.00    1.46454   1.49068   -1.000
 4739.00    1.49462   1.49952  163.093
 4740.00    1.49270   1.50481  163.508
 4741.00    1.49166   1.50671  164.306
 4742.00    1.49528   1.51096  164.074
 4743.00    1.51397   1.51781  162.556
 4744.00    1.51554   1.52319  161.316
 4745.00    1.49007   1.52539   -1.000
 4746.00    1.50029   1.52772   -1.000
 4747.00    1.52700   1.53440  160.078
 4748.00    1.52865   1.54401  158.777
 4749.00    1.52564   1.55298   -1.000
 4750.00    1.53484   1.55861   -1.000
 4751.00    1.53216   1.55670   -1.000
 4752.00    1.51693   1.54566   -1.000
 4753.00    1.50852   1.52921   -1.000
 4754.00    1.50499   1.51570  163.656
 4755.00    1.50354   1.51115  164.394
 4756.00    1.49235   1.51487   -1.000
 4757.00    1.47626   1.52310   -1.000
 4758.00    1.47627   1.53282   -1.000
 4759.00    1.48944   1.54027   -1.000
 4760.00    1.49593   1.53883   -1.000
 4761.00    1.48146   1.52403   -1.000
 4762.00    1.45960   1.49835   -1.000
 4763.00    1.42101   1.47464   -1.000
 4764.00    1.41246   1.46321   -1.000
 4765.00    1.42436   1.46257   -1.000
 4766.00    1.42836   1.47019   -1.000
 4767.00    1.45232   1.48721   -1.000
 4768.00    1.47937   1.51140   -1.000
 4769.00    1.50348   1.53226   -1.000
 4770.00    1.50844   1.54019   -1.000
 4771.00    1.49663   1.53754   -1.000
 4772.00    1.48644   1.53491   -1.000
 4773.00    1.50076   1.54084   -1.000
 4774.00    1.53887   1.55466  163.782
 4775.00    1.52758   1.56691   -1.000
 4776.00    1.50854   1.57148   -1.000
 4777.00    1.51891   1.56820   -1.000
 4778.00    1.53791   1.56045   -1.000
 4779.00    1.52176   1.55234   -1.000
 4780.00    1.48958   1.54659   -1.000
 4781.00    1.48322   1.54242   -1.000
 4782.00    1.49004   1.53657   -1.000
 4783.00    1.49051   1.52978   -1.000
 4784.00    1.48951   1.52388   -1.000
 4785.00    1.48679   1.51895   -1.000
 4786.00    1.47735   1.51532   -1.000
 4787.00    1.47691   1.51456   -1.000
 4788.00    1.48002   1.51785   -1.000
 4789.00    1.48130   1.52503   -1.000
 4790.00    1.48654   1.53640   -1.000
 4791.00    1.48492   1.55187   -1.000
 4792.00    1.49659   1.57001   -1.000
 4793.00    1.52457   1.58822   -1.000
 4794.00    1.54929   1.60344   -1.000
 4795.00    1.55879   1.61123   -1.000
 4796.00    1.54928   1.60785   -1.000
 4797.00    1.53452   1.59588   -1.000
 4798.00    1.51628   1.58107   -1.000
 4799.00    1.49121   1.57048   -1.000
 4800.00    1.49433   1.57122   -1.000
 4801.00    1.52729   1.58296   -1.000
 4802.00    1.54800   1.59554   -1.000
 4803.00    1.54879   1.59971   -1.000
 4804.00    1.53443   1.59469   -1.000
 4805.00    1.51411   1.58579   -1.000
 4806.00    1.51621   1.57920   -1.000
 4807.00    1.52290   1.57629   -1.000
 4808.00    1.50162   1.57753   -1.000
 4809.00    1.50571   1.58337   -1.000
 4810.00    1.52522   1.59041   -1.000
 4811.00    1.52768   1.59533   -1.000
 4812.00    1.52637   1.59959   -1.000
 4813.00    1.53784   1.60515   -1.000
 4814.00    1.53871   1.61222   -1.000
 4815.00    1.53275   1.62095   -1.000
 4816.00    1.53586   1.62960   -1.000
 4817.00    1.54236   1.63477   -1.000
 4818.00    1.54737   1.63559   -1.000
 4819.00    1.56619   1.63483   -1.000
 4820.00    1.56971   1.63169   -1.000
 4821.00    1.55595   1.61973   -1.000
 4822.00    1.53707   1.59638   -1.000
 4823.00    1.52090   1.56996   -1.000
 4824.00    1.50136   1.55714   -1.000
 4825.00    1.51641   1.56581   -1.000
 4826.00    1.53272   1.58385   -1.000
 4827.00    1.54043   1.59558   -1.000
 4828.00    1.55463   1.59639   -1.000
 4829.00    1.54094   1.59212   -1.000
 4830.00    1.53387   1.58663   -1.000
 4831.00    1.53391   1.57788   -1.000
 4832.00    1.51286   1.57005   -1.000
 4833.00    1.51210   1.56979   -1.000
 4834.00    1.53815   1.57728   -1.000
 4835.00    1.56125   1.58708   -1.000
 4836.00    1.56340   1.59242   -1.000
 4837.00    1.56214   1.59041   -1.000
 4838.00    1.53789   1.58135   -1.000
 4839.00    1.51446   1.56777   -1.000
 4840.00    1.49795   1.55558   -1.000
 4841.00    1.51134   1.55070   -1.000
 4842.00    1.53270   1.55364   -1.000
 4843.00    1.53079   1.55932   -1.000
 4844.00    1.54929   1.56670  163.150
 4845.00    1.57112   1.57734  161.268
 4846.00    1.56992   1.58379  159.112
 4847.00    1.55119   1.57853   -1.000
 4848.00    1.53523   1.56843   -1.000
 4849.00    1.52248   1.56462   -1.000
 4850.00    1.51865   1.56817   -1.000
 4851.00    1.52266   1.57024   -1.000
 4852.00    1.51055   1.56263   -1.000
 4853.00    1.49916   1.54160   -1.000
 4854.00    1.48274   1.50800   -1.000
 4855.00    1.45389   1.47255   -1.000
 4856.00    1.43419   1.44557  173.680
 4857.00    1.43402   1.42222  172.738
 4858.00    1.41407   1.37639   -1.000
 4859.00    1.30715   1.28996   -1.000
 4860.00    1.12466   1.18881   -1.000
 4861.00    1.00536   1.12553   -1.000
 4862.00    1.08024   1.13812   -1.000
 4863.00    1.27066   1.21440   -1.000
 4864.00    1.38985   1.30844   -1.000
 4865.00    1.41543   1.38794   -1.000
 4866.00    1.42657   1.44451   -1.000
 4867.00    1.45603   1.48143   -1.000
 4868.00    1.45874   1.50027   -1.000
 4869.00    1.46640   1.49889   -1.000
 4870.00    1.44305   1.47809   -1.000
 4871.00    1.42941   1.45113   -1.000
 4872.00    1.41602   1.44352   -1.000
 4873.00    1.44316   1.46691   -1.000
 4874.00    1.45429   1.50410   -1.000
 4875.00    1.46605   1.53045   -1.000
 4876.00    1.48273   1.53857   -1.000
 4877.00    1.48696   1.54262   -1.000
 4878.00    1.49250   1.55654   -1.000
 4879.00    1.50612   1.57795   -1.000
 4880.00    1.53805   1.59408   -1.000
 4881.00    1.52435   1.59530   -1.000
 4882.00    1.49029   1.58652   -1.000
 4883.00    1.48863   1.57767   -1.000
 4884.00    1.49248   1.56818   -1.000
 4885.00    1.47779   1.55645   -1.000
 4886.00    1.48002   1.54649   -1.000
 4887.00    1.47897   1.54174   -1.000
 4888.00    1.48387   1.53728   -1.000
 4889.00    1.48380   1.52344   -1.000
 4890.00    1.46306   1.50364   -1.000
 4891.00    1.45550   1.49772   -1.000
 4892.00    1.49380   1.52443   -1.000
 4893.00    1.55042   1.58115   -1.000
 4894.00    1.58776   1.63916   -1.000
 4895.00    1.61775   1.67571   -1.000
 4896.00    1.64509   1.69077   -1.000
 4897.00    1.64843   1.69051   -1.000
 4898.00    1.62596   1.67981   -1.000
 4899.00    1.59884   1.66440   -1.000
 4900.00    1.56663   1.65121   -1.000
 4901.00    1.55011   1.64265   -1.000
 4902.00    1.56554   1.63488   -1.000
 4903.00    1.57091   1.62647   -1.000
 4904.00    1.57259   1.62771   -1.000
 4905.00    1.58602   1.64454   -1.000
 4906.00    1.60245   1.66315   -1.000
 4907.00    1.61764   1.66688   -1.000
 4908.00    1.61165   1.65086   -1.000
 4909.00    1.56365   1.62235   -1.000
 4910.00    1.52919   1.59716   -1.000
 4911.00    1.51819   1.58997   -1.000
 4912.00    1.52885   1.60373   -1.000
 4913.00    1.56316   1.62716   -1.000
 4914.00    1.59507   1.64897   -1.000
 4915.00    1.61584   1.66172   -1.000
 4916.00    1.62814   1.65389   -1.000
 4917.00    1.59043   1.61685   -1.000
 4918.00    1.51391   1.55747   -1.000
 4919.00    1.46898   1.49756   -1.000
 4920.00    1.43863   1.46388   -1.000
 4921.00    1.43667   1.46813   -1.000
 4922.00    1.48631   1.49817  175.246
 4923.00    1.51250   1.53045   -1.000
 4924.00    1.53368   1.55494   -1.000
 4925.00    1.52606   1.57912   -1.000
 4926.00    1.56783   1.60870   -1.000
 4927.00    1.59954   1.64101   -1.000
 4928.00    1.60771   1.66798   -1.000
 4929.00    1.62828   1.68408   -1.000
 4930.00    1.64359   1.68814   -1.000
 4931.00    1.64079   1.67643   -1.000
 4932.00    1.60746   1.64749   -1.000
 4933.00    1.54932   1.61374   -1.000
 4934.00    1.52679   1.59406   -1.000
 4935.00    1.54158   1.59452   -1.000
 4936.00    1.56160   1.59938   -1.000
 4937.00    1.54511   1.58745   -1.000
 4938.00    1.52617   1.56576   -1.000
 4939.00    1.52245   1.55998   -1.000
 4940.00    1.53133   1.58294   -1.000
 4941.00    1.57236   1.62513   -1.000
 4942.00    1.61046   1.66297   -1.000
 4943.00    1.62326   1.68229   -1.000
 4944.00    1.62925   1.68477   -1.000
 4945.00    1.62039   1.67855   -1.000
 4946.00    1.60826   1.67357   -1.000
 4947.00    1.62119   1.67831   -1.000
 4948.00    1.64368   1.69289   -1.000
 4949.00    1.65709   1.70685   -1.000
 4950.00    1.66128   1.71080   -1.000
 4951.00    1.65436   1.70563   -1.000
 4952.00    1.64703   1.69774   -1.000
 4953.00    1.64859   1.68969   -1.000
 4954.00    1.64528   1.67663   -1.000
 4955.00    1.61959   1.64505   -1.000
 4956.00    1.55605   1.59043   -1.000
 4957.00    1.49574   1.54025   -1.000
 4958.00    1.47479   1.53100   -1.000
 4959.00    1.53296   1.57023   -1.000
 4960.00    1.58735   1.62848   -1.000
 4961.00    1.59914   1.67014   -1.000
 4962.00    1.60420   1.68674   -1.000
 4963.00    1.60273   1.68572   -1.000
 4964.00    1.61032   1.67339   -1.000
 4965.00    1.58153   1.65507   -1.000
 4966.00    1.55798   1.63780   -1.000
 4967.00    1.55664   1.62670   -1.000
 4968.00    1.57836   1.62276   -1.000
 4969.00    1.59312   1.62636   -1.000
 4970.00    1.61430   1.63720   -1.000
 4971.00    1.61743   1.65232   -1.000
 4972.00    1.61557   1.66817   -1.000
 4973.00    1.64394   1.68233   -1.000
 4974.00    1.65434   1.69142   -1.000
 4975.00    1.64572   1.69288   -1.000
 4976.00    1.64065   1.68712   -1.000
 4977.00    1.62972   1.67521   -1.000
 4978.00    1.61257   1.65946   -1.000
 4979.00    1.57109   1.64045   -1.000
 4980.00    1.54439   1.61359   -1.000
 4981.00    1.51527   1.57354   -1.000
 4982.00    1.49004   1.52740   -1.000
 4983.00    1.49670   1.49690  182.029
 4984.00    1.51046   1.50084  181.126
 4985.00    1.52069   1.53642  177.258
 4986.00    1.54305   1.58279   -1.000
 4987.00    1.56669   1.62128   -1.000
 4988.00    1.57274   1.64087   -1.000
 4989.00    1.57019   1.63892   -1.000
 4990.00    1.56780   1.62546   -1.000
 4991.00    1.56712   1.61539   -1.000
 4992.00    1.57703   1.61608   -1.000
 4993.00    1.59191   1.62417   -1.000
 4994.00    1.60211   1.63389   -1.000
 4995.00    1.60153   1.64325   -1.000
 4996.00    1.60421   1.65077   -1.000
 4997.00    1.61192   1.65083   -1.000
 4998.00    1.59884   1.63671   -1.000
 4999.00    1.57059   1.60981   -1.000
 5000.00    1.54214   1.58203   -1.000
 5001.00    1.54331   1.56716   -1.000
 5002.00    1.54916   1.56965   -1.000
 5003.00    1.55481   1.57865   -1.000
 5004.00    1.55362   1.57676   -1.000
 5005.00    1.52771   1.55782   -1.000
 5006.00    1.51260   1.53914   -1.000
 5007.00    1.53147   1.54434  177.197
 5008.00    1.55945   1.57348  172.486
 5009.00    1.60452   1.60479  167.929
 5010.00    1.60340   1.61438  167.065
 5011.00    1.55860   1.59444   -1.000
 5012.00    1.50790   1.55713   -1.000
 5013.00    1.48530   1.52422   -1.000
 5014.00    1.47366   1.51091   -1.000
 5015.00    1.48645   1.51537   -1.000
 5016.00    1.50660   1.52669   -1.000
 5017.00    1.52805   1.53594  175.706
 5018.00    1.52934   1.54542  175.204
 5019.00    1.54472   1.56065  174.826
 5020.00    1.56411   1.57675  172.900
 5021.00    1.57565   1.58563  171.962
 5022.00    1.57042   1.58745  172.702
 5023.00    1.55961   1.59280   -1.000
 5024.00    1.57236   1.60880   -1.000
 5025.00    1.60752   1.62310  169.877
 5026.00    1.61557   1.62326  169.165
 5027.00    1.57847   1.61669   -1.000
 5028.00    1.59785   1.61571  170.339
 5029.00    1.61585   1.62502  168.362
 5030.00    1.61670   1.64323   -1.000
 5031.00    1.62378   1.66488   -1.000
 5032.00    1.64496   1.68268   -1.000
 5033.00    1.65741   1.68724   -1.000
 5034.00    1.63346   1.67025   -1.000
 5035.00    1.59127   1.63788   -1.000
 5036.00    1.57574   1.60822   -1.000
 5037.00    1.57608   1.59137  174.001
 5038.00    1.55332   1.57639   -1.000
 5039.00    1.52438   1.54426   -1.000
 5040.00    1.47704   1.50367   -1.000
 5041.00    1.43846   1.48657   -1.000
 5042.00    1.46749   1.51253   -1.000
 5043.00    1.56114   1.57212  179.167
 5044.00    1.59686   1.63529   -1.000
 5045.00    1.03291   1.67971   -1.000
 5046.00    0.11253   1.69936   -1.000
 5047.00    0.04279   1.69331   -1.000
 5048.00    0.55772   1.66556   -1.000
 5049.00    1.51928   1.62901   -1.000
 5050.00    1.58813   1.60107   -1.000
 5051.00    1.57189   1.59429   -1.000
 5052.00    1.59473   1.61152  170.845
 5053.00    1.62913   1.64387  166.812
 5054.00    1.66933   1.67354  162.828
 5055.00    1.67830   1.69073  160.191
 5056.00    1.69288   1.70092  158.915
 5057.00    1.70993   1.70961  158.598
 5058.00    1.70912   1.71742  158.914
 5059.00    1.68742   1.72293   -1.000
 5060.00    1.69156   1.72523   -1.000
 5061.00    1.70771   1.72441  157.974
 5062.00    1.68945   1.71506   -1.000
 5063.00    1.66653   1.68925   -1.000
 5064.00    1.61788   1.65514   -1.000
 5065.00    1.58767   1.63120   -1.000
 5066.00    1.60807   1.62627  172.394
 5067.00    1.62540   1.63384  170.068
 5068.00    1.61888   1.64128   -1.000
 5069.00    1.63193   1.64604  167.368
 5070.00    1.64559   1.64980  166.498
 5071.00    1.64825   1.64844  165.889
 5072.00    1.65325   1.64090  167.309
 5073.00    1.65017   1.63650  167.930
 5074.00    1.63510   1.64215  165.906
 5075.00    1.64994   1.65237  164.855
 5076.00    1.66872   1.65580  164.687
 5077.00    1.65401   1.64427  164.912
 5078.00    1.61282   1.61561  167.409
 5079.00    1.56927   1.58063  173.835
 5080.00    1.53781   1.56000   -1.000
 5081.00    1.54049   1.56158   -1.000
 5082.00    1.57751   1.57739  177.572
 5083.00    1.60248   1.59743  174.068
 5084.00    1.63028   1.61966  171.578
 5085.00    1.65901   1.64555  168.361
 5086.00    1.66708   1.66848  165.830
 5087.00    1.68578   1.68181  164.896
 5088.00    1.68919   1.68795  164.577
 5089.00    1.68408   1.69234  163.651
 5090.00    1.69468   1.69788  162.511
 5091.00    1.69093   1.70594  161.636
 5092.00    1.70191   1.71679  160.589
 5093.00    1.73506   1.72634  158.780
 5094.00    1.71679   1.72542  157.947
 5095.00    1.71833   1.70629  159.867
 5096.00    1.69420   1.67230   -1.000
 5097.00    1.66941   1.63641   -1.000
 5098.00    1.64301   1.61196   -1.000
 5099.00    1.60641   1.60722  173.837
 5100.00    1.62264   1.62370  173.288
 5101.00    1.66786   1.65244  168.702
 5102.00    1.68604   1.67532  164.473
 5103.00    1.69186   1.68236  163.635
 5104.00    1.68442   1.67608  164.922
 5105.00    1.65691   1.66091  167.128
 5106.00    1.64048   1.64091  169.226
 5107.00    1.61829   1.62238  171.307
 5108.00    1.60790   1.61273  172.977
 5109.00    1.62606   1.61547  172.453
 5110.00    1.62700   1.62967  171.290
 5111.00    1.63611   1.65186  169.805
 5112.00    1.66587   1.67507  167.387
 5113.00    1.68440   1.69401  165.352
 5114.00    1.70067   1.70913  163.442
 5115.00    1.70622   1.72216  162.108
 5116.00    1.71862   1.73292  161.091
 5117.00    1.73278   1.73895  159.425
 5118.00    1.72050   1.73830  158.465
 5119.00    1.72687   1.72955  159.322
 5120.00    1.72406   1.71279  161.536
 5121.00    1.70574   1.69126  164.028
 5122.00    1.67298   1.66797  167.047
 5123.00    1.62238   1.64376   -1.000
 5124.00    1.60769   1.62318  175.991
 5125.00    1.61952   1.61330  176.498
 5126.00    1.62084   1.61376  174.964
 5127.00    1.61527   1.61756  174.101
 5128.00    1.61473   1.61995  173.308
 5129.00    1.61704   1.62332  173.530
 5130.00    1.63229   1.63154  172.934
 5131.00    1.66119   1.64485  170.453
 5132.00    1.67534   1.65944  167.818
 5133.00    1.68269   1.67167  166.468
 5134.00    1.71134   1.68042   -1.000
 5135.00    1.72753   1.68361   -1.000
 5136.00    1.72141   1.67661   -1.000
 5137.00    1.69398   1.65881   -1.000
 5138.00    1.63823   1.63695  171.075
 5139.00    1.62509   1.62087  173.255
 5140.00    1.62325   1.61630  173.036
 5141.00    1.62067   1.61911  171.962
 5142.00    1.61870   1.62368  173.661
 5143.00    1.61875   1.62974  175.805
 5144.00    1.63216   1.63809  174.232
 5145.00    1.66535   1.64397   -1.000
 5146.00    1.66854   1.64072   -1.000
 5147.00    1.66704   1.63390   -1.000
 5148.00    1.66309   1.63632   -1.000
 5149.00    1.67746   1.64431   -1.000
 5150.00    1.66817   1.64397   -1.000
 5151.00    1.62897   1.63420  173.068
 5152.00    1.61458   1.62302  175.888
 5153.00    1.62531   1.61810  176.557
 5154.00    1.64204   1.62536   -1.000
 5155.00    1.67978   1.64728   -1.000
 5156.00    1.71019   1.67833   -1.000
 5157.00    1.74425   1.70798   -1.000
 5158.00    1.74982   1.72888   -1.000
 5159.00    1.75219   1.73868  159.457
 5160.00    1.76264   1.73890   -1.000
 5161.00    1.75557   1.73028   -1.000
 5162.00    1.73015   1.71283   -1.000
 5163.00    1.72555   1.68596   -1.000
 5164.00    1.70822   1.64097   -1.000
 5165.00    1.62563   1.56524   -1.000
 5166.00    1.50276   1.46905   -1.000
 5167.00    1.40341   1.39071   -1.000
 5168.00    1.37258   1.37034  218.937
 5169.00    1.42266   1.40179   -1.000
 5170.00    1.48792   1.42506   -1.000
 5171.00    1.46104   1.40566   -1.000
 5172.00    1.37635   1.37184  215.826
 5173.00    1.36021   1.38057   -1.000
 5174.00    1.46220   1.45544  212.386
 5175.00    1.58690   1.55565   -1.000
 5176.00    1.67856   1.63382   -1.000
 5177.00    1.70153   1.67553   -1.000
 5178.00    1.70417   1.68795  169.264
 5179.00    1.70355   1.67829   -1.000
 5180.00    1.67381   1.63742   -1.000
 5181.00    1.62055   1.55821   -1.000
 5182.00    1.50565   1.45761   -1.000
 5183.00    1.39520   1.38158   -1.000
 5184.00    1.37371   1.37694  227.019
 5185.00    1.47220   1.44526   -1.000
 5186.00    1.57670   1.54327   -1.000
 5187.00    1.65966   1.61773   -1.000
 5188.00    1.68161   1.65214   -1.000
 5189.00    1.68025   1.66385  169.343
 5190.00    1.67857   1.66051   -1.000
 5191.00    1.66053   1.64165   -1.000
 5192.00    1.62357   1.61956  177.278
 5193.00    1.61239   1.60989  180.951
 5194.00    1.63124   1.61665  178.937
 5195.00    1.64934   1.63258   -1.000
 5196.00    1.67209   1.65051   -1.000
 5197.00    1.70903   1.67335   -1.000
 5198.00    1.75855   1.70131   -1.000
 5199.00    1.81228   1.72559   -1.000
 5200.00    1.84480   1.73786   -1.000
 5201.00    1.84114   1.73330   -1.000
 5202.00    1.80165   1.70957   -1.000
 5203.00    1.73660   1.66969   -1.000
 5204.00    1.66999   1.62256   -1.000
 5205.00    1.63004   1.58067   -1.000
 5206.00    1.61585   1.55476   -1.000
 5207.00    1.60588   1.54611   -1.000
 5208.00    1.58853   1.55000   -1.000
 5209.00    1.59982   1.56778   -1.000
 5210.00    1.62806   1.60434   -1.000
 5211.00    1.67247   1.65813  175.006
 5212.00    1.73849   1.71392   -1.000
 5213.00    1.77141   1.74933   -1.000
 5214.00    1.77649   1.75172   -1.000
 5215.00    1.75248   1.72922   -1.000
 5216.00    1.72334   1.70813  165.719
 5217.00    1.72193   1.70988  166.998
 5218.00    1.74598   1.73618  165.015
 5219.00    1.78372   1.77200  161.534
 5220.00    1.80475   1.80092  159.370
 5221.00    1.81304   1.81467  158.315
 5222.00    1.81594   1.80928  158.200
 5223.00    1.79724   1.78252  160.902
 5224.00    1.72437   1.73148  166.294
 5225.00    1.66467   1.66322  173.434
 5226.00    1.61994   1.60645  181.029
 5227.00    1.61483   1.59256   -1.000
 5228.00    1.64940   1.62829   -1.000
 5229.00    1.72557   1.68658   -1.000
 5230.00    1.77669   1.72931   -1.000
 5231.00    1.80037   1.74049   -1.000
 5232.00    1.77731   1.72641   -1.000
 5233.00    1.75935   1.70688   -1.000
 5234.00    1.74160   1.70440   -1.000
 5235.00    1.73827   1.72786  165.591
 5236.00    1.77131   1.76581  161.580
 5237.00    1.80799   1.80021  158.094
 5238.00    1.81879   1.82050  156.727
 5239.00    1.82398   1.82676  156.788
 5240.00    1.83402   1.82508  157.178
 5241.00    1.83790   1.82024   -1.000
 5242.00    1.83908   1.81694   -1.000
 5243.00    1.82646   1.82016  156.188
 5244.00    1.83912   1.82634  155.844
 5245.00    1.83036   1.82233  156.209
 5246.00    1.80440   1.80209  159.865
 5247.00    1.76599   1.77452  164.760
 5248.00    1.73389   1.75335  167.893
 5249.00    1.74032   1.74387  168.104
 5250.00    1.74682   1.74205  168.559
 5251.00    1.73489   1.74546  169.347
 5252.00    1.74805   1.75333  168.147
 5253.00    1.77333   1.76045  165.848
 5254.00    1.77089   1.76427  164.551
 5255.00    1.76758   1.77324  164.452
 5256.00    1.78486   1.79418  162.703
 5257.00    1.83189   1.82147  158.636
 5258.00    1.87586   1.84091   -1.000
 5259.00    1.87441   1.83843   -1.000
 5260.00    1.83928   1.80878   -1.000
 5261.00    1.77507   1.75651   -1.000
 5262.00    1.70596   1.69334  168.249
 5263.00    1.65807   1.63356   -1.000
 5264.00    1.61543   1.59063   -1.000
 5265.00    1.60378   1.57486   -1.000
 5266.00    1.62750   1.58295   -1.000
 5267.00    1.65768   1.59309   -1.000
 5268.00    1.66299   1.58466   -1.000
 5269.00    1.61500   1.56075   -1.000
 5270.00    1.58988   1.55357   -1.000
 5271.00    1.62718   1.58753   -1.000
 5272.00    1.69284   1.64248   -1.000
 5273.00    1.74738   1.68610   -1.000
 5274.00    1.75519   1.70937   -1.000
 5275.00    1.75057   1.72506   -1.000
 5276.00    1.78017   1.75069   -1.000
 5277.00    1.81760   1.78865   -1.000
 5278.00    1.87493   1.82330   -1.000
 5279.00    1.89311   1.83332   -1.000
 5280.00    1.84751   1.81352   -1.000
 5281.00    1.80768   1.77938   -1.000
 5282.00    1.79279   1.74894   -1.000
 5283.00    1.76311   1.73562   -1.000
 5284.00    1.72467   1.74973   -1.000
 5285.00    1.79583   1.78956  162.091
 5286.00    1.89088   1.83679   -1.000
 5287.00    1.91255   1.87087   -1.000
 5288.00    1.90652   1.88554   -1.000
 5289.00    1.90004   1.89011  152.909
 5290.00    1.88587   1.89170  152.674
 5291.00    1.87382   1.89005  151.828
 5292.00    1.88273   1.88688  151.756
 5293.00    1.89079   1.88211  152.817
 5294.00    1.87469   1.86902  154.398
 5295.00    1.84149   1.84048  156.853
 5296.00    1.79489   1.79678  161.560
 5297.00    1.75581   1.75433  167.577
 5298.00    1.74332   1.73631  170.974
 5299.00    1.76578   1.74722   -1.000
 5300.00    1.79920   1.77191   -1.000
 5301.00    1.81573   1.79418   -1.000
 5302.00    1.83794   1.81275   -1.000
 5303.00    1.86163   1.83655   -1.000
 5304.00    1.89322   1.86183   -1.000
 5305.00    1.89818   1.87597   -1.000
 5306.00    1.90177   1.87612   -1.000
 5307.00    1.88902   1.87075   -1.000
 5308.00    1.89298   1.87279   -1.000
 5309.00    1.90470   1.88605   -1.000
 5310.00    1.91659   1.90180  151.782
 5311.00    1.91094   1.91020  151.048
 5312.00    1.91792   1.90719  151.386
 5313.00    1.90367   1.89486  152.249
 5314.00    1.90767   1.87660   -1.000
 5315.00    1.90172   1.85488   -1.000
 5316.00    1.88720   1.83741   -1.000
 5317.00    1.89449   1.83547   -1.000
 5318.00    1.88474   1.85100   -1.000
 5319.00    1.89530   1.87029   -1.000
 5320.00    1.88380   1.87593  155.038
 5321.00    1.88076   1.86387  155.775
 5322.00    1.87789   1.83922   -1.000
 5323.00    1.85090   1.80939   -1.000
 5324.00    1.84188   1.78238   -1.000
 5325.00    1.82714   1.75847   -1.000
 5326.00    1.80146   1.72563   -1.000
 5327.00    1.74670   1.67781   -1.000
 5328.00    1.68032   1.64081   -1.000
 5329.00    1.67543   1.64825   -1.000
 5330.00    1.74709   1.70132   -1.000
 5331.00    1.83121   1.76691   -1.000
 5332.00    1.86813   1.81054   -1.000
 5333.00    1.87790   1.83191   -1.000
 5334.00    1.88350   1.84676   -1.000
 5335.00    1.89741   1.85721   -1.000
 5336.00    1.89214   1.85837   -1.000
 5337.00    1.88409   1.84925   -1.000
 5338.00    1.88302   1.82958   -1.000
 5339.00    1.86270   1.80108   -1.000
 5340.00    1.82901   1.77578   -1.000
 5341.00    1.80602   1.77136   -1.000
 5342.00    1.84983   1.79354   -1.000
 5343.00    1.89180   1.82522   -1.000
 5344.00    1.89960   1.84205   -1.000
 5345.00    1.88684   1.83824   -1.000
 5346.00    1.88144   1.82420   -1.000
 5347.00    1.89591   1.81191   -1.000
 5348.00    1.87492   1.80720   -1.000
 5349.00    1.85267   1.81155   -1.000
 5350.00    1.86364   1.82655   -1.000
 5351.00    1.90944   1.85018   -1.000
 5352.00    1.92093   1.87305   -1.000
 5353.00    1.93086   1.88809   -1.000
 5354.00    1.95123   1.90006   -1.000
 5355.00    1.93739   1.91449   -1.000
 5356.00    1.96441   1.92861   -1.000
 5357.00    1.96803   1.93699   -1.000
 5358.00    1.97251   1.93813   -1.000
 5359.00    1.95939   1.93389   -1.000
 5360.00    1.95444   1.92316   -1.000
 5361.00    1.93352   1.90403   -1.000
 5362.00    1.92232   1.87979   -1.000
 5363.00    1.89761   1.85632   -1.000
 5364.00    1.89306   1.83868   -1.000
 5365.00    1.88029   1.83018   -1.000
 5366.00    1.88100   1.82950   -1.000
 5367.00    1.88487   1.82855   -1.000
 5368.00    1.87010   1.81641   -1.000
 5369.00    1.84665   1.78770   -1.000
 5370.00    1.81900   1.75102   -1.000
 5371.00    1.79785   1.72912   -1.000
 5372.00    1.83597   1.74210   -1.000
 5373.00    1.89756   1.78998   -1.000
 5374.00    1.93841   1.84880   -1.000
 5375.00    1.96576   1.89185   -1.000
 5376.00    1.95706   1.91146   -1.000
 5377.00    1.95985   1.91393   -1.000
 5378.00    1.97270   1.90823   -1.000
 5379.00    1.95554   1.89914   -1.000
 5380.00    1.93369   1.88797   -1.000
 5381.00    1.91328   1.87552   -1.000
 5382.00    1.89351   1.86401   -1.000
 5383.00    1.88872   1.85927   -1.000
 5384.00    1.90395   1.86757   -1.000
 5385.00    1.92764   1.88712   -1.000
 5386.00    1.94565   1.90609   -1.000
 5387.00    1.94167   1.91334   -1.000
 5388.00    1.93709   1.90671   -1.000
 5389.00    1.91858   1.89037   -1.000
 5390.00    1.90786   1.87097   -1.000
 5391.00    1.89050   1.85320   -1.000
 5392.00    1.88682   1.83899   -1.000
 5393.00    1.88145   1.83005   -1.000
 5394.00    1.87852   1.82281   -1.000
 5395.00    1.86423   1.80844   -1.000
 5396.00    1.83006   1.78702   -1.000
 5397.00    1.81514   1.77161   -1.000
 5398.00    1.82830   1.77833   -1.000
 5399.00    1.86694   1.80736   -1.000
 5400.00    1.89981   1.83871   -1.000
 5401.00    1.91815   1.85483   -1.000
 5402.00    1.90628   1.84835   -1.000
 5403.00    1.88414   1.81729   -1.000
 5404.00    1.82410   1.77326   -1.000
 5405.00    1.79068   1.74123   -1.000
 5406.00    1.79371   1.73767   -1.000
 5407.00    1.83857   1.75749   -1.000
 5408.00    1.84967   1.77788   -1.000
 5409.00    1.83608   1.78317   -1.000
 5410.00    1.83384   1.78502   -1.000
 5411.00    1.84370   1.80022   -1.000
 5412.00    1.90162   1.82762   -1.000
 5413.00    1.93994   1.85180   -1.000
 5414.00    1.92139   1.86335   -1.000
 5415.00    1.91494   1.87165   -1.000
 5416.00    1.92664   1.88588   -1.000
 5417.00    1.92935   1.90154   -1.000
 5418.00    1.93428   1.91103   -1.000
 5419.00    1.92789   1.91175  154.708
 5420.00    1.91732   1.90739  156.220
 5421.00    1.91678   1.90094  156.851
 5422.00    1.92248   1.88976   -1.000
 5423.00    1.91950   1.87465   -1.000
 5424.00    1.90143   1.86502   -1.000
 5425.00    1.90940   1.87202   -1.000
 5426.00    1.93611   1.89134   -1.000
 5427.00    1.95403   1.89697   -1.000
 5428.00    1.93764   1.87387   -1.000
 5429.00    1.88230   1.83805   -1.000
 5430.00    1.86408   1.81706   -1.000
 5431.00    1.87980   1.82072   -1.000
 5432.00    1.90468   1.82954   -1.000
 5433.00    1.87310   1.82527   -1.000
 5434.00    1.85002   1.81452   -1.000
 5435.00    1.85538   1.81578   -1.000
 5436.00    1.87935   1.84066   -1.000
 5437.00    1.89630   1.88220  161.414
 5438.00    1.94564   1.92183   -1.000
 5439.00    1.96444   1.94677   -1.000
 5440.00    2.00009   1.95891   -1.000
 5441.00    1.99648   1.96555   -1.000
 5442.00    1.99287   1.96460   -1.000
 5443.00    1.98067   1.94798   -1.000
 5444.00    1.95584   1.91049   -1.000
 5445.00    1.91337   1.85977   -1.000
 5446.00    1.85549   1.81734   -1.000
 5447.00    1.82292   1.80486   -1.000
 5448.00    1.85795   1.82872   -1.000
 5449.00    1.92530   1.87145   -1.000
 5450.00    1.94439   1.90864   -1.000
 5451.00    1.96027   1.92727   -1.000
 5452.00    1.95030   1.92293   -1.000
 5453.00    1.90767   1.89685  157.845
 5454.00    1.87937   1.85807   -1.000
 5455.00    1.83396   1.82669  166.426
 5456.00    1.84008   1.82670  169.008
 5457.00    1.91951   1.86060   -1.000
 5458.00    1.96121   1.90364   -1.000
 5459.00    1.97560   1.93003   -1.000
 5460.00    1.95818   1.92965   -1.000
 5461.00    1.93364   1.90874   -1.000
 5462.00    1.92180   1.88255   -1.000
 5463.00    1.91753   1.86760   -1.000
 5464.00    1.91903   1.87204   -1.000
 5465.00    1.92339   1.89064   -1.000
 5466.00    1.93641   1.91110   -1.000
 5467.00    1.94031   1.92621  158.461
 5468.00    1.94600   1.93618  156.757
 5469.00    1.94526   1.93994  156.527
 5470.00    1.94201   1.93605  158.213
 5471.00    1.95170   1.92712   -1.000
 5472.00    1.94203   1.91553   -1.000
 5473.00    1.92531   1.89990   -1.000
 5474.00    1.89913   1.87679   -1.000
 5475.00    1.88868   1.84656   -1.000
 5476.00    1.85844   1.82110   -1.000
 5477.00    1.83834   1.81687   -1.000
 5478.00    1.86186   1.83830   -1.000
 5479.00    1.91837   1.87010   -1.000
 5480.00    1.93322   1.88925   -1.000
 5481.00    1.91624   1.89206   -1.000
 5482.00    1.89208   1.89386  164.507
 5483.00    1.90954   1.90598  163.589
 5484.00    1.93134   1.92586  160.437
 5485.00    1.92409   1.93978  157.401
 5486.00    1.95528   1.93847   -1.000
 5487.00    1.93414   1.92664  158.512
 5488.00    1.92604   1.91686  160.649
 5489.00    1.91315   1.91758  161.318
 5490.00    1.91901   1.92584  161.104
 5491.00    1.93214   1.93436  159.858
 5492.00    1.92372   1.93947  158.783
 5493.00    1.95774   1.94146   -1.000
 5494.00    1.95833   1.94089   -1.000
 5495.00    1.96206   1.93549   -1.000
 5496.00    1.96003   1.92505   -1.000
 5497.00    1.93806   1.91500   -1.000
 5498.00    1.93318   1.91145   -1.000
 5499.00    1.96500   1.91305   -1.000
 5500.00    1.95520   1.90932   -1.000
 5501.00    1.91982   1.89706   -1.000
 5502.00    1.89477   1.88895  162.507
 5503.00    1.92011   1.89137   -1.000
 5504.00    1.94304   1.89444   -1.000
 5505.00    1.93295   1.88852   -1.000
 5506.00    1.91393   1.87640   -1.000
 5507.00    1.90232   1.87283   -1.000
 5508.00    1.92082   1.88500   -1.000
 5509.00    1.94886   1.90203   -1.000
 5510.00    1.94698   1.90883   -1.000
 5511.00    1.92117   1.89860   -1.000
 5512.00    1.89937   1.87832   -1.000
 5513.00    1.88790   1.86349   -1.000
 5514.00    1.88720   1.86558   -1.000
 5515.00    1.91495   1.88362   -1.000
 5516.00    1.95316   1.90858   -1.000
 5517.00    1.97916   1.93317   -1.000
 5518.00    2.02333   1.95313   -1.000
 5519.00    2.02486   1.96562   -1.000
 5520.00    2.01475   1.97023   -1.000
 5521.00    2.02069   1.97019   -1.000
 5522.00    2.00619   1.96906   -1.000
 5523.00    1.99944   1.96612   -1.000
 5524.00    1.98502   1.95525   -1.000
 5525.00    1.95934   1.93159   -1.000
 5526.00    1.92697   1.89735   -1.000
 5527.00    1.90509   1.86423   -1.000
 5528.00    1.89297   1.84975   -1.000
 5529.00    1.90614   1.86479   -1.000
 5530.00    1.97085   1.90132   -1.000
 5531.00    1.98347   1.93462   -1.000
 5532.00    1.98101   1.94776   -1.000
 5533.00    1.96448   1.94273   -1.000
 5534.00    1.95784   1.93161   -1.000
 5535.00    1.95088   1.92666   -1.000
 5536.00    1.96461   1.93253   -1.000
 5537.00    1.99393   1.94356   -1.000
 5538.00    1.99358   1.95218   -1.000
 5539.00    2.00568   1.95938   -1.000
 5540.00    2.00900   1.96780   -1.000
 5541.00    2.00665   1.97197   -1.000
 5542.00    2.00808   1.96654   -1.000
 5543.00    2.00223   1.95607   -1.000
 5544.00    1.97974   1.94991   -1.000
 5545.00    1.98111   1.95236   -1.000
 5546.00    2.00168   1.95999   -1.000
 5547.00    2.00852   1.96994   -1.000
 5548.00    2.01759   1.98233   -1.000
 5549.00    2.02994   1.99342   -1.000
 5550.00    2.03572   1.99832   -1.000
 5551.00    2.03600   1.99646   -1.000
 5552.00    2.02858   1.98905   -1.000
 5553.00    2.01317   1.97910   -1.000
 5554.00    2.00259   1.97236   -1.000
 5555.00    2.01598   1.97233   -1.000
 5556.00    2.02442   1.97648   -1.000
 5557.00    2.02238   1.98073   -1.000
 5558.00    2.02091   1.98463   -1.000
 5559.00    2.01396   1.98737   -1.000
 5560.00    2.02200   1.98521   -1.000
 5561.00    2.00949   1.97594   -1.000
 5562.00    1.99248   1.96289   -1.000
 5563.00    1.98023   1.95190   -1.000
 5564.00    1.96770   1.94504   -1.000
 5565.00    1.97701   1.94072   -1.000
 5566.00    1.97657   1.93747   -1.000
 5567.00    1.97474   1.93472   -1.000
 5568.00    1.98290   1.93216   -1.000
 5569.00    1.97418   1.92960   -1.000
 5570.00    1.97776   1.92656   -1.000
 5571.00    1.98119   1.92207   -1.000
 5572.00    1.97672   1.91702   -1.000
 5573.00    1.95801   1.91658   -1.000
 5574.00    1.88153   1.92426   -1.000
 5575.00    1.60215   1.93473   -1.000
 5576.00    1.15004   1.94372   -1.000
 5577.00    1.55410   1.95415   -1.000
 5578.00    3.65967   1.96615   -1.000
 5579.00    6.26194   1.97477   -1.000
 5580.00    8.09883   1.97709   -1.000
 5581.00    6.23933   1.97554   -1.000
 5582.00    3.33872   1.97365   -1.000
 5583.00    2.16923   1.97135   -1.000
 5584.00    2.03600   1.96318   -1.000
 5585.00    2.00567   1.93908   -1.000
 5586.00    1.95832   1.89693   -1.000
 5587.00    1.91031   1.85353   -1.000
 5588.00    1.88277   1.82915   -1.000
 5589.00    1.90125   1.83114   -1.000
 5590.00    1.92134   1.85443   -1.000
 5591.00    1.95067   1.88428   -1.000
 5592.00    1.97460   1.90526   -1.000
 5593.00    1.97007   1.91284   -1.000
 5594.00    1.94948   1.91612   -1.000
 5595.00    1.96134   1.92404   -1.000
 5596.00    1.98242   1.93352   -1.000
 5597.00    1.97725   1.93281   -1.000
 5598.00    1.96220   1.91978   -1.000
 5599.00    1.94269   1.90605   -1.000
 5600.00    1.93605   1.89576   -1.000
 5601.00    1.93095   1.88593   -1.000
 5602.00    1.91886   1.88471   -1.000
 5603.00    1.91435   1.90328  168.247
 5604.00    1.94808   1.94005  164.878
 5605.00    2.00803   1.98195   -1.000
 5606.00    2.03183   2.01435   -1.000
 5607.00    2.06010   2.03191   -1.000
 5608.00    2.07675   2.03846   -1.000
 5609.00    2.06175   2.03991   -1.000
 5610.00    2.05121   2.04072  155.868
 5611.00    2.06554   2.03967   -1.000
 5612.00    2.04982   2.02795   -1.000
 5613.00    2.03138   1.99692   -1.000
 5614.00    1.98714   1.95044   -1.000
 5615.00    1.93969   1.90886   -1.000
 5616.00    1.95082   1.89716   -1.000
 5617.00    1.96546   1.91839   -1.000
 5618.00    1.99262   1.95012   -1.000
 5619.00    2.00264   1.97493   -1.000
 5620.00    2.01711   1.98973   -1.000
 5621.00    2.02362   1.99600   -1.000
 5622.00    2.01584   1.99229   -1.000
 5623.00    2.00563   1.97746   -1.000
 5624.00    1.97510   1.96001   -1.000
 5625.00    1.96021   1.95425  166.133
 5626.00    1.97604   1.96530  164.752
 5627.00    1.99682   1.98676  161.819
 5628.00    2.01921   2.00828  159.601
 5629.00    2.01822   2.02406  157.879
 5630.00    2.02472   2.03335  156.872
 5631.00    2.05395   2.03482   -1.000
 5632.00    2.05708   2.02880   -1.000
 5633.00    2.04843   2.01934   -1.000
 5634.00    2.03500   2.00939   -1.000
 5635.00    2.03169   1.99955   -1.000
 5636.00    2.04017   1.99093   -1.000
 5637.00    2.02460   1.98509   -1.000
 5638.00    2.00007   1.98376   -1.000
 5639.00    1.99009   1.98541  161.741
 5640.00    1.98976   1.98548  161.646
 5641.00    1.99512   1.98416  162.226
 5642.00    2.00706   1.98584   -1.000
 5643.00    2.01349   1.99052   -1.000
 5644.00    2.00840   1.99601  160.726
 5645.00    2.01893   2.00201   -1.000
 5646.00    2.02633   2.00727   -1.000
 5647.00    2.02042   2.00960  158.918
 5648.00    2.02785   2.00847   -1.000
 5649.00    2.03996   2.00609   -1.000
 5650.00    2.05557   2.00613   -1.000
 5651.00    2.07002   2.00908   -1.000
 5652.00    2.07764   2.01071   -1.000
 5653.00    2.05838   2.00730   -1.000
 5654.00    2.05062   1.99792   -1.000
 5655.00    2.05329   1.98271   -1.000
 5656.00    2.01401   1.96043   -1.000
 5657.00    1.96748   1.93315   -1.000
 5658.00    1.95004   1.91338   -1.000
 5659.00    1.93832   1.91298   -1.000
 5660.00    1.96105   1.92747   -1.000
 5661.00    1.97276   1.94374   -1.000
 5662.00    1.96187   1.95516  164.556
 5663.00    1.97542   1.96549  164.645
 5664.00    2.01190   1.98078   -1.000
 5665.00    2.03146   1.99598   -1.000
 5666.00    2.01780   2.00154   -1.000
 5667.00    2.00752   1.99854  161.098
 5668.00    1.99432   1.99507  161.972
 5669.00    2.01175   1.99668   -1.000
 5670.00    2.02037   2.00386   -1.000
 5671.00    2.03177   2.01357   -1.000
 5672.00    2.03406   2.02277  158.838
 5673.00    2.06815   2.02973   -1.000
 5674.00    2.06888   2.03323   -1.000
 5675.00    2.03791   2.03380  156.184
 5676.00    2.07170   2.03450   -1.000
 5677.00    2.06970   2.03603   -1.000
 5678.00    2.06033   2.03548   -1.000
 5679.00    2.05014   2.02943   -1.000
 5680.00    2.03669   2.01623   -1.000
 5681.00    2.02321   1.99717   -1.000
 5682.00    2.01106   1.97784   -1.000
 5683.00    2.01449   1.96628   -1.000
 5684.00    2.01802   1.96710   -1.000
 5685.00    2.01626   1.97537   -1.000
 5686.00    2.01693   1.97939   -1.000
 5687.00    2.02885   1.97485   -1.000
 5688.00    2.02594   1.96942   -1.000
 5689.00    2.00109   1.97314   -1.000
 5690.00    2.02944   1.98869   -1.000
 5691.00    2.07370   2.00886   -1.000
 5692.00    2.08314   2.02492   -1.000
 5693.00    2.06828   2.03440   -1.000
 5694.00    2.07256   2.03917   -1.000
 5695.00    2.08890   2.04078   -1.000
 5696.00    2.05994   2.03918   -1.000
 5697.00    2.05142   2.03346   -1.000
 5698.00    2.04811   2.02260   -1.000
 5699.00    2.03237   2.00871   -1.000
 5700.00    2.02297   1.99623   -1.000
 5701.00    2.01631   1.98908   -1.000
 5702.00    2.01622   1.98887   -1.000
 5703.00    2.01338   1.99360   -1.000
 5704.00    2.01807   1.99766   -1.000
 5705.00    2.02695   1.99451   -1.000
 5706.00    2.00787   1.98243   -1.000
 5707.00    1.97203   1.96301  165.052
 5708.00    1.93911   1.93971  168.167
 5709.00    1.91802   1.92103  170.528
 5710.00    1.93454   1.91598   -1.000
 5711.00    1.95188   1.92715   -1.000
 5712.00    1.99543   1.95203   -1.000
 5713.00    2.02508   1.98378   -1.000
 5714.00    2.03047   2.01169   -1.000
 5715.00    2.06512   2.02859   -1.000
 5716.00    2.06748   2.03657   -1.000
 5717.00    2.07752   2.04241   -1.000
 5718.00    2.08271   2.04934   -1.000
 5719.00    2.08397   2.05785   -1.000
 5720.00    2.10654   2.06736   -1.000
 5721.00    2.12571   2.07600   -1.000
 5722.00    2.10715   2.08179   -1.000
 5723.00    2.09281   2.08427  154.299
 5724.00    2.10764   2.08298   -1.000
 5725.00    2.11346   2.07611   -1.000
 5726.00    2.07075   2.06490  156.184
 5727.00    2.04594   2.05576  157.827
 5728.00    2.06463   2.05356  158.795
 5729.00    2.07191   2.05674   -1.000
 5730.00    2.08898   2.05932   -1.000
 5731.00    2.08351   2.05851   -1.000
 5732.00    2.06754   2.05897  158.215
 5733.00    2.06820   2.06530  157.327
 5734.00    2.09665   2.07548   -1.000
 5735.00    2.10811   2.08305   -1.000
 5736.00    2.11225   2.08455   -1.000
 5737.00    2.10558   2.08254   -1.000
 5738.00    2.08498   2.08098  155.926
 5739.00    2.08945   2.08114  156.009
 5740.00    2.09858   2.08095   -1.000
 5741.00    2.07327   2.07857  156.603
 5742.00    2.06350   2.07607  156.902
 5743.00    2.08549   2.07681  156.451
 5744.00    2.10540   2.08069   -1.000
 5745.00    2.12694   2.08354   -1.000
 5746.00    2.11971   2.08163   -1.000
 5747.00    2.08827   2.07743  155.515
 5748.00    2.07295   2.07639  157.040
 5749.00    2.07795   2.07901  157.336
 5750.00    2.07948   2.07813  156.269
 5751.00    2.10296   2.06743   -1.000
 5752.00    2.07357   2.05013   -1.000
 5753.00    2.03625   2.03621  159.528
 5754.00    2.04362   2.03562  160.901
 5755.00    2.07044   2.05037   -1.000
 5756.00    2.09583   2.07238   -1.000
 5757.00    2.11043   2.09091   -1.000
 5758.00    2.11173   2.09891  153.687
 5759.00    2.10887   2.09548  154.574
 5760.00    2.10551   2.08275   -1.000
 5761.00    2.07017   2.06486  158.566
 5762.00    2.06041   2.05092  160.608
 5763.00    2.05948   2.05091  160.959
 5764.00    2.08431   2.06619   -1.000
 5765.00    2.09533   2.08806  155.933
 5766.00    2.11780   2.10455  154.304
 5767.00    2.12684   2.11087   -1.000
 5768.00    2.12368   2.11064  153.877
 5769.00    2.11619   2.10827  153.655
 5770.00    2.10314   2.10479  154.070
 5771.00    2.09678   2.09885  154.632
 5772.00    2.11320   2.09048   -1.000
 5773.00    2.11700   2.08288   -1.000
 5774.00    2.08740   2.07927  156.758
 5775.00    2.08330   2.08052  156.884
 5776.00    2.09113   2.08494  156.442
 5777.00    2.09619   2.08627  155.665
 5778.00    2.06686   2.07761  155.672
 5779.00    2.04083   2.05913  156.409
 5780.00    2.01081   2.03772   -1.000
 5781.00    1.97653   2.02176   -1.000
 5782.00    1.97054   2.01621   -1.000
 5783.00    1.99088   2.01929   -1.000
 5784.00    2.01334   2.02529  163.056
 5785.00    2.04351   2.03150  162.479
 5786.00    2.07619   2.04162   -1.000
 5787.00    2.08633   2.05682   -1.000
 5788.00    2.09640   2.06945   -1.000
 5789.00    2.10874   2.07280   -1.000
 5790.00    2.09715   2.06914   -1.000
 5791.00    2.08200   2.06735   -1.000
 5792.00    2.07779   2.07380  157.331
 5793.00    2.10295   2.08630   -1.000
 5794.00    2.11720   2.09929   -1.000
 5795.00    2.10028   2.10799  154.074
 5796.00    2.09132   2.10872  154.168
 5797.00    2.06742   2.10314   -1.000
 5798.00    2.07239   2.09964   -1.000
 5799.00    2.11195   2.10385  154.962
 5800.00    2.14530   2.11274   -1.000
 5801.00    2.15279   2.12038   -1.000
 5802.00    2.15020   2.12245   -1.000
 5803.00    2.14077   2.11744   -1.000
 5804.00    2.11763   2.10827  153.508
 5805.00    2.12258   2.10120   -1.000
 5806.00    2.12125   2.10035   -1.000
 5807.00    2.11457   2.10408  154.744
 5808.00    2.12912   2.10852   -1.000
 5809.00    2.12553   2.11254  153.758
 5810.00    2.13953   2.11681   -1.000
 5811.00    2.16329   2.12000   -1.000
 5812.00    2.16859   2.11998   -1.000
 5813.00    2.15958   2.11629   -1.000
 5814.00    2.15501   2.10911   -1.000
 5815.00    2.14409   2.10069   -1.000
 5816.00    2.13377   2.09750   -1.000
 5817.00    2.14692   2.10415   -1.000
 5818.00    2.17365   2.11630   -1.000
 5819.00    2.18700   2.12556   -1.000
 5820.00    2.16275   2.12905   -1.000
 5821.00    2.18085   2.12969   -1.000
 5822.00    2.19095   2.13050   -1.000
 5823.00    2.16997   2.13134   -1.000
 5824.00    2.16203   2.13107   -1.000
 5825.00    2.15492   2.13081   -1.000
 5826.00    2.16038   2.13243   -1.000
 5827.00    2.18274   2.13551   -1.000
 5828.00    2.17556   2.13768   -1.000
 5829.00    2.18350   2.13789   -1.000
 5830.00    2.19114   2.13732   -1.000
 5831.00    2.18827   2.13663   -1.000
 5832.00    2.16363   2.13494   -1.000
 5833.00    2.16968   2.13165   -1.000
 5834.00    2.16371   2.12851   -1.000
 5835.00    2.17929   2.12860   -1.000
 5836.00    2.18134   2.13257   -1.000
 5837.00    2.17500   2.13726   -1.000
 5838.00    2.15981   2.13952   -1.000
 5839.00    2.14179   2.14013  152.299
 5840.00    2.15718   2.14140   -1.000
 5841.00    2.17234   2.14309   -1.000
 5842.00    2.17493   2.14323   -1.000
 5843.00    2.16796   2.14131   -1.000
 5844.00    2.15516   2.13750   -1.000
 5845.00    2.15782   2.13141   -1.000
 5846.00    2.16523   2.12434   -1.000
 5847.00    2.17015   2.12001   -1.000
 5848.00    2.16154   2.11994   -1.000
 5849.00    2.14583   2.12021   -1.000
 5850.00    2.13256   2.11561   -1.000
 5851.00    2.11724   2.10474  154.709
 5852.00    2.11267   2.09088   -1.000
 5853.00    2.10406   2.07872   -1.000
 5854.00    2.09836   2.06932   -1.000
 5855.00    2.09569   2.05823   -1.000
 5856.00    2.10205   2.03986   -1.000
 5857.00    2.07711   2.02075   -1.000
 5858.00    2.07266   2.01722   -1.000
 5859.00    2.10525   2.03275   -1.000
 5860.00    2.12338   2.05564   -1.000
 5861.00    2.14945   2.07447   -1.000
 5862.00    2.15345   2.08662   -1.000
 5863.00    2.14213   2.09557   -1.000
 5864.00    2.13842   2.10043   -1.000
 5865.00    2.12016   2.09743   -1.000
 5866.00    2.11152   2.08997   -1.000
 5867.00    2.11704   2.08644   -1.000
 5868.00    2.13393   2.09282   -1.000
 5869.00    2.17355   2.10747   -1.000
 5870.00    2.16257   2.12159   -1.000
 5871.00    2.17161   2.12762   -1.000
 5872.00    2.16020   2.12492   -1.000
 5873.00    2.15940   2.11806   -1.000
 5874.00    2.15338   2.11152   -1.000
 5875.00    2.15555   2.10702   -1.000
 5876.00    2.15085   2.10424   -1.000
 5877.00    2.12579   2.10181   -1.000
 5878.00    2.15694   2.09805   -1.000
 5879.00    2.17332   2.09253   -1.000
 5880.00    2.15650   2.08603   -1.000
 5881.00    2.14006   2.07831   -1.000
 5882.00    2.13103   2.06836   -1.000
 5883.00    2.12163   2.05697   -1.000
 5884.00    2.12136   2.04600   -1.000
 5885.00    2.12793   2.03279   -1.000
 5886.00    2.09204   2.00249   -1.000
 5887.00    2.01028   1.93567   -1.000
 5888.00    1.85142   1.83425   -1.000
 5889.00    1.61700   1.73657   -1.000
 5890.00    1.50632   1.69614   -1.000
 5891.00    1.62912   1.72319   -1.000
 5892.00    1.93110   1.77222   -1.000
 5893.00    2.07211   1.79613   -1.000
 5894.00    1.96707   1.78151   -1.000
 5895.00    1.78344   1.75187   -1.000
 5896.00    1.65717   1.74552   -1.000
 5897.00    1.74683   1.78382   -1.000
 5898.00    1.96134   1.85105   -1.000
 5899.00    2.10235   1.91616   -1.000
 5900.00    2.11193   1.96874   -1.000
 5901.00    2.08578   2.01116   -1.000
 5902.00    2.09962   2.04208   -1.000
 5903.00    2.11151   2.06033   -1.000
 5904.00    2.10153   2.06916   -1.000
 5905.00    2.10927   2.07426   -1.000
 5906.00    2.12431   2.07948   -1.000
 5907.00    2.11429   2.08504   -1.000
 5908.00    2.11888   2.09021   -1.000
 5909.00    2.12575   2.09452   -1.000
 5910.00    2.13300   2.09696   -1.000
 5911.00    2.13140   2.09546   -1.000
 5912.00    2.13171   2.08732   -1.000
 5913.00    2.10638   2.07380   -1.000
 5914.00    2.09254   2.06191   -1.000
 5915.00    2.08331   2.05755   -1.000
 5916.00    2.07162   2.06181  162.133
 5917.00    2.11872   2.07261   -1.000
 5918.00    2.11061   2.08564   -1.000
 5919.00    2.11835   2.09549   -1.000
 5920.00    2.13216   2.09970   -1.000
 5921.00    2.11517   2.09989   -1.000
 5922.00    2.09952   2.09896  159.171
 5923.00    2.10398   2.09970  159.261
 5924.00    2.11666   2.10365  158.506
 5925.00    2.10265   2.10978  158.066
 5926.00    2.09838   2.11351  157.816
 5927.00    2.13095   2.10981   -1.000
 5928.00    2.15527   2.09890   -1.000
 5929.00    2.13527   2.08773   -1.000
 5930.00    2.12236   2.08415   -1.000
 5931.00    2.13455   2.09008   -1.000
 5932.00    2.13259   2.09850   -1.000
 5933.00    2.11001   2.10177  157.990
 5934.00    2.09771   2.10232  159.427
 5935.00    2.14101   2.10618   -1.000
 5936.00    2.15441   2.11346   -1.000
 5937.00    2.13237   2.11990  159.229
 5938.00    2.16179   2.12102   -1.000
 5939.00    2.16144   2.11579   -1.000
 5940.00    2.15488   2.10751   -1.000
 5941.00    2.12927   2.10171   -1.000
 5942.00    2.11680   2.10154   -1.000
 5943.00    2.09421   2.10583  160.427
 5944.00    2.10978   2.11128  159.371
 5945.00    2.12339   2.11409  158.477
 5946.00    2.12157   2.11160  157.975
 5947.00    2.10042   2.10471  158.654
 5948.00    2.10531   2.09856  160.231
 5949.00    2.10338   2.09754  161.860
 5950.00    2.11416   2.10058  161.914
 5951.00    2.12708   2.10172   -1.000
 5952.00    2.10896   2.09847  160.486
 5953.00    2.09739   2.09656  161.018
 5954.00    2.11292   2.09818   -1.000
 5955.00    2.13781   2.09817   -1.000
 5956.00    2.14871   2.09579   -1.000
 5957.00    2.11786   2.09602   -1.000
 5958.00    2.09919   2.10239  161.416
 5959.00    2.12382   2.11399  160.583
 5960.00    2.14999   2.12570   -1.000
 5961.00    2.17389   2.13330   -1.000
 5962.00    2.17753   2.13620   -1.000
 5963.00    2.17211   2.13505   -1.000
 5964.00    2.16865   2.13088   -1.000
 5965.00    2.14711   2.12591   -1.000
 5966.00    2.14334   2.12295   -1.000
 5967.00    2.14851   2.12364   -1.000
 5968.00    2.13966   2.12744  158.454
 5969.00    2.14402   2.13336  157.186
 5970.00    2.15833   2.13997   -1.000
 5971.00    2.16414   2.14451   -1.000
 5972.00    2.16907   2.14495   -1.000
 5973.00    2.17870   2.14026   -1.000
 5974.00    2.17734   2.13004   -1.000
 5975.00    2.15708   2.11631   -1.000
 5976.00    2.12807   2.10447   -1.000
 5977.00    2.11282   2.10087  161.119
 5978.00    2.11872   2.10724  161.681
 5979.00    2.14927   2.11918   -1.000
 5980.00    2.18799   2.12909   -1.000
 5981.00    2.17030   2.13017   -1.000
 5982.00    2.15685   2.12062   -1.000
 5983.00    2.15641   2.10581   -1.000
 5984.00    2.13541   2.09543   -1.000
 5985.00    2.13684   2.09541   -1.000
 5986.00    2.14076   2.10391   -1.000
 5987.00    2.15557   2.11492   -1.000
 5988.00    2.17571   2.12384   -1.000
 5989.00    2.17373   2.12887   -1.000
 5990.00    2.16684   2.13071   -1.000
 5991.00    2.17898   2.13275   -1.000
 5992.00    2.16631   2.13927   -1.000
 5993.00    2.20311   2.14893   -1.000
 5994.00    2.19751   2.15399   -1.000
 5995.00    2.18160   2.15093   -1.000
 5996.00    2.17478   2.14334   -1.000
 5997.00    2.18015   2.13680   -1.000
 5998.00    2.16974   2.13460   -1.000
 5999.00    2.18827   2.13561   -1.000
 6000.00    2.17748   2.13592   -1.000
 6001.00    2.17045   2.13231   -1.000
 6002.00    2.15238   2.12590   -1.000
 6003.00    2.13888   2.12157   -1.000
 6004.00    2.14996   2.12133   -1.000
 6005.00    2.15343   2.11969   -1.000
 6006.00    2.15480   2.11069   -1.000
 6007.00    2.13210   2.09871   -1.000
 6008.00    2.12930   2.09475   -1.000
 6009.00    2.13926   2.10394   -1.000
 6010.00    2.16012   2.11943   -1.000
 6011.00    2.15511   2.12887   -1.000
 6012.00    2.15916   2.12875   -1.000
 6013.00    2.14035   2.12415   -1.000
 6014.00    2.15334   2.12002   -1.000
 6015.00    2.17967   2.11811   -1.000
 6016.00    2.17203   2.11722   -1.000
 6017.00    2.15924   2.11559   -1.000
 6018.00    2.15537   2.11155   -1.000
 6019.00    2.16791   2.10432   -1.000
 6020.00    2.17415   2.09676   -1.000
 6021.00    2.14893   2.09435   -1.000
 6022.00    2.14262   2.09755   -1.000
 6023.00    2.15533   2.10269   -1.000
 6024.00    2.15911   2.11101   -1.000
 6025.00    2.17438   2.12457   -1.000
 6026.00    2.19640   2.13848   -1.000
 6027.00    2.20483   2.14879   -1.000
 6028.00    2.19863   2.15749   -1.000
 6029.00    2.19744   2.16541   -1.000
 6030.00    2.20758   2.17047   -1.000
 6031.00    2.20155   2.17277   -1.000
 6032.00    2.19985   2.17494   -1.000
 6033.00    2.21158   2.17828   -1.000
 6034.00    2.21916   2.18139   -1.000
 6035.00    2.22003   2.18229   -1.000
 6036.00    2.21981   2.18099   -1.000
 6037.00    2.22256   2.17828   -1.000
 6038.00    2.20792   2.17396   -1.000
 6039.00    2.20494   2.16826   -1.000
 6040.00    2.21098   2.16302   -1.000
 6041.00    2.21344   2.16044   -1.000
 6042.00    2.20328   2.16167   -1.000
 6043.00    2.21566   2.16651   -1.000
 6044.00    2.22228   2.17322   -1.000
 6045.00    2.22302   2.17908   -1.000
 6046.00    2.25670   2.18393   -1.000
 6047.00    2.24695   2.18916   -1.000
 6048.00    2.22485   2.19376   -1.000
 6049.00    2.22338   2.19597   -1.000
 6050.00    2.23336   2.19569   -1.000
 6051.00    2.24115   2.19381   -1.000
 6052.00    2.25708   2.18945   -1.000
 6053.00    2.22123   2.18145   -1.000
 6054.00    2.22471   2.17129   -1.000
 6055.00    2.20756   2.16337   -1.000
 6056.00    2.20788   2.16177   -1.000
 6057.00    2.22061   2.16679   -1.000
 6058.00    2.24212   2.17480   -1.000
 6059.00    2.22832   2.18169   -1.000
 6060.00    2.21449   2.18522   -1.000
 6061.00    2.18672   2.18323  157.671
 6062.00    2.32447   2.17324   -1.000
 6063.00    1.88288   2.15508   -1.000
 6064.00    0.75244   2.13488   -1.000
 6065.00    2.33939   2.12540   -1.000
 6066.00    2.33275   2.13390   -1.000
 6067.00    2.21768   2.15337   -1.000
 6068.00    2.30575   2.17315   -1.000
 6069.00    2.04550   2.18763   -1.000
 6070.00    0.47976   2.19569   -1.000
 6071.00    1.91963   2.19946   -1.000
 6072.00    2.32246   2.20195   -1.000
 6073.00    2.21261   2.20431  155.595
 6074.00    2.21955   2.20506   -1.000
 6075.00    2.25532   2.20223   -1.000
 6076.00    2.25849   2.19497   -1.000
 6077.00    2.22331   2.18371   -1.000
 6078.00    2.18088   2.17237  158.655
 6079.00    2.18123   2.16601   -1.000
 6080.00    2.20543   2.16356   -1.000
 6081.00    2.17843   2.16079   -1.000
 6082.00    2.17517   2.15717   -1.000
 6083.00    2.18805   2.15417   -1.000
 6084.00    2.20571   2.15338   -1.000
 6085.00    2.20568   2.15680   -1.000
 6086.00    2.19480   2.16425   -1.000
 6087.00    2.19840   2.17136   -1.000
 6088.00    2.19915   2.17339   -1.000
 6089.00    2.20511   2.17032   -1.000
 6090.00    2.20253   2.16561   -1.000
 6091.00    2.19860   2.16347   -1.000
 6092.00    2.20039   2.16598   -1.000
 6093.00    2.21689   2.17225   -1.000
 6094.00    2.21578   2.17988   -1.000
 6095.00    2.21413   2.18703   -1.000
 6096.00    2.21791   2.19292   -1.000
 6097.00    2.23428   2.19630   -1.000
 6098.00    2.23835   2.19456   -1.000
 6099.00    2.22350   2.18281   -1.000
 6100.00    2.21090   2.15667   -1.000
 6101.00    2.18385   2.12028   -1.000
 6102.00    2.15639   2.09026   -1.000
 6103.00    2.12672   2.08588   -1.000
 6104.00    2.15914   2.10748   -1.000
 6105.00    2.20713   2.13742   -1.000
 6106.00    2.21715   2.16167   -1.000
 6107.00    2.20066   2.17745   -1.000
 6108.00    2.18542   2.18791  160.835
 6109.00    2.19611   2.19468  161.161
 6110.00    2.21151   2.19723   -1.000
 6111.00    2.21134   2.19733   -1.000
 6112.00    2.20572   2.19829  159.897
 6113.00    2.22408   2.20131   -1.000
 6114.00    2.22028   2.20460   -1.000
 6115.00    2.23073   2.20550   -1.000
 6116.00    2.22193   2.20395   -1.000
 6117.00    2.20640   2.20047  160.551
 6118.00    2.18388   2.19141  160.664
 6119.00    2.18752   2.17112   -1.000
 6120.00    2.16975   2.13852   -1.000
 6121.00    2.14430   2.10383   -1.000
 6122.00    2.14329   2.08433   -1.000
 6123.00    2.15380   2.08836   -1.000
 6124.00    2.18874   2.11029   -1.000
 6125.00    2.19313   2.13661   -1.000
 6126.00    2.19463   2.15651   -1.000
 6127.00    2.18152   2.16789   -1.000
 6128.00    2.16110   2.17564  163.386
 6129.00    2.18087   2.18498  163.001
 6130.00    2.18753   2.19637  161.517
 6131.00    2.19304   2.20706  160.023
 6132.00    2.20475   2.21225  159.884
 6133.00    2.18270   2.20378  160.300
 6134.00    2.15609   2.17443  162.063
 6135.00    2.12577   2.12788  166.069
 6136.00    2.07741   2.08294  171.113
 6137.00    2.05701   2.06215  175.159
 6138.00    2.08782   2.06700   -1.000
 6139.00    2.13875   2.08022   -1.000
 6140.00    2.14562   2.09563   -1.000
 6141.00    2.14548   2.11759   -1.000
 6142.00    2.14474   2.14509  164.416
 6143.00    2.14876   2.17115  164.583
 6144.00    2.19642   2.18800  162.635
 6145.00    2.19050   2.19351  160.732
 6146.00    2.20961   2.19088   -1.000
 6147.00    2.20584   2.18381   -1.000
 6148.00    2.18013   2.17466  162.688
 6149.00    2.16725   2.16527  163.878
 6150.00    2.13858   2.16002  164.768
 6151.00    2.15567   2.16362  164.628
 6152.00    2.17466   2.17174  163.934
 6153.00    2.17672   2.17429  162.745
 6154.00    2.15854   2.16924  162.744
 6155.00    2.17901   2.16286   -1.000
 6156.00    2.19264   2.15964   -1.000
 6157.00    2.17717   2.15657   -1.000
 6158.00    2.17173   2.14462   -1.000
 6159.00    2.12565   2.11389  167.854
 6160.00    2.10304   2.06398   -1.000
 6161.00    2.04861   2.01068   -1.000
 6162.00    1.98095   1.97802  181.744
 6163.00    1.98920   1.97895  182.855
 6164.00    2.03042   2.00488   -1.000
 6165.00    2.07309   2.03769   -1.000
 6166.00    2.08488   2.06092   -1.000
 6167.00    2.07109   2.06466  171.604
 6168.00    2.05009   2.05260  172.249
 6169.00    2.02091   2.04412  174.745
 6170.00    2.03045   2.05405   -1.000
 6171.00    2.05498   2.07773   -1.000
 6172.00    2.11574   2.10372  170.890
 6173.00    2.10471   2.12498  168.755
 6174.00    2.10238   2.13889   -1.000
 6175.00    2.10961   2.14624   -1.000
 6176.00    2.10216   2.15105   -1.000
 6177.00    2.10789   2.15613   -1.000
 6178.00    2.13897   2.16070  168.050
 6179.00    2.14362   2.16456  167.168
 6180.00    2.14375   2.16996   -1.000
 6181.00    2.14189   2.17769   -1.000
 6182.00    2.14366   2.18448   -1.000
 6183.00    2.15161   2.18620   -1.000
 6184.00    2.14468   2.18209   -1.000
 6185.00    2.14035   2.17364   -1.000
 6186.00    2.11086   2.16288   -1.000
 6187.00    2.09213   2.15180   -1.000
 6188.00    2.11363   2.13893   -1.000
 6189.00    2.10392   2.11994  172.679
 6190.00    2.07395   2.09786   -1.000
 6191.00    2.03087   2.08767   -1.000
 6192.00    2.04977   2.09857   -1.000
 6193.00    2.10556   2.12163  174.667
 6194.00    2.13876   2.14461  170.036
 6195.00    2.14277   2.16218  167.595
 6196.00    2.12900   2.17231   -1.000
 6197.00    2.13116   2.17369   -1.000
 6198.00    2.11043   2.16724   -1.000
 6199.00    2.09147   2.15843   -1.000
 6200.00    2.08899   2.15520   -1.000
 6201.00    2.08024   2.16063   -1.000
 6202.00    2.09640   2.17190   -1.000
 6203.00    2.09923   2.18463   -1.000
 6204.00    2.09569   2.19515   -1.000
 6205.00    2.11932   2.20175   -1.000
 6206.00    2.13403   2.20531   -1.000
 6207.00    2.13945   2.20696   -1.000
 6208.00    2.13893   2.20594   -1.000
 6209.00    2.14153   2.20016   -1.000
 6210.00    2.14836   2.18757   -1.000
 6211.00    2.12953   2.16809   -1.000
 6212.00    2.09536   2.14572   -1.000
 6213.00    2.07255   2.12752   -1.000
 6214.00    2.04834   2.11835   -1.000
 6215.00    2.04406   2.11691   -1.000
 6216.00    2.06245   2.11775   -1.000
 6217.00    2.07003   2.11561   -1.000
 6218.00    2.06093   2.11121   -1.000
 6219.00    2.04613   2.11028   -1.000
 6220.00    2.07364   2.11694   -1.000
 6221.00    2.01040   2.12852   -1.000
 6222.00    1.95547   2.13841   -1.000
 6223.00    2.11772   2.14432   -1.000
 6224.00    2.12036   2.14741   -1.000
 6225.00    2.10974   2.14826   -1.000
 6226.00    2.09700   2.14531   -1.000
 6227.00    2.09368   2.13437   -1.000
 6228.00    2.09050   2.11317  173.721
 6229.00    2.06992   2.08691  176.311
 6230.00    2.02692   2.06745   -1.000
 6231.00    2.01952   2.06503   -1.000
 6232.00    2.03876   2.08025   -1.000
 6233.00    2.08007   2.10441   -1.000
 6234.00    2.08475   2.12570   -1.000
 6235.00    2.10395   2.13686   -1.000
 6236.00    2.09922   2.13707   -1.000
 6237.00    2.09712   2.13074   -1.000
 6238.00    2.10677   2.12337  173.913
 6239.00    2.08896   2.11761   -1.000
 6240.00    2.06017   2.11301   -1.000
 6241.00    2.06611   2.10704   -1.000
 6242.00    2.07051   2.09719   -1.000
 6243.00    2.05682   2.08382   -1.000
 6244.00    2.02677   2.07081   -1.000
 6245.00    2.04034   2.06470   -1.000
 6246.00    2.06786   2.07216  178.969
 6247.00    2.08098   2.09302  177.106
 6248.00    2.08569   2.11780   -1.000
 6249.00    2.10605   2.13260   -1.000
 6250.00    2.11087   2.12934  173.150
 6251.00    2.07960   2.11082   -1.000
 6252.00    2.02988   2.08787   -1.000
 6253.00    2.02783   2.07168   -1.000
 6254.00    2.01505   2.06573   -1.000
 6255.00    2.02923   2.06626   -1.000
 6256.00    2.02100   2.06771   -1.000
 6257.00    2.00162   2.06897   -1.000
 6258.00    1.96342   2.07337   -1.000
 6259.00    2.00214   2.08408   -1.000
 6260.00    2.06027   2.10104   -1.000
 6261.00    2.08603   2.12097   -1.000
 6262.00    2.08795   2.13808   -1.000
 6263.00    2.10225   2.14765   -1.000
 6264.00    2.09974   2.15140   -1.000
 6265.00    2.08263   2.15503   -1.000
 6266.00    2.07669   2.16104   -1.000
 6267.00    2.09119   2.16591   -1.000
 6268.00    2.08180   2.16522   -1.000
 6269.00    2.06620   2.16072   -1.000
 6270.00    2.07496   2.15830   -1.000
 6271.00    2.09223   2.16036   -1.000
 6272.00    2.09957   2.16260   -1.000
 6273.00    2.10355   2.15712   -1.000
 6274.00    2.10282   2.14092   -1.000
 6275.00    2.08763   2.11788   -1.000
 6276.00    2.04364   2.09532   -1.000
 6277.00    2.01391   2.07879   -1.000
 6278.00    1.97521   2.06921   -1.000
 6279.00    1.92774   2.06729   -1.000
 6280.00    1.90526   2.07538   -1.000
 6281.00    1.91212   2.09270   -1.000
 6282.00    1.92505   2.11531   -1.000
 6283.00    1.92550   2.13766   -1.000
 6284.00    1.95286   2.15516   -1.000
 6285.00    1.95429   2.16637   -1.000
 6286.00    1.98143   2.17252   -1.000
 6287.00    2.01814   2.17476   -1.000
 6288.00    2.05147   2.17233   -1.000
 6289.00    2.06263   2.16605   -1.000
 6290.00    2.08754   2.15972   -1.000
 6291.00    2.08413   2.15604   -1.000
 6292.00    2.08008   2.15506   -1.000
 6293.00    2.08357   2.15522   -1.000
 6294.00    2.07288   2.15342   -1.000
 6295.00    2.05807   2.14623   -1.000
 6296.00    2.06124   2.13448   -1.000
 6297.00    2.08590   2.12377   -1.000
 6298.00    2.28024   2.11757   -1.000
 6299.00    2.57687   2.11294   -1.000
 6300.00    2.97800   2.10690   -1.000
 6301.00    3.92196   2.10425   -1.000
 6302.00    4.85891   2.11343   -1.000
 6303.00    4.80759   2.13415   -1.000
 6304.00    4.07317   2.15705   -1.000
 6305.00    2.98994   2.17438   -1.000
 6306.00    2.32138   2.18427   -1.000
 6307.00    2.16219   2.18794   -1.000
 6308.00    2.12245   2.18835   -1.000
 6309.00    2.12299   2.18819   -1.000
 6310.00    2.10028   2.18733   -1.000
 6311.00    2.09370   2.18441   -1.000
 6312.00    2.09694   2.17776   -1.000
 6313.00    2.08302   2.16722   -1.000
 6314.00    2.07547   2.15573   -1.000
 6315.00    2.05245   2.14580   -1.000
 6316.00    2.04617   2.13825   -1.000
 6317.00    2.04906   2.13501   -1.000
 6318.00    2.04332   2.13982   -1.000
 6319.00    2.04311   2.15317   -1.000
 6320.00    2.06175   2.16877   -1.000
 6321.00    2.06665   2.18082   -1.000
 6322.00    2.08233   2.19124   -1.000
 6323.00    2.08574   2.20300   -1.000
 6324.00    2.11449   2.21342   -1.000
 6325.00    2.12918   2.21910   -1.000
 6326.00    2.11611   2.21990   -1.000
 6327.00    2.10916   2.21855   -1.000
 6328.00    2.10078   2.21773   -1.000
 6329.00    2.10674   2.21832   -1.000
 6330.00    2.12776   2.22030   -1.000
 6331.00    2.13111   2.22172   -1.000
 6332.00    2.13114   2.21767   -1.000
 6333.00    2.06395   2.20422   -1.000
 6334.00    2.07498   2.18402   -1.000
 6335.00    2.09666   2.16624   -1.000
 6336.00    2.06362   2.15992   -1.000
 6337.00    2.07310   2.16629   -1.000
 6338.00    2.09981   2.18041   -1.000
 6339.00    2.13868   2.19765   -1.000
 6340.00    2.14736   2.21305   -1.000
 6341.00    2.12598   2.22109   -1.000
 6342.00    2.11834   2.22032   -1.000
 6343.00    2.09881   2.21449   -1.000
 6344.00    2.08283   2.20899   -1.000
 6345.00    2.08502   2.20801   -1.000
 6346.00    2.10303   2.21401   -1.000
 6347.00    2.12141   2.22657   -1.000
 6348.00    2.12374   2.24090   -1.000
 6349.00    2.12031   2.25125   -1.000
 6350.00    2.13595   2.25523   -1.000
 6351.00    2.13532   2.25307   -1.000
 6352.00    2.10607   2.24562   -1.000
 6353.00    2.10105   2.23498   -1.000
 6354.00    2.07806   2.22496   -1.000
 6355.00    2.06781   2.21819   -1.000
 6356.00    2.07014   2.21270   -1.000
 6357.00    2.08597   2.20599   -1.000
 6358.00    2.09365   2.19957   -1.000
 6359.00    2.06875   2.19466   -1.000
 6360.00    2.10664   2.18949   -1.000
 6361.00    2.15764   2.18399   -1.000
 6362.00    2.22794   2.18129   -1.000
 6363.00    2.37499   2.18368   -1.000
 6364.00    2.66243   2.19055   -1.000
 6365.00    2.94719   2.19999   -1.000
 6366.00    2.99684   2.21012   -1.000
 6367.00    2.77724   2.21798   -1.000
 6368.00    2.40898   2.22104   -1.000
 6369.00    2.20356   2.22071  166.157
 6370.00    2.15179   2.22164   -1.000
 6371.00    2.10563   2.22683   -1.000
 6372.00    2.07617   2.23471   -1.000
 6373.00    2.08040   2.24107   -1.000
 6374.00    2.10054   2.24293   -1.000
 6375.00    2.10304   2.24012   -1.000
 6376.00    2.09989   2.23431   -1.000
 6377.00    2.08895   2.22806   -1.000
 6378.00    2.06705   2.22243   -1.000
 6379.00    2.05563   2.21695   -1.000
 6380.00    2.03985   2.21153   -1.000
 6381.00    2.03834   2.20723   -1.000
 6382.00    2.04984   2.20541   -1.000
 6383.00    2.03392   2.20733   -1.000
 6384.00    2.02141   2.21326   -1.000
 6385.00    2.02390   2.22089   -1.000
 6386.00    2.02431   2.22623   -1.000
 6387.00    2.00832   2.22766   -1.000
 6388.00    2.02451   2.22663   -1.000
 6389.00    2.04005   2.22361   -1.000
 6390.00    1.99559   2.21569   -1.000
 6391.00    1.97288   2.20164   -1.000
 6392.00    1.94140   2.18755   -1.000
 6393.00    1.92347   2.18255   -1.000
 6394.00    1.91549   2.19039   -1.000
 6395.00    1.93431   2.20512   -1.000
 6396.00    1.95576   2.21491   -1.000
 6397.00    1.94490   2.21096   -1.000
 6398.00    1.91264   2.19519   -1.000
 6399.00    1.87536   2.18062   -1.000
 6400.00    1.84638   2.17929   -1.000
 6401.00    1.87891   2.19294   -1.000
 6402.00    1.88770   2.21421   -1.000
 6403.00    1.89125   2.23300   -1.000
 6404.00    1.91390   2.24145   -1.000
 6405.00    1.88766   2.23724   -1.000
 6406.00    1.87145   2.22610   -1.000
 6407.00    1.86116   2.21758   -1.000
 6408.00    1.82631   2.21590   -1.000
 6409.00    1.80140   2.21624   -1.000
 6410.00    1.79573   2.21458   -1.000
 6411.00    1.79699   2.21439   -1.000
 6412.00    1.76387   2.21910   -1.000
 6413.00    1.74488   2.22629   -1.000
 6414.00    1.75559   2.23215   -1.000
 6415.00    1.76582   2.23578   -1.000
 6416.00    1.73057   2.23703   -1.000
 6417.00    1.71594   2.23333   -1.000
 6418.00    1.69521   2.22281   -1.000
 6419.00    1.66887   2.20904   -1.000
 6420.00    1.64699   2.20060   -1.000
 6421.00    1.62130   2.20594   -1.000
 6422.00    1.61099   2.22412   -1.000
 6423.00    1.61718   2.24524   -1.000
 6424.00    1.62916   2.26258   -1.000
 6425.00    1.60418   2.27451   -1.000
 6426.00    1.58969   2.27966   -1.000
 6427.00    1.56182   2.27495   -1.000
 6428.00    1.53173   2.25892   -1.000
