###################################################################
## OUTPUT of StarlightChains_v04.for    [Cid@UFSC - 01/Apr/2007] ##
###################################################################

## Some input info
NGC6342_a_2.cxt                          [arq_obs]
Base.BC03.N                              [arq_base]
NGC6342_a_2.msk                          [arq_masks]
StCv04.C99.config                        [arq_config]
   45                                    [N_base]
    0                                    [N_YAV_components = # of components with extra extinction!]
    0                                    [i_FitPowerLaw (1/0 = Yes/No)]
-9.99                                    [alpha_PowerLaw]
CCM                                      [red_law_option]
 1.458241                                [q_norm = A(l_norm)/A(V)]

## (Re)Sampling Parameters
 3359.00                                 [l_ini (A)]
 6428.00                                 [l_fin (A)]
    1.00                                 [dl    (A)]     (OBS: dl_cushion =    50.00 A)

## Normalization info
 4020.00                                 [l_norm (A) - for base]
 4010.00                                 [llow_norm (A) - window for f_obs]
 4060.00                                 [lupp_norm (A) - window for f_obs]
3.704827E-15                             [fobs_norm (in input units)]

## S/N
 4730.00                                 [llow_SN (A) - window for S/N]
 4780.00                                 [lupp_SN (A) - window for S/N]
  43.866                                 [S/N in S/N window]
  28.421                                 [S/N in norm. window]
 215.944                                 [S/N_err in S/N window]
 139.911                                 [S/N_err in norm. window]
  1.0000                                 [fscale_chi2]

## etc...
  2147483614                             [idum_orig]
  3067                                   [NOl_eff]
   664                                   [Nl_eff]
  2403    NSIGMA                         [Ntot_cliped & clip_method]
  1594320                                [Nglobal_steps]
   7                                     [N_chains]
   9                                     [NEX0s_base = N_base in EX0s-fits]
 0   0   1      177   2.0   3.168E+02    [Clip-Bug, RC-Crash & Burn-In warning-flags, n_censored_weights, wei_nsig_threshold & wei_limit]
    23     23.109     23.105      0.004  [idt_all, wdt_TotTime, wdt_UsrTime & wdt_SysTime (sec)]

## Synthesis Results - Best model ##

 2.77162E+00                             [chi2/Nl_eff]
     1.64733                             [adev (%)]

    97.43163                             [sum-of-x (%)]
 2.08966E-14                             [Flux_tot (units of input spectrum!)]
 5.26443E-10                             [Mini_tot (???)]
 2.71935E-10                             [Mcor_tot (???)]

 -22.73                                  [v0_min  (km/s)]
  46.30                                  [vd_min  (km/s)]
 1.3074                                  [AV_min  (mag)]
 0.0000                                  [YAV_min (mag)]

# j     x_j(%)      Mini_j(%)     Mcor_j(%)     age_j(yr)     Z_j      (L/M)_j    YAV?  Mstars   component_j        a/Fe...       SSP_chi2r SSP_adev(%)   SSP_AV   SSP_x(%)
  1      0.0000     0.0000E+00    0.0000E+00    1.000000E+06  0.00400  1.114E-02    0   1.0000   age020_m42            0.0000     3.2048E+03    39.0577   4.0000    99.4084
  2      4.2064     4.2074E-03    8.1444E-03    3.160000E+06  0.00400  4.073E-02    0   0.9999   age045_m42            0.0000     2.5648E+02    12.0885   4.0000    93.7448
  3      0.0000     0.0000E+00    0.0000E+00    5.010000E+06  0.00400  2.534E-02    0   0.9488   age055_m42            0.0000     8.9526E+02    22.9888   4.0000    97.5759
  4      2.2970     7.3627E-03    1.2632E-02    1.000000E+07  0.00400  1.271E-02    0   0.8862   age070_m42            0.0000     3.4406E+02    14.5088   3.6861    89.0769
  5      0.0000     0.0000E+00    0.0000E+00    2.512000E+07  0.00400  5.070E-03    0   0.8174   age090_m42            0.0000     3.1802E+02    13.9283   3.5624    90.5658
  6      0.0000     0.0000E+00    0.0000E+00    4.000000E+07  0.00400  3.505E-03    0   0.7851   age104_m42            0.0000     2.3768E+02    11.8661   3.2632    93.3244
  7      0.0000     0.0000E+00    0.0000E+00    1.015200E+08  0.00400  2.268E-03    0   0.7207   age116_m42            0.0000     4.7366E+02    12.4090   3.3340   100.9983
  8      0.0000     0.0000E+00    0.0000E+00    2.861200E+08  0.00400  1.079E-03    0   0.6613   age125_m42            0.0000     4.9968E+02    12.4489   2.8558   102.5163
  9      0.0000     0.0000E+00    0.0000E+00    6.405400E+08  0.00400  5.077E-04    0   0.6197   age132_m42            0.0000     5.0962E+02    12.7366   2.4834   106.7959
 10      0.0000     0.0000E+00    0.0000E+00    9.047900E+08  0.00400  3.535E-04    0   0.6024   age135_m42            0.0000     3.4320E+02    10.3249   2.2373   106.3219
 11      0.0000     0.0000E+00    0.0000E+00    1.434000E+09  0.00400  1.910E-04    0   0.5716   age139_m42            0.0000     1.4658E+02     6.7462   1.7234   105.1016
 12      9.1115     3.7809E+00    3.9986E+00    2.500000E+09  0.00400  9.818E-05    0   0.5463   age150_m42            0.0000     2.9274E+01     3.2147   1.4479   100.4925
 13     65.7305     5.6759E+01    5.7446E+01    5.000000E+09  0.00400  4.718E-05    0   0.5228   age161_m42            0.0000     4.7051E+00     1.9296   1.2748    97.4185
 14      7.3992     1.3671E+01    1.3180E+01    1.100000E+10  0.00400  2.205E-05    0   0.4980   age185_m42            0.0000     2.3324E+01     3.3498   1.0227    95.3167
 15      1.9567     4.2335E+00    4.0381E+00    1.300000E+10  0.00400  1.883E-05    0   0.4927   age193_m42            0.0000     2.8763E+01     3.6773   1.0049    95.2114
 16      0.0000     0.0000E+00    0.0000E+00    1.000000E+06  0.02000  1.989E-02    0   1.0000   age020_m62            0.0000     3.0060E+03    37.8308   4.0000    99.7088
 17      0.0000     0.0000E+00    0.0000E+00    3.160000E+06  0.02000  3.772E-02    0   0.9858   age045_m62            0.0000     2.3079E+03    34.3157   4.0000   100.0435
 18      0.0000     0.0000E+00    0.0000E+00    5.010000E+06  0.02000  3.227E-02    0   0.9342   age055_m62            0.0000     5.6912E+02    18.8985   4.0000    97.3625
 19      0.0000     0.0000E+00    0.0000E+00    1.000000E+07  0.02000  1.011E-02    0   0.8751   age070_m62            0.0000     6.8602E+02    19.6215   3.6813    85.6870
 20      0.0000     0.0000E+00    0.0000E+00    2.512000E+07  0.02000  4.206E-03    0   0.8099   age090_m62            0.0000     5.0665E+02    17.3906   3.6328    86.1725
 21      0.0000     0.0000E+00    0.0000E+00    4.000000E+07  0.02000  3.373E-03    0   0.7799   age104_m62            0.0000     2.7752E+02    11.5962   3.4834    94.4744
 22      0.0000     0.0000E+00    0.0000E+00    1.015200E+08  0.02000  1.878E-03    0   0.7221   age116_m62            0.0000     4.4412E+02    11.6223   3.3482   101.6065
 23      0.0000     0.0000E+00    0.0000E+00    2.861200E+08  0.02000  8.869E-04    0   0.6700   age125_m62            0.0000     7.4869E+02    15.3489   2.8818   107.1696
 24      0.0000     0.0000E+00    0.0000E+00    6.405400E+08  0.02000  3.657E-04    0   0.6322   age132_m62            0.0000     4.9431E+02    12.1551   2.2181   110.0536
 25      0.0000     0.0000E+00    0.0000E+00    9.047900E+08  0.02000  2.312E-04    0   0.6152   age135_m62            0.0000     2.8160E+02     8.9939   1.8403   109.2716
 26      0.0000     0.0000E+00    0.0000E+00    1.434000E+09  0.02000  1.168E-04    0   0.5865   age139_m62            0.0000     7.9304E+01     4.8658   1.4214   103.7107
 27      0.0000     0.0000E+00    0.0000E+00    2.500000E+09  0.02000  5.505E-05    0   0.5610   age150_m62            0.0000     5.5017E+01     4.7398   1.0574   100.8114
 28      1.9270     3.0241E+00    3.1339E+00    5.000000E+09  0.02000  2.596E-05    0   0.5353   age161_m62            0.0000     1.1956E+02     7.0550   0.7464   100.4615
 29      2.3271     8.1103E+00    8.0121E+00    1.100000E+10  0.02000  1.169E-05    0   0.5103   age185_m62            0.0000     2.3482E+02     9.5713   0.4037   101.5056
 30      2.4762     1.0410E+01    1.0171E+01    1.300000E+10  0.02000  9.691E-06    0   0.5047   age193_m62            0.0000     2.5757E+02     9.9558   0.3595   101.7381
 31      0.0000     0.0000E+00    0.0000E+00    1.000000E+06  0.05000  2.651E-02    0   0.9998   age020_m72            0.0000     2.9904E+03    37.4781   4.0000   100.8328
 32      0.0000     0.0000E+00    0.0000E+00    3.160000E+06  0.05000  4.817E-02    0   0.9577   age045_m72            0.0000     1.6370E+03    29.3922   4.0000   101.2434
 33      0.0000     0.0000E+00    0.0000E+00    5.010000E+06  0.05000  3.101E-02    0   0.9147   age055_m72            0.0000     6.7765E+02    20.8070   4.0000    95.6030
 34      0.0000     0.0000E+00    0.0000E+00    1.000000E+07  0.05000  8.954E-03    0   0.8524   age070_m72            0.0000     1.2534E+03    26.1991   4.0000    99.8882
 35      0.0000     0.0000E+00    0.0000E+00    2.512000E+07  0.05000  4.207E-03    0   0.7902   age090_m72            0.0000     3.6573E+02    14.7152   4.0000    94.9892
 36      0.0000     0.0000E+00    0.0000E+00    4.000000E+07  0.05000  3.198E-03    0   0.7618   age104_m72            0.0000     3.4205E+02    10.2423   3.7177    97.3545
 37      0.0000     0.0000E+00    0.0000E+00    1.015200E+08  0.05000  1.716E-03    0   0.7092   age116_m72            0.0000     5.1638E+02    12.5195   3.4464   101.6145
 38      0.0000     0.0000E+00    0.0000E+00    2.861200E+08  0.05000  7.047E-04    0   0.6618   age125_m72            0.0000     7.0118E+02    14.8208   2.6895   107.5169
 39      0.0000     0.0000E+00    0.0000E+00    6.405400E+08  0.05000  2.633E-04    0   0.6253   age132_m72            0.0000     3.5810E+02    10.3180   1.8536   109.4620
 40      0.0000     0.0000E+00    0.0000E+00    9.047900E+08  0.05000  1.484E-04    0   0.6088   age135_m72            0.0000     1.4061E+02     6.5367   1.3762   104.3176
 41      0.0000     0.0000E+00    0.0000E+00    1.434000E+09  0.05000  7.827E-05    0   0.5847   age139_m72            0.0000     1.0315E+02     6.3437   0.9962   100.7718
 42      0.0000     0.0000E+00    0.0000E+00    2.500000E+09  0.05000  3.759E-05    0   0.5583   age150_m72            0.0000     1.4500E+02     7.6717   0.6806    99.9394
 43      0.0000     0.0000E+00    0.0000E+00    5.000000E+09  0.05000  1.548E-05    0   0.5320   age161_m72            0.0000     2.5495E+02     9.4854   0.2826    99.7372
 44      0.0000     0.0000E+00    0.0000E+00    1.100000E+10  0.05000  6.532E-06    0   0.5070   age185_m72            0.0000     4.3541E+02    11.9609  -0.0638    99.1950
 45      0.0000     0.0000E+00    0.0000E+00    1.300000E+10  0.05000  5.316E-06    0   0.5018   age193_m72            0.0000     5.1945E+02    13.0214  -0.1666    99.0113


## Synthesis Results - Average & Chains ##

# j      x_j: min, <> & last-chain-values for 1 ...  7 chains
  1      0.0000      0.0120      0.0000      0.0000      0.0000      0.0000      0.0000      0.0000      0.0000
  2      4.2064      3.7327      3.6583      3.9323      3.7329      3.6686      3.8187      4.1199      3.8342
  3      0.0000      0.2260      0.2298      0.2153      0.3291      0.0000      0.2720      0.2291      0.2589
  4      2.2970      2.1035      2.2361      2.2669      2.1178      2.1227      2.0837      2.1034      2.2231
  5      0.0000      0.0535      0.0039      0.0000      0.0000      0.0054      0.0641      0.0000      0.0000
  6      0.0000      0.0415      0.0000      0.0000      0.0000      0.0000      0.0152      0.0000      0.0000
  7      0.0000      0.0172      0.0637      0.0000      0.0192      0.0000      0.0000      0.0000      0.0000
  8      0.0000      0.0244      0.0000      0.0000      0.0000      0.0000      0.0000      0.0000      0.0000
  9      0.0000      0.0426      0.0938      0.0000      0.0103      0.0000      0.0000      0.0656      0.1015
 10      0.0000      0.1582      0.1683      0.2455      0.3701      0.4770      0.3798      0.3839      0.0000
 11      0.0000      0.2110      0.1083      0.1946      0.1495      0.0000      0.0000      0.2764      0.1293
 12      9.1115      7.2410      7.0875      7.6198      7.1985      7.4962      7.2319      6.7608      7.3234
 13     65.7305     66.6709     67.4983     66.5305     66.7955     66.8834     67.4935     67.0758     67.0609
 14      7.3992      7.8113      7.7572      8.0249      8.4273      7.8730      8.1781      7.2836      7.9232
 15      1.9567      0.7782      0.7739      1.0042      0.5529      0.7728      0.2655      1.4193      0.7560
 16      0.0000      0.0134      0.0000      0.0000      0.0000      0.0000      0.0000      0.0000      0.0000
 17      0.0000      0.0121      0.0000      0.0000      0.0000      0.0000      0.0000      0.0000      0.0000
 18      0.0000      0.0534      0.1015      0.0000      0.0000      0.3430      0.0212      0.0000      0.0840
 19      0.0000      0.0179      0.0000      0.0000      0.0288      0.0000      0.0000      0.0000      0.0000
 20      0.0000      0.0178      0.0000      0.0000      0.0000      0.0000      0.0000      0.0000      0.0000
 21      0.0000      0.0258      0.0000      0.0000      0.0645      0.0000      0.0000      0.0163      0.0000
 22      0.0000      0.0157      0.0000      0.0209      0.0094      0.0000      0.0000      0.0000      0.0484
 23      0.0000      0.0153      0.0000      0.0000      0.0164      0.0000      0.0000      0.0000      0.0000
 24      0.0000      0.0196      0.0000      0.0000      0.0000      0.0431      0.0000      0.0000      0.0110
 25      0.0000      0.0332      0.0000      0.0000      0.0000      0.0000      0.0000      0.0000      0.0000
 26      0.0000      0.0598      0.0000      0.0000      0.0000      0.0000      0.0000      0.0000      0.0000
 27      0.0000      0.1106      0.0000      0.0669      0.0109      0.1694      0.0000      0.0000      0.0000
 28      1.9270      2.9241      2.6598      2.3140      2.4397      2.7815      2.8475      3.0680      3.0127
 29      2.3271      2.9726      2.9957      3.2350      3.3298      2.8775      2.9943      2.9475      2.8241
 30      2.4762      1.6021      1.6262      1.6299      1.5796      1.7865      1.6706      1.6225      1.6221
 31      0.0000      0.0147      0.0000      0.0000      0.0000      0.0000      0.0000      0.0000      0.0000
 32      0.0000      0.0227      0.0000      0.0000      0.0093      0.1759      0.0000      0.0041      0.0000
 33      0.0000      0.0248      0.0000      0.0151      0.1175      0.0000      0.0718      0.0000      0.0000
 34      0.0000      0.0114      0.0000      0.0000      0.0000      0.0000      0.0000      0.0000      0.0008
 35      0.0000      0.0222      0.1878      0.0000      0.0000      0.0000      0.0000      0.0000      0.0000
 36      0.0000      0.0141      0.0000      0.0000      0.0000      0.0000      0.0000      0.0000      0.0364
 37      0.0000      0.0122      0.0000      0.0000      0.0000      0.0000      0.0000      0.0001      0.0000
 38      0.0000      0.0116      0.0000      0.0000      0.0000      0.0044      0.0000      0.0000      0.0000
 39      0.0000      0.0369      0.0000      0.0584      0.0000      0.0000      0.0000      0.0000      0.0000
 40      0.0000      0.0698      0.0683      0.0000      0.0000      0.0000      0.0482      0.0000      0.0000
 41      0.0000      0.1071      0.1182      0.0000      0.0885      0.0000      0.0000      0.0930      0.0000
 42      0.0000      0.0767      0.0000      0.1149      0.0544      0.0000      0.0000      0.0000      0.1808
 43      0.0000      0.0230      0.0000      0.0000      0.0000      0.0000      0.0000      0.0000      0.0000
 44      0.0000      0.0093      0.0000      0.0000      0.0000      0.0000      0.0000      0.0000      0.0000
 45      0.0000      0.0069      0.0000      0.0000      0.0000      0.0000      0.0000      0.0000      0.0000

# j      m_j: min, <> & last-chain-values for 1 ...  7 chains
  1  0.0000E+00  8.5993E-05  0.0000E+00  0.0000E+00  0.0000E+00  0.0000E+00  0.0000E+00  0.0000E+00  0.0000E+00
  2  8.1444E-03  7.2920E-03  7.1541E-03  7.6328E-03  7.2392E-03  7.1492E-03  7.4562E-03  8.0178E-03  7.4944E-03
  3  0.0000E+00  6.7352E-04  6.8546E-04  6.3731E-04  9.7338E-04  0.0000E+00  8.1011E-04  6.7996E-04  7.7191E-04
  4  1.2632E-02  1.1671E-02  1.2420E-02  1.2497E-02  1.1665E-02  1.1748E-02  1.1555E-02  1.1626E-02  1.2341E-02
  5  0.0000E+00  6.8588E-04  5.0648E-05  0.0000E+00  0.0000E+00  6.9226E-05  8.2166E-04  0.0000E+00  0.0000E+00
  6  0.0000E+00  7.3917E-04  0.0000E+00  0.0000E+00  0.0000E+00  0.0000E+00  2.7064E-04  0.0000E+00  0.0000E+00
  7  0.0000E+00  4.3516E-04  1.6122E-03  0.0000E+00  4.8086E-04  0.0000E+00  0.0000E+00  0.0000E+00  0.0000E+00
  8  0.0000E+00  1.1922E-03  0.0000E+00  0.0000E+00  0.0000E+00  0.0000E+00  0.0000E+00  0.0000E+00  0.0000E+00
  9  0.0000E+00  4.1382E-03  9.1199E-03  0.0000E+00  9.9209E-04  0.0000E+00  0.0000E+00  6.3450E-03  9.8690E-03
 10  0.0000E+00  2.1447E-02  2.2849E-02  3.3085E-02  4.9827E-02  6.4525E-02  5.1481E-02  5.1861E-02  0.0000E+00
 11  0.0000E+00  5.0242E-02  2.5823E-02  4.6048E-02  3.5354E-02  0.0000E+00  0.0000E+00  6.5568E-02  3.0820E-02
 12  3.9986E+00  3.2062E+00  3.1415E+00  3.3523E+00  3.1641E+00  3.3110E+00  3.2005E+00  2.9821E+00  3.2445E+00
 13  5.7446E+01  5.8789E+01  5.9581E+01  5.8290E+01  5.8469E+01  5.8832E+01  5.9483E+01  5.8921E+01  5.9166E+01
 14  1.3180E+01  1.4039E+01  1.3956E+01  1.4330E+01  1.5035E+01  1.4115E+01  1.4690E+01  1.3040E+01  1.4248E+01
 15  4.0381E+00  1.6204E+00  1.6130E+00  2.0775E+00  1.1429E+00  1.6051E+00  5.5249E-01  2.9440E+00  1.5750E+00
 16  0.0000E+00  5.3509E-05  0.0000E+00  0.0000E+00  0.0000E+00  0.0000E+00  0.0000E+00  0.0000E+00  0.0000E+00
 17  0.0000E+00  2.5167E-05  0.0000E+00  0.0000E+00  0.0000E+00  0.0000E+00  0.0000E+00  0.0000E+00  0.0000E+00
 18  0.0000E+00  1.2309E-04  2.3400E-04  0.0000E+00  0.0000E+00  7.8817E-04  4.8901E-05  0.0000E+00  1.9357E-04
 19  0.0000E+00  1.2315E-04  0.0000E+00  0.0000E+00  1.9667E-04  0.0000E+00  0.0000E+00  0.0000E+00  0.0000E+00
 20  0.0000E+00  2.7280E-04  0.0000E+00  0.0000E+00  0.0000E+00  0.0000E+00  0.0000E+00  0.0000E+00  0.0000E+00
 21  0.0000E+00  4.7488E-04  0.0000E+00  0.0000E+00  1.1773E-03  0.0000E+00  0.0000E+00  2.9873E-04  0.0000E+00
 22  0.0000E+00  4.8187E-04  0.0000E+00  6.3512E-04  2.8600E-04  0.0000E+00  0.0000E+00  0.0000E+00  1.4818E-03
 23  0.0000E+00  9.1958E-04  0.0000E+00  0.0000E+00  9.7876E-04  0.0000E+00  0.0000E+00  0.0000E+00  0.0000E+00
 24  0.0000E+00  2.6894E-03  0.0000E+00  0.0000E+00  0.0000E+00  5.9153E-03  0.0000E+00  0.0000E+00  1.5123E-03
 25  0.0000E+00  7.0287E-03  0.0000E+00  0.0000E+00  0.0000E+00  0.0000E+00  0.0000E+00  0.0000E+00  0.0000E+00
 26  0.0000E+00  2.3899E-02  0.0000E+00  0.0000E+00  0.0000E+00  0.0000E+00  0.0000E+00  0.0000E+00  0.0000E+00
 27  0.0000E+00  8.9650E-02  0.0000E+00  5.3894E-02  8.7689E-03  1.3705E-01  0.0000E+00  0.0000E+00  0.0000E+00
 28  3.1339E+00  4.7981E+00  4.3690E+00  3.7726E+00  3.9740E+00  4.5529E+00  4.6699E+00  5.0151E+00  4.9463E+00
 29  8.0121E+00  1.0326E+01  1.0417E+01  1.1166E+01  1.1482E+01  9.9711E+00  1.0396E+01  1.0200E+01  9.8154E+00
 30  1.0171E+01  6.6396E+00  6.7466E+00  6.7114E+00  6.4985E+00  7.3855E+00  6.9197E+00  6.6985E+00  6.7261E+00
 31  0.0000E+00  4.4083E-05  0.0000E+00  0.0000E+00  0.0000E+00  0.0000E+00  0.0000E+00  0.0000E+00  0.0000E+00
 32  0.0000E+00  3.5870E-05  0.0000E+00  0.0000E+00  1.4636E-05  2.7766E-04  0.0000E+00  6.4106E-06  0.0000E+00
 33  0.0000E+00  5.8135E-05  0.0000E+00  3.5254E-05  2.7381E-04  0.0000E+00  1.6838E-04  0.0000E+00  0.0000E+00
 34  0.0000E+00  8.6116E-05  0.0000E+00  0.0000E+00  0.0000E+00  0.0000E+00  0.0000E+00  0.0000E+00  5.9060E-06
 35  0.0000E+00  3.3110E-04  2.8093E-03  0.0000E+00  0.0000E+00  0.0000E+00  0.0000E+00  0.0000E+00  0.0000E+00
 36  0.0000E+00  2.6746E-04  0.0000E+00  0.0000E+00  0.0000E+00  0.0000E+00  0.0000E+00  0.0000E+00  6.9082E-04
 37  0.0000E+00  4.0057E-04  0.0000E+00  0.0000E+00  0.0000E+00  0.0000E+00  0.0000E+00  2.4946E-06  0.0000E+00
 38  0.0000E+00  8.7049E-04  0.0000E+00  0.0000E+00  0.0000E+00  3.2443E-04  0.0000E+00  0.0000E+00  0.0000E+00
 39  0.0000E+00  6.9777E-03  0.0000E+00  1.0958E-02  0.0000E+00  0.0000E+00  0.0000E+00  0.0000E+00  0.0000E+00
 40  0.0000E+00  2.2773E-02  2.2326E-02  0.0000E+00  0.0000E+00  0.0000E+00  1.5721E-02  0.0000E+00  0.0000E+00
 41  0.0000E+00  6.3672E-02  7.0317E-02  0.0000E+00  5.2206E-02  0.0000E+00  0.0000E+00  5.5100E-02  0.0000E+00
 42  0.0000E+00  9.0671E-02  0.0000E+00  1.3492E-01  6.3845E-02  0.0000E+00  0.0000E+00  0.0000E+00  2.1378E-01
 43  0.0000E+00  6.2918E-02  0.0000E+00  0.0000E+00  0.0000E+00  0.0000E+00  0.0000E+00  0.0000E+00  0.0000E+00
 44  0.0000E+00  5.7366E-02  0.0000E+00  0.0000E+00  0.0000E+00  0.0000E+00  0.0000E+00  0.0000E+00  0.0000E+00
 45  0.0000E+00  5.1579E-02  0.0000E+00  0.0000E+00  0.0000E+00  0.0000E+00  0.0000E+00  0.0000E+00  0.0000E+00

# AV, chi2 & Mass for <> & i_chain = 1 ...  7 solutions
AV       1.3074      1.3050      1.3071      1.3040      1.3039      1.3047      1.3044      1.3053      1.3049
chi2 2.7716E+00  2.7877E+00  2.7799E+00  2.7788E+00  2.7795E+00  2.7787E+00  2.7786E+00  2.7763E+00  2.7807E+00
Mass 2.7193E-10  2.6865E-10  2.6911E-10  2.7000E-10  2.7024E-10  2.6918E-10  2.6857E-10  2.6979E-10  2.6847E-10
 -22.54                                  [v0_min (km/s) before EX0s...]
  46.63                                  [vd_min (km/s) before EX0s...]


## Synthetic spectrum (Best Model) ##l_obs f_obs f_syn wei
 3070    [Nl_obs]
 3359.00    0.19253   0.36329   -1.000
 3360.00    0.21582   0.33799   -1.000
 3361.00    0.21060   0.34172   -1.000
 3362.00    0.17540   0.37381   -1.000
 3363.00    0.19808   0.41316   -1.000
 3364.00    0.19077   0.43740   -1.000
 3365.00    0.21820   0.43725   -1.000
 3366.00    0.23457   0.41753   -1.000
 3367.00    0.21905   0.39088   -1.000
 3368.00    0.20548   0.37151   -1.000
 3369.00    0.23233   0.36273   -1.000
 3370.00    0.25810   0.35881   -1.000
 3371.00    0.22475   0.35567   -1.000
 3372.00    0.20315   0.35832   -1.000
 3373.00    0.24352   0.37554   -1.000
 3374.00    0.28829   0.40594   -1.000
 3375.00    0.27875   0.44055   -1.000
 3376.00    0.28113   0.45851   -1.000
 3377.00    0.28636   0.44840   -1.000
 3378.00    0.29867   0.42110   -1.000
 3379.00    0.28677   0.39406   -1.000
 3380.00    0.27985   0.38344   -1.000
 3381.00    0.30473   0.39309   -1.000
 3382.00    0.28095   0.41380   -1.000
 3383.00    0.27577   0.43093   -1.000
 3384.00    0.27672   0.44273   -1.000
 3385.00    0.28178   0.45389   -1.000
 3386.00    0.29496   0.45913   -1.000
 3387.00    0.30281   0.45635   -1.000
 3388.00    0.29420   0.45190   -1.000
 3389.00    0.26454   0.44893   -1.000
 3390.00    0.28076   0.44363   -1.000
 3391.00    0.30014   0.43235   -1.000
 3392.00    0.31004   0.41838   -1.000
 3393.00    0.30035   0.41480   -1.000
 3394.00    0.30708   0.42879   -1.000
 3395.00    0.34177   0.45290   -1.000
 3396.00    0.37894   0.47733   -1.000
 3397.00    0.40106   0.49723   -1.000
 3398.00    0.36668   0.50691   -1.000
 3399.00    0.36209   0.50426   -1.000
 3400.00    0.42447   0.49356   39.621
 3401.00    0.42138   0.47868   40.965
 3402.00    0.40237   0.46162   41.464
 3403.00    0.38990   0.44926   42.207
 3404.00    0.34354   0.44453   -1.000
 3405.00    0.32640   0.44124   -1.000
 3406.00    0.32717   0.43404   -1.000
 3407.00    0.33023   0.42628   -1.000
 3408.00    0.32080   0.42511   -1.000
 3409.00    0.33471   0.43366   -1.000
 3410.00    0.36433   0.44418   -1.000
 3411.00    0.37442   0.44475   -1.000
 3412.00    0.37153   0.43404   44.745
 3413.00    0.37775   0.42104   45.250
 3414.00    0.35846   0.41724   44.796
 3415.00    0.35677   0.42522   43.393
 3416.00    0.36371   0.44092   -1.000
 3417.00    0.39697   0.45890   39.440
 3418.00    0.41023   0.47739   38.043
 3419.00    0.42855   0.49265   37.875
 3420.00    0.42241   0.49788   37.772
 3421.00    0.42639   0.49120   38.294
 3422.00    0.44722   0.47959   39.351
 3423.00    0.45063   0.47054   39.562
 3424.00    0.42672   0.46838   38.433
 3425.00    0.42036   0.47136   37.686
 3426.00    0.45190   0.47760   52.881
 3427.00    0.44381   0.49023   -1.000
 3428.00    0.43869   0.51092   -1.000
 3429.00    0.43369   0.52550   -1.000
 3430.00    0.44768   0.52257   -1.000
 3431.00    0.46986   0.50403   -1.000
 3432.00    0.46350   0.48370   37.630
 3433.00    0.42932   0.47430   52.926
 3434.00    0.43456   0.47815   -1.000
 3435.00    0.44460   0.48692   -1.000
 3436.00    0.43853   0.48793   38.006
 3437.00    0.42376   0.47723   39.966
 3438.00    0.41747   0.45389   42.628
 3439.00    0.41528   0.42232   45.496
 3440.00    0.38432   0.38919   46.730
 3441.00    0.35986   0.36915   46.701
 3442.00    0.35715   0.36907   45.932
 3443.00    0.35984   0.38169   43.854
 3444.00    0.38135   0.39841   41.436
 3445.00    0.41475   0.41658   39.432
 3446.00    0.41713   0.43941   54.678
 3447.00    0.43685   0.46614   -1.000
 3448.00    0.45755   0.49006   -1.000
 3449.00    0.46656   0.50246   -1.000
 3450.00    0.45593   0.49804   -1.000
 3451.00    0.44631   0.48103   -1.000
 3452.00    0.44374   0.46242   -1.000
 3453.00    0.43763   0.45672   -1.000
 3454.00    0.46245   0.46448  316.844
 3455.00    0.47249   0.47521  316.844
 3456.00    0.46861   0.47606  316.844
 3457.00    0.46578   0.46231   92.875
 3458.00    0.45547   0.44488   37.726
 3459.00    0.44605   0.43000   37.981
 3460.00    0.43518   0.41988   54.096
 3461.00    0.43015   0.42400  316.844
 3462.00    0.42603   0.44431   -1.000
 3463.00    0.44753   0.46353   -1.000
 3464.00    0.48379   0.46938   -1.000
 3465.00    0.46557   0.46654  316.844
 3466.00    0.46720   0.46557  316.844
 3467.00    0.47338   0.47452  316.844
 3468.00    0.48456   0.48769  316.844
 3469.00    0.49774   0.49747  316.844
 3470.00    0.49348   0.49924  316.844
 3471.00    0.50005   0.49096   -1.000
 3472.00    0.48377   0.47354   -1.000
 3473.00    0.45580   0.44959   92.305
 3474.00    0.44011   0.42270   38.348
 3475.00    0.40596   0.40693   38.999
 3476.00    0.39276   0.41248   55.306
 3477.00    0.39684   0.43394   -1.000
 3478.00    0.40913   0.45888   -1.000
 3479.00    0.47048   0.47756  316.844
 3480.00    0.50337   0.48510   -1.000
 3481.00    0.50093   0.48237   -1.000
 3482.00    0.50620   0.47284   -1.000
 3483.00    0.49451   0.46391   -1.000
 3484.00    0.50389   0.46489   -1.000
 3485.00    0.49214   0.48019   -1.000
 3486.00    0.51337   0.49994   -1.000
 3487.00    0.54444   0.50302   -1.000
 3488.00    0.51190   0.48494   -1.000
 3489.00    0.48717   0.45806   -1.000
 3490.00    0.48398   0.44136   -1.000
 3491.00    0.46166   0.44223   -1.000
 3492.00    0.48736   0.45115   -1.000
 3493.00    0.50342   0.45699   -1.000
 3494.00    0.48717   0.45278   -1.000
 3495.00    0.45831   0.44214   -1.000
 3496.00    0.45686   0.43714   -1.000
 3497.00    0.45088   0.45032  316.844
 3498.00    0.45112   0.47713   -1.000
 3499.00    0.47635   0.49556   -1.000
 3500.00    0.51913   0.50061   -1.000
 3501.00    0.51212   0.50344  292.228
 3502.00    0.51322   0.50935  293.797
 3503.00    0.51975   0.51433  300.647
 3504.00    0.52983   0.50917   -1.000
 3505.00    0.52840   0.49841   -1.000
 3506.00    0.50136   0.49256  303.907
 3507.00    0.51226   0.49259   -1.000
 3508.00    0.50761   0.49196   -1.000
 3509.00    0.49846   0.48459   -1.000
 3510.00    0.50544   0.47339   -1.000
 3511.00    0.49676   0.46435   -1.000
 3512.00    0.50606   0.45568   -1.000
 3513.00    0.49053   0.44628   -1.000
 3514.00    0.45652   0.44858  316.844
 3515.00    0.46177   0.46862  313.702
 3516.00    0.49909   0.49875  299.939
 3517.00    0.53402   0.52150   -1.000
 3518.00    0.53725   0.52388   -1.000
 3519.00    0.55420   0.50786   -1.000
 3520.00    0.53199   0.48249   -1.000
 3521.00    0.48424   0.46101   -1.000
 3522.00    0.46029   0.44412   88.108
 3523.00    0.47792   0.42561   38.020
 3524.00    0.46513   0.41090   38.805
 3525.00    0.42083   0.40815   57.022
 3526.00    0.42145   0.42417  316.844
 3527.00    0.44563   0.45540  316.844
 3528.00    0.46330   0.48654   -1.000
 3529.00    0.46030   0.50449   -1.000
 3530.00    0.48864   0.50730   -1.000
 3531.00    0.52041   0.50331   -1.000
 3532.00    0.51985   0.50330   -1.000
 3533.00    0.51211   0.51093  309.086
 3534.00    0.50169   0.52076   -1.000
 3535.00    0.53043   0.52601  300.871
 3536.00    0.53470   0.52829  300.791
 3537.00    0.52486   0.53411  297.236
 3538.00    0.53969   0.54390  295.774
 3539.00    0.54758   0.54927  299.544
 3540.00    0.53199   0.54394   -1.000
 3541.00    0.52819   0.53742  305.014
 3542.00    0.53396   0.53977  302.009
 3543.00    0.53196   0.54745   -1.000
 3544.00    0.53159   0.55421   -1.000
 3545.00    0.53828   0.55330   -1.000
 3546.00    0.53592   0.54700   -1.000
 3547.00    0.54927   0.54250  311.778
 3548.00    0.54565   0.54301  310.508
 3549.00    0.53594   0.54697   -1.000
 3550.00    0.53492   0.54899   -1.000
 3551.00    0.52986   0.54458   -1.000
 3552.00    0.52544   0.53310  316.844
 3553.00    0.52335   0.52275  316.844
 3554.00    0.53089   0.51949   -1.000
 3555.00    0.54254   0.52324   -1.000
 3556.00    0.52449   0.52744  316.844
 3557.00    0.49821   0.52479   -1.000
 3558.00    0.49694   0.51824   -1.000
 3559.00    0.50074   0.51633   -1.000
 3560.00    0.49723   0.52496   -1.000
 3561.00    0.50692   0.54041   -1.000
 3562.00    0.50888   0.54797   -1.000
 3563.00    0.51650   0.52979   85.463
 3564.00    0.51301   0.48615   38.496
 3565.00    0.48426   0.45096   39.304
 3566.00    0.44129   0.44095   38.925
 3567.00    0.43990   0.44284   39.290
 3568.00    0.41469   0.43874   40.414
 3569.00    0.41039   0.42217   40.369
 3570.00    0.42422   0.41209   38.874
 3571.00    0.44181   0.42165   57.216
 3572.00    0.45406   0.43920   -1.000
 3573.00    0.45669   0.45312  316.844
 3574.00    0.46390   0.45952  316.844
 3575.00    0.45713   0.46262  316.844
 3576.00    0.46267   0.46637  316.844
 3577.00    0.47422   0.46507   87.746
 3578.00    0.48053   0.45097   40.338
 3579.00    0.45597   0.42457   43.195
 3580.00    0.41459   0.39893   44.752
 3581.00    0.39400   0.38624   44.986
 3582.00    0.38912   0.38897   45.535
 3583.00    0.40580   0.39513   46.832
 3584.00    0.44004   0.38885   48.042
 3585.00    0.41885   0.37591   47.465
 3586.00    0.38179   0.37130   44.989
 3587.00    0.38405   0.38075   42.677
 3588.00    0.40761   0.40371   39.889
 3589.00    0.43768   0.43397   57.435
 3590.00    0.45975   0.46600  316.844
 3591.00    0.48377   0.48975  316.844
 3592.00    0.50374   0.49886  316.844
 3593.00    0.49800   0.49947  316.844
 3594.00    0.49120   0.50447   -1.000
 3595.00    0.53089   0.52007   -1.000
 3596.00    0.56755   0.53750   -1.000
 3597.00    0.57524   0.55158   -1.000
 3598.00    0.58591   0.56296   -1.000
 3599.00    0.59050   0.56735   -1.000
 3600.00    0.59630   0.55863   -1.000
 3601.00    0.60092   0.53539   -1.000
 3602.00    0.56549   0.50616   -1.000
 3603.00    0.53257   0.48309   -1.000
 3604.00    0.51356   0.47482   -1.000
 3605.00    0.48937   0.47806   -1.000
 3606.00    0.50670   0.47926   -1.000
 3607.00    0.53158   0.47046   -1.000
 3608.00    0.50317   0.45533   -1.000
 3609.00    0.47388   0.45007   -1.000
 3610.00    0.47589   0.46310   -1.000
 3611.00    0.49117   0.47967   -1.000
 3612.00    0.50053   0.49097   -1.000
 3613.00    0.52044   0.50172   -1.000
 3614.00    0.53618   0.51530   -1.000
 3615.00    0.52458   0.52588  316.844
 3616.00    0.51015   0.51250  316.844
 3617.00    0.48851   0.47257   81.555
 3618.00    0.46925   0.44255   57.884
 3619.00    0.45890   0.44535   -1.000
 3620.00    0.46555   0.47292  312.284
 3621.00    0.48525   0.50462   -1.000
 3622.00    0.53055   0.52618  293.118
 3623.00    0.56913   0.53867   -1.000
 3624.00    0.58423   0.55464   -1.000
 3625.00    0.60465   0.58019   -1.000
 3626.00    0.62533   0.60550   -1.000
 3627.00    0.64302   0.61882   -1.000
 3628.00    0.63596   0.60372   -1.000
 3629.00    0.60352   0.55693   -1.000
 3630.00    0.54201   0.50350   -1.000
 3631.00    0.48742   0.47156   -1.000
 3632.00    0.48460   0.47154   -1.000
 3633.00    0.50583   0.49015   -1.000
 3634.00    0.50171   0.50846  315.643
 3635.00    0.50441   0.51855   -1.000
 3636.00    0.53605   0.52701  288.402
 3637.00    0.56000   0.54454   -1.000
 3638.00    0.59738   0.56824   -1.000
 3639.00    0.61457   0.58870   -1.000
 3640.00    0.59352   0.59288  281.866
 3641.00    0.59542   0.57826   -1.000
 3642.00    0.59597   0.55292   -1.000
 3643.00    0.55765   0.52871   -1.000
 3644.00    0.53595   0.51437   -1.000
 3645.00    0.50443   0.50649  316.844
 3646.00    0.49149   0.49787  316.844
 3647.00    0.49473   0.49206  316.844
 3648.00    0.49963   0.49432  313.802
 3649.00    0.50449   0.50545  299.963
 3650.00    0.52566   0.52533  286.208
 3651.00    0.57308   0.55097   -1.000
 3652.00    0.59928   0.57447   -1.000
 3653.00    0.58608   0.59081  268.260
 3654.00    0.59476   0.59913  266.455
 3655.00    0.62006   0.60575   -1.000
 3656.00    0.61314   0.61680  259.997
 3657.00    0.60622   0.62692   -1.000
 3658.00    0.63024   0.63193  257.718
 3659.00    0.64761   0.63269   -1.000
 3660.00    0.64706   0.62861   -1.000
 3661.00    0.63068   0.61912  265.295
 3662.00    0.60632   0.60683  268.819
 3663.00    0.58306   0.59616   -1.000
 3664.00    0.59898   0.59266  266.685
 3665.00    0.63590   0.59478   -1.000
 3666.00    0.63737   0.59543   -1.000
 3667.00    0.62200   0.58761   -1.000
 3668.00    0.60530   0.57313   -1.000
 3669.00    0.57850   0.56818  275.906
 3670.00    0.58983   0.57975  267.485
 3671.00    0.60464   0.59980  264.057
 3672.00    0.62746   0.61414   -1.000
 3673.00    0.65156   0.61644   -1.000
 3674.00    0.65837   0.60938   -1.000
 3675.00    0.65151   0.59412   -1.000
 3676.00    0.63657   0.57448   -1.000
 3677.00    0.62011   0.55511   -1.000
 3678.00    0.59378   0.53974   -1.000
 3679.00    0.56410   0.53333   -1.000
 3680.00    0.56724   0.53582   -1.000
 3681.00    0.56432   0.54647   -1.000
 3682.00    0.54989   0.55948  280.069
 3683.00    0.56903   0.56559  289.021
 3684.00    0.59687   0.55626   -1.000
 3685.00    0.58015   0.53236   -1.000
 3686.00    0.53697   0.51151   -1.000
 3687.00    0.51548   0.50856  295.421
 3688.00    0.54139   0.52742   -1.000
 3689.00    0.57271   0.56047   -1.000
 3690.00    0.58826   0.59309  258.237
 3691.00    0.61639   0.60809  262.569
 3692.00    0.63182   0.60456   -1.000
 3693.00    0.62240   0.59580   -1.000
 3694.00    0.61240   0.58885   -1.000
 3695.00    0.62524   0.58495   -1.000
 3696.00    0.62408   0.58734   -1.000
 3697.00    0.61755   0.60129   -1.000
 3698.00    0.66010   0.62478   -1.000
 3699.00    0.70322   0.64583   -1.000
 3700.00    0.71414   0.65134   -1.000
 3701.00    0.71964   0.63140   -1.000
 3702.00    0.66929   0.58723   -1.000
 3703.00    0.59636   0.53664   -1.000
 3704.00    0.56020   0.49575   -1.000
 3705.00    0.54530   0.47903   -1.000
 3706.00    0.52184   0.48440   -1.000
 3707.00    0.53515   0.49680   -1.000
 3708.00    0.54848   0.50817   -1.000
 3709.00    0.53677   0.51862   -1.000
 3710.00    0.56112   0.53221   -1.000
 3711.00    0.59813   0.55596   -1.000
 3712.00    0.63783   0.59138   -1.000
 3713.00    0.68656   0.62527   -1.000
 3714.00    0.69609   0.64737   -1.000
 3715.00    0.67870   0.65162   -1.000
 3716.00    0.68952   0.63622   -1.000
 3717.00    0.68749   0.60347   -1.000
 3718.00    0.62496   0.55062   -1.000
 3719.00    0.54362   0.48313   -1.000
 3720.00    0.47752   0.43393   62.422
 3721.00    0.44455   0.42362   -1.000
 3722.00    0.46661   0.45206   -1.000
 3723.00    0.52612   0.50597   -1.000
 3724.00    0.58877   0.55911   -1.000
 3725.00    0.60438   0.58345   -1.000
 3726.00    0.60427   0.58159   -1.000
 3727.00    0.59195   0.57889   -1.000
 3728.00    0.58759   0.58413  280.995
 3729.00    0.63618   0.58794   -1.000
 3730.00    0.65031   0.57437   -1.000
 3731.00    0.60664   0.53310   -1.000
 3732.00    0.56399   0.47552   -1.000
 3733.00    0.49504   0.41907   -1.000
 3734.00    0.42712   0.38064   42.500
 3735.00    0.41977   0.37518   39.466
 3736.00    0.44296   0.40290   61.512
 3737.00    0.46476   0.45375   -1.000
 3738.00    0.49145   0.51681   -1.000
 3739.00    0.54882   0.57125   -1.000
 3740.00    0.61417   0.59917   -1.000
 3741.00    0.62700   0.59877   -1.000
 3742.00    0.60178   0.57652   -1.000
 3743.00    0.59438   0.54232   -1.000
 3744.00    0.56655   0.51042   -1.000
 3745.00    0.51155   0.48521   75.320
 3746.00    0.49171   0.46032   39.010
 3747.00    0.45889   0.42891   40.605
 3748.00    0.42201   0.39608   67.803
 3749.00    0.42861   0.38955   -1.000
 3750.00    0.44119   0.42289   -1.000
 3751.00    0.49684   0.48259   -1.000
 3752.00    0.57659   0.54744   -1.000
 3753.00    0.61526   0.60435  251.617
 3754.00    0.65218   0.64013   -1.000
 3755.00    0.67907   0.64343   -1.000
 3756.00    0.65704   0.61175   -1.000
 3757.00    0.59881   0.56433   -1.000
 3758.00    0.56059   0.53015   -1.000
 3759.00    0.55457   0.52658   -1.000
 3760.00    0.56458   0.54362   -1.000
 3761.00    0.59277   0.56031   -1.000
 3762.00    0.60574   0.57061   -1.000
 3763.00    0.60728   0.57695   -1.000
 3764.00    0.62403   0.57691   -1.000
 3765.00    0.62404   0.56740   -1.000
 3766.00    0.60163   0.55276   -1.000
 3767.00    0.59028   0.53778   -1.000
 3768.00    0.59249   0.52350   -1.000
 3769.00    0.59126   0.51197   -1.000
 3770.00    0.57810   0.51007   -1.000
 3771.00    0.58233   0.52957   -1.000
 3772.00    0.62239   0.56692   -1.000
 3773.00    0.65095   0.59898   -1.000
 3774.00    0.67479   0.61655   -1.000
 3775.00    0.67981   0.62739   -1.000
 3776.00    0.67187   0.63794   -1.000
 3777.00    0.67147   0.65365   -1.000
 3778.00    0.68819   0.67321   -1.000
 3779.00    0.70465   0.69252   -1.000
 3780.00    0.70806   0.70745  237.535
 3781.00    0.73430   0.71611   -1.000
 3782.00    0.75049   0.72066   -1.000
 3783.00    0.73032   0.71744   -1.000
 3784.00    0.71374   0.69818   -1.000
 3785.00    0.69170   0.66360   -1.000
 3786.00    0.64662   0.62732   -1.000
 3787.00    0.62436   0.60133   -1.000
 3788.00    0.61215   0.59047   -1.000
 3789.00    0.59940   0.59137  286.903
 3790.00    0.59265   0.59744  287.459
 3791.00    0.60297   0.59797  295.017
 3792.00    0.61464   0.58477   -1.000
 3793.00    0.59113   0.56076   -1.000
 3794.00    0.56477   0.53200   -1.000
 3795.00    0.55054   0.50337   -1.000
 3796.00    0.53744   0.47229   -1.000
 3797.00    0.52377   0.44265   -1.000
 3798.00    0.51639   0.44061   -1.000
 3799.00    0.52930   0.47813   -1.000
 3800.00    0.56094   0.53647   -1.000
 3801.00    0.60951   0.59651   -1.000
 3802.00    0.64128   0.64081  264.208
 3803.00    0.65043   0.66294   -1.000
 3804.00    0.67263   0.66596  272.450
 3805.00    0.66283   0.65215   -1.000
 3806.00    0.60975   0.63654   -1.000
 3807.00    0.59150   0.64051   -1.000
 3808.00    0.62289   0.66423   -1.000
 3809.00    0.65496   0.69064   -1.000
 3810.00    0.67661   0.69921   -1.000
 3811.00    0.68502   0.68191  290.217
 3812.00    0.64794   0.64668  308.034
 3813.00    0.60046   0.60549  316.844
 3814.00    0.57151   0.57444  316.844
 3815.00    0.55750   0.56801  316.844
 3816.00    0.56435   0.58231   -1.000
 3817.00    0.57667   0.59301   -1.000
 3818.00    0.57688   0.58316  316.844
 3819.00    0.56960   0.55581   -1.000
 3820.00    0.52591   0.53610  316.844
 3821.00    0.49976   0.54149   -1.000
 3822.00    0.53250   0.55215   -1.000
 3823.00    0.54088   0.54421   73.769
 3824.00    0.51226   0.51857   39.622
 3825.00    0.47921   0.49259   39.883
 3826.00    0.46681   0.47918   39.376
 3827.00    0.46834   0.47800   38.730
 3828.00    0.48138   0.48130   38.637
 3829.00    0.50088   0.47981   39.753
 3830.00    0.50350   0.46781   42.247
 3831.00    0.46429   0.44404   44.655
 3832.00    0.42724   0.41285   44.878
 3833.00    0.41859   0.38298   43.494
 3834.00    0.42095   0.36936   42.120
 3835.00    0.43144   0.37439   42.098
 3836.00    0.43732   0.38751   43.083
 3837.00    0.42293   0.39918   43.228
 3838.00    0.40209   0.40950   41.565
 3839.00    0.39935   0.42892   70.594
 3840.00    0.41972   0.46690   -1.000
 3841.00    0.46753   0.51611   -1.000
 3842.00    0.53543   0.56532   -1.000
 3843.00    0.57806   0.60276   -1.000
 3844.00    0.59079   0.62236   -1.000
 3845.00    0.60702   0.63368   -1.000
 3846.00    0.61781   0.64539   -1.000
 3847.00    0.60776   0.65391   -1.000
 3848.00    0.58011   0.65129   -1.000
 3849.00    0.55910   0.64463   -1.000
 3850.00    0.57945   0.64455   -1.000
 3851.00    0.60346   0.65423   -1.000
 3852.00    0.61008   0.66629   -1.000
 3853.00    0.60736   0.66527   -1.000
 3854.00    0.58963   0.64988   -1.000
 3855.00    0.57746   0.63207   -1.000
 3856.00    0.55215   0.61353   -1.000
 3857.00    0.52476   0.59138   38.273
 3858.00    0.51500   0.56944   39.051
 3859.00    0.49144   0.56186   -1.000
 3860.00    0.47937   0.58027   -1.000
 3861.00    0.51551   0.61790   -1.000
 3862.00    0.58681   0.65557   -1.000
 3863.00    0.62834   0.67160   -1.000
 3864.00    0.64098   0.66975   -1.000
 3865.00    0.64165   0.66451   -1.000
 3866.00    0.61639   0.66103   -1.000
 3867.00    0.59917   0.66085   -1.000
 3868.00    0.58846   0.65751   -1.000
 3869.00    0.55765   0.64195   -1.000
 3870.00    0.52467   0.61434   -1.000
 3871.00    0.52666   0.58633   -1.000
 3872.00    0.53374   0.57586   -1.000
 3873.00    0.54773   0.59230   -1.000
 3874.00    0.59125   0.62724   -1.000
 3875.00    0.61930   0.64714   -1.000
 3876.00    0.61518   0.63531   -1.000
 3877.00    0.57981   0.60803   -1.000
 3878.00    0.55011   0.59006   -1.000
 3879.00    0.55897   0.58910   -1.000
 3880.00    0.55928   0.59441   -1.000
 3881.00    0.54264   0.59552   -1.000
 3882.00    0.54328   0.59280   -1.000
 3883.00    0.56163   0.58752   -1.000
 3884.00    0.59063   0.57269   -1.000
 3885.00    0.59477   0.53927   -1.000
 3886.00    0.55814   0.49460   -1.000
 3887.00    0.53471   0.46222   -1.000
 3888.00    0.53900   0.45533   -1.000
 3889.00    0.55168   0.47968   -1.000
 3890.00    0.59177   0.52813   -1.000
 3891.00    0.63944   0.58189   -1.000
 3892.00    0.67068   0.61387   -1.000
 3893.00    0.68768   0.62115   -1.000
 3894.00    0.69135   0.62180   -1.000
 3895.00    0.69876   0.63120   -1.000
 3896.00    0.71279   0.64875   -1.000
 3897.00    0.73583   0.66026   -1.000
 3898.00    0.73784   0.66219   -1.000
 3899.00    0.71448   0.66466   -1.000
 3900.00    0.71946   0.67332   -1.000
 3901.00    0.73422   0.68137   -1.000
 3902.00    0.71609   0.67931   -1.000
 3903.00    0.68180   0.66427   -1.000
 3904.00    0.66143   0.64738   -1.000
 3905.00    0.65784   0.64342   -1.000
 3906.00    0.67462   0.65797   -1.000
 3907.00    0.70942   0.68950   -1.000
 3908.00    0.73191   0.72563  230.994
 3909.00    0.74060   0.74943  228.888
 3910.00    0.77274   0.76191  227.133
 3911.00    0.80319   0.76872   -1.000
 3912.00    0.79426   0.76822   -1.000
 3913.00    0.77646   0.76089   -1.000
 3914.00    0.75361   0.75028  241.181
 3915.00    0.74680   0.73887  244.293
 3916.00    0.76467   0.72898   -1.000
 3917.00    0.77744   0.71645   -1.000
 3918.00    0.75639   0.69785   -1.000
 3919.00    0.73277   0.67651   -1.000
 3920.00    0.70347   0.65925   -1.000
 3921.00    0.65971   0.65545  277.306
 3922.00    0.66164   0.66422  275.990
 3923.00    0.68636   0.67278   -1.000
 3924.00    0.66847   0.66643  305.509
 3925.00    0.63307   0.64094  316.844
 3926.00    0.59932   0.59924   72.630
 3927.00    0.55658   0.54418   44.948
 3928.00    0.50272   0.48509   52.653
 3929.00    0.42429   0.42385   61.952
 3930.00    0.34873   0.35893   72.922
 3931.00    0.29151   0.29835   82.453
 3932.00    0.25298   0.24845   84.086
 3933.00    0.22612   0.22650   76.222
 3934.00    0.23175   0.24387   64.303
 3935.00    0.27675   0.29297   52.936
 3936.00    0.32587   0.35921   44.049
 3937.00    0.37389   0.43347   -1.000
 3938.00    0.43782   0.50100   -1.000
 3939.00    0.51286   0.55614   -1.000
 3940.00    0.56337   0.59504   -1.000
 3941.00    0.58733   0.61372   -1.000
 3942.00    0.60386   0.61984   -1.000
 3943.00    0.60175   0.62356   -1.000
 3944.00    0.60699   0.63689   -1.000
 3945.00    0.64663   0.66149   -1.000
 3946.00    0.68724   0.68303  254.828
 3947.00    0.70457   0.69340  248.870
 3948.00    0.72847   0.70187   -1.000
 3949.00    0.74500   0.71526   -1.000
 3950.00    0.75377   0.72495   -1.000
 3951.00    0.77708   0.72641   -1.000
 3952.00    0.79676   0.72831   -1.000
 3953.00    0.79591   0.73538   -1.000
 3954.00    0.77771   0.73948   -1.000
 3955.00    0.77631   0.73072   -1.000
 3956.00    0.77380   0.71767   -1.000
 3957.00    0.74820   0.71454   -1.000
 3958.00    0.73631   0.71308   -1.000
 3959.00    0.73781   0.69303   -1.000
 3960.00    0.70239   0.64822   -1.000
 3961.00    0.63405   0.59319   -1.000
 3962.00    0.58421   0.54970   67.271
 3963.00    0.54757   0.51587   42.415
 3964.00    0.49731   0.47570   51.057
 3965.00    0.43112   0.41444   62.778
 3966.00    0.34960   0.33435   72.969
 3967.00    0.28611   0.26903   73.375
 3968.00    0.27098   0.24108   63.558
 3969.00    0.28097   0.25500   52.243
 3970.00    0.30424   0.30432   43.374
 3971.00    0.35355   0.37342   75.797
 3972.00    0.44494   0.44436  316.844
 3973.00    0.53719   0.51400   -1.000
 3974.00    0.59489   0.57764   -1.000
 3975.00    0.65815   0.63275   -1.000
 3976.00    0.71649   0.68056   -1.000
 3977.00    0.74002   0.72193   -1.000
 3978.00    0.78727   0.76191   -1.000
 3979.00    0.83670   0.79064   -1.000
 3980.00    0.84698   0.80048   -1.000
 3981.00    0.83671   0.79561   -1.000
 3982.00    0.82723   0.78976   -1.000
 3983.00    0.84009   0.79483   -1.000
 3984.00    0.86156   0.80782   -1.000
 3985.00    0.87785   0.82097   -1.000
 3986.00    0.88720   0.83468   -1.000
 3987.00    0.89371   0.84930   -1.000
 3988.00    0.90355   0.86164   -1.000
 3989.00    0.92026   0.86966   -1.000
 3990.00    0.92570   0.87680   -1.000
 3991.00    0.91849   0.88833   -1.000
 3992.00    0.93014   0.89958   -1.000
 3993.00    0.93019   0.90011   -1.000
 3994.00    0.91031   0.88724   -1.000
 3995.00    0.88090   0.86688  204.512
 3996.00    0.86340   0.85015  202.622
 3997.00    0.86681   0.84869   -1.000
 3998.00    0.88104   0.86345   -1.000
 3999.00    0.92333   0.88723   -1.000
 4000.00    0.95252   0.91318   -1.000
 4001.00    0.95606   0.92968   -1.000
 4002.00    0.97622   0.92742   -1.000
 4003.00    0.97362   0.90334   -1.000
 4004.00    0.93693   0.86437   -1.000
 4005.00    0.89394   0.83492   -1.000
 4006.00    0.86718   0.84156   -1.000
 4007.00    0.88050   0.87586  182.979
 4008.00    0.93715   0.91221   -1.000
 4009.00    0.98412   0.93445   -1.000
 4010.00    1.00086   0.94280   -1.000
 4011.00    1.00323   0.94467   -1.000
 4012.00    0.99174   0.94596   -1.000
 4013.00    0.97026   0.94943   -1.000
 4014.00    1.00000   0.95262   -1.000
 4015.00    1.02135   0.95243   -1.000
 4016.00    1.00388   0.94977   -1.000
 4017.00    0.99594   0.95081   -1.000
 4018.00    0.98775   0.95876   -1.000
 4019.00    0.99938   0.96761   -1.000
 4020.00    1.01449   0.97176   -1.000
 4021.00    1.02372   0.96917   -1.000
 4022.00    0.99795   0.96414   -1.000
 4023.00    0.98745   0.95835   -1.000
 4024.00    1.00732   0.95606   -1.000
 4025.00    1.00707   0.96497   -1.000
 4026.00    1.00358   0.98438   -1.000
 4027.00    1.03677   0.99854   -1.000
 4028.00    1.05424   0.98571   -1.000
 4029.00    1.00908   0.94721   -1.000
 4030.00    0.96160   0.90226   -1.000
 4031.00    0.91908   0.86925   -1.000
 4032.00    0.89320   0.85817   -1.000
 4033.00    0.89449   0.86767   -1.000
 4034.00    0.92835   0.89465   -1.000
 4035.00    0.97898   0.93447   -1.000
 4036.00    1.02342   0.98179   -1.000
 4037.00    1.05755   1.01975   -1.000
 4038.00    1.07085   1.02924   -1.000
 4039.00    1.05889   1.01460   -1.000
 4040.00    1.04235   0.99918   -1.000
 4041.00    1.02742   0.98922   -1.000
 4042.00    1.02678   0.97092   -1.000
 4043.00    0.99202   0.92483   -1.000
 4044.00    0.90071   0.86182   -1.000
 4045.00    0.82167   0.83083  198.818
 4046.00    0.84261   0.85129  183.619
 4047.00    0.93630   0.90523   -1.000
 4048.00    1.00038   0.96204   -1.000
 4049.00    1.01748   0.99868   -1.000
 4050.00    1.04509   1.01125   -1.000
 4051.00    1.04815   1.00581   -1.000
 4052.00    1.01021   0.98760   -1.000
 4053.00    0.99093   0.96648   -1.000
 4054.00    0.97529   0.95401   -1.000
 4055.00    0.96020   0.94597  189.382
 4056.00    0.95256   0.93718   -1.000
 4057.00    0.95438   0.93522   -1.000
 4058.00    0.96067   0.94775  178.873
 4059.00    0.98406   0.97092  179.221
 4060.00    1.00898   0.97966   -1.000
 4061.00    1.00135   0.95430   -1.000
 4062.00    0.94857   0.90827   -1.000
 4063.00    0.90268   0.87084   -1.000
 4064.00    0.88533   0.86307   -1.000
 4065.00    0.91065   0.87842   -1.000
 4066.00    0.94739   0.90261   -1.000
 4067.00    0.96238   0.92966   -1.000
 4068.00    1.00796   0.95231   -1.000
 4069.00    1.04744   0.95311   -1.000
 4070.00    1.01104   0.92924   -1.000
 4071.00    0.95482   0.90463   -1.000
 4072.00    0.94722   0.90399   -1.000
 4073.00    0.96331   0.92141   -1.000
 4074.00    0.98722   0.92437   -1.000
 4075.00    0.98131   0.89901   -1.000
 4076.00    0.93823   0.86432   -1.000
 4077.00    0.89336   0.84802   -1.000
 4078.00    0.88155   0.86517   -1.000
 4079.00    0.92410   0.90893  175.588
 4080.00    0.98709   0.95581   -1.000
 4081.00    1.04344   0.97615   -1.000
 4082.00    1.05072   0.96645   -1.000
 4083.00    1.01147   0.94413   -1.000
 4084.00    0.98795   0.93401   -1.000
 4085.00    0.99876   0.94782   -1.000
 4086.00    1.02590   0.97876   -1.000
 4087.00    1.06471   1.01150   -1.000
 4088.00    1.08459   1.02886   -1.000
 4089.00    1.08305   1.02541   -1.000
 4090.00    1.08060   1.00884   -1.000
 4091.00    1.06765   0.99359   -1.000
 4092.00    1.03994   0.98395   -1.000
 4093.00    1.03888   0.97305   -1.000
 4094.00    1.02804   0.95310   -1.000
 4095.00    0.99261   0.92352   -1.000
 4096.00    0.96363   0.89397   -1.000
 4097.00    0.96700   0.86539   -1.000
 4098.00    0.95962   0.82885   -1.000
 4099.00    0.90275   0.77384   -1.000
 4100.00    0.81332   0.71103   -1.000
 4101.00    0.75608   0.67697   -1.000
 4102.00    0.77679   0.69292   -1.000
 4103.00    0.83324   0.75182   -1.000
 4104.00    0.88853   0.82653   -1.000
 4105.00    0.94413   0.88233   -1.000
 4106.00    0.98455   0.91303   -1.000
 4107.00    1.00953   0.92848   -1.000
 4108.00    1.01303   0.93219   -1.000
 4109.00    1.00643   0.93278   -1.000
 4110.00    0.98442   0.93811   -1.000
 4111.00    0.96420   0.94933  181.898
 4112.00    0.97925   0.96468  178.984
 4113.00    1.01514   0.98365   -1.000
 4114.00    1.03784   1.00417   -1.000
 4115.00    1.05722   1.01582   -1.000
 4116.00    1.04836   1.01296   -1.000
 4117.00    1.02866   0.99913   -1.000
 4118.00    1.00900   0.98408   -1.000
 4119.00    0.98773   0.97605  185.638
 4120.00    0.99166   0.97818  185.016
 4121.00    0.99669   0.98454  183.896
 4122.00    0.99528   0.99064  181.077
 4123.00    1.01608   0.99888   -1.000
 4124.00    1.02679   1.00920   -1.000
 4125.00    1.02333   1.01368  184.121
 4126.00    1.00397   1.00658  186.628
 4127.00    1.00327   0.99488  187.766
 4128.00    0.99319   0.98799  189.578
 4129.00    0.98718   0.98371  194.200
 4130.00    0.98069   0.96943  200.423
 4131.00    0.94933   0.94456  203.193
 4132.00    0.92884   0.92538  199.119
 4133.00    0.92253   0.92861  190.223
 4134.00    0.93259   0.95626   -1.000
 4135.00    0.97446   0.99526   -1.000
 4136.00    1.00957   1.03128   -1.000
 4137.00    1.03098   1.05575   -1.000
 4138.00    1.05189   1.07170   -1.000
 4139.00    1.05378   1.07444   -1.000
 4140.00    1.04447   1.05189  196.894
 4141.00    1.01748   1.00646  209.913
 4142.00    0.95809   0.95889  209.099
 4143.00    0.90696   0.93296   -1.000
 4144.00    0.90637   0.94711   -1.000
 4145.00    0.96495   0.98576   -1.000
 4146.00    1.01008   1.01725  186.575
 4147.00    1.01979   1.02659  191.273
 4148.00    1.02995   1.02083  194.825
 4149.00    1.01451   1.01746  194.798
 4150.00    0.99830   1.02085   -1.000
 4151.00    0.99323   1.02149   -1.000
 4152.00    0.97998   1.01180   -1.000
 4153.00    0.96642   0.99460   -1.000
 4154.00    0.94863   0.98258   -1.000
 4155.00    0.95045   0.98520   -1.000
 4156.00    0.95850   0.99966   -1.000
 4157.00    1.01914   1.01909  186.575
 4158.00    1.25139   1.04003   -1.000
 4159.00    1.27453   1.05716   -1.000
 4160.00    0.88896   1.06845   -1.000
 4161.00    0.81953   1.07766   -1.000
 4162.00    1.04810   1.08691   -1.000
 4163.00    1.10884   1.09337  184.268
 4164.00    1.07158   1.09030   -1.000
 4165.00    1.02680   1.07496   -1.000
 4166.00    0.99107   1.05578   -1.000
 4167.00    0.98296   1.04403   -1.000
 4168.00    0.98825   1.04291   -1.000
 4169.00    1.00921   1.03775   -1.000
 4170.00    1.01978   1.01327  208.719
 4171.00    0.98476   0.97440  213.796
 4172.00    0.92474   0.94187   -1.000
 4173.00    0.89501   0.93968   -1.000
 4174.00    0.91186   0.96442   -1.000
 4175.00    0.94627   0.99127   -1.000
 4176.00    0.95852   1.00454   -1.000
 4177.00    0.95426   1.01289   -1.000
 4178.00    0.94556   1.02672   -1.000
 4179.00    0.95465   1.04028   -1.000
 4180.00    0.96387   1.04029   -1.000
 4181.00    0.99166   1.02911   -1.000
 4182.00    0.99691   1.02383   -1.000
 4183.00    0.99676   1.03337   -1.000
 4184.00    1.01920   1.04429   -1.000
 4185.00    1.00947   1.03951   -1.000
 4186.00    0.97890   1.02226   -1.000
 4187.00    0.97369   1.00878   -1.000
 4188.00    0.95916   1.01057   -1.000
 4189.00    0.98179   1.02374   -1.000
 4190.00    1.00523   1.03838   -1.000
 4191.00    0.99922   1.05411   -1.000
 4192.00    1.01078   1.07005   -1.000
 4193.00    1.02137   1.07513   -1.000
 4194.00    1.01117   1.06115   -1.000
 4195.00    0.98215   1.03119   -1.000
 4196.00    0.95992   0.99759   -1.000
 4197.00    0.95451   0.97287   -1.000
 4198.00    0.95994   0.95918  201.522
 4199.00    0.95763   0.95524  200.014
 4200.00    0.94686   0.96007  199.029
 4201.00    0.94561   0.96888   -1.000
 4202.00    0.95744   0.97987   -1.000
 4203.00    0.97239   0.99773   -1.000
 4204.00    0.98476   1.02230   -1.000
 4205.00    1.01151   1.04842   -1.000
 4206.00    1.04691   1.07201   -1.000
 4207.00    1.05563   1.08722   -1.000
 4208.00    1.06780   1.09100   -1.000
 4209.00    1.06759   1.08748   -1.000
 4210.00    1.03380   1.08708   -1.000
 4211.00    1.01990   1.09469   -1.000
 4212.00    1.03750   1.09732   -1.000
 4213.00    1.02924   1.07976   -1.000
 4214.00    0.98693   1.04834   -1.000
 4215.00    0.96412   1.02428   -1.000
 4216.00    0.98119   1.02320   -1.000
 4217.00    1.01416   1.04830   -1.000
 4218.00    1.06451   1.08418   -1.000
 4219.00    1.09334   1.10966   -1.000
 4220.00    1.12426   1.11599  173.225
 4221.00    1.13268   1.10020   -1.000
 4222.00    1.10467   1.05801   -1.000
 4223.00    1.05583   0.99015   -1.000
 4224.00    0.95202   0.91086   -1.000
 4225.00    0.84832   0.84465  243.535
 4226.00    0.77975   0.82247   -1.000
 4227.00    0.80507   0.86394   -1.000
 4228.00    0.90794   0.94880   -1.000
 4229.00    1.00326   1.02177   -1.000
 4230.00    1.04725   1.05756  176.350
 4231.00    1.07913   1.06024   -1.000
 4232.00    1.07206   1.04629   -1.000
 4233.00    1.04725   1.03021   -1.000
 4234.00    1.04317   1.01700   -1.000
 4235.00    1.03027   1.00723   -1.000
 4236.00    1.00873   1.00275  187.520
 4237.00    0.99493   1.00906  184.236
 4238.00    0.99818   1.02689   -1.000
 4239.00    1.02006   1.04808   -1.000
 4240.00    1.05362   1.06657  176.914
 4241.00    1.06509   1.07967  174.631
 4242.00    1.06715   1.09064   -1.000
 4243.00    1.10665   1.10274  171.099
 4244.00    1.12560   1.11061  177.075
 4245.00    1.10855   1.10201  184.450
 4246.00    1.08779   1.07366  189.911
 4247.00    1.04805   1.03913  192.631
 4248.00    1.01356   1.01532  193.005
 4249.00    0.99241   1.01112   -1.000
 4250.00    0.98060   1.02413   -1.000
 4251.00    1.01886   1.04175   -1.000
 4252.00    1.05372   1.04986  186.468
 4253.00    1.04000   1.03820  186.560
 4254.00    1.01866   1.02505  180.634
 4255.00    1.00389   1.03523   -1.000
 4256.00    1.05226   1.05841  181.458
 4257.00    1.08836   1.06437   -1.000
 4258.00    1.05284   1.03888  197.612
 4259.00    0.99106   1.00291  194.059
 4260.00    0.94551   0.99286   -1.000
 4261.00    0.96508   1.02212   -1.000
 4262.00    1.03191   1.07301   -1.000
 4263.00    1.08861   1.11552   -1.000
 4264.00    1.12217   1.13676  168.533
 4265.00    1.12198   1.13743  173.289
 4266.00    1.12229   1.12529  178.787
 4267.00    1.09714   1.10363  185.199
 4268.00    1.07576   1.06989  195.812
 4269.00    1.04181   1.02403   -1.000
 4270.00    0.98599   0.97595  213.954
 4271.00    0.91811   0.93950   -1.000
 4272.00    0.90556   0.92783   -1.000
 4273.00    0.93168   0.93981  197.900
 4274.00    0.93998   0.96633   -1.000
 4275.00    0.97857   1.00712   -1.000
 4276.00    1.03790   1.05793   -1.000
 4277.00    1.09386   1.09621  179.134
 4278.00    1.09594   1.10282  186.121
 4279.00    1.05539   1.08357   -1.000
 4280.00    1.02715   1.06327   -1.000
 4281.00    1.02790   1.05768   -1.000
 4282.00    1.04581   1.06296   -1.000
 4283.00    1.05425   1.06122  190.349
 4284.00    1.04786   1.04908  195.484
 4285.00    1.01982   1.03362  198.919
 4286.00    1.00017   1.01559   -1.000
 4287.00    0.98000   0.99272  214.684
 4288.00    0.94864   0.96054  218.390
 4289.00    0.90491   0.93141   -1.000
 4290.00    0.88560   0.93108   -1.000
 4291.00    0.91303   0.96145   -1.000
 4292.00    0.97573   0.99789   -1.000
 4293.00    1.02210   1.01709  194.370
 4294.00    1.01639   1.01227  198.469
 4295.00    0.99130   0.99212  206.830
 4296.00    0.96421   0.96152  222.564
 4297.00    0.91653   0.91801  240.279
 4298.00    0.86374   0.86508  247.847
 4299.00    0.80787   0.82379   -1.000
 4300.00    0.78562   0.80713   -1.000
 4301.00    0.79931   0.81160  234.829
 4302.00    0.82568   0.82573  231.763
 4303.00    0.82923   0.84350   -1.000
 4304.00    0.83761   0.85770   -1.000
 4305.00    0.83763   0.85489   -1.000
 4306.00    0.81486   0.83120   -1.000
 4307.00    0.78756   0.80115   -1.000
 4308.00    0.76457   0.78645   -1.000
 4309.00    0.76100   0.80223   -1.000
 4310.00    0.79998   0.84111   -1.000
 4311.00    0.84677   0.88416   -1.000
 4312.00    0.87011   0.92966   -1.000
 4313.00    0.91446   0.98564   -1.000
 4314.00    0.99502   1.05443   -1.000
 4315.00    1.10022   1.13129   -1.000
 4316.00    1.17896   1.19484  156.943
 4317.00    1.20172   1.22845   -1.000
 4318.00    1.21907   1.23023  162.094
 4319.00    1.21483   1.21431  167.085
 4320.00    1.20029   1.18794  174.609
 4321.00    1.16552   1.14443   -1.000
 4322.00    1.10592   1.07954   -1.000
 4323.00    1.03215   1.00621   -1.000
 4324.00    0.93913   0.95398  205.905
 4325.00    0.89107   0.94789   -1.000
 4326.00    0.93425   0.99501   -1.000
 4327.00    1.05042   1.07297   -1.000
 4328.00    1.14538   1.13594  164.698
 4329.00    1.17308   1.16500  164.314
 4330.00    1.17153   1.17000  161.944
 4331.00    1.17234   1.17251  159.915
 4332.00    1.17257   1.18033  159.224
 4333.00    1.18466   1.18437  161.101
 4334.00    1.19559   1.17266   -1.000
 4335.00    1.17856   1.13359   -1.000
 4336.00    1.14640   1.05917   -1.000
 4337.00    1.06384   0.96028   -1.000
 4338.00    0.96036   0.87044   -1.000
 4339.00    0.88968   0.81770   -1.000
 4340.00    0.85515   0.82156   -1.000
 4341.00    0.89025   0.88128  182.572
 4342.00    0.97179   0.96623  175.415
 4343.00    1.04114   1.03607  170.521
 4344.00    1.08976   1.08481  167.156
 4345.00    1.11774   1.12114  165.130
 4346.00    1.14954   1.15179  162.692
 4347.00    1.18356   1.17863  162.252
 4348.00    1.20628   1.19154  168.887
 4349.00    1.19776   1.17501   -1.000
 4350.00    1.13843   1.12881  186.594
 4351.00    1.06463   1.08258   -1.000
 4352.00    1.03919   1.06973   -1.000
 4353.00    1.06186   1.09595   -1.000
 4354.00    1.10638   1.14033   -1.000
 4355.00    1.13989   1.17465   -1.000
 4356.00    1.16934   1.19186   -1.000
 4357.00    1.17155   1.19622   -1.000
 4358.00    1.16349   1.19397   -1.000
 4359.00    1.16200   1.19542   -1.000
 4360.00    1.18383   1.20995   -1.000
 4361.00    1.21399   1.23257   -1.000
 4362.00    1.23145   1.25036   -1.000
 4363.00    1.22486   1.26253   -1.000
 4364.00    1.22635   1.26999   -1.000
 4365.00    1.24902   1.26255  164.793
 4366.00    1.22931   1.23842  167.779
 4367.00    1.17052   1.21321   -1.000
 4368.00    1.13936   1.19653   -1.000
 4369.00    1.16170   1.18730   -1.000
 4370.00    1.17342   1.18052  166.540
 4371.00    1.18426   1.16894  172.009
 4372.00    1.16482   1.14694   -1.000
 4373.00    1.13154   1.11750  181.014
 4374.00    1.09630   1.09587  175.340
 4375.00    1.06394   1.10199   -1.000
 4376.00    1.08304   1.13640   -1.000
 4377.00    1.14277   1.17489   -1.000
 4378.00    1.17012   1.19755   -1.000
 4379.00    1.20344   1.19500  171.444
 4380.00    1.19217   1.16049   -1.000
 4381.00    1.14839   1.09268   -1.000
 4382.00    1.05062   1.00881   -1.000
 4383.00    0.95252   0.94680  201.978
 4384.00    0.91388   0.95018   -1.000
 4385.00    0.97325   1.01102   -1.000
 4386.00    1.04793   1.07854   -1.000
 4387.00    1.10125   1.11628  174.152
 4388.00    1.14318   1.12503   -1.000
 4389.00    1.13547   1.12555  172.663
 4390.00    1.13890   1.13160  168.825
 4391.00    1.14500   1.14682  168.689
 4392.00    1.17112   1.16183  171.881
 4393.00    1.15572   1.16460  172.433
 4394.00    1.12673   1.16354   -1.000
 4395.00    1.13165   1.17658   -1.000
 4396.00    1.17517   1.20291   -1.000
 4397.00    1.21720   1.21867  166.249
 4398.00    1.20784   1.20941  171.597
 4399.00    1.17552   1.18819  171.337
 4400.00    1.15152   1.17339   -1.000
 4401.00    1.14945   1.17009   -1.000
 4402.00    1.15723   1.16188  181.245
 4403.00    1.14123   1.13369  185.134
 4404.00    1.06966   1.10186   -1.000
 4405.00    1.05260   1.09187   -1.000
 4406.00    1.07325   1.10675   -1.000
 4407.00    1.09867   1.13145   -1.000
 4408.00    1.12919   1.15926   -1.000
 4409.00    1.17993   1.20089   -1.000
 4410.00    1.21890   1.25097   -1.000
 4411.00    1.24327   1.28138   -1.000
 4412.00    1.27627   1.27627  164.727
 4413.00    1.24068   1.24032  171.702
 4414.00    1.16930   1.19062   -1.000
 4415.00    1.12931   1.15703   -1.000
 4416.00    1.12000   1.16530   -1.000
 4417.00    1.14584   1.20899   -1.000
 4418.00    1.20928   1.26157   -1.000
 4419.00    1.24988   1.29894   -1.000
 4420.00    1.25163   1.30322   -1.000
 4421.00    1.23889   1.28385   -1.000
 4422.00    1.19389   1.26341   -1.000
 4423.00    1.18723   1.25495   -1.000
 4424.00    1.19725   1.25501   -1.000
 4425.00    1.18547   1.25204   -1.000
 4426.00    1.18175   1.24795   -1.000
 4427.00    1.19734   1.25183   -1.000
 4428.00    1.21820   1.25966   -1.000
 4429.00    1.22488   1.26649   -1.000
 4430.00    1.21634   1.27062   -1.000
 4431.00    1.21274   1.27022   -1.000
 4432.00    1.21484   1.25972   -1.000
 4433.00    1.19299   1.23190   -1.000
 4434.00    1.14625   1.19958   -1.000
 4435.00    1.11841   1.19383   -1.000
 4436.00    1.16190   1.22842   -1.000
 4437.00    1.22869   1.28340   -1.000
 4438.00    1.28119   1.32437   -1.000
 4439.00    1.30075   1.33160   -1.000
 4440.00    1.26466   1.30316   -1.000
 4441.00    1.22340   1.25719   -1.000
 4442.00    1.19697   1.22679   -1.000
 4443.00    1.19293   1.23337   -1.000
 4444.00    1.20425   1.27190   -1.000
 4445.00    1.24400   1.31400   -1.000
 4446.00    1.28215   1.33832   -1.000
 4447.00    1.30683   1.34330   -1.000
 4448.00    1.30600   1.34052   -1.000
 4449.00    1.28745   1.33733   -1.000
 4450.00    1.29197   1.33213   -1.000
 4451.00    1.29619   1.32090   -1.000
 4452.00    1.26989   1.29469   -1.000
 4453.00    1.22259   1.24917   -1.000
 4454.00    1.18804   1.20295  171.998
 4455.00    1.16314   1.17994  168.857
 4456.00    1.17698   1.18524  168.254
 4457.00    1.19841   1.20250  169.010
 4458.00    1.18970   1.21422   -1.000
 4459.00    1.18121   1.21854   -1.000
 4460.00    1.16633   1.22292   -1.000
 4461.00    1.17022   1.23270   -1.000
 4462.00    1.19517   1.25253   -1.000
 4463.00    1.23062   1.28031   -1.000
 4464.00    1.24300   1.30325   -1.000
 4465.00    1.25360   1.31195   -1.000
 4466.00    1.27419   1.30597   -1.000
 4467.00    1.24925   1.29273   -1.000
 4468.00    1.23809   1.28205   -1.000
 4469.00    1.22391   1.28483   -1.000
 4470.00    1.23810   1.30627   -1.000
 4471.00    1.27694   1.34016   -1.000
 4472.00    1.33022   1.37484   -1.000
 4473.00    1.33857   1.39902   -1.000
 4474.00    1.35205   1.40825   -1.000
 4475.00    1.37729   1.40970   -1.000
 4476.00    1.38133   1.41115   -1.000
 4477.00    1.39282   1.40952  149.820
 4478.00    1.38672   1.39444  156.450
 4479.00    1.33692   1.36024   -1.000
 4480.00    1.28010   1.31782   -1.000
 4481.00    1.24477   1.29442   -1.000
 4482.00    1.26048   1.30304   -1.000
 4483.00    1.30976   1.33787   -1.000
 4484.00    1.36590   1.38278  144.903
 4485.00    1.38716   1.41541   -1.000
 4486.00    1.39001   1.42051   -1.000
 4487.00    1.36528   1.40052   -1.000
 4488.00    1.31896   1.37157   -1.000
 4489.00    1.28528   1.35133   -1.000
 4490.00    1.27923   1.35234   -1.000
 4491.00    1.31618   1.36960   -1.000
 4492.00    1.34549   1.38508   -1.000
 4493.00    1.33407   1.38189   -1.000
 4494.00    1.31819   1.36501   -1.000
 4495.00    1.29575   1.35701   -1.000
 4496.00    1.30924   1.36628   -1.000
 4497.00    1.33493   1.38492   -1.000
 4498.00    1.35411   1.40218   -1.000
 4499.00    1.35460   1.41105   -1.000
 4500.00    1.33771   1.41191   -1.000
 4501.00    1.33114   1.41869   -1.000
 4502.00    1.35431   1.43991   -1.000
 4503.00    1.40886   1.46841   -1.000
 4504.00    1.45342   1.49254   -1.000
 4505.00    1.45772   1.50096   -1.000
 4506.00    1.43415   1.49437   -1.000
 4507.00    1.42175   1.48243   -1.000
 4508.00    1.42771   1.47638   -1.000
 4509.00    1.43093   1.47799   -1.000
 4510.00    1.44550   1.47988   -1.000
 4511.00    1.44562   1.47359   -1.000
 4512.00    1.39449   1.45858   -1.000
 4513.00    1.37896   1.44260   -1.000
 4514.00    1.38211   1.43058   -1.000
 4515.00    1.37738   1.42502   -1.000
 4516.00    1.37773   1.42485   -1.000
 4517.00    1.35133   1.42215   -1.000
 4518.00    1.34998   1.41787   -1.000
 4519.00    1.37712   1.42138   -1.000
 4520.00    1.40361   1.43132   -1.000
 4521.00    1.41790   1.43683   -1.000
 4522.00    1.38771   1.42898   -1.000
 4523.00    1.34458   1.41060   -1.000
 4524.00    1.33999   1.38995   -1.000
 4525.00    1.33284   1.36632   -1.000
 4526.00    1.28799   1.33519   -1.000
 4527.00    1.24601   1.30066   -1.000
 4528.00    1.22226   1.27774   -1.000
 4529.00    1.23488   1.27684   -1.000
 4530.00    1.26020   1.29222   -1.000
 4531.00    1.29490   1.30941  162.656
 4532.00    1.29422   1.31122  168.095
 4533.00    1.27163   1.29667   -1.000
 4534.00    1.25313   1.28336   -1.000
 4535.00    1.25421   1.29394   -1.000
 4536.00    1.29572   1.33706   -1.000
 4537.00    1.36493   1.39618   -1.000
 4538.00    1.40167   1.44196   -1.000
 4539.00    1.41297   1.45587   -1.000
 4540.00    1.38839   1.44752   -1.000
 4541.00    1.37009   1.43797   -1.000
 4542.00    1.37787   1.43784   -1.000
 4543.00    1.37074   1.43911   -1.000
 4544.00    1.36637   1.43055   -1.000
 4545.00    1.39427   1.41578   81.427
 4546.00    1.21096   1.40277   -1.000
 4547.00    0.34283   1.38873   -1.000
 4548.00   -0.00687   1.37040    0.000
 4549.00    0.14437   1.35734   -1.000
 4550.00    0.75075   1.36267   -1.000
 4551.00    0.41293   1.38103   -1.000
 4552.00    0.98296   1.39071   -1.000
 4553.00    1.33520   1.38403   -1.000
 4554.00    1.33175   1.37380   -1.000
 4555.00    1.31424   1.37638   -1.000
 4556.00    1.35552   1.40199   -1.000
 4557.00    1.41571   1.44144   -1.000
 4558.00    1.46376   1.47532  142.300
 4559.00    1.47117   1.49570   -1.000
 4560.00    1.47342   1.50373   -1.000
 4561.00    1.47789   1.50154   -1.000
 4562.00    1.44178   1.48812   -1.000
 4563.00    1.40009   1.46473   -1.000
 4564.00    1.36852   1.44242   -1.000
 4565.00    1.34511   1.43626   -1.000
 4566.00    1.37816   1.45296   -1.000
 4567.00    1.43106   1.48119   -1.000
 4568.00    1.46509   1.49938   -1.000
 4569.00    1.45635   1.49606   -1.000
 4570.00    1.42253   1.47409   -1.000
 4571.00    1.39506   1.45057   -1.000
 4572.00    1.39262   1.44554   -1.000
 4573.00    1.40604   1.46424   -1.000
 4574.00    1.42914   1.48905   -1.000
 4575.00    1.44550   1.50205   -1.000
 4576.00    1.43944   1.50193   -1.000
 4577.00    1.42568   1.49184   -1.000
 4578.00    1.39694   1.47081   -1.000
 4579.00    1.36766   1.44123   -1.000
 4580.00    1.34234   1.41354   -1.000
 4581.00    1.34112   1.39844   -1.000
 4582.00    1.36840   1.39975   -1.000
 4583.00    1.38552   1.40959   -1.000
 4584.00    1.37157   1.41661   -1.000
 4585.00    1.35741   1.41904   -1.000
 4586.00    1.37705   1.42731   -1.000
 4587.00    1.42087   1.44687   -1.000
 4588.00    1.46163   1.47132  144.053
 4589.00    1.46013   1.48669   -1.000
 4590.00    1.43837   1.48398   -1.000
 4591.00    1.42401   1.46713   -1.000
 4592.00    1.39548   1.44963   -1.000
 4593.00    1.36741   1.44368   -1.000
 4594.00    1.36906   1.44942   -1.000
 4595.00    1.39187   1.45891   -1.000
 4596.00    1.40423   1.46773   -1.000
 4597.00    1.42416   1.47453   -1.000
 4598.00    1.43644   1.47601   -1.000
 4599.00    1.41089   1.46992   -1.000
 4600.00    1.37545   1.45985   -1.000
 4601.00    1.38045   1.45213   -1.000
 4602.00    1.40230   1.45150   -1.000
 4603.00    1.41304   1.45678   -1.000
 4604.00    1.41325   1.46494   -1.000
 4605.00    1.43155   1.47419   -1.000
 4606.00    1.46090   1.48610   -1.000
 4607.00    1.45471   1.50327   -1.000
 4608.00    1.50426   1.52404  137.533
 4609.00    1.52432   1.54145  139.236
 4610.00    1.53330   1.54377  140.866
 4611.00    1.50609   1.53171   -1.000
 4612.00    1.46761   1.51952   -1.000
 4613.00    1.44653   1.51359   -1.000
 4614.00    1.45594   1.51467   -1.000
 4615.00    1.46508   1.51819   -1.000
 4616.00    1.46882   1.51835   -1.000
 4617.00    1.47998   1.51408   -1.000
 4618.00    1.47220   1.50954   -1.000
 4619.00    1.45513   1.51091   -1.000
 4620.00    1.45939   1.52183   -1.000
 4621.00    1.48050   1.53820   -1.000
 4622.00    1.49186   1.54832   -1.000
 4623.00    1.51453   1.54683   -1.000
 4624.00    1.50969   1.54108   -1.000
 4625.00    1.49041   1.53588   -1.000
 4626.00    1.50303   1.53125   -1.000
 4627.00    1.50768   1.52970   -1.000
 4628.00    1.48777   1.53055   -1.000
 4629.00    1.46871   1.53217   -1.000
 4630.00    1.46658   1.53600   -1.000
 4631.00    1.48988   1.54316   -1.000
 4632.00    1.49329   1.54530   -1.000
 4633.00    1.47554   1.53657   -1.000
 4634.00    1.46837   1.52445   -1.000
 4635.00    1.47438   1.51559   -1.000
 4636.00    1.47198   1.50838   -1.000
 4637.00    1.46442   1.50064   -1.000
 4638.00    1.43700   1.49597   -1.000
 4639.00    1.43334   1.49915   -1.000
 4640.00    1.46446   1.51250   -1.000
 4641.00    1.48978   1.53204   -1.000
 4642.00    1.50990   1.54707   -1.000
 4643.00    1.52010   1.54561   -1.000
 4644.00    1.49599   1.52745   -1.000
 4645.00    1.44860   1.49986   -1.000
 4646.00    1.41468   1.47003   -1.000
 4647.00    1.42840   1.45298   -1.000
 4648.00    1.44565   1.46046  142.398
 4649.00    1.44421   1.48585   -1.000
 4650.00    1.46752   1.51197   -1.000
 4651.00    1.48429   1.52511   -1.000
 4652.00    1.48109   1.52516   -1.000
 4653.00    1.47262   1.51705   -1.000
 4654.00    1.44387   1.50380   -1.000
 4655.00    1.41587   1.49418   -1.000
 4656.00    1.42197   1.49973   -1.000
 4657.00    1.46991   1.52554   -1.000
 4658.00    1.52548   1.56505   -1.000
 4659.00    1.56440   1.59969   -1.000
 4660.00    1.57049   1.61198   -1.000
 4661.00    1.55203   1.60182   -1.000
 4662.00    1.52001   1.57900   -1.000
 4663.00    1.48819   1.55325   -1.000
 4664.00    1.48346   1.52703   -1.000
 4665.00    1.45659   1.49558   -1.000
 4666.00    1.40003   1.45674   -1.000
 4667.00    1.36613   1.42300   -1.000
 4668.00    1.34652   1.41489   -1.000
 4669.00    1.36769   1.43901   -1.000
 4670.00    1.42822   1.47983   -1.000
 4671.00    1.48989   1.51571   -1.000
 4672.00    1.52161   1.53518  140.740
 4673.00    1.49188   1.54297   -1.000
 4674.00    1.49382   1.54981   -1.000
 4675.00    1.53087   1.56186   -1.000
 4676.00    1.54042   1.56966   -1.000
 4677.00    1.52639   1.56013   -1.000
 4678.00    1.49400   1.53583   -1.000
 4679.00    1.47677   1.50951   -1.000
 4680.00    1.44483   1.49298   -1.000
 4681.00    1.44803   1.48890   -1.000
 4682.00    1.47188   1.49546   -1.000
 4683.00    1.51645   1.51037  140.061
 4684.00    1.53870   1.52650  140.198
 4685.00    1.55589   1.53703  140.893
 4686.00    1.52378   1.54087  141.020
 4687.00    1.49666   1.54107   -1.000
 4688.00    1.52021   1.53948  141.906
 4689.00    1.50641   1.53769   -1.000
 4690.00    1.50041   1.53575   -1.000
 4691.00    1.49551   1.53388   -1.000
 4692.00    1.49597   1.53745   -1.000
 4693.00    1.50592   1.54784   -1.000
 4694.00    1.52612   1.55894   -1.000
 4695.00    1.55566   1.56615  137.750
 4696.00    1.57284   1.56627  141.936
 4697.00    1.53205   1.55346   -1.000
 4698.00    1.49297   1.53058   -1.000
 4699.00    1.46836   1.50762   -1.000
 4700.00    1.44964   1.48959   -1.000
 4701.00    1.46650   1.47514  147.297
 4702.00    1.45030   1.46318  144.941
 4703.00    1.42631   1.46229   -1.000
 4704.00    1.45664   1.47691  144.144
 4705.00    1.48047   1.49398  146.974
 4706.00    1.46791   1.49608   -1.000
 4707.00    1.44017   1.48403   -1.000
 4708.00    1.42958   1.47494   -1.000
 4709.00    1.43922   1.48168   -1.000
 4710.00    1.46025   1.50118   -1.000
 4711.00    1.49182   1.52471   -1.000
 4712.00    1.51938   1.54146   -1.000
 4713.00    1.51877   1.54161   -1.000
 4714.00    1.49400   1.53375   -1.000
 4715.00    1.49369   1.53485   -1.000
 4716.00    1.52481   1.55156   -1.000
 4717.00    1.54688   1.57538   -1.000
 4718.00    1.55597   1.59335   -1.000
 4719.00    1.58135   1.60165  135.978
 4720.00    1.57266   1.60239   -1.000
 4721.00    1.54677   1.60021   -1.000
 4722.00    1.52695   1.59930   -1.000
 4723.00    1.53053   1.60226   -1.000
 4724.00    1.54813   1.60560   -1.000
 4725.00    1.55440   1.60127   -1.000
 4726.00    1.53151   1.58230   -1.000
 4727.00    1.49581   1.55086   -1.000
 4728.00    1.46628   1.52252   -1.000
 4729.00    1.44977   1.51089   -1.000
 4730.00    1.47248   1.51371   -1.000
 4731.00    1.49900   1.52329   -1.000
 4732.00    1.52045   1.53663  139.959
 4733.00    1.53013   1.54859  139.180
 4734.00    1.53474   1.55361  140.410
 4735.00    1.51362   1.55304   -1.000
 4736.00    1.53499   1.55117  139.162
 4737.00    1.53254   1.55168  138.986
 4738.00    1.55424   1.55892  139.728
 4739.00    1.55976   1.57032  139.992
 4740.00    1.54444   1.57662   -1.000
 4741.00    1.53975   1.57779   -1.000
 4742.00    1.56920   1.58210  137.594
 4743.00    1.57381   1.59006  137.750
 4744.00    1.57634   1.59661  136.848
 4745.00    1.59818   1.59977  135.490
 4746.00    1.57419   1.60314   -1.000
 4747.00    1.58013   1.61152   -1.000
 4748.00    1.59291   1.62274   -1.000
 4749.00    1.59046   1.63236   -1.000
 4750.00    1.57879   1.63810   -1.000
 4751.00    1.56576   1.63510   -1.000
 4752.00    1.56525   1.62146   -1.000
 4753.00    1.54059   1.60135   -1.000
 4754.00    1.51795   1.58478   -1.000
 4755.00    1.52343   1.57925   -1.000
 4756.00    1.52308   1.58356   -1.000
 4757.00    1.51553   1.59327   -1.000
 4758.00    1.53039   1.60510   -1.000
 4759.00    1.53206   1.61465   -1.000
 4760.00    1.54277   1.61381   -1.000
 4761.00    1.53636   1.59724   -1.000
 4762.00    1.50264   1.56728   -1.000
 4763.00    1.47484   1.53883   -1.000
 4764.00    1.46624   1.52430   -1.000
 4765.00    1.47986   1.52079   -1.000
 4766.00    1.48229   1.52599   -1.000
 4767.00    1.49194   1.54386   -1.000
 4768.00    1.51978   1.57356   -1.000
 4769.00    1.55019   1.60103   -1.000
 4770.00    1.56037   1.61236   -1.000
 4771.00    1.55297   1.60934   -1.000
 4772.00    1.54670   1.60566   -1.000
 4773.00    1.54239   1.61277   -1.000
 4774.00    1.56793   1.63045   -1.000
 4775.00    1.58519   1.64606   -1.000
 4776.00    1.58814   1.65198   -1.000
 4777.00    1.58096   1.64890   -1.000
 4778.00    1.59043   1.64106   -1.000
 4779.00    1.59149   1.63208   -1.000
 4780.00    1.57756   1.62430   -1.000
 4781.00    1.57439   1.61739   -1.000
 4782.00    1.58399   1.60778   -1.000
 4783.00    1.57768   1.59747   -1.000
 4784.00    1.54756   1.58999   -1.000
 4785.00    1.53333   1.58510   -1.000
 4786.00    1.51520   1.58152   -1.000
 4787.00    1.50966   1.58025   -1.000
 4788.00    1.51523   1.58331   -1.000
 4789.00    1.54053   1.59075   -1.000
 4790.00    1.55422   1.60330   -1.000
 4791.00    1.55130   1.62172   -1.000
 4792.00    1.58217   1.64472   -1.000
 4793.00    1.59938   1.66865   -1.000
 4794.00    1.61933   1.68917   -1.000
 4795.00    1.64138   1.70021   -1.000
 4796.00    1.65358   1.69639   -1.000
 4797.00    1.61680   1.68083   -1.000
 4798.00    1.57949   1.66113   -1.000
 4799.00    1.54555   1.64616   -1.000
 4800.00    1.55955   1.64560   -1.000
 4801.00    1.59898   1.66064   -1.000
 4802.00    1.61006   1.67860   -1.000
 4803.00    1.61650   1.68598   -1.000
 4804.00    1.59523   1.68027   -1.000
 4805.00    1.59286   1.66785   -1.000
 4806.00    1.59978   1.65731   -1.000
 4807.00    1.59459   1.65106   -1.000
 4808.00    1.58772   1.65059   -1.000
 4809.00    1.58586   1.65765   -1.000
 4810.00    1.59576   1.66791   -1.000
 4811.00    1.62010   1.67548   -1.000
 4812.00    1.62188   1.68064   -1.000
 4813.00    1.60367   1.68610   -1.000
 4814.00    1.62989   1.69323   -1.000
 4815.00    1.63715   1.70330   -1.000
 4816.00    1.63135   1.71469   -1.000
 4817.00    1.66004   1.72272   -1.000
 4818.00    1.65577   1.72530   -1.000
 4819.00    1.65196   1.72537   -1.000
 4820.00    1.66208   1.72228   -1.000
 4821.00    1.64142   1.70853   -1.000
 4822.00    1.60697   1.68099   -1.000
 4823.00    1.57572   1.64887   -1.000
 4824.00    1.56961   1.63233   -1.000
 4825.00    1.60172   1.64242   -1.000
 4826.00    1.61620   1.66426   -1.000
 4827.00    1.61669   1.67792   -1.000
 4828.00    1.62317   1.67784   -1.000
 4829.00    1.59603   1.67208   -1.000
 4830.00    1.59565   1.66575   -1.000
 4831.00    1.59250   1.65478   -1.000
 4832.00    1.57463   1.64456   -1.000
 4833.00    1.59339   1.64476   -1.000
 4834.00    1.61916   1.65566   -1.000
 4835.00    1.62163   1.66963   -1.000
 4836.00    1.63183   1.67705   -1.000
 4837.00    1.64960   1.67447   -1.000
 4838.00    1.61339   1.66290   -1.000
 4839.00    1.57897   1.64572   -1.000
 4840.00    1.56817   1.63041   -1.000
 4841.00    1.57819   1.62428   -1.000
 4842.00    1.60060   1.62783   -1.000
 4843.00    1.59544   1.63474   -1.000
 4844.00    1.59694   1.64444   -1.000
 4845.00    1.63140   1.65987   -1.000
 4846.00    1.65903   1.67128  139.714
 4847.00    1.64278   1.66713   -1.000
 4848.00    1.62145   1.65504   -1.000
 4849.00    1.59748   1.65001   -1.000
 4850.00    1.60027   1.65516   -1.000
 4851.00    1.60156   1.65979   -1.000
 4852.00    1.60942   1.65342   -1.000
 4853.00    1.58983   1.63159   -1.000
 4854.00    1.55725   1.59476   -1.000
 4855.00    1.51576   1.55623   -1.000
 4856.00    1.51014   1.53003  149.648
 4857.00    1.50180   1.51295  161.874
 4858.00    1.46558   1.47329  180.663
 4859.00    1.38050   1.38373  190.513
 4860.00    1.24631   1.27148   -1.000
 4861.00    1.16404   1.19718   -1.000
 4862.00    1.19978   1.20783  154.443
 4863.00    1.30854   1.29157  148.717
 4864.00    1.40007   1.39354  145.420
 4865.00    1.45694   1.47700  143.966
 4866.00    1.48518   1.53414   -1.000
 4867.00    1.51342   1.57015   -1.000
 4868.00    1.55769   1.58697   -1.000
 4869.00    1.54138   1.58127   -1.000
 4870.00    1.48226   1.55200   -1.000
 4871.00    1.44655   1.51375   -1.000
 4872.00    1.44435   1.49950   -1.000
 4873.00    1.46471   1.52652   -1.000
 4874.00    1.47816   1.57292   -1.000
 4875.00    1.51895   1.60657   -1.000
 4876.00    1.56228   1.61715   -1.000
 4877.00    1.57130   1.62159   -1.000
 4878.00    1.56954   1.63705   -1.000
 4879.00    1.59298   1.66107   -1.000
 4880.00    1.58397   1.67860   -1.000
 4881.00    1.57749   1.67786   -1.000
 4882.00    1.57622   1.66591   -1.000
 4883.00    1.58054   1.65577   -1.000
 4884.00    1.55400   1.64424   -1.000
 4885.00    1.53022   1.62766   -1.000
 4886.00    1.51601   1.61270   -1.000
 4887.00    1.53974   1.60602   -1.000
 4888.00    1.56110   1.60172   -1.000
 4889.00    1.50563   1.58543   -1.000
 4890.00    1.50460   1.55940   -1.000
 4891.00    1.49781   1.54887   -1.000
 4892.00    1.54252   1.57906   -1.000
 4893.00    1.62244   1.64915   -1.000
 4894.00    1.68217   1.72288   -1.000
 4895.00    1.71322   1.76911   -1.000
 4896.00    1.70252   1.78759   -1.000
 4897.00    1.70188   1.78687   -1.000
 4898.00    1.67242   1.77359   -1.000
 4899.00    1.65559   1.75444   -1.000
 4900.00    1.64705   1.73798   -1.000
 4901.00    1.64901   1.72723   -1.000
 4902.00    1.64136   1.71726   -1.000
 4903.00    1.63671   1.70556   -1.000
 4904.00    1.63749   1.70516   -1.000
 4905.00    1.65891   1.72552   -1.000
 4906.00    1.69833   1.74938   -1.000
 4907.00    1.68503   1.75432   -1.000
 4908.00    1.62519   1.73415   -1.000
 4909.00    1.59380   1.69865   -1.000
 4910.00    1.57447   1.66777   -1.000
 4911.00    1.58311   1.65927   -1.000
 4912.00    1.60331   1.67680   -1.000
 4913.00    1.61247   1.70572   -1.000
 4914.00    1.65438   1.73230   -1.000
 4915.00    1.69595   1.74883   -1.000
 4916.00    1.68331   1.74121   -1.000
 4917.00    1.63594   1.69696   -1.000
 4918.00    1.57144   1.62344   -1.000
 4919.00    1.48937   1.54803   -1.000
 4920.00    1.45191   1.50618   -1.000
 4921.00    1.49240   1.51415  143.147
 4922.00    1.54748   1.55625  142.889
 4923.00    1.56865   1.59973   -1.000
 4924.00    1.58628   1.62867   -1.000
 4925.00    1.59524   1.65382   -1.000
 4926.00    1.64105   1.68593   -1.000
 4927.00    1.68441   1.72356   -1.000
 4928.00    1.70524   1.75632   -1.000
 4929.00    1.71648   1.77670   -1.000
 4930.00    1.70477   1.78298   -1.000
 4931.00    1.70334   1.77028   -1.000
 4932.00    1.64100   1.73591   -1.000
 4933.00    1.61031   1.69470   -1.000
 4934.00    1.59970   1.66992   -1.000
 4935.00    1.62905   1.66943   -1.000
 4936.00    1.63792   1.67465   -1.000
 4937.00    1.58546   1.65798   -1.000
 4938.00    1.54917   1.62789   -1.000
 4939.00    1.56284   1.61818   -1.000
 4940.00    1.58845   1.64597   -1.000
 4941.00    1.67443   1.69927   -1.000
 4942.00    1.69781   1.74714   -1.000
 4943.00    1.74229   1.77160   -1.000
 4944.00    1.72636   1.77507   -1.000
 4945.00    1.70754   1.76725   -1.000
 4946.00    1.69823   1.76044   -1.000
 4947.00    1.70394   1.76573   -1.000
 4948.00    1.71714   1.78366   -1.000
 4949.00    1.72257   1.80110   -1.000
 4950.00    1.71938   1.80655   -1.000
 4951.00    1.72169   1.80103   -1.000
 4952.00    1.70885   1.79166   -1.000
 4953.00    1.70383   1.78111   -1.000
 4954.00    1.70132   1.76449   -1.000
 4955.00    1.68552   1.72569   -1.000
 4956.00    1.63126   1.65679   -1.000
 4957.00    1.54830   1.59141   -1.000
 4958.00    1.55806   1.57730  136.019
 4959.00    1.64512   1.62581  134.775
 4960.00    1.71085   1.69963  135.324
 4961.00    1.71111   1.75173   -1.000
 4962.00    1.72065   1.77133   -1.000
 4963.00    1.73288   1.76907   -1.000
 4964.00    1.69782   1.75282   -1.000
 4965.00    1.69601   1.72894   -1.000
 4966.00    1.68494   1.70716   -1.000
 4967.00    1.66025   1.69426   -1.000
 4968.00    1.63381   1.69060   -1.000
 4969.00    1.63246   1.69589   -1.000
 4970.00    1.64124   1.70959   -1.000
 4971.00    1.68610   1.72833   -1.000
 4972.00    1.73796   1.74805  134.914
 4973.00    1.74387   1.76556   -1.000
 4974.00    1.72108   1.77637   -1.000
 4975.00    1.73450   1.77757   -1.000
 4976.00    1.72498   1.76971   -1.000
 4977.00    1.70560   1.75395   -1.000
 4978.00    1.65934   1.73367   -1.000
 4979.00    1.64092   1.71077   -1.000
 4980.00    1.63480   1.68031   -1.000
 4981.00    1.58322   1.63401   -1.000
 4982.00    1.53564   1.57868   -1.000
 4983.00    1.50628   1.54095   -1.000
 4984.00    1.53058   1.54466  143.195
 4985.00    1.57332   1.58722  139.590
 4986.00    1.62775   1.64328  139.549
 4987.00    1.67433   1.69062  141.535
 4988.00    1.71078   1.71547  143.029
 4989.00    1.68314   1.71348   -1.000
 4990.00    1.63741   1.69722   -1.000
 4991.00    1.65647   1.68562   -1.000
 4992.00    1.65779   1.68737   -1.000
 4993.00    1.66070   1.69710   -1.000
 4994.00    1.68346   1.70733   -1.000
 4995.00    1.71013   1.71722  140.590
 4996.00    1.70567   1.72629   -1.000
 4997.00    1.67255   1.72689   -1.000
 4998.00    1.65854   1.70994   -1.000
 4999.00    1.61814   1.67717   -1.000
 5000.00    1.60719   1.64317   -1.000
 5001.00    1.60567   1.62470  145.009
 5002.00    1.61568   1.62742  146.971
 5003.00    1.61900   1.63832  150.683
 5004.00    1.60468   1.63613   -1.000
 5005.00    1.58445   1.61208   -1.000
 5006.00    1.56524   1.58708  143.594
 5007.00    1.58395   1.59209  141.951
 5008.00    1.63881   1.62828  143.691
 5009.00    1.68739   1.66844  147.938
 5010.00    1.67275   1.68217  153.479
 5011.00    1.62871   1.65918   -1.000
 5012.00    1.58511   1.61370   -1.000
 5013.00    1.54397   1.57267   -1.000
 5014.00    1.54716   1.55622  149.934
 5015.00    1.58205   1.56286  149.214
 5016.00    1.60513   1.57897   -1.000
 5017.00    1.61774   1.59213   -1.000
 5018.00    1.61369   1.60407  146.358
 5019.00    1.61774   1.62145  146.950
 5020.00    1.63377   1.63816  147.290
 5021.00    1.64323   1.64530  146.482
 5022.00    1.64800   1.64435  144.947
 5023.00    1.64354   1.64919  143.953
 5024.00    1.63606   1.66947   -1.000
 5025.00    1.65291   1.68846   -1.000
 5026.00    1.64714   1.68845   -1.000
 5027.00    1.62799   1.67880   -1.000
 5028.00    1.64646   1.67637   -1.000
 5029.00    1.67084   1.68824  137.037
 5030.00    1.71684   1.71241  135.438
 5031.00    1.74778   1.74079  135.613
 5032.00    1.75558   1.76411  139.869
 5033.00    1.74044   1.77122   -1.000
 5034.00    1.73603   1.75077  147.940
 5035.00    1.66582   1.70991   -1.000
 5036.00    1.62959   1.67228   -1.000
 5037.00    1.66204   1.65195  156.146
 5038.00    1.65280   1.63604  162.538
 5039.00    1.60018   1.59845  162.766
 5040.00    1.50612   1.54756   -1.000
 5041.00    1.46629   1.52362   -1.000
 5042.00    1.54371   1.55304  139.456
 5043.00    1.64715   1.62592  136.468
 5044.00    1.71046   1.70416  131.267
 5045.00    1.75577   1.75909  135.156
 5046.00    1.74686   1.78315   39.762
 5047.00    1.83232   1.77520   -1.000
 5048.00    0.86391   1.74009   -1.000
 5049.00   -0.04008   1.69426    0.000
 5050.00   -0.01868   1.65999    0.000
 5051.00    0.21385   1.65208   -1.000
 5052.00    1.10160   1.67251   -1.000
 5053.00    1.75372   1.71101   -1.000
 5054.00    1.74566   1.74695  135.015
 5055.00    1.76634   1.76797  135.255
 5056.00    1.76263   1.78024  135.508
 5057.00    1.76852   1.79000   -1.000
 5058.00    1.80278   1.79872  134.540
 5059.00    1.78315   1.80572   -1.000
 5060.00    1.76379   1.80979   -1.000
 5061.00    1.79284   1.81062  140.380
 5062.00    1.82664   1.80057   -1.000
 5063.00    1.77355   1.76816  147.113
 5064.00    1.68723   1.72401   -1.000
 5065.00    1.65891   1.69253   -1.000
 5066.00    1.67801   1.68566  142.672
 5067.00    1.68813   1.69544  141.996
 5068.00    1.69240   1.70522  141.058
 5069.00    1.71888   1.71188  142.193
 5070.00    1.73660   1.71791  143.324
 5071.00    1.74023   1.71725   -1.000
 5072.00    1.72044   1.70768  140.452
 5073.00    1.73220   1.70171   -1.000
 5074.00    1.73878   1.70870   -1.000
 5075.00    1.73373   1.72155  141.516
 5076.00    1.72306   1.72642  146.471
 5077.00    1.71853   1.71387  153.486
 5078.00    1.67025   1.67951  155.272
 5079.00    1.61055   1.63463   -1.000
 5080.00    1.58349   1.60661   -1.000
 5081.00    1.60568   1.60723  146.735
 5082.00    1.63753   1.62649  143.955
 5083.00    1.64274   1.65078  141.487
 5084.00    1.67305   1.67712  140.479
 5085.00    1.74220   1.70842   -1.000
 5086.00    1.76072   1.73676   -1.000
 5087.00    1.75234   1.75301  138.566
 5088.00    1.74675   1.75999  137.803
 5089.00    1.77407   1.76481  137.089
 5090.00    1.76378   1.77106  135.496
 5091.00    1.77054   1.78068  134.279
 5092.00    1.81451   1.79442  135.528
 5093.00    1.83180   1.80720   -1.000
 5094.00    1.78431   1.80712   -1.000
 5095.00    1.84492   1.78406   -1.000
 5096.00    1.87176   1.74257   -1.000
 5097.00    1.71356   1.69859  148.302
 5098.00    1.63627   1.66780   -1.000
 5099.00    1.63404   1.66086   -1.000
 5100.00    1.68383   1.68095  139.198
 5101.00    1.73267   1.71724  140.045
 5102.00    1.76290   1.74542  141.914
 5103.00    1.75143   1.75275  143.710
 5104.00    1.74788   1.74421  145.471
 5105.00    1.72840   1.72628  147.300
 5106.00    1.70436   1.70308  147.045
 5107.00    1.68238   1.68094  146.088
 5108.00    1.66179   1.66832  145.036
 5109.00    1.67448   1.67014  142.926
 5110.00    1.70274   1.68610  141.181
 5111.00    1.71527   1.71238  139.458
 5112.00    1.77905   1.74002   -1.000
 5113.00    1.78171   1.76222  137.478
 5114.00    1.77459   1.78030  136.007
 5115.00    1.75506   1.79673   -1.000
 5116.00    1.79430   1.81073  135.307
 5117.00    1.80524   1.81869  137.114
 5118.00    1.85438   1.81844   -1.000
 5119.00    1.81463   1.80841  141.497
 5120.00    1.80213   1.78825  145.181
 5121.00    1.76342   1.76154  149.591
 5122.00    1.71328   1.73233  150.550
 5123.00    1.70263   1.70179  149.150
 5124.00    1.68620   1.67585  148.436
 5125.00    1.67785   1.66416  147.544
 5126.00    1.69190   1.66628   -1.000
 5127.00    1.71419   1.67245   -1.000
 5128.00    1.70366   1.67596   -1.000
 5129.00    1.68209   1.68004  143.157
 5130.00    1.69405   1.68985  142.032
 5131.00    1.73502   1.70614   -1.000
 5132.00    1.74750   1.72411   -1.000
 5133.00    1.76695   1.73885   -1.000
 5134.00    1.77339   1.74957   -1.000
 5135.00    1.77722   1.75432   -1.000
 5136.00    1.77659   1.74624   -1.000
 5137.00    1.72637   1.72353  147.607
 5138.00    1.66780   1.69560   -1.000
 5139.00    1.65850   1.67592  147.401
 5140.00    1.67681   1.67122  149.859
 5141.00    1.66968   1.67483  148.869
 5142.00    1.66319   1.67936  146.296
 5143.00    1.67729   1.68568  145.861
 5144.00    1.70523   1.69583  147.300
 5145.00    1.70780   1.70304  147.625
 5146.00    1.68394   1.69786  145.726
 5147.00    1.69101   1.68782  144.944
 5148.00    1.68430   1.69060  146.847
 5149.00    1.70043   1.70168  149.574
 5150.00    1.72105   1.70230  150.490
 5151.00    1.69322   1.69100  149.656
 5152.00    1.66562   1.67788  146.705
 5153.00    1.67878   1.67179  142.935
 5154.00    1.69856   1.67952  139.298
 5155.00    1.74584   1.70492   -1.000
 5156.00    1.80443   1.74195   -1.000
 5157.00    1.82740   1.77724   -1.000
 5158.00    1.80627   1.80173  136.279
 5159.00    1.82222   1.81307  137.079
 5160.00    1.84927   1.81376   -1.000
 5161.00    1.85023   1.80395   -1.000
 5162.00    1.82418   1.78227   -1.000
 5163.00    1.74707   1.74948  158.850
 5164.00    1.73378   1.69883   -1.000
 5165.00    1.61993   1.61329  187.222
 5166.00    1.45720   1.49978   -1.000
 5167.00    1.37456   1.40339   -1.000
 5168.00    1.38750   1.37700  169.901
 5169.00    1.47589   1.41731   -1.000
 5170.00    1.51171   1.44702   -1.000
 5171.00    1.45878   1.41973   -1.000
 5172.00    1.32952   1.37057   -1.000
 5173.00    1.34148   1.37311   -1.000
 5174.00    1.51304   1.46136   -1.000
 5175.00    1.67333   1.58384   -1.000
 5176.00    1.74174   1.67888   -1.000
 5177.00    1.76876   1.72856   -1.000
 5178.00    1.78855   1.74319   -1.000
 5179.00    1.78546   1.73348   -1.000
 5180.00    1.74428   1.68735   -1.000
 5181.00    1.63286   1.59387   -1.000
 5182.00    1.46677   1.47145  184.880
 5183.00    1.32782   1.37602   -1.000
 5184.00    1.32287   1.36880   -1.000
 5185.00    1.48053   1.45373   -1.000
 5186.00    1.65910   1.57719   -1.000
 5187.00    1.75766   1.67124   -1.000
 5188.00    1.79093   1.71432   -1.000
 5189.00    1.78321   1.72916   -1.000
 5190.00    1.78038   1.72452   -1.000
 5191.00    1.73192   1.69859   -1.000
 5192.00    1.67462   1.66822  150.136
 5193.00    1.67797   1.65535   -1.000
 5194.00    1.70158   1.66468   -1.000
 5195.00    1.73320   1.68571   -1.000
 5196.00    1.74709   1.70877   -1.000
 5197.00    1.79375   1.73753   -1.000
 5198.00    1.82814   1.77175   -1.000
 5199.00    1.85403   1.80015   -1.000
 5200.00    1.84560   1.81376   -1.000
 5201.00    1.83016   1.80806   -1.000
 5202.00    1.80972   1.78024   -1.000
 5203.00    1.78620   1.73292   -1.000
 5204.00    1.72383   1.67541   -1.000
 5205.00    1.67201   1.62280   -1.000
 5206.00    1.68262   1.58945   -1.000
 5207.00    1.66014   1.57750   -1.000
 5208.00    1.64071   1.58047   -1.000
 5209.00    1.65808   1.60053   -1.000
 5210.00    1.70613   1.64452   -1.000
 5211.00    1.76428   1.71053   -1.000
 5212.00    1.84396   1.77961   -1.000
 5213.00    1.88430   1.82372   -1.000
 5214.00    1.87343   1.82700   -1.000
 5215.00    1.82764   1.79928   -1.000
 5216.00    1.77953   1.77341  137.880
 5217.00    1.78529   1.77559  135.864
 5218.00    1.83254   1.80740   -1.000
 5219.00    1.87653   1.85006   -1.000
 5220.00    1.89834   1.88386  136.344
 5221.00    1.91301   1.89971  140.697
 5222.00    1.90487   1.89306  146.636
 5223.00    1.84494   1.86193  153.527
 5224.00    1.76951   1.80297   -1.000
 5225.00    1.69435   1.72237   -1.000
 5226.00    1.64409   1.65362  144.684
 5227.00    1.65340   1.63580  138.975
 5228.00    1.71590   1.67924   -1.000
 5229.00    1.80357   1.75176   -1.000
 5230.00    1.85206   1.80459   -1.000
 5231.00    1.85567   1.81740   -1.000
 5232.00    1.82622   1.79884   -1.000
 5233.00    1.80357   1.77433   -1.000
 5234.00    1.78052   1.77169  134.833
 5235.00    1.80676   1.80105  133.461
 5236.00    1.85318   1.84743  133.440
 5237.00    1.91661   1.88849   -1.000
 5238.00    1.91914   1.91147  133.584
 5239.00    1.92751   1.91714  132.782
 5240.00    1.91476   1.91374  133.044
 5241.00    1.91865   1.90685  132.734
 5242.00    1.91123   1.90201  132.603
 5243.00    1.92589   1.90570  135.510
 5244.00    1.94113   1.91385   -1.000
 5245.00    1.93042   1.90917   -1.000
 5246.00    1.87213   1.88356  143.105
 5247.00    1.81180   1.84880   -1.000
 5248.00    1.80700   1.82292  144.318
 5249.00    1.83639   1.81236   -1.000
 5250.00    1.82345   1.81074  141.417
 5251.00    1.82167   1.81505  140.102
 5252.00    1.82707   1.82522  140.189
 5253.00    1.83332   1.83434  139.033
 5254.00    1.85095   1.83815  135.612
 5255.00    1.86150   1.84804  131.990
 5256.00    1.89212   1.87406  131.067
 5257.00    1.93247   1.90910   -1.000
 5258.00    1.98393   1.93475   -1.000
 5259.00    1.97871   1.93335   -1.000
 5260.00    1.92591   1.89883   -1.000
 5261.00    1.84206   1.83662  154.104
 5262.00    1.76014   1.76069  157.048
 5263.00    1.70131   1.68824  157.181
 5264.00    1.65765   1.63494   -1.000
 5265.00    1.65503   1.61365   -1.000
 5266.00    1.69504   1.62253   -1.000
 5267.00    1.72669   1.63555   -1.000
 5268.00    1.70336   1.62561   -1.000
 5269.00    1.64291   1.59379   -1.000
 5270.00    1.63389   1.58120   -1.000
 5271.00    1.70589   1.62354   -1.000
 5272.00    1.79285   1.69498   -1.000
 5273.00    1.83798   1.75057   -1.000
 5274.00    1.82172   1.77845   -1.000
 5275.00    1.81533   1.79611  133.173
 5276.00    1.85047   1.82642   -1.000
 5277.00    1.94072   1.87235   -1.000
 5278.00    1.96527   1.91459   -1.000
 5279.00    1.95528   1.92653   -1.000
 5280.00    1.93739   1.90160   -1.000
 5281.00    1.89415   1.85920   -1.000
 5282.00    1.85200   1.82120   -1.000
 5283.00    1.82699   1.80393   -1.000
 5284.00    1.85117   1.82085   -1.000
 5285.00    1.92719   1.87022   -1.000
 5286.00    1.96910   1.92815   -1.000
 5287.00    1.86053   1.96835   -1.000
 5288.00    1.99395   1.98399  129.313
 5289.00    2.02237   1.98858   -1.000
 5290.00    2.01403   1.99119  129.977
 5291.00    2.01695   1.98978   -1.000
 5292.00    1.99688   1.98550  133.126
 5293.00    1.99629   1.97927  136.955
 5294.00    1.98594   1.96377   -1.000
 5295.00    1.94333   1.92970  145.737
 5296.00    1.89647   1.87551   -1.000
 5297.00    1.80253   1.82099  140.557
 5298.00    1.78772   1.79745  138.100
 5299.00    1.84766   1.81175   -1.000
 5300.00    1.88773   1.84365   -1.000
 5301.00    1.90166   1.87149   -1.000
 5302.00    1.91900   1.89374   -1.000
 5303.00    1.96660   1.92390   -1.000
 5304.00    1.99621   1.95766   -1.000
 5305.00    2.00270   1.97712   -1.000
 5306.00    2.01836   1.97760   -1.000
 5307.00    2.00597   1.96981   -1.000
 5308.00    1.99088   1.97094  128.598
 5309.00    2.02790   1.98660   -1.000
 5310.00    2.04616   2.00515   -1.000
 5311.00    2.04101   2.01427   -1.000
 5312.00    2.05380   2.00982   -1.000
 5313.00    2.02381   1.99541   -1.000
 5314.00    2.00009   1.97579   -1.000
 5315.00    1.98894   1.95268   -1.000
 5316.00    1.95032   1.93303  132.428
 5317.00    1.95978   1.92927   -1.000
 5318.00    1.96620   1.94459  132.545
 5319.00    1.98722   1.96460   -1.000
 5320.00    1.99779   1.96972   -1.000
 5321.00    2.00485   1.95584   -1.000
 5322.00    1.98327   1.92756   -1.000
 5323.00    1.94542   1.89201   -1.000
 5324.00    1.92416   1.85959   -1.000
 5325.00    1.89308   1.83162   -1.000
 5326.00    1.87308   1.79252   -1.000
 5327.00    1.78716   1.73199   -1.000
 5328.00    1.70214   1.68294   -1.000
 5329.00    1.72996   1.69060   -1.000
 5330.00    1.86744   1.75733   -1.000
 5331.00    1.94060   1.83996   -1.000
 5332.00    1.93758   1.89321   -1.000
 5333.00    1.94380   1.91848   -1.000
 5334.00    1.97930   1.93796   -1.000
 5335.00    1.99886   1.95365   -1.000
 5336.00    1.99574   1.95725   -1.000
 5337.00    1.97017   1.94669   -1.000
 5338.00    1.97412   1.92188   -1.000
 5339.00    1.94346   1.88454   -1.000
 5340.00    1.88479   1.85012   -1.000
 5341.00    1.87874   1.84236   -1.000
 5342.00    1.92361   1.86938   -1.000
 5343.00    1.98254   1.90915   -1.000
 5344.00    2.00372   1.93024   -1.000
 5345.00    1.97877   1.92584   -1.000
 5346.00    1.96617   1.90884   -1.000
 5347.00    1.97250   1.89339   -1.000
 5348.00    1.95852   1.88618   -1.000
 5349.00    1.94218   1.88984   -1.000
 5350.00    1.96584   1.90775   -1.000
 5351.00    1.98431   1.93788   -1.000
 5352.00    2.00434   1.96766   -1.000
 5353.00    2.01503   1.98659   -1.000
 5354.00    2.02268   2.00101  126.515
 5355.00    2.07336   2.01862   -1.000
 5356.00    2.09583   2.03563   -1.000
 5357.00    2.07911   2.04527   -1.000
 5358.00    2.06012   2.04597  129.118
 5359.00    2.08893   2.04065   -1.000
 5360.00    2.07797   2.02813   -1.000
 5361.00    2.01860   2.00630  133.989
 5362.00    2.00305   1.97921   -1.000
 5363.00    1.99730   1.95243   -1.000
 5364.00    1.97989   1.93064   -1.000
 5365.00    1.95921   1.91830   -1.000
 5366.00    1.96831   1.91595   -1.000
 5367.00    1.96080   1.91516   -1.000
 5368.00    1.97476   1.90123   -1.000
 5369.00    1.92798   1.86576   -1.000
 5370.00    1.86505   1.81884   -1.000
 5371.00    1.83725   1.79005   -1.000
 5372.00    1.89348   1.80517   -1.000
 5373.00    1.97557   1.86421   -1.000
 5374.00    2.04759   1.93644   -1.000
 5375.00    2.08156   1.98765   -1.000
 5376.00    2.06802   2.00958   -1.000
 5377.00    2.07471   2.01187   -1.000
 5378.00    2.03496   2.00675   -1.000
 5379.00    2.02407   1.99876   -1.000
 5380.00    2.03326   1.98730   -1.000
 5381.00    2.01997   1.97248   -1.000
 5382.00    2.00552   1.95733   -1.000
 5383.00    2.02664   1.94962   -1.000
 5384.00    2.01523   1.95770   -1.000
 5385.00    2.02357   1.98010   -1.000
 5386.00    2.04611   2.00225   -1.000
 5387.00    2.03556   2.00991   -1.000
 5388.00    2.00170   2.00036  136.442
 5389.00    1.99853   1.97901  136.931
 5390.00    1.98889   1.95497   -1.000
 5391.00    1.97597   1.93446   -1.000
 5392.00    1.95840   1.91892   -1.000
 5393.00    1.96574   1.90977   -1.000
 5394.00    1.96879   1.90276   -1.000
 5395.00    1.93044   1.88628   -1.000
 5396.00    1.91262   1.86014   -1.000
 5397.00    1.91089   1.84041   -1.000
 5398.00    1.93476   1.84801   -1.000
 5399.00    1.96369   1.88417   -1.000
 5400.00    1.97882   1.92307   -1.000
 5401.00    2.00190   1.94333   -1.000
 5402.00    1.99541   1.93709   -1.000
 5403.00    1.94067   1.90038   -1.000
 5404.00    1.90060   1.84485   -1.000
 5405.00    1.84395   1.80258   -1.000
 5406.00    1.85411   1.79701   -1.000
 5407.00    1.91238   1.82313   -1.000
 5408.00    1.95126   1.85116   -1.000
 5409.00    1.93456   1.85895   -1.000
 5410.00    1.90418   1.86190   -1.000
 5411.00    1.95648   1.88265   -1.000
 5412.00    2.03408   1.91898   -1.000
 5413.00    2.03803   1.94993   -1.000
 5414.00    2.00917   1.96233   -1.000
 5415.00    1.99673   1.96949   -1.000
 5416.00    2.00077   1.98498  131.666
 5417.00    2.02622   2.00266   -1.000
 5418.00    2.03722   2.01239   -1.000
 5419.00    2.02161   2.01101  132.942
 5420.00    2.03018   2.00393   -1.000
 5421.00    2.05030   1.99613   -1.000
 5422.00    2.02505   1.98386   -1.000
 5423.00    2.00779   1.96644   -1.000
 5424.00    1.98776   1.95493   -1.000
 5425.00    1.99327   1.96374   -1.000
 5426.00    2.01269   1.98931   -1.000
 5427.00    2.04850   1.99783   -1.000
 5428.00    2.02753   1.96821   -1.000
 5429.00    1.96500   1.92084   -1.000
 5430.00    1.94648   1.89243   -1.000
 5431.00    1.96944   1.89776   -1.000
 5432.00    1.96696   1.91063   -1.000
 5433.00    1.95301   1.90519   -1.000
 5434.00    1.94294   1.88966   -1.000
 5435.00    1.93006   1.88789   -1.000
 5436.00    1.96224   1.91593   -1.000
 5437.00    2.02045   1.96625   -1.000
 5438.00    2.06577   2.01595   -1.000
 5439.00    2.09862   2.04809   -1.000
 5440.00    2.12024   2.06382   -1.000
 5441.00    2.11634   2.07295   -1.000
 5442.00    2.08522   2.07356  134.246
 5443.00    2.05906   2.05606  139.858
 5444.00    2.03072   2.01235  143.724
 5445.00    1.98037   1.94962   -1.000
 5446.00    1.89473   1.89460  136.975
 5447.00    1.91327   1.87567   -1.000
 5448.00    1.98291   1.90316   -1.000
 5449.00    2.05796   1.95541   -1.000
 5450.00    2.09780   1.99998   -1.000
 5451.00    2.11640   2.02130   -1.000
 5452.00    2.10638   2.01570   -1.000
 5453.00    2.06298   1.98459   -1.000
 5454.00    2.00250   1.93722   -1.000
 5455.00    1.94833   1.89689   -1.000
 5456.00    1.97255   1.89528   -1.000
 5457.00    2.02592   1.93781   -1.000
 5458.00    2.08789   1.99228   -1.000
 5459.00    2.11676   2.02494   -1.000
 5460.00    2.09209   2.02353   -1.000
 5461.00    2.06373   1.99708   -1.000
 5462.00    2.01350   1.96472   -1.000
 5463.00    1.99712   1.94669   -1.000
 5464.00    2.02286   1.95252   -1.000
 5465.00    2.04036   1.97539   -1.000
 5466.00    2.07674   1.99998   -1.000
 5467.00    2.08185   2.01730   -1.000
 5468.00    2.07983   2.02812   -1.000
 5469.00    2.08716   2.03133   -1.000
 5470.00    2.08267   2.02534   -1.000
 5471.00    2.07800   2.01421   -1.000
 5472.00    2.07382   2.00134   -1.000
 5473.00    2.04833   1.98447   -1.000
 5474.00    2.02426   1.95841   -1.000
 5475.00    1.97851   1.92240   -1.000
 5476.00    1.93488   1.89095   -1.000
 5477.00    1.92850   1.88559   -1.000
 5478.00    1.97288   1.91225   -1.000
 5479.00    2.02997   1.95112   -1.000
 5480.00    2.02793   1.97186   -1.000
 5481.00    1.98720   1.97099  136.664
 5482.00    1.97543   1.97096  134.046
 5483.00    2.00889   1.98706   -1.000
 5484.00    2.05701   2.01440   -1.000
 5485.00    2.09113   2.03331   -1.000
 5486.00    2.06459   2.03137   -1.000
 5487.00    2.02518   2.01516  137.198
 5488.00    2.04130   2.00146   -1.000
 5489.00    2.05237   2.00215   -1.000
 5490.00    2.07513   2.01326   -1.000
 5491.00    2.08997   2.02430   -1.000
 5492.00    2.06525   2.03014   -1.000
 5493.00    2.06512   2.03174   -1.000
 5494.00    2.08870   2.03115   -1.000
 5495.00    2.07154   2.02566   -1.000
 5496.00    2.06223   2.01392   -1.000
 5497.00    2.06227   2.00231   -1.000
 5498.00    2.07395   1.99905   -1.000
 5499.00    2.08530   2.00295   -1.000
 5500.00    2.07720   1.99984   -1.000
 5501.00    2.07096   1.98362   -1.000
 5502.00    2.07010   1.97134   -1.000
 5503.00    2.06767   1.97334   -1.000
 5504.00    2.05074   1.97740   -1.000
 5505.00    2.03055   1.97097   -1.000
 5506.00    2.02611   1.95639   -1.000
 5507.00    2.04353   1.95244   -1.000
 5508.00    2.06567   1.96855   -1.000
 5509.00    2.05869   1.98984   -1.000
 5510.00    2.06390   1.99690   -1.000
 5511.00    2.03862   1.98199   -1.000
 5512.00    2.00414   1.95497   -1.000
 5513.00    1.98098   1.93521   -1.000
 5514.00    1.99908   1.93677   -1.000
 5515.00    2.04648   1.95798   -1.000
 5516.00    2.08424   1.98783   -1.000
 5517.00    2.11869   2.01812   -1.000
 5518.00    2.14728   2.04385   -1.000
 5519.00    2.14779   2.06048   -1.000
 5520.00    2.15286   2.06630   -1.000
 5521.00    2.13112   2.06572   -1.000
 5522.00    2.10579   2.06450   -1.000
 5523.00    2.11662   2.06269   -1.000
 5524.00    2.10956   2.05228   -1.000
 5525.00    2.09981   2.02643   -1.000
 5526.00    2.05770   1.98614   -1.000
 5527.00    1.98243   1.94455   -1.000
 5528.00    1.97412   1.92390   -1.000
 5529.00    2.00733   1.94003   -1.000
 5530.00    2.06528   1.98446   -1.000
 5531.00    2.11010   2.02550   -1.000
 5532.00    2.09742   2.04169   -1.000
 5533.00    2.09321   2.03609   -1.000
 5534.00    2.07360   2.02301   -1.000
 5535.00    2.07250   2.01604   -1.000
 5536.00    2.08431   2.02112   -1.000
 5537.00    2.08508   2.03302   -1.000
 5538.00    2.09426   2.04271   -1.000
 5539.00    2.12929   2.05141   -1.000
 5540.00    2.12768   2.06271   -1.000
 5541.00    2.14014   2.06906   -1.000
 5542.00    2.13194   2.06300   -1.000
 5543.00    2.10315   2.05005   -1.000
 5544.00    2.09684   2.04190   -1.000
 5545.00    2.09635   2.04428   -1.000
 5546.00    2.11900   2.05278   -1.000
 5547.00    2.13153   2.06415   -1.000
 5548.00    2.15757   2.07956   -1.000
 5549.00    2.17631   2.09387   -1.000
 5550.00    2.17726   2.10013   -1.000
 5551.00    2.17536   2.09775   -1.000
 5552.00    2.14598   2.08806   -1.000
 5553.00    2.11383   2.07470   -1.000
 5554.00    2.11161   2.06510   -1.000
 5555.00    2.12001   2.06431   -1.000
 5556.00    2.14219   2.06898   -1.000
 5557.00    2.13960   2.07338   -1.000
 5558.00    2.16430   2.07744   -1.000
 5559.00    2.16487   2.08112   -1.000
 5560.00    2.15453   2.07953   -1.000
 5561.00    2.13682   2.06888   -1.000
 5562.00    2.12175   2.05324   -1.000
 5563.00    2.11083   2.04047   -1.000
 5564.00    2.09118   2.03281   -1.000
 5565.00    2.08726   2.02758   -1.000
 5566.00    2.10305   2.02298   -1.000
 5567.00    2.09771   2.01928   -1.000
 5568.00    2.08680   2.01681   -1.000
 5569.00    2.09019   2.01518   -1.000
 5570.00    2.07067   2.01319   -1.000
 5571.00    2.02013   2.00910  136.965
 5572.00    1.89249   2.00283   -1.000
 5573.00    1.76877   2.00071   -1.000
 5574.00    2.14380   2.00971   -1.000
 5575.00    2.85053   2.02355   -1.000
 5576.00    3.21396   2.03436   -1.000
 5577.00    3.00904   2.04553   -1.000
 5578.00    2.36305   2.05904   -1.000
 5579.00    2.23508   2.06923   -1.000
 5580.00    2.17423   2.07182   -1.000
 5581.00    2.15158   2.06918   -1.000
 5582.00    2.12195   2.06575   -1.000
 5583.00    2.12688   2.06216   -1.000
 5584.00    2.11865   2.05262   -1.000
 5585.00    2.08727   2.02485   -1.000
 5586.00    2.05005   1.97474   -1.000
 5587.00    1.99121   1.92278   -1.000
 5588.00    1.96570   1.89398   -1.000
 5589.00    1.99942   1.89685   -1.000
 5590.00    2.03485   1.92497   -1.000
 5591.00    2.05217   1.96087   -1.000
 5592.00    2.06703   1.98598   -1.000
 5593.00    2.05106   1.99477   -1.000
 5594.00    2.04490   1.99890   -1.000
 5595.00    2.09942   2.00957   -1.000
 5596.00    2.13045   2.02281   -1.000
 5597.00    2.13433   2.02263   -1.000
 5598.00    2.10137   2.00464   -1.000
 5599.00    2.08416   1.98509   -1.000
 5600.00    2.05405   1.97162   -1.000
 5601.00    2.03884   1.95923   -1.000
 5602.00    2.02165   1.95669   -1.000
 5603.00    2.04371   1.97830   -1.000
 5604.00    2.09829   2.02263   -1.000
 5605.00    2.16667   2.07346   -1.000
 5606.00    2.20617   2.11219   -1.000
 5607.00    2.20310   2.13211   -1.000
 5608.00    2.20381   2.13836   -1.000
 5609.00    2.20321   2.13888   -1.000
 5610.00    2.20228   2.13995   -1.000
 5611.00    2.20555   2.14066   -1.000
 5612.00    2.19610   2.12968   -1.000
 5613.00    2.15636   2.09408   -1.000
 5614.00    2.08331   2.03710   -1.000
 5615.00    2.03824   1.98333   -1.000
 5616.00    2.06028   1.96629   -1.000
 5617.00    2.09902   1.99200   -1.000
 5618.00    2.13841   2.03073   -1.000
 5619.00    2.15845   2.05960   -1.000
 5620.00    2.16222   2.07670   -1.000
 5621.00    2.20030   2.08508   -1.000
 5622.00    2.19121   2.08169   -1.000
 5623.00    2.14357   2.06285   -1.000
 5624.00    2.11527   2.03887   -1.000
 5625.00    2.10315   2.02975   -1.000
 5626.00    2.10962   2.04316   -1.000
 5627.00    2.14929   2.07029   -1.000
 5628.00    2.18310   2.09735   -1.000
 5629.00    2.19591   2.11713   -1.000
 5630.00    2.20921   2.12907   -1.000
 5631.00    2.22366   2.13172   -1.000
 5632.00    2.19084   2.12537   -1.000
 5633.00    2.18359   2.11477   -1.000
 5634.00    2.19630   2.10237   -1.000
 5635.00    2.19287   2.08889   -1.000
 5636.00    2.17826   2.07720   -1.000
 5637.00    2.15465   2.06976   -1.000
 5638.00    2.13252   2.06857   -1.000
 5639.00    2.14528   2.07160   -1.000
 5640.00    2.13271   2.07177   -1.000
 5641.00    2.14273   2.06862   -1.000
 5642.00    2.13508   2.06936   -1.000
 5643.00    2.15873   2.07494   -1.000
 5644.00    2.17401   2.08187   -1.000
 5645.00    2.16780   2.08941   -1.000
 5646.00    2.18079   2.09617   -1.000
 5647.00    2.18813   2.09925   -1.000
 5648.00    2.18322   2.09785   -1.000
 5649.00    2.17268   2.09468   -1.000
 5650.00    2.17661   2.09511   -1.000
 5651.00    2.19262   2.10038   -1.000
 5652.00    2.20382   2.10411   -1.000
 5653.00    2.19163   2.10047   -1.000
 5654.00    2.15885   2.08935   -1.000
 5655.00    2.15120   2.07275   -1.000
 5656.00    2.12173   2.04872   -1.000
 5657.00    2.07245   2.01665   -1.000
 5658.00    2.02449   1.99032   -1.000
 5659.00    2.02290   1.98749   -1.000
 5660.00    2.08185   2.00488   -1.000
 5661.00    2.11303   2.02465   -1.000
 5662.00    2.12346   2.03754   -1.000
 5663.00    2.13682   2.04892   -1.000
 5664.00    2.15658   2.06726   -1.000
 5665.00    2.16738   2.08600   -1.000
 5666.00    2.14380   2.09235   -1.000
 5667.00    2.15199   2.08780   -1.000
 5668.00    2.16337   2.08283   -1.000
 5669.00    2.15901   2.08428   -1.000
 5670.00    2.17580   2.09253   -1.000
 5671.00    2.18987   2.10450   -1.000
 5672.00    2.20743   2.11679   -1.000
 5673.00    2.22140   2.12665   -1.000
 5674.00    2.21748   2.13158   -1.000
 5675.00    2.22011   2.13190   -1.000
 5676.00    2.20853   2.13219   -1.000
 5677.00    2.19454   2.13403   -1.000
 5678.00    2.18813   2.13347   -1.000
 5679.00    2.19907   2.12628   -1.000
 5680.00    2.19645   2.11107   -1.000
 5681.00    2.17535   2.08869   -1.000
 5682.00    2.14047   2.06537   -1.000
 5683.00    2.12396   2.05159   -1.000
 5684.00    2.12721   2.05335   -1.000
 5685.00    2.12878   2.06392   -1.000
 5686.00    2.11927   2.06821   -1.000
 5687.00    2.11483   2.06172   -1.000
 5688.00    2.14394   2.05481   -1.000
 5689.00    2.14700   2.05950   -1.000
 5690.00    2.18135   2.07881   -1.000
 5691.00    2.21449   2.10363   -1.000
 5692.00    2.23273   2.12287   -1.000
 5693.00    2.22278   2.13307   -1.000
 5694.00    2.22192   2.13698   -1.000
 5695.00    2.22487   2.13729   -1.000
 5696.00    2.19618   2.13430   -1.000
 5697.00    2.19003   2.12705   -1.000
 5698.00    2.18724   2.11394   -1.000
 5699.00    2.14391   2.09725   -1.000
 5700.00    2.11105   2.08187   -1.000
 5701.00    2.09793   2.07283   -1.000
 5702.00    2.11255   2.07307   -1.000
 5703.00    2.14069   2.08026   -1.000
 5704.00    2.14852   2.08668   -1.000
 5705.00    2.14690   2.08327   -1.000
 5706.00    2.12418   2.06798   -1.000
 5707.00    2.09117   2.04440   -1.000
 5708.00    2.07264   2.01705   -1.000
 5709.00    2.04695   1.99508   -1.000
 5710.00    2.03807   1.98903   -1.000
 5711.00    2.07132   2.00171   -1.000
 5712.00    2.11381   2.03072   -1.000
 5713.00    2.14525   2.06877   -1.000
 5714.00    2.18926   2.10276   -1.000
 5715.00    2.22514   2.12329   -1.000
 5716.00    2.20903   2.13272   -1.000
 5717.00    2.20437   2.13926   -1.000
 5718.00    2.22208   2.14692   -1.000
 5719.00    2.25447   2.15677   -1.000
 5720.00    2.27195   2.16842   -1.000
 5721.00    2.26217   2.17936   -1.000
 5722.00    2.25609   2.18684   -1.000
 5723.00    2.27827   2.19015   -1.000
 5724.00    2.26091   2.18857   -1.000
 5725.00    2.25414   2.17951   -1.000
 5726.00    2.22501   2.16460   -1.000
 5727.00    2.19762   2.15302   -1.000
 5728.00    2.21869   2.15124   -1.000
 5729.00    2.22914   2.15601   -1.000
 5730.00    2.22246   2.15860   -1.000
 5731.00    2.21009   2.15601   -1.000
 5732.00    2.20812   2.15580   -1.000
 5733.00    2.24205   2.16437   -1.000
 5734.00    2.25389   2.17791   -1.000
 5735.00    2.24941   2.18691   -1.000
 5736.00    2.26206   2.18733   -1.000
 5737.00    2.24736   2.18342   -1.000
 5738.00    2.23948   2.18089   -1.000
 5739.00    2.24138   2.18131   -1.000
 5740.00    2.23730   2.18162   -1.000
 5741.00    2.25096   2.17899   -1.000
 5742.00    2.23235   2.17595   -1.000
 5743.00    2.20660   2.17725   -1.000
 5744.00    2.24175   2.18327   -1.000
 5745.00    2.25661   2.18821   -1.000
 5746.00    2.23583   2.18560   -1.000
 5747.00    2.21251   2.17819   -1.000
 5748.00    2.22722   2.17512   -1.000
 5749.00    2.25287   2.17901   -1.000
 5750.00    2.23810   2.18026   -1.000
 5751.00    2.21316   2.16844   -1.000
 5752.00    2.16749   2.14623   -1.000
 5753.00    2.15650   2.12705   -1.000
 5754.00    2.17361   2.12520   -1.000
 5755.00    2.19625   2.14416   -1.000
 5756.00    2.25102   2.17269   -1.000
 5757.00    2.27958   2.19572   -1.000
 5758.00    2.26662   2.20422   -1.000
 5759.00    2.26436   2.19774   -1.000
 5760.00    2.23789   2.17997   -1.000
 5761.00    2.18114   2.15663   -1.000
 5762.00    2.17039   2.13927   -1.000
 5763.00    2.20181   2.14045   -1.000
 5764.00    2.23991   2.16129   -1.000
 5765.00    2.27066   2.18975   -1.000
 5766.00    2.27157   2.21044   -1.000
 5767.00    2.26406   2.21802   -1.000
 5768.00    2.27296   2.21743   -1.000
 5769.00    2.27850   2.21441   -1.000
 5770.00    2.27163   2.21041   -1.000
 5771.00    2.24193   2.20355   -1.000
 5772.00    2.23494   2.19337   -1.000
 5773.00    2.22936   2.18392   -1.000
 5774.00    2.20400   2.17955   -1.000
 5775.00    2.18262   2.18143  132.628
 5776.00    2.17629   2.18781  133.495
 5777.00    2.18254   2.19099  135.887
 5778.00    2.15346   2.18164   -1.000
 5779.00    2.13088   2.15886   -1.000
 5780.00    2.11771   2.13035  139.312
 5781.00    2.13548   2.10732   -1.000
 5782.00    2.15293   2.09780   -1.000
 5783.00    2.15590   2.10006   -1.000
 5784.00    2.15814   2.10614   -1.000
 5785.00    2.15615   2.11268   -1.000
 5786.00    2.18503   2.12542   -1.000
 5787.00    2.21110   2.14611   -1.000
 5788.00    2.24665   2.16403   -1.000
 5789.00    2.25067   2.16967   -1.000
 5790.00    2.22670   2.16530   -1.000
 5791.00    2.21935   2.16243   -1.000
 5792.00    2.19626   2.17046   -1.000
 5793.00    2.18572   2.18701  131.415
 5794.00    2.20333   2.20397  132.301
 5795.00    2.22228   2.21457  132.743
 5796.00    2.22810   2.21414  131.670
 5797.00    2.23732   2.20551   -1.000
 5798.00    2.24853   2.20074   -1.000
 5799.00    2.27121   2.20800   -1.000
 5800.00    2.29310   2.22218   -1.000
 5801.00    2.29038   2.23331   -1.000
 5802.00    2.29453   2.23515   -1.000
 5803.00    2.28714   2.22671   -1.000
 5804.00    2.25508   2.21294   -1.000
 5805.00    2.25374   2.20268   -1.000
 5806.00    2.25601   2.20121   -1.000
 5807.00    2.24788   2.20611   -1.000
 5808.00    2.24840   2.21204   -1.000
 5809.00    2.26657   2.21739   -1.000
 5810.00    2.29353   2.22295   -1.000
 5811.00    2.30895   2.22687   -1.000
 5812.00    2.31537   2.22633   -1.000
 5813.00    2.31640   2.22068   -1.000
 5814.00    2.30109   2.21020   -1.000
 5815.00    2.27117   2.19796   -1.000
 5816.00    2.25873   2.19295   -1.000
 5817.00    2.28512   2.20195   -1.000
 5818.00    2.34159   2.21915   -1.000
 5819.00    2.36901   2.23237   -1.000
 5820.00    2.37024   2.23676   -1.000
 5821.00    2.35194   2.23614   -1.000
 5822.00    2.32486   2.23542   -1.000
 5823.00    2.30535   2.23565   -1.000
 5824.00    2.32683   2.23553   -1.000
 5825.00    2.32461   2.23567   -1.000
 5826.00    2.33061   2.23782   -1.000
 5827.00    2.33907   2.24165   -1.000
 5828.00    2.33395   2.24479   -1.000
 5829.00    2.34272   2.24573   -1.000
 5830.00    2.35118   2.24523   -1.000
 5831.00    2.33435   2.24386   -1.000
 5832.00    2.31070   2.24106   -1.000
 5833.00    2.31232   2.23637   -1.000
 5834.00    2.32055   2.23179   -1.000
 5835.00    2.32290   2.23116   -1.000
 5836.00    2.32736   2.23534   -1.000
 5837.00    2.32427   2.24031   -1.000
 5838.00    2.32226   2.24259   -1.000
 5839.00    2.32559   2.24401   -1.000
 5840.00    2.32932   2.24739   -1.000
 5841.00    2.32817   2.25146   -1.000
 5842.00    2.31747   2.25262   -1.000
 5843.00    2.32999   2.24998   -1.000
 5844.00    2.33202   2.24439   -1.000
 5845.00    2.32060   2.23589   -1.000
 5846.00    2.31901   2.22608   -1.000
 5847.00    2.30892   2.21964   -1.000
 5848.00    2.30406   2.21914   -1.000
 5849.00    2.30369   2.22003   -1.000
 5850.00    2.31717   2.21517   -1.000
 5851.00    2.31223   2.20232   -1.000
 5852.00    2.28967   2.18591   -1.000
 5853.00    2.27369   2.17244   -1.000
 5854.00    2.26268   2.16300   -1.000
 5855.00    2.25464   2.15128   -1.000
 5856.00    2.25369   2.12928   -1.000
 5857.00    2.21387   2.10443   -1.000
 5858.00    2.21834   2.09856   -1.000
 5859.00    2.24316   2.11761   -1.000
 5860.00    2.25964   2.14610   -1.000
 5861.00    2.28147   2.16843   -1.000
 5862.00    2.29824   2.18114   -1.000
 5863.00    2.30605   2.18997   -1.000
 5864.00    2.30623   2.19536   -1.000
 5865.00    2.30317   2.19184   -1.000
 5866.00    2.30223   2.18252   -1.000
 5867.00    2.30671   2.17821   -1.000
 5868.00    2.32346   2.18649   -1.000
 5869.00    2.33488   2.20467   -1.000
 5870.00    2.31526   2.22174   -1.000
 5871.00    2.32096   2.22895   -1.000
 5872.00    2.33414   2.22638   -1.000
 5873.00    2.32701   2.22020   -1.000
 5874.00    2.31367   2.21537   -1.000
 5875.00    2.32910   2.21214   -1.000
 5876.00    2.34440   2.20816   -1.000
 5877.00    2.32244   2.20196   -1.000
 5878.00    2.30039   2.19344   -1.000
 5879.00    2.27833   2.18392   -1.000
 5880.00    2.27392   2.17561   -1.000
 5881.00    2.27964   2.16829   -1.000
 5882.00    2.28874   2.15909   -1.000
 5883.00    2.25779   2.14736   -1.000
 5884.00    2.17065   2.13548   -1.000
 5885.00    2.02175   2.12179   -1.000
 5886.00    1.83900   2.08982   -1.000
 5887.00    1.69201   2.01499   -1.000
 5888.00    1.69483   1.89574   -1.000
 5889.00    1.76512   1.77442  156.397
 5890.00    1.81573   1.71834   -1.000
 5891.00    1.80306   1.74855   -1.000
 5892.00    1.76458   1.81173   -1.000
 5893.00    1.72295   1.84708   -1.000
 5894.00    1.75126   1.83381   -1.000
 5895.00    1.84895   1.79730   -1.000
 5896.00    1.95307   1.78576   -1.000
 5897.00    2.06309   1.82872   -1.000
 5898.00    2.14107   1.90856   -1.000
 5899.00    2.20797   1.98568   -1.000
 5900.00    2.25680   2.04658   -1.000
 5901.00    2.29579   2.09497   -1.000
 5902.00    2.30926   2.12976   -1.000
 5903.00    2.28742   2.14975   -1.000
 5904.00    2.28217   2.15874   -1.000
 5905.00    2.27266   2.16347   -1.000
 5906.00    2.28066   2.16901   -1.000
 5907.00    2.28235   2.17563   -1.000
 5908.00    2.29551   2.18210   -1.000
 5909.00    2.30662   2.18782   -1.000
 5910.00    2.30710   2.19164   -1.000
 5911.00    2.31584   2.19073   -1.000
 5912.00    2.28223   2.18124   -1.000
 5913.00    2.22638   2.16389   -1.000
 5914.00    2.21320   2.14790   -1.000
 5915.00    2.24241   2.14194   -1.000
 5916.00    2.26800   2.14743   -1.000
 5917.00    2.26024   2.16125   -1.000
 5918.00    2.26856   2.17775   -1.000
 5919.00    2.29767   2.19000   -1.000
 5920.00    2.29779   2.19479   -1.000
 5921.00    2.29006   2.19426   -1.000
 5922.00    2.29541   2.19236   -1.000
 5923.00    2.29631   2.19303   -1.000
 5924.00    2.30000   2.19804   -1.000
 5925.00    2.31572   2.20563   -1.000
 5926.00    2.33764   2.21014   -1.000
 5927.00    2.33985   2.20540   -1.000
 5928.00    2.30232   2.19165   -1.000
 5929.00    2.26961   2.17767   -1.000
 5930.00    2.27113   2.17353   -1.000
 5931.00    2.29247   2.18147   -1.000
 5932.00    2.31756   2.19211   -1.000
 5933.00    2.31598   2.19504   -1.000
 5934.00    2.30499   2.19380   -1.000
 5935.00    2.30733   2.19779   -1.000
 5936.00    2.30368   2.20761   -1.000
 5937.00    2.31069   2.21674   -1.000
 5938.00    2.29509   2.21905   -1.000
 5939.00    2.29089   2.21306   -1.000
 5940.00    2.27105   2.20241   -1.000
 5941.00    2.26741   2.19399   -1.000
 5942.00    2.26701   2.19315   -1.000
 5943.00    2.27025   2.19916   -1.000
 5944.00    2.30059   2.20743   -1.000
 5945.00    2.32120   2.21248   -1.000
 5946.00    2.28951   2.21020   -1.000
 5947.00    2.27574   2.20102   -1.000
 5948.00    2.27848   2.19182   -1.000
 5949.00    2.27469   2.18963   -1.000
 5950.00    2.27789   2.19343   -1.000
 5951.00    2.28890   2.19501   -1.000
 5952.00    2.30205   2.19038   -1.000
 5953.00    2.28817   2.18719   -1.000
 5954.00    2.28458   2.18978   -1.000
 5955.00    2.30070   2.19091   -1.000
 5956.00    2.29707   2.18766   -1.000
 5957.00    2.27396   2.18671   -1.000
 5958.00    2.31058   2.19360   -1.000
 5959.00    2.33114   2.20770   -1.000
 5960.00    2.32796   2.22262   -1.000
 5961.00    2.34020   2.23230   -1.000
 5962.00    2.35428   2.23566   -1.000
 5963.00    2.32528   2.23370   -1.000
 5964.00    2.30903   2.22794   -1.000
 5965.00    2.29206   2.22154   -1.000
 5966.00    2.30346   2.21852   -1.000
 5967.00    2.32062   2.22062   -1.000
 5968.00    2.32152   2.22624   -1.000
 5969.00    2.32234   2.23362   -1.000
 5970.00    2.32340   2.24144   -1.000
 5971.00    2.33128   2.24663   -1.000
 5972.00    2.32469   2.24689   -1.000
 5973.00    2.30305   2.24123   -1.000
 5974.00    2.29259   2.22883   -1.000
 5975.00    2.29207   2.21160   -1.000
 5976.00    2.28135   2.19628   -1.000
 5977.00    2.28029   2.19101   -1.000
 5978.00    2.29902   2.19840   -1.000
 5979.00    2.31026   2.21320   -1.000
 5980.00    2.30633   2.22591   -1.000
 5981.00    2.30442   2.22742   -1.000
 5982.00    2.28520   2.21501   -1.000
 5983.00    2.26993   2.19550   -1.000
 5984.00    2.27347   2.18208   -1.000
 5985.00    2.27517   2.18290   -1.000
 5986.00    2.28207   2.19444   -1.000
 5987.00    2.27711   2.20830   -1.000
 5988.00    2.28225   2.21939   -1.000
 5989.00    2.30262   2.22612   -1.000
 5990.00    2.30446   2.22870   -1.000
 5991.00    2.30895   2.23083   -1.000
 5992.00    2.31118   2.23828   -1.000
 5993.00    2.32363   2.25036   -1.000
 5994.00    2.35110   2.25702   -1.000
 5995.00    2.35031   2.25238   -1.000
 5996.00    2.32375   2.24101   -1.000
 5997.00    2.29945   2.23094   -1.000
 5998.00    2.30982   2.22780   -1.000
 5999.00    2.32325   2.23040   -1.000
 6000.00    2.31604   2.23258   -1.000
 6001.00    2.28731   2.22916   -1.000
 6002.00    2.28611   2.22138   -1.000
 6003.00    2.28666   2.21617   -1.000
 6004.00    2.28519   2.21662   -1.000
 6005.00    2.29627   2.21519   -1.000
 6006.00    2.28990   2.20370   -1.000
 6007.00    2.25229   2.18789   -1.000
 6008.00    2.24513   2.18277   -1.000
 6009.00    2.27699   2.19503   -1.000
 6010.00    2.31144   2.21472   -1.000
 6011.00    2.31387   2.22555   -1.000
 6012.00    2.29541   2.22345   -1.000
 6013.00    2.28272   2.21657   -1.000
 6014.00    2.29830   2.21152   -1.000
 6015.00    2.30539   2.20941   -1.000
 6016.00    2.29715   2.20826   -1.000
 6017.00    2.28172   2.20665   -1.000
 6018.00    2.27791   2.20265   -1.000
 6019.00    2.25026   2.19440   -1.000
 6020.00    2.24402   2.18541   -1.000
 6021.00    2.25604   2.18291   -1.000
 6022.00    2.27136   2.18779   -1.000
 6023.00    2.29112   2.19481   -1.000
 6024.00    2.29133   2.20465   -1.000
 6025.00    2.31355   2.22032   -1.000
 6026.00    2.32131   2.23652   -1.000
 6027.00    2.31965   2.24823   -1.000
 6028.00    2.32097   2.25820   -1.000
 6029.00    2.34302   2.26754   -1.000
 6030.00    2.34458   2.27343   -1.000
 6031.00    2.34271   2.27614   -1.000
 6032.00    2.34178   2.27938   -1.000
 6033.00    2.34905   2.28499   -1.000
 6034.00    2.36629   2.29064   -1.000
 6035.00    2.35968   2.29254   -1.000
 6036.00    2.36339   2.29031   -1.000
 6037.00    2.37041   2.28586   -1.000
 6038.00    2.34476   2.27973   -1.000
 6039.00    2.31553   2.27257   -1.000
 6040.00    2.30223   2.26682   -1.000
 6041.00    2.30534   2.26517   -1.000
 6042.00    2.32116   2.26833   -1.000
 6043.00    2.35191   2.27491   -1.000
 6044.00    2.36505   2.28244   -1.000
 6045.00    2.36460   2.28850   -1.000
 6046.00    2.36559   2.29320   -1.000
 6047.00    2.35476   2.29834   -1.000
 6048.00    2.34028   2.30329   -1.000
 6049.00    2.35079   2.30592   -1.000
 6050.00    2.36950   2.30538   -1.000
 6051.00    2.37111   2.30211   -1.000
 6052.00    2.37454   2.29581   -1.000
 6053.00    2.37229   2.28558   -1.000
 6054.00    2.34957   2.27306   -1.000
 6055.00    2.32541   2.26299   -1.000
 6056.00    2.31369   2.26054   -1.000
 6057.00    2.31530   2.26652   -1.000
 6058.00    2.33249   2.27662   -1.000
 6059.00    2.35479   2.28537   -1.000
 6060.00    2.36896   2.28977   -1.000
 6061.00    2.36098   2.28749   -1.000
 6062.00    2.32836   2.27586   -1.000
 6063.00    2.28156   2.25465   87.954
 6064.00    2.23926   2.23083   53.414
 6065.00    1.97224   2.21977   -1.000
 6066.00    1.14040   2.23115   -1.000
 6067.00    1.17751   2.25616   -1.000
 6068.00    2.27188   2.28030  129.900
 6069.00    2.30502   2.29707  130.163
 6070.00    2.17369   2.30619   -1.000
 6071.00    1.97133   2.31038   -1.000
 6072.00    1.25872   2.31280   -1.000
 6073.00    1.16408   2.31475   -1.000
 6074.00    2.36897   2.31475   -1.000
 6075.00    2.35949   2.31054   -1.000
 6076.00    2.32959   2.30117   -1.000
 6077.00    2.32539   2.28726   -1.000
 6078.00    2.31407   2.27317   -1.000
 6079.00    2.30124   2.26480   -1.000
 6080.00    2.29446   2.26121   -1.000
 6081.00    2.28897   2.25765   -1.000
 6082.00    2.29002   2.25386   -1.000
 6083.00    2.30580   2.25147   -1.000
 6084.00    2.29558   2.25127   -1.000
 6085.00    2.29821   2.25526   -1.000
 6086.00    2.29559   2.26372   -1.000
 6087.00    2.29898   2.27165   -1.000
 6088.00    2.30974   2.27315   -1.000
 6089.00    2.30252   2.26806   -1.000
 6090.00    2.28575   2.26122   -1.000
 6091.00    2.27062   2.25809  135.896
 6092.00    2.27465   2.26159  135.186
 6093.00    2.29493   2.27036   -1.000
 6094.00    2.31611   2.28059   -1.000
 6095.00    2.33431   2.28916   -1.000
 6096.00    2.33156   2.29538   -1.000
 6097.00    2.32362   2.29930   -1.000
 6098.00    2.33501   2.29874   -1.000
 6099.00    2.34381   2.28713   -1.000
 6100.00    2.29999   2.25760   -1.000
 6101.00    2.25119   2.21381   -1.000
 6102.00    2.23246   2.17639   -1.000
 6103.00    2.21999   2.17013   -1.000
 6104.00    2.23836   2.19654   -1.000
 6105.00    2.28715   2.23281   -1.000
 6106.00    2.30766   2.26085   -1.000
 6107.00    2.30565   2.27833   -1.000
 6108.00    2.29082   2.28979  136.567
 6109.00    2.29669   2.29729  136.177
 6110.00    2.32177   2.29982   -1.000
 6111.00    2.32045   2.29987   -1.000
 6112.00    2.30169   2.30203  135.355
 6113.00    2.29649   2.30697  136.105
 6114.00    2.31711   2.31125  136.737
 6115.00    2.32101   2.31145  137.057
 6116.00    2.31756   2.30834  138.324
 6117.00    2.31319   2.30355  140.361
 6118.00    2.30761   2.29296  141.948
 6119.00    2.28151   2.26933  142.748
 6120.00    2.25258   2.23115   -1.000
 6121.00    2.22336   2.19070   -1.000
 6122.00    2.21786   2.16901   -1.000
 6123.00    2.24584   2.17587   -1.000
 6124.00    2.27287   2.20237   -1.000
 6125.00    2.29079   2.23203   -1.000
 6126.00    2.28070   2.25309   -1.000
 6127.00    2.26770   2.26497  137.095
 6128.00    2.27014   2.27412  136.218
 6129.00    2.27963   2.28594  136.253
 6130.00    2.29457   2.29986  136.984
 6131.00    2.30641   2.31217  139.126
 6132.00    2.30760   2.31734  142.844
 6133.00    2.29147   2.30612  146.891
 6134.00    2.25914   2.27019  149.140
 6135.00    2.20806   2.21414  147.509
 6136.00    2.14690   2.16141  143.296
 6137.00    2.12191   2.13992  140.291
 6138.00    2.16035   2.15168  139.707
 6139.00    2.20563   2.17293   -1.000
 6140.00    2.22961   2.19215   -1.000
 6141.00    2.25606   2.21608   -1.000
 6142.00    2.25443   2.24606  136.870
 6143.00    2.24547   2.27521   -1.000
 6144.00    2.27691   2.29461  137.938
 6145.00    2.29680   2.30075  138.883
 6146.00    2.28363   2.29718  139.815
 6147.00    2.28030   2.28821  140.267
 6148.00    2.27690   2.27633  139.983
 6149.00    2.26931   2.26349  139.231
 6150.00    2.27536   2.25547   -1.000
 6151.00    2.26915   2.25907  139.054
 6152.00    2.26909   2.26924  140.144
 6153.00    2.27402   2.27242  140.538
 6154.00    2.25072   2.26565  140.804
 6155.00    2.23983   2.25764  141.835
 6156.00    2.25100   2.25404  143.938
 6157.00    2.24989   2.25082  147.487
 6158.00    2.22289   2.23660  152.029
 6159.00    2.19654   2.19956  155.126
 6160.00    2.16311   2.13927   -1.000
 6161.00    2.10046   2.07543   -1.000
 6162.00    2.07391   2.03745   -1.000
 6163.00    2.10025   2.04049   -1.000
 6164.00    2.15694   2.07349   -1.000
 6165.00    2.20505   2.11357   -1.000
 6166.00    2.21853   2.14168   -1.000
 6167.00    2.18898   2.14581   -1.000
 6168.00    2.15431   2.12996   -1.000
 6169.00    2.14223   2.11748   -1.000
 6170.00    2.15575   2.12852   -1.000
 6171.00    2.19958   2.15746   -1.000
 6172.00    2.22588   2.18829   -1.000
 6173.00    2.23456   2.21229   -1.000
 6174.00    2.24566   2.22708   -1.000
 6175.00    2.23120   2.23421  142.824
 6176.00    2.24301   2.23885  142.174
 6177.00    2.26247   2.24497  141.708
 6178.00    2.26234   2.25109  141.163
 6179.00    2.25638   2.25598  140.621
 6180.00    2.26432   2.26238  140.582
 6181.00    2.27538   2.27149  141.014
 6182.00    2.26033   2.27912  141.806
 6183.00    2.26645   2.28026  143.188
 6184.00    2.28216   2.27408  144.749
 6185.00    2.27187   2.26256  146.178
 6186.00    2.25823   2.24850  147.409
 6187.00    2.24374   2.23489  148.840
 6188.00    2.23508   2.22044  150.431
 6189.00    2.22328   2.19908   -1.000
 6190.00    2.19389   2.17325   -1.000
 6191.00    2.17307   2.16078  144.002
 6192.00    2.19147   2.17423  142.457
 6193.00    2.23838   2.20318   -1.000
 6194.00    2.26510   2.23111   -1.000
 6195.00    2.27338   2.25158   -1.000
 6196.00    2.26737   2.26257  145.204
 6197.00    2.24338   2.26278  145.725
 6198.00    2.22950   2.25382   -1.000
 6199.00    2.20920   2.24321   -1.000
 6200.00    2.19183   2.24057   -1.000
 6201.00    2.20263   2.24880   -1.000
 6202.00    2.24293   2.26295  141.781
 6203.00    2.28416   2.27743  141.623
 6204.00    2.29909   2.28863  141.902
 6205.00    2.29593   2.29547  142.239
 6206.00    2.29241   2.29918  142.463
 6207.00    2.29015   2.30094  143.480
 6208.00    2.29237   2.29954  144.759
 6209.00    2.28319   2.29255  145.996
 6210.00    2.26874   2.27770  147.834
 6211.00    2.25746   2.25439  149.809
 6212.00    2.23976   2.22654  150.713
 6213.00    2.22662   2.20285   -1.000
 6214.00    2.21288   2.19050   -1.000
 6215.00    2.21398   2.18924   -1.000
 6216.00    2.21777   2.19216   -1.000
 6217.00    2.21936   2.19163   -1.000
 6218.00    2.22355   2.18656   -1.000
 6219.00    2.22453   2.18417   -1.000
 6220.00    2.23372   2.19087   -1.000
 6221.00    2.23438   2.20424   -1.000
 6222.00    2.24487   2.21610   -1.000
 6223.00    2.14675   2.22291   -1.000
 6224.00    2.00141   2.22672   -1.000
 6225.00    2.16469   2.22855   -1.000
 6226.00    2.28328   2.22639   -1.000
 6227.00    2.22941   2.21483  153.380
 6228.00    2.21434   2.19027   -1.000
 6229.00    2.19975   2.15849   -1.000
 6230.00    2.15948   2.13439   -1.000
 6231.00    2.13795   2.13133  147.116
 6232.00    2.16494   2.15053  145.575
 6233.00    2.21801   2.18122   -1.000
 6234.00    2.25837   2.20881   -1.000
 6235.00    2.26414   2.22341   -1.000
 6236.00    2.25943   2.22367   -1.000
 6237.00    2.26170   2.21477   -1.000
 6238.00    2.25246   2.20399   -1.000
 6239.00    2.22702   2.19519   -1.000
 6240.00    2.20777   2.18833   -1.000
 6241.00    2.20335   2.18071   -1.000
 6242.00    2.19895   2.16957   -1.000
 6243.00    2.18801   2.15552   -1.000
 6244.00    2.17301   2.14285   -1.000
 6245.00    2.17464   2.13836   -1.000
 6246.00    2.19524   2.14876   -1.000
 6247.00    2.22584   2.17376   -1.000
 6248.00    2.24761   2.20201   -1.000
 6249.00    2.25172   2.21788   -1.000
 6250.00    2.24772   2.21224   -1.000
 6251.00    2.20982   2.18905   -1.000
 6252.00    2.16787   2.16139  154.896
 6253.00    2.14813   2.14226  155.502
 6254.00    2.14226   2.13517  157.034
 6255.00    2.14470   2.13457  157.417
 6256.00    2.14594   2.13419  155.764
 6257.00    2.13598   2.13385  153.307
 6258.00    2.12871   2.13883  151.130
 6259.00    2.15348   2.15277  148.950
 6260.00    2.20185   2.17476   -1.000
 6261.00    2.23559   2.19992   -1.000
 6262.00    2.24718   2.22094   -1.000
 6263.00    2.25426   2.23182   -1.000
 6264.00    2.25272   2.23461   -1.000
 6265.00    2.23575   2.23736  147.727
 6266.00    2.19377   2.24397   -1.000
 6267.00    2.19816   2.25006   -1.000
 6268.00    2.22284   2.24983   -1.000
 6269.00    2.21803   2.24506   -1.000
 6270.00    2.20822   2.24292   -1.000
 6271.00    2.22046   2.24645   -1.000
 6272.00    2.23642   2.25054  149.899
 6273.00    2.22353   2.24620   -1.000
 6274.00    2.17997   2.22939   -1.000
 6275.00    2.12996   2.20470   -1.000
 6276.00    2.10270   2.18034   -1.000
 6277.00    2.10470   2.16245   -1.000
 6278.00    2.10285   2.15149   -1.000
 6279.00    2.05639   2.14780   -1.000
 6280.00    2.03221   2.15495   -1.000
 6281.00    2.06114   2.17368   -1.000
 6282.00    2.10284   2.19952   -1.000
 6283.00    2.13614   2.22555   -1.000
 6284.00    2.17158   2.24559   -1.000
 6285.00    2.22146   2.25809   -1.000
 6286.00    2.24296   2.26525  146.954
 6287.00    2.24281   2.26865   -1.000
 6288.00    2.24418   2.26661   -1.000
 6289.00    2.24609   2.25880  149.945
 6290.00    2.24610   2.24969  150.116
 6291.00    2.23490   2.24364  150.328
 6292.00    2.22591   2.24141  151.045
 6293.00    2.22866   2.24128  152.198
 6294.00    2.23900   2.23915  152.800
 6295.00    2.24543   2.23047  152.753
 6296.00    2.28011   2.21628   -1.000
 6297.00    2.34003   2.20420   -1.000
 6298.00    2.39814   2.19869   -1.000
 6299.00    2.40892   2.19507   -1.000
 6300.00    2.33819   2.18814   -1.000
 6301.00    2.23331   2.18332   -1.000
 6302.00    2.18186   2.19160  149.555
 6303.00    2.18969   2.21402   -1.000
 6304.00    2.21018   2.24003   -1.000
 6305.00    2.22849   2.26065   -1.000
 6306.00    2.24216   2.27382   -1.000
 6307.00    2.24824   2.28011   -1.000
 6308.00    2.26105   2.28135  147.915
 6309.00    2.28335   2.28032  148.470
 6310.00    2.25849   2.27796  148.855
 6311.00    2.21809   2.27357   -1.000
 6312.00    2.20279   2.26573   -1.000
 6313.00    2.19065   2.25350   -1.000
 6314.00    2.17331   2.23969   -1.000
 6315.00    2.17044   2.22780   -1.000
 6316.00    2.16310   2.21851   -1.000
 6317.00    2.14644   2.21361   -1.000
 6318.00    2.15129   2.21827   -1.000
 6319.00    2.18780   2.23409   -1.000
 6320.00    2.21941   2.25329   -1.000
 6321.00    2.23496   2.26778   -1.000
 6322.00    2.25066   2.27945   -1.000
 6323.00    2.26863   2.29282   -1.000
 6324.00    2.27959   2.30518   -1.000
 6325.00    2.27184   2.31194   -1.000
 6326.00    2.26054   2.31307   -1.000
 6327.00    2.26907   2.31177   -1.000
 6328.00    2.27689   2.31102   -1.000
 6329.00    2.28681   2.31167   -1.000
 6330.00    2.28179   2.31421   -1.000
 6331.00    2.27030   2.31706   -1.000
 6332.00    2.24882   2.31386   -1.000
 6333.00    2.23805   2.29866   -1.000
 6334.00    2.21810   2.27404   -1.000
 6335.00    2.02511   2.25162   -1.000
 6336.00    1.95336   2.24312   -1.000
 6337.00    2.18022   2.25042   -1.000
 6338.00    2.24495   2.26716  142.460
 6339.00    2.24495   2.28721   -1.000
 6340.00    2.27276   2.30459   -1.000
 6341.00    2.27969   2.31251   -1.000
 6342.00    2.25387   2.30965   -1.000
 6343.00    2.23847   2.30199   -1.000
 6344.00    2.23470   2.29714   -1.000
 6345.00    2.24348   2.29924   -1.000
 6346.00    2.27668   2.30893   -1.000
 6347.00    2.28322   2.32424   -1.000
 6348.00    2.26191   2.33992   -1.000
 6349.00    2.26932   2.35044   -1.000
 6350.00    2.28902   2.35401   -1.000
 6351.00    2.28071   2.35103   -1.000
 6352.00    2.28035   2.34176   -1.000
 6353.00    2.28734   2.32805   -1.000
 6354.00    2.27000   2.31489   -1.000
 6355.00    2.24114   2.30608   -1.000
 6356.00    2.22493   2.29907   -1.000
 6357.00    2.22766   2.28978   -1.000
 6358.00    2.22926   2.27996   -1.000
 6359.00    2.22731   2.27228   -1.000
 6360.00    2.23829   2.26521   -1.000
 6361.00    2.26187   2.25852  145.590
 6362.00    2.27639   2.25613   -1.000
 6363.00    2.25780   2.26081  143.777
 6364.00    2.24708   2.27132  142.939
 6365.00    2.25437   2.28493   -1.000
 6366.00    2.25409   2.29931   -1.000
 6367.00    2.25991   2.31115   -1.000
 6368.00    2.26730   2.31711   -1.000
 6369.00    2.27738   2.31843   -1.000
 6370.00    2.28622   2.32048   -1.000
 6371.00    2.29319   2.32683   -1.000
 6372.00    2.29137   2.33558   -1.000
 6373.00    2.27464   2.34208   -1.000
 6374.00    2.26609   2.34355   -1.000
 6375.00    2.23748   2.34014   -1.000
 6376.00    2.22611   2.33333   -1.000
 6377.00    2.25442   2.32549   -1.000
 6378.00    2.25665   2.31829   -1.000
 6379.00    2.24518   2.31156   -1.000
 6380.00    2.24235   2.30547   -1.000
 6381.00    2.24974   2.30108   -1.000
 6382.00    2.25244   2.29940   -1.000
 6383.00    2.25047   2.30134   -1.000
 6384.00    2.24347   2.30762   -1.000
 6385.00    2.25022   2.31626   -1.000
 6386.00    2.24764   2.32262   -1.000
 6387.00    2.21981   2.32432   -1.000
 6388.00    2.22127   2.32326   -1.000
 6389.00    2.23051   2.32008   -1.000
 6390.00    2.21401   2.31088   -1.000
 6391.00    2.18862   2.29344   -1.000
 6392.00    2.17508   2.27503   -1.000
 6393.00    2.14976   2.26799   -1.000
 6394.00    2.12522   2.27772   -1.000
 6395.00    2.11945   2.29699   -1.000
 6396.00    2.13963   2.31056   -1.000
 6397.00    2.15087   2.30645   -1.000
 6398.00    2.11985   2.28624   -1.000
 6399.00    2.06863   2.26651   -1.000
 6400.00    2.03936   2.26433   -1.000
 6401.00    2.05668   2.28200   -1.000
 6402.00    2.09427   2.30911   -1.000
 6403.00    2.11564   2.33246   -1.000
 6404.00    2.10993   2.34261   -1.000
 6405.00    2.09036   2.33701   -1.000
 6406.00    2.07001   2.32264   -1.000
 6407.00    2.05345   2.31170   -1.000
 6408.00    2.01967   2.30972   -1.000
 6409.00    1.98029   2.31061   -1.000
 6410.00    1.97099   2.30808   -1.000
 6411.00    1.98004   2.30614   -1.000
 6412.00    1.97953   2.31051   -1.000
 6413.00    1.96840   2.31916   -1.000
 6414.00    1.97634   2.32716   -1.000
 6415.00    1.98017   2.33254   -1.000
 6416.00    1.95586   2.33439   -1.000
 6417.00    1.94474   2.32961   -1.000
 6418.00    1.92509   2.31605   -1.000
 6419.00    1.87374   2.29832   -1.000
 6420.00    1.84076   2.28729   -1.000
 6421.00    1.83130   2.29319   -1.000
 6422.00    1.82717   2.31490   -1.000
 6423.00    1.84376   2.33994   -1.000
 6424.00    1.85408   2.35958   -1.000
 6425.00    1.83469   2.37311   -1.000
 6426.00    1.82156   2.37942   -1.000
 6427.00    1.79848   2.37441   -1.000
 6428.00    0.92158   2.35558   -1.000
