###################################################################
## OUTPUT of StarlightChains_v04.for    [Cid@UFSC - 01/Apr/2007] ##
###################################################################

## Some input info
NGC6638_a_1.cxt                          [arq_obs]
Base.BC03.N                              [arq_base]
NGC6638_a_1.msk                          [arq_masks]
StCv04.C99.config                        [arq_config]
   45                                    [N_base]
    0                                    [N_YAV_components = # of components with extra extinction!]
    0                                    [i_FitPowerLaw (1/0 = Yes/No)]
-9.99                                    [alpha_PowerLaw]
CCM                                      [red_law_option]
 1.458241                                [q_norm = A(l_norm)/A(V)]

## (Re)Sampling Parameters
 3359.00                                 [l_ini (A)]
 6428.00                                 [l_fin (A)]
    1.00                                 [dl    (A)]     (OBS: dl_cushion =    50.00 A)

## Normalization info
 4020.00                                 [l_norm (A) - for base]
 4010.00                                 [llow_norm (A) - window for f_obs]
 4060.00                                 [lupp_norm (A) - window for f_obs]
7.127479E-15                             [fobs_norm (in input units)]

## S/N
 4730.00                                 [llow_SN (A) - window for S/N]
 4780.00                                 [lupp_SN (A) - window for S/N]
  53.764                                 [S/N in S/N window]
  34.599                                 [S/N in norm. window]
  41.866                                 [S/N_err in S/N window]
  26.942                                 [S/N_err in norm. window]
  1.0000                                 [fscale_chi2]

## etc...
  2147483593                             [idum_orig]
  3067                                   [NOl_eff]
  1685                                   [Nl_eff]
  1382    NSIGMA                         [Ntot_cliped & clip_method]
  1814400                                [Nglobal_steps]
   7                                     [N_chains]
  13                                     [NEX0s_base = N_base in EX0s-fits]
 0   0   1      211   2.0   5.860E+02    [Clip-Bug, RC-Crash & Burn-In warning-flags, n_censored_weights, wei_nsig_threshold & wei_limit]
    24     23.777     23.777      0.000  [idt_all, wdt_TotTime, wdt_UsrTime & wdt_SysTime (sec)]

## Synthesis Results - Best model ##

 2.52468E+00                             [chi2/Nl_eff]
     2.25971                             [adev (%)]

    99.27283                             [sum-of-x (%)]
 5.01531E-14                             [Flux_tot (units of input spectrum!)]
 1.14308E-09                             [Mini_tot (???)]
 5.92367E-10                             [Mcor_tot (???)]

   9.12                                  [v0_min  (km/s)]
  57.07                                  [vd_min  (km/s)]
 1.4581                                  [AV_min  (mag)]
 0.0000                                  [YAV_min (mag)]

# j     x_j(%)      Mini_j(%)     Mcor_j(%)     age_j(yr)     Z_j      (L/M)_j    YAV?  Mstars   component_j        a/Fe...       SSP_chi2r SSP_adev(%)   SSP_AV   SSP_x(%)
  1      0.0000     0.0000E+00    0.0000E+00    1.000000E+06  0.00400  1.114E-02    0   1.0000   age020_m42            0.0000     9.8598E+02    31.3480   4.0000    80.5723
  2     11.3649     1.2332E-02    2.3795E-02    3.160000E+06  0.00400  4.073E-02    0   0.9999   age045_m42            0.0000     1.3836E+02     6.5483   4.0000    92.4728
  3      0.0000     0.0000E+00    0.0000E+00    5.010000E+06  0.00400  2.534E-02    0   0.9488   age055_m42            0.0000     3.5287E+02    16.8083   4.0000    88.0257
  4     12.8182     4.4573E-02    7.6223E-02    1.000000E+07  0.00400  1.271E-02    0   0.8862   age070_m42            0.0000     1.6630E+02     8.5589   3.8315    88.7454
  5      0.0000     0.0000E+00    0.0000E+00    2.512000E+07  0.00400  5.070E-03    0   0.8174   age090_m42            0.0000     1.4531E+02     7.8715   3.6843    90.5007
  6      0.0000     0.0000E+00    0.0000E+00    4.000000E+07  0.00400  3.505E-03    0   0.7851   age104_m42            0.0000     1.1308E+02     6.1235   3.3267    93.6743
  7      3.2932     6.4175E-02    8.9250E-02    1.015200E+08  0.00400  2.268E-03    0   0.7207   age116_m42            0.0000     4.8874E+02     8.5409   3.1175   103.1513
  8      0.0000     0.0000E+00    0.0000E+00    2.861200E+08  0.00400  1.079E-03    0   0.6613   age125_m42            0.0000     5.1871E+02    10.1049   2.5565   105.8429
  9      0.0000     0.0000E+00    0.0000E+00    6.405400E+08  0.00400  5.077E-04    0   0.6197   age132_m42            0.0000     5.5374E+02    10.9993   2.1729   109.8883
 10      0.0000     0.0000E+00    0.0000E+00    9.047900E+08  0.00400  3.535E-04    0   0.6024   age135_m42            0.0000     3.8137E+02     9.6715   1.9527   109.2601
 11      0.0000     0.0000E+00    0.0000E+00    1.434000E+09  0.00400  1.910E-04    0   0.5716   age139_m42            0.0000     1.9141E+02     7.9769   1.4228   108.7934
 12     12.4084     5.5857E+00    5.8884E+00    2.500000E+09  0.00400  9.818E-05    0   0.5463   age150_m42            0.0000     5.5264E+01     5.5091   1.1944   104.6016
 13     19.2577     1.8040E+01    1.8199E+01    5.000000E+09  0.00400  4.718E-05    0   0.5228   age161_m42            0.0000     2.5126E+01     4.4422   1.0600   101.5732
 14     21.4269     4.2948E+01    4.1272E+01    1.100000E+10  0.00400  2.205E-05    0   0.4980   age185_m42            0.0000     5.9359E+01     5.6757   0.7791   100.2304
 15      0.0000     0.0000E+00    0.0000E+00    1.300000E+10  0.00400  1.883E-05    0   0.4927   age193_m42            0.0000     6.9219E+01     5.7886   0.7619   100.1804
 16      0.0000     0.0000E+00    0.0000E+00    1.000000E+06  0.02000  1.989E-02    0   1.0000   age020_m62            0.0000     9.3811E+02    30.4585   4.0000    81.3046
 17      0.0000     0.0000E+00    0.0000E+00    3.160000E+06  0.02000  3.772E-02    0   0.9858   age045_m62            0.0000     7.7580E+02    27.0401   4.0000    83.5872
 18      0.0000     0.0000E+00    0.0000E+00    5.010000E+06  0.02000  3.227E-02    0   0.9342   age055_m62            0.0000     2.5394E+02    12.7274   4.0000    90.4677
 19      0.0000     0.0000E+00    0.0000E+00    1.000000E+07  0.02000  1.011E-02    0   0.8751   age070_m62            0.0000     2.8288E+02    12.4749   3.9091    85.2169
 20      0.0000     0.0000E+00    0.0000E+00    2.512000E+07  0.02000  4.206E-03    0   0.8099   age090_m62            0.0000     2.1215E+02    10.2216   3.8100    86.4728
 21      0.0000     0.0000E+00    0.0000E+00    4.000000E+07  0.02000  3.373E-03    0   0.7799   age104_m62            0.0000     1.5047E+02     6.1989   3.5122    94.9363
 22      0.0000     0.0000E+00    0.0000E+00    1.015200E+08  0.02000  1.878E-03    0   0.7221   age116_m62            0.0000     4.3172E+02     7.8969   3.1705   103.2553
 23      0.0000     0.0000E+00    0.0000E+00    2.861200E+08  0.02000  8.869E-04    0   0.6700   age125_m62            0.0000     8.0760E+02    12.7322   2.4967   111.1536
 24      0.0000     0.0000E+00    0.0000E+00    6.405400E+08  0.02000  3.657E-04    0   0.6322   age132_m62            0.0000     5.5558E+02    12.9384   1.7449   115.5512
 25      0.0000     0.0000E+00    0.0000E+00    9.047900E+08  0.02000  2.312E-04    0   0.6152   age135_m62            0.0000     3.3172E+02    11.1601   1.4050   114.5257
 26      0.0000     0.0000E+00    0.0000E+00    1.434000E+09  0.02000  1.168E-04    0   0.5865   age139_m62            0.0000     1.0473E+02     7.5835   1.0752   108.9281
 27      0.0000     0.0000E+00    0.0000E+00    2.500000E+09  0.02000  5.505E-05    0   0.5610   age150_m62            0.0000     8.2971E+01     7.5128   0.7057   106.7058
 28      5.7525     9.7937E+00    1.0116E+01    5.000000E+09  0.02000  2.596E-05    0   0.5353   age161_m62            0.0000     1.7243E+02     9.6098   0.3192   107.6598
 29      0.0076     2.8579E-02    2.8143E-02    1.100000E+10  0.02000  1.169E-05    0   0.5103   age185_m62            0.0000     3.1462E+02    12.0424  -0.1149   110.2657
 30      0.0000     0.0000E+00    0.0000E+00    1.300000E+10  0.02000  9.691E-06    0   0.5047   age193_m62            0.0000     3.4632E+02    12.4237  -0.1703   110.6871
 31      0.0000     0.0000E+00    0.0000E+00    1.000000E+06  0.05000  2.651E-02    0   0.9998   age020_m72            0.0000     9.0621E+02    30.2086   4.0000    82.2987
 32      0.0000     0.0000E+00    0.0000E+00    3.160000E+06  0.05000  4.817E-02    0   0.9577   age045_m72            0.0000     5.6650E+02    22.7036   4.0000    87.1506
 33      0.0000     0.0000E+00    0.0000E+00    5.010000E+06  0.05000  3.101E-02    0   0.9147   age055_m72            0.0000     3.2323E+02    13.5440   4.0000    89.0247
 34      0.0000     0.0000E+00    0.0000E+00    1.000000E+07  0.05000  8.954E-03    0   0.8524   age070_m72            0.0000     4.4496E+02    19.3119   4.0000    88.3756
 35      0.0000     0.0000E+00    0.0000E+00    2.512000E+07  0.05000  4.207E-03    0   0.7902   age090_m72            0.0000     1.6230E+02     7.6332   4.0000    92.6041
 36      0.0000     0.0000E+00    0.0000E+00    4.000000E+07  0.05000  3.198E-03    0   0.7618   age104_m72            0.0000     2.8134E+02     5.6859   3.5980    99.4088
 37      0.0000     0.0000E+00    0.0000E+00    1.015200E+08  0.05000  1.716E-03    0   0.7092   age116_m72            0.0000     5.0214E+02     8.5463   3.2396   103.6047
 38      0.0000     0.0000E+00    0.0000E+00    2.861200E+08  0.05000  7.047E-04    0   0.6618   age125_m72            0.0000     7.7240E+02    12.6371   2.2674   112.2082
 39      0.0000     0.0000E+00    0.0000E+00    6.405400E+08  0.05000  2.633E-04    0   0.6253   age132_m72            0.0000     4.2529E+02    12.4540   1.3593   115.2944
 40      0.0000     0.0000E+00    0.0000E+00    9.047900E+08  0.05000  1.484E-04    0   0.6088   age135_m72            0.0000     1.7708E+02    10.1088   0.9236   110.4442
 41      3.0262     1.7088E+00    1.9280E+00    1.434000E+09  0.05000  7.827E-05    0   0.5847   age139_m72            0.0000     1.3140E+02     9.4758   0.5555   107.7715
 42      6.3595     7.4773E+00    8.0556E+00    2.500000E+09  0.05000  3.759E-05    0   0.5583   age150_m72            0.0000     1.9047E+02    10.1152   0.2315   107.5928
 43      2.6279     7.5029E+00    7.7024E+00    5.000000E+09  0.05000  1.548E-05    0   0.5320   age161_m72            0.0000     3.0241E+02    12.1203  -0.2330   108.1941
 44      0.6050     4.0937E+00    4.0051E+00    1.100000E+10  0.05000  6.532E-06    0   0.5070   age185_m72            0.0000     4.5310E+02    15.7212  -0.7534   109.9888
 45      0.3248     2.7006E+00    2.6150E+00    1.300000E+10  0.05000  5.316E-06    0   0.5018   age193_m72            0.0000     5.2217E+02    17.2048  -0.9392   110.9672


## Synthesis Results - Average & Chains ##

# j      x_j: min, <> & last-chain-values for 1 ...  7 chains
  1      0.0000      0.0166      0.0000      0.0137      0.0000      0.0000      0.0000      0.0000      0.0000
  2     11.3649     10.5611     10.6852     10.7094     10.6192     10.8011     10.6537     10.5390     10.3806
  3      0.0000      0.0671      0.0000      0.0000      0.0356      0.0000      0.0000      0.4063      0.0000
  4     12.8182     12.1151     12.6171     12.2171     12.2718     11.9931     12.0673     12.2604     11.7698
  5      0.0000      0.0744      0.0000      0.0000      0.0716      0.2466      0.1261      0.0000      0.0000
  6      0.0000      0.0348      0.0000      0.1656      0.1294      0.0000      0.0000      0.0000      0.0000
  7      3.2932      3.7209      3.3849      3.7384      3.5971      3.2990      3.7174      3.8272      3.3592
  8      0.0000      0.0280      0.0000      0.0340      0.0762      0.0000      0.0000      0.0459      0.0000
  9      0.0000      0.0842      0.0165      0.2037      0.0571      0.2572      0.1291      0.0000      0.2173
 10      0.0000      0.1375      0.5969      0.0568      0.1952      0.2456      0.0000      0.2755      0.1660
 11      0.0000      0.1046      0.0079      0.0196      0.0000      0.2615      0.0000      0.0000      0.0550
 12     12.4084     11.6578     11.6874     11.6519     11.8757     12.1890     11.7927     11.7266     11.4528
 13     19.2577     20.2796     20.0318     20.4238     20.4995     20.1210     19.9836     20.4931     21.0348
 14     21.4269     22.7028     22.5306     22.3925     22.6262     22.8232     22.6454     22.6853     22.1945
 15      0.0000      0.1241      0.0747      0.0422      0.0526      0.0000      0.0379      0.0000      0.1408
 16      0.0000      0.0153      0.0000      0.0000      0.0000      0.0000      0.0000      0.0128      0.0000
 17      0.0000      0.0147      0.0000      0.0000      0.0000      0.0000      0.0000      0.0022      0.0000
 18      0.0000      0.3551      0.3448      0.2984      0.4272      0.5358      0.4730      0.0000      0.7889
 19      0.0000      0.0212      0.0000      0.0000      0.0000      0.0000      0.0000      0.0000      0.0000
 20      0.0000      0.0180      0.0000      0.0000      0.0000      0.0000      0.0000      0.0000      0.0000
 21      0.0000      0.0303      0.0000      0.0000      0.0844      0.0114      0.0000      0.0000      0.0000
 22      0.0000      0.0319      0.0000      0.0000      0.0000      0.0000      0.0000      0.0000      0.0021
 23      0.0000      0.0317      0.0000      0.0000      0.1764      0.0000      0.0448      0.0000      0.0000
 24      0.0000      0.0231      0.0000      0.0000      0.0000      0.0000      0.0000      0.0000      0.1012
 25      0.0000      0.0270      0.0000      0.0000      0.0000      0.0155      0.0000      0.0000      0.0000
 26      0.0000      0.0719      0.1044      0.0000      0.0000      0.0000      0.0000      0.0000      0.0094
 27      0.0000      0.1527      0.3328      0.1704      0.0000      0.0000      0.0000      0.0000      0.6496
 28      5.7525      8.8031      9.3485      8.5818      8.0335      8.6400      8.6994      8.9379      7.2141
 29      0.0076      2.6516      2.4143      2.5141      2.4710      2.5095      2.6913      2.4205      2.4114
 30      0.0000      0.4826      0.1285      0.2047      0.2767      0.3402      0.0566      0.3360      0.7814
 31      0.0000      0.0144      0.0000      0.0112      0.0000      0.0000      0.0000      0.0000      0.0000
 32      0.0000      0.0488      0.0000      0.0882      0.0000      0.0161      0.2426      0.0000      0.0310
 33      0.0000      0.0497      0.0393      0.0000      0.0134      0.0000      0.0000      0.2105      0.5074
 34      0.0000      0.0184      0.0000      0.0672      0.0000      0.0000      0.0000      0.0000      0.0000
 35      0.0000      0.0436      0.0000      0.0000      0.0000      0.0983      0.0000      0.0000      0.0000
 36      0.0000      0.0512      0.0000      0.1434      0.0000      0.0000      0.0000      0.0810      0.0932
 37      0.0000      0.0371      0.0084      0.0478      0.0000      0.0000      0.0898      0.0044      0.0000
 38      0.0000      0.0231      0.0000      0.0000      0.0000      0.0000      0.0193      0.0000      0.0166
 39      0.0000      0.0302      0.0000      0.0000      0.0000      0.0000      0.0000      0.0000      0.0000
 40      0.0000      0.0812      0.0674      0.0565      0.0000      0.0000      0.0000      0.0000      0.0285
 41      3.0262      1.2193      1.4681      1.3213      1.1228      1.3646      2.4489      1.2068      2.2137
 42      6.3595      1.0834      1.2600      1.4817      2.0766      1.3052      1.2524      1.7771      1.4804
 43      2.6279      0.9962      1.0667      1.5606      1.3532      1.1333      0.9992      0.9487      1.0879
 44      0.6050      0.7217      0.7141      0.7247      0.7271      0.5940      0.6543      0.6233      0.6928
 45      0.3248      0.4934      0.4024      0.4076      0.4545      0.5167      0.5261      0.5014      0.4628

# j      m_j: min, <> & last-chain-values for 1 ...  7 chains
  1  0.0000E+00  1.1506E-04  0.0000E+00  9.6167E-05  0.0000E+00  0.0000E+00  0.0000E+00  0.0000E+00  0.0000E+00
  2  2.3795E-02  2.0012E-02  2.0656E-02  2.0534E-02  2.0342E-02  2.0734E-02  2.0536E-02  2.0233E-02  1.9913E-02
  3  0.0000E+00  1.9399E-04  0.0000E+00  0.0000E+00  1.0406E-04  0.0000E+00  0.0000E+00  1.1896E-03  0.0000E+00
  4  7.6223E-02  6.5202E-02  6.9275E-02  6.6529E-02  6.6767E-02  6.5387E-02  6.6066E-02  6.6852E-02  6.4126E-02
  5  0.0000E+00  9.2593E-04  0.0000E+00  0.0000E+00  9.0083E-04  3.1092E-03  1.5959E-03  0.0000E+00  0.0000E+00
  6  0.0000E+00  6.0202E-04  0.0000E+00  2.8963E-03  2.2624E-03  0.0000E+00  0.0000E+00  0.0000E+00  0.0000E+00
  7  8.9250E-02  9.1266E-02  8.4701E-02  9.2779E-02  8.9192E-02  8.1973E-02  9.2753E-02  9.5108E-02  8.3411E-02
  8  0.0000E+00  1.3234E-03  0.0000E+00  1.6271E-03  3.6438E-03  0.0000E+00  0.0000E+00  2.2003E-03  0.0000E+00
  9  0.0000E+00  7.9296E-03  1.5862E-03  1.9422E-02  5.4346E-03  2.4546E-02  1.2371E-02  0.0000E+00  2.0724E-02
 10  0.0000E+00  1.8092E-02  8.0093E-02  7.5548E-03  2.5957E-02  3.2721E-02  0.0000E+00  3.6715E-02  2.2100E-02
 11  0.0000E+00  2.4160E-02  1.8634E-03  4.5732E-03  0.0000E+00  6.1193E-02  0.0000E+00  0.0000E+00  1.2858E-02
 12  5.8884E+00  5.0069E+00  5.1210E+00  5.0636E+00  5.1563E+00  5.3034E+00  5.1523E+00  5.1027E+00  4.9797E+00
 13  1.8199E+01  1.7345E+01  1.7479E+01  1.7675E+01  1.7725E+01  1.7434E+01  1.7387E+01  1.7758E+01  1.8214E+01
 14  4.1272E+01  3.9577E+01  4.0070E+01  3.9498E+01  3.9875E+01  4.0306E+01  4.0159E+01  4.0067E+01  3.9169E+01
 15  0.0000E+00  2.5066E-01  1.5394E-01  8.6314E-02  1.0730E-01  0.0000E+00  7.7792E-02  0.0000E+00  2.8791E-01
 16  0.0000E+00  5.9266E-05  0.0000E+00  0.0000E+00  0.0000E+00  0.0000E+00  0.0000E+00  5.0393E-05  0.0000E+00
 17  0.0000E+00  2.9618E-05  0.0000E+00  0.0000E+00  0.0000E+00  0.0000E+00  0.0000E+00  4.4753E-06  0.0000E+00
 18  0.0000E+00  7.9345E-04  7.8601E-04  6.7461E-04  9.6497E-04  1.2129E-03  1.0751E-03  0.0000E+00  1.7846E-03
 19  0.0000E+00  1.4181E-04  0.0000E+00  0.0000E+00  0.0000E+00  0.0000E+00  0.0000E+00  0.0000E+00  0.0000E+00
 20  0.0000E+00  2.6749E-04  0.0000E+00  0.0000E+00  0.0000E+00  0.0000E+00  0.0000E+00  0.0000E+00  0.0000E+00
 21  0.0000E+00  5.4075E-04  0.0000E+00  0.0000E+00  1.5236E-03  2.0644E-04  0.0000E+00  0.0000E+00  0.0000E+00
 22  0.0000E+00  9.4664E-04  0.0000E+00  0.0000E+00  0.0000E+00  0.0000E+00  0.0000E+00  0.0000E+00  6.2599E-05
 23  0.0000E+00  1.8479E-03  0.0000E+00  0.0000E+00  1.0397E-02  0.0000E+00  2.6561E-03  0.0000E+00  0.0000E+00
 24  0.0000E+00  3.0826E-03  0.0000E+00  0.0000E+00  0.0000E+00  0.0000E+00  0.0000E+00  0.0000E+00  1.3673E-02
 25  0.0000E+00  5.5383E-03  0.0000E+00  0.0000E+00  0.0000E+00  3.2187E-03  0.0000E+00  0.0000E+00  0.0000E+00
 26  0.0000E+00  2.7871E-02  4.1268E-02  0.0000E+00  0.0000E+00  0.0000E+00  0.0000E+00  0.0000E+00  3.7025E-03
 27  0.0000E+00  1.2009E-01  2.6709E-01  1.3561E-01  0.0000E+00  0.0000E+00  0.0000E+00  0.0000E+00  5.1729E-01
 28  1.0116E+01  1.4011E+01  1.5180E+01  1.3821E+01  1.2926E+01  1.3931E+01  1.4085E+01  1.4413E+01  1.1624E+01
 29  2.8143E-02  8.9345E+00  8.2992E+00  8.5713E+00  8.4168E+00  8.5658E+00  9.2246E+00  8.2629E+00  8.2253E+00
 30  0.0000E+00  1.9402E+00  5.2717E-01  8.3273E-01  1.1245E+00  1.3855E+00  2.3129E-01  1.3686E+00  3.1801E+00
 31  0.0000E+00  4.1794E-05  0.0000E+00  3.3126E-05  0.0000E+00  0.0000E+00  0.0000E+00  0.0000E+00  0.0000E+00
 32  0.0000E+00  7.4863E-05  0.0000E+00  1.3696E-04  0.0000E+00  2.5081E-05  3.7878E-04  0.0000E+00  4.8105E-05
 33  0.0000E+00  1.1323E-04  9.1218E-05  0.0000E+00  3.0756E-05  0.0000E+00  0.0000E+00  4.8549E-04  1.1694E-03
 34  0.0000E+00  1.3499E-04  0.0000E+00  4.9956E-04  0.0000E+00  0.0000E+00  0.0000E+00  0.0000E+00  0.0000E+00
 35  0.0000E+00  6.3204E-04  0.0000E+00  0.0000E+00  0.0000E+00  1.4436E-03  0.0000E+00  0.0000E+00  0.0000E+00
 36  0.0000E+00  9.4180E-04  0.0000E+00  2.6679E-03  0.0000E+00  0.0000E+00  0.0000E+00  1.5096E-03  1.7356E-03
 37  0.0000E+00  1.1839E-03  2.7175E-04  1.5427E-03  0.0000E+00  0.0000E+00  2.9133E-03  1.4185E-04  0.0000E+00
 38  0.0000E+00  1.6723E-03  0.0000E+00  0.0000E+00  0.0000E+00  0.0000E+00  1.4257E-03  0.0000E+00  1.2168E-03
 39  0.0000E+00  5.5289E-03  0.0000E+00  0.0000E+00  0.0000E+00  0.0000E+00  0.0000E+00  0.0000E+00  0.0000E+00
 40  0.0000E+00  2.5705E-02  2.1772E-02  1.8114E-02  0.0000E+00  0.0000E+00  0.0000E+00  0.0000E+00  9.1202E-03
 41  1.9280E+00  7.0309E-01  8.6360E-01  7.7091E-01  6.5448E-01  7.9711E-01  1.4364E+00  7.0501E-01  1.2922E+00
 42  8.0556E+00  1.2420E+00  1.4737E+00  1.7187E+00  2.4067E+00  1.5158E+00  1.4606E+00  2.0641E+00  1.7181E+00
 43  7.7024E+00  2.6425E+00  2.8868E+00  4.1887E+00  3.6288E+00  3.0455E+00  2.6963E+00  2.5497E+00  2.9215E+00
 44  4.0051E+00  4.3237E+00  4.3646E+00  4.3931E+00  4.4040E+00  3.6052E+00  3.9878E+00  3.7833E+00  4.2017E+00
 45  2.6150E+00  3.5953E+00  2.9912E+00  3.0051E+00  3.3477E+00  3.8142E+00  3.8995E+00  3.7009E+00  3.4134E+00

# AV, chi2 & Mass for <> & i_chain = 1 ...  7 solutions
AV       1.4581      1.4563      1.4571      1.4557      1.4561      1.4591      1.4567      1.4576      1.4566
chi2 2.5247E+00  2.5726E+00  2.5633E+00  2.5639E+00  2.5626E+00  2.5651E+00  2.5618E+00  2.5646E+00  2.5622E+00
Mass 5.9237E-10  6.5291E-10  6.4062E-10  6.4477E-10  6.4569E-10  6.4691E-10  6.4216E-10  6.4556E-10  6.4516E-10
   8.04                                  [v0_min (km/s) before EX0s...]
  55.59                                  [vd_min (km/s) before EX0s...]


## Synthetic spectrum (Best Model) ##l_obs f_obs f_syn wei
 3070    [Nl_obs]
 3359.00    0.00000   0.45394   -2.000
 3360.00    0.17953   0.42977   -1.000
 3361.00    0.19151   0.42438   -1.000
 3362.00    0.21467   0.44191   -1.000
 3363.00    0.24258   0.47117   -1.000
 3364.00    0.26243   0.49465   -1.000
 3365.00    0.28992   0.50049   -1.000
 3366.00    0.28761   0.48802   -1.000
 3367.00    0.29679   0.46611   -1.000
 3368.00    0.28894   0.44713   -1.000
 3369.00    0.26477   0.43799   -1.000
 3370.00    0.25721   0.43593   -1.000
 3371.00    0.24218   0.43463   -1.000
 3372.00    0.23721   0.43473   -1.000
 3373.00    0.25751   0.44409   -1.000
 3374.00    0.28444   0.46560   -1.000
 3375.00    0.28773   0.49409   -1.000
 3376.00    0.31256   0.51396   -1.000
 3377.00    0.34266   0.51211   -1.000
 3378.00    0.34259   0.49312   -1.000
 3379.00    0.34273   0.47091   -1.000
 3380.00    0.32491   0.45942   -1.000
 3381.00    0.32342   0.46368   -1.000
 3382.00    0.33885   0.47903   -1.000
 3383.00    0.32884   0.49452   -1.000
 3384.00    0.34916   0.50499   -1.000
 3385.00    0.34847   0.51385   -1.000
 3386.00    0.34322   0.52012   -1.000
 3387.00    0.34312   0.52086   -1.000
 3388.00    0.35421   0.51839   -1.000
 3389.00    0.34894   0.51567   -1.000
 3390.00    0.35364   0.51180   -1.000
 3391.00    0.35607   0.50410   -1.000
 3392.00    0.37014   0.49311   -1.000
 3393.00    0.35532   0.48687   -1.000
 3394.00    0.36173   0.49347   -1.000
 3395.00    0.37364   0.51046   -1.000
 3396.00    0.38482   0.52958   -1.000
 3397.00    0.38943   0.54543   -1.000
 3398.00    0.40973   0.55444   -1.000
 3399.00    0.44368   0.55384   -1.000
 3400.00    0.44867   0.54650   -1.000
 3401.00    0.44291   0.53657   -1.000
 3402.00    0.42803   0.52408   -1.000
 3403.00    0.42228   0.51260   -1.000
 3404.00    0.42788   0.50621   -1.000
 3405.00    0.42477   0.50269   -1.000
 3406.00    0.41307   0.49767   -1.000
 3407.00    0.42353   0.49222   -1.000
 3408.00    0.41172   0.49038   -1.000
 3409.00    0.39123   0.49512   -1.000
 3410.00    0.39948   0.50296   -1.000
 3411.00    0.42452   0.50519   -1.000
 3412.00    0.42153   0.49940   -1.000
 3413.00    0.42551   0.48979   -1.000
 3414.00    0.39271   0.48458   -1.000
 3415.00    0.38119   0.48799   -1.000
 3416.00    0.37897   0.49921   -1.000
 3417.00    0.41438   0.51451   -1.000
 3418.00    0.44919   0.53056   -1.000
 3419.00    0.44822   0.54453   -1.000
 3420.00    0.43411   0.55160   -1.000
 3421.00    0.44486   0.54877   -1.000
 3422.00    0.46381   0.53965   -1.000
 3423.00    0.44900   0.53090   -1.000
 3424.00    0.44229   0.52724   -1.000
 3425.00    0.46070   0.52832   -1.000
 3426.00    0.45779   0.53212   -1.000
 3427.00    0.45302   0.53953   -1.000
 3428.00    0.47060   0.55381   -1.000
 3429.00    0.47787   0.56824   -1.000
 3430.00    0.48535   0.57164   -1.000
 3431.00    0.49069   0.56127   -1.000
 3432.00    0.47530   0.54446   -1.000
 3433.00    0.46647   0.53279   -1.000
 3434.00    0.46349   0.53178   -1.000
 3435.00    0.47769   0.53803   -1.000
 3436.00    0.48460   0.54157   -1.000
 3437.00    0.44981   0.53660   -1.000
 3438.00    0.46167   0.52132   -1.000
 3439.00    0.45303   0.49708   -1.000
 3440.00    0.40858   0.46843   -1.000
 3441.00    0.42168   0.44653   89.430
 3442.00    0.42073   0.44043   89.961
 3443.00    0.39693   0.44805   -1.000
 3444.00    0.40283   0.46111   -1.000
 3445.00    0.43742   0.47443   81.808
 3446.00    0.44180   0.49007   -1.000
 3447.00    0.47312   0.51026   74.423
 3448.00    0.46362   0.53208   -1.000
 3449.00    0.46173   0.54763   -1.000
 3450.00    0.48795   0.54887   -1.000
 3451.00    0.49147   0.53687   -1.000
 3452.00    0.49351   0.52028   -1.000
 3453.00    0.49562   0.51126   -1.000
 3454.00    0.48778   0.51395   -1.000
 3455.00    0.48665   0.52166   -1.000
 3456.00    0.48944   0.52478   -1.000
 3457.00    0.49570   0.51673   -1.000
 3458.00    0.48874   0.50214   -1.000
 3459.00    0.47210   0.48873   81.200
 3460.00    0.47596   0.47924   73.116
 3461.00    0.47010   0.47871   72.795
 3462.00    0.48418   0.49206  339.667
 3463.00    0.49595   0.51081   -1.000
 3464.00    0.51369   0.52075   -1.000
 3465.00    0.51129   0.52118   -1.000
 3466.00    0.50929   0.51938   -1.000
 3467.00    0.51008   0.52298   -1.000
 3468.00    0.53581   0.53192  586.018
 3469.00    0.53982   0.54139  586.018
 3470.00    0.53791   0.54582   -1.000
 3471.00    0.54199   0.54146  586.018
 3472.00    0.52422   0.52891   -1.000
 3473.00    0.50919   0.51082  586.018
 3474.00    0.51650   0.48959   -1.000
 3475.00    0.48754   0.47288   81.926
 3476.00    0.46660   0.47005   75.268
 3477.00    0.47705   0.48121   74.118
 3478.00    0.48706   0.49850   -1.000
 3479.00    0.49441   0.51400   -1.000
 3480.00    0.51628   0.52322   -1.000
 3481.00    0.53270   0.52460   -1.000
 3482.00    0.53447   0.51853   -1.000
 3483.00    0.53442   0.51017   -1.000
 3484.00    0.53873   0.50861   -1.000
 3485.00    0.52291   0.51919  586.018
 3486.00    0.53921   0.53683  586.018
 3487.00    0.55740   0.54638   -1.000
 3488.00    0.54956   0.53927   -1.000
 3489.00    0.55489   0.52009   -1.000
 3490.00    0.52021   0.50240   -1.000
 3491.00    0.51048   0.49731   -1.000
 3492.00    0.50898   0.50283   -1.000
 3493.00    0.50719   0.50975  586.018
 3494.00    0.49935   0.51019   -1.000
 3495.00    0.50477   0.50325  586.018
 3496.00    0.49568   0.49610  586.018
 3497.00    0.49681   0.50024  586.018
 3498.00    0.51873   0.51846  586.018
 3499.00    0.54550   0.53709   -1.000
 3500.00    0.54237   0.54554  580.915
 3501.00    0.55911   0.54879   -1.000
 3502.00    0.55023   0.55360  564.475
 3503.00    0.55883   0.55853  560.074
 3504.00    0.55427   0.55628  573.822
 3505.00    0.54879   0.54699  582.115
 3506.00    0.55373   0.53907   -1.000
 3507.00    0.54373   0.53695   -1.000
 3508.00    0.54960   0.53736   -1.000
 3509.00    0.56021   0.53374   -1.000
 3510.00    0.55430   0.52549   -1.000
 3511.00    0.55669   0.51671   -1.000
 3512.00    0.54494   0.50855   -1.000
 3513.00    0.54141   0.49981   -1.000
 3514.00    0.52414   0.49792   -1.000
 3515.00    0.52748   0.51019   -1.000
 3516.00    0.55806   0.53347   -1.000
 3517.00    0.56396   0.55617   -1.000
 3518.00    0.58000   0.56567   -1.000
 3519.00    0.58754   0.55883   -1.000
 3520.00    0.54974   0.54040   -1.000
 3521.00    0.53136   0.52039   -1.000
 3522.00    0.52252   0.50457   -1.000
 3523.00    0.51725   0.49007   -1.000
 3524.00    0.50830   0.47734   81.376
 3525.00    0.45560   0.47147   74.505
 3526.00    0.47087   0.47862   74.385
 3527.00    0.49960   0.49952  339.583
 3528.00    0.51298   0.52536   -1.000
 3529.00    0.54232   0.54471  586.018
 3530.00    0.55134   0.55213  586.018
 3531.00    0.56259   0.55102   -1.000
 3532.00    0.55037   0.54962  586.018
 3533.00    0.54609   0.55319   -1.000
 3534.00    0.55630   0.56016  586.018
 3535.00    0.54934   0.56570   -1.000
 3536.00    0.55581   0.56821   -1.000
 3537.00    0.56565   0.57149   -1.000
 3538.00    0.57207   0.57866   -1.000
 3539.00    0.58751   0.58528  568.078
 3540.00    0.58697   0.58445  571.630
 3541.00    0.57043   0.57881   -1.000
 3542.00    0.55731   0.57761   -1.000
 3543.00    0.56898   0.58251   -1.000
 3544.00    0.56828   0.58911   -1.000
 3545.00    0.55250   0.59118   -1.000
 3546.00    0.55519   0.58779   -1.000
 3547.00    0.53694   0.58387   -1.000
 3548.00    0.53346   0.58286   -1.000
 3549.00    0.55533   0.58470   -1.000
 3550.00    0.55890   0.58628   -1.000
 3551.00    0.56440   0.58430   -1.000
 3552.00    0.52829   0.57687   -1.000
 3553.00    0.53216   0.56753   -1.000
 3554.00    0.51590   0.56198   -1.000
 3555.00    0.52328   0.56245   -1.000
 3556.00    0.52126   0.56586   -1.000
 3557.00    0.54814   0.56636   -1.000
 3558.00    0.53153   0.56274   -1.000
 3559.00    0.53593   0.55969   -1.000
 3560.00    0.52122   0.56300   -1.000
 3561.00    0.53574   0.57393   -1.000
 3562.00    0.54125   0.58354   -1.000
 3563.00    0.53962   0.57751   -1.000
 3564.00    0.52889   0.54881   -1.000
 3565.00    0.47643   0.51530   82.264
 3566.00    0.46320   0.49822   75.568
 3567.00    0.47285   0.49628   75.157
 3568.00    0.48027   0.49570   74.682
 3569.00    0.47590   0.48591   76.886
 3570.00    0.46558   0.47397   78.450
 3571.00    0.45698   0.47363   76.430
 3572.00    0.47357   0.48425   73.114
 3573.00    0.49881   0.49663  333.763
 3574.00    0.50242   0.50451  586.018
 3575.00    0.52356   0.50840   -1.000
 3576.00    0.50572   0.51124   -1.000
 3577.00    0.50458   0.51052   -1.000
 3578.00    0.51450   0.50146   -1.000
 3579.00    0.48639   0.48273   85.102
 3580.00    0.44890   0.46118   80.633
 3581.00    0.44376   0.44667   85.309
 3582.00    0.44389   0.44419   86.345
 3583.00    0.43396   0.44916   86.719
 3584.00    0.43322   0.44890   88.697
 3585.00    0.42474   0.44054   91.552
 3586.00    0.40579   0.43420   93.051
 3587.00    0.40355   0.43761   89.011
 3588.00    0.43379   0.45244   84.281
 3589.00    0.45061   0.47572   80.161
 3590.00    0.47643   0.50223   73.334
 3591.00    0.51509   0.52381  325.974
 3592.00    0.52548   0.53449   -1.000
 3593.00    0.52423   0.53719   -1.000
 3594.00    0.52539   0.54109   -1.000
 3595.00    0.55345   0.55266  586.018
 3596.00    0.57377   0.56763   -1.000
 3597.00    0.56972   0.58038   -1.000
 3598.00    0.57743   0.59071   -1.000
 3599.00    0.58675   0.59724   -1.000
 3600.00    0.59339   0.59517  547.538
 3601.00    0.57530   0.58054   -1.000
 3602.00    0.56117   0.55728  586.018
 3603.00    0.57106   0.53512   -1.000
 3604.00    0.55298   0.52273   -1.000
 3605.00    0.53165   0.52158   -1.000
 3606.00    0.53457   0.52326   -1.000
 3607.00    0.53427   0.51894   -1.000
 3608.00    0.52139   0.50824   -1.000
 3609.00    0.50294   0.50068  586.018
 3610.00    0.49663   0.50616   -1.000
 3611.00    0.51216   0.51937   -1.000
 3612.00    0.52783   0.53057  586.018
 3613.00    0.52886   0.53928   -1.000
 3614.00    0.53799   0.54913   -1.000
 3615.00    0.55344   0.55887   -1.000
 3616.00    0.57548   0.55639   -1.000
 3617.00    0.54494   0.53211   -1.000
 3618.00    0.51568   0.50341   -1.000
 3619.00    0.48966   0.49423   81.266
 3620.00    0.49737   0.50889   -1.000
 3621.00    0.54310   0.53568   -1.000
 3622.00    0.57277   0.56002   -1.000
 3623.00    0.57064   0.57558   -1.000
 3624.00    0.56160   0.58818   -1.000
 3625.00    0.58184   0.60652   -1.000
 3626.00    0.60383   0.62830   -1.000
 3627.00    0.62043   0.64368   -1.000
 3628.00    0.60130   0.63995   -1.000
 3629.00    0.58773   0.60972   -1.000
 3630.00    0.54609   0.56534   -1.000
 3631.00    0.52811   0.52987  586.018
 3632.00    0.50823   0.51877   -1.000
 3633.00    0.50515   0.52889   -1.000
 3634.00    0.51267   0.54589   -1.000
 3635.00    0.54818   0.55821   -1.000
 3636.00    0.56657   0.56543  586.018
 3637.00    0.56794   0.57670   -1.000
 3638.00    0.59759   0.59424  543.106
 3639.00    0.60772   0.61178   -1.000
 3640.00    0.61657   0.61991   -1.000
 3641.00    0.60285   0.61384   -1.000
 3642.00    0.58794   0.59703   -1.000
 3643.00    0.56498   0.57693   -1.000
 3644.00    0.54761   0.56111   -1.000
 3645.00    0.54816   0.55125  586.018
 3646.00    0.54399   0.54278  586.018
 3647.00    0.54019   0.53587  586.018
 3648.00    0.53653   0.53478  586.018
 3649.00    0.53324   0.54175   -1.000
 3650.00    0.54568   0.55672   -1.000
 3651.00    0.57657   0.57760  564.035
 3652.00    0.59878   0.59878  539.933
 3653.00    0.58456   0.61471   -1.000
 3654.00    0.60109   0.62366   -1.000
 3655.00    0.61502   0.62912   -1.000
 3656.00    0.61438   0.63710   -1.000
 3657.00    0.62136   0.64684   -1.000
 3658.00    0.64206   0.65355   -1.000
 3659.00    0.62906   0.65582   -1.000
 3660.00    0.62587   0.65377   -1.000
 3661.00    0.62470   0.64696   -1.000
 3662.00    0.63795   0.63685  506.074
 3663.00    0.62306   0.62741   -1.000
 3664.00    0.61258   0.62283   -1.000
 3665.00    0.61492   0.62334   -1.000
 3666.00    0.63023   0.62428  513.275
 3667.00    0.62886   0.61998   -1.000
 3668.00    0.61174   0.60964  529.357
 3669.00    0.60115   0.60268  541.686
 3670.00    0.60235   0.60749   -1.000
 3671.00    0.61104   0.62164   -1.000
 3672.00    0.61098   0.63533   -1.000
 3673.00    0.62624   0.64078   -1.000
 3674.00    0.64862   0.63801   -1.000
 3675.00    0.62534   0.62808  508.013
 3676.00    0.60795   0.61272   -1.000
 3677.00    0.62539   0.59529   -1.000
 3678.00    0.60366   0.57964   -1.000
 3679.00    0.57681   0.57085   -1.000
 3680.00    0.56827   0.57123  569.543
 3681.00    0.60572   0.57972   -1.000
 3682.00    0.62414   0.59134   -1.000
 3683.00    0.61193   0.59874   -1.000
 3684.00    0.60183   0.59539  544.858
 3685.00    0.58866   0.57839   -1.000
 3686.00    0.57434   0.55771   -1.000
 3687.00    0.54507   0.54936  586.018
 3688.00    0.56077   0.56146  586.018
 3689.00    0.59112   0.58877  551.207
 3690.00    0.62444   0.61781   -1.000
 3691.00    0.62636   0.63500   -1.000
 3692.00    0.63393   0.63743  498.664
 3693.00    0.63074   0.63284  511.472
 3694.00    0.62909   0.62744  519.327
 3695.00    0.61470   0.62253   -1.000
 3696.00    0.63731   0.61987   -1.000
 3697.00    0.63528   0.62579   -1.000
 3698.00    0.63313   0.64344   -1.000
 3699.00    0.66535   0.66624  479.082
 3700.00    0.68641   0.68024  472.047
 3701.00    0.68306   0.67294   -1.000
 3702.00    0.65646   0.64031   -1.000
 3703.00    0.61675   0.59297   -1.000
 3704.00    0.56744   0.54907   -1.000
 3705.00    0.54109   0.52481   -1.000
 3706.00    0.55113   0.52481   -1.000
 3707.00    0.57187   0.53805   -1.000
 3708.00    0.57004   0.55207   -1.000
 3709.00    0.57555   0.56152   -1.000
 3710.00    0.58267   0.56900   -1.000
 3711.00    0.58874   0.58168   -1.000
 3712.00    0.61638   0.60486   -1.000
 3713.00    0.64818   0.63447   -1.000
 3714.00    0.67752   0.66106   -1.000
 3715.00    0.69724   0.67667   -1.000
 3716.00    0.69526   0.67576   -1.000
 3717.00    0.68021   0.65710   -1.000
 3718.00    0.64312   0.61909   -1.000
 3719.00    0.58469   0.56210   -1.000
 3720.00    0.52791   0.50597   -1.000
 3721.00    0.49632   0.47681   83.209
 3722.00    0.49892   0.48378   -1.000
 3723.00    0.55336   0.52183   -1.000
 3724.00    0.61967   0.57403   -1.000
 3725.00    0.65111   0.61360   -1.000
 3726.00    0.65386   0.62685   -1.000
 3727.00    0.63605   0.62800   -1.000
 3728.00    0.62988   0.63202  546.835
 3729.00    0.63836   0.63706  539.238
 3730.00    0.63765   0.63060   -1.000
 3731.00    0.60627   0.60031   -1.000
 3732.00    0.57342   0.54857   -1.000
 3733.00    0.52129   0.49091   81.575
 3734.00    0.47759   0.44466   79.451
 3735.00    0.45659   0.42609   83.292
 3736.00    0.46295   0.44188   79.981
 3737.00    0.50439   0.48545   72.832
 3738.00    0.56618   0.54484   -1.000
 3739.00    0.60638   0.60383  579.268
 3740.00    0.64172   0.64347  542.868
 3741.00    0.66761   0.65549   -1.000
 3742.00    0.64167   0.64374  554.845
 3743.00    0.59751   0.61706   -1.000
 3744.00    0.59369   0.58722   -1.000
 3745.00    0.57918   0.56067   -1.000
 3746.00    0.55782   0.53405   -1.000
 3747.00    0.51595   0.50215   82.890
 3748.00    0.48702   0.46584   77.092
 3749.00    0.45700   0.44255   78.454
 3750.00    0.48947   0.45299   -1.000
 3751.00    0.53586   0.49684   -1.000
 3752.00    0.60389   0.55656   -1.000
 3753.00    0.64349   0.61558   -1.000
 3754.00    0.68386   0.66141   -1.000
 3755.00    0.70496   0.68198   -1.000
 3756.00    0.68397   0.67058   -1.000
 3757.00    0.63891   0.63474  565.215
 3758.00    0.59619   0.59773  586.018
 3759.00    0.59040   0.58161   -1.000
 3760.00    0.60135   0.58877   -1.000
 3761.00    0.63392   0.60430   -1.000
 3762.00    0.65620   0.61721   -1.000
 3763.00    0.65829   0.62524   -1.000
 3764.00    0.65414   0.62704   -1.000
 3765.00    0.64443   0.62025   -1.000
 3766.00    0.63726   0.60594   -1.000
 3767.00    0.62472   0.58858   -1.000
 3768.00    0.60752   0.57007   -1.000
 3769.00    0.59483   0.55181   -1.000
 3770.00    0.59072   0.54019   -1.000
 3771.00    0.60338   0.54735   -1.000
 3772.00    0.62917   0.57717   -1.000
 3773.00    0.65398   0.61425   -1.000
 3774.00    0.67934   0.64233   -1.000
 3775.00    0.67427   0.66095   -1.000
 3776.00    0.69092   0.67592   -1.000
 3777.00    0.70973   0.69214   -1.000
 3778.00    0.71660   0.71103  489.748
 3779.00    0.73959   0.73009   -1.000
 3780.00    0.76375   0.74637   -1.000
 3781.00    0.77439   0.75737   -1.000
 3782.00    0.76155   0.76324  455.851
 3783.00    0.76087   0.76343  455.767
 3784.00    0.76820   0.75317   -1.000
 3785.00    0.74647   0.72893   -1.000
 3786.00    0.71791   0.69688   -1.000
 3787.00    0.67303   0.66850  551.957
 3788.00    0.65615   0.65159  564.184
 3789.00    0.65367   0.64701   -1.000
 3790.00    0.65825   0.64981   -1.000
 3791.00    0.66531   0.65158   -1.000
 3792.00    0.66510   0.64314   -1.000
 3793.00    0.64715   0.62248   -1.000
 3794.00    0.61848   0.59362   -1.000
 3795.00    0.59752   0.56100   -1.000
 3796.00    0.56897   0.52638   -1.000
 3797.00    0.54443   0.49175   -1.000
 3798.00    0.51958   0.47434   -1.000
 3799.00    0.54054   0.49349   -1.000
 3800.00    0.58069   0.54372   -1.000
 3801.00    0.62737   0.60452   -1.000
 3802.00    0.67172   0.65730   -1.000
 3803.00    0.70248   0.69157   -1.000
 3804.00    0.71551   0.70661   -1.000
 3805.00    0.71342   0.70449   -1.000
 3806.00    0.69518   0.69319  532.178
 3807.00    0.67397   0.69033   -1.000
 3808.00    0.67627   0.70483   -1.000
 3809.00    0.71593   0.72831   -1.000
 3810.00    0.73968   0.74425   -1.000
 3811.00    0.73797   0.73963  512.968
 3812.00    0.70294   0.71388   -1.000
 3813.00    0.67361   0.67655  571.935
 3814.00    0.64870   0.64263   -1.000
 3815.00    0.63008   0.62648  586.018
 3816.00    0.63964   0.63141   -1.000
 3817.00    0.65484   0.64273   -1.000
 3818.00    0.65453   0.64131   -1.000
 3819.00    0.62682   0.62184   -1.000
 3820.00    0.60175   0.59996  586.018
 3821.00    0.59773   0.59647  586.018
 3822.00    0.62083   0.60730   -1.000
 3823.00    0.63220   0.60959   -1.000
 3824.00    0.59917   0.59291   -1.000
 3825.00    0.56936   0.56794   85.933
 3826.00    0.54650   0.55019   76.851
 3827.00    0.54779   0.54432   76.452
 3828.00    0.55926   0.54530   75.273
 3829.00    0.55789   0.54499   74.034
 3830.00    0.55093   0.53680   74.710
 3831.00    0.51742   0.51615   77.845
 3832.00    0.47897   0.48460   83.800
 3833.00    0.46730   0.44914   86.875
 3834.00    0.45742   0.42170   -1.000
 3835.00    0.45334   0.41265   -1.000
 3836.00    0.46913   0.42053   -1.000
 3837.00    0.47339   0.43645   -1.000
 3838.00    0.47133   0.45416   83.655
 3839.00    0.49723   0.47593   82.563
 3840.00    0.52322   0.50853   78.174
 3841.00    0.55528   0.55237  334.340
 3842.00    0.59757   0.59961  586.018
 3843.00    0.64279   0.64003  586.018
 3844.00    0.66514   0.66595  586.018
 3845.00    0.66927   0.68022   -1.000
 3846.00    0.68051   0.69058   -1.000
 3847.00    0.68249   0.69846   -1.000
 3848.00    0.67497   0.69835   -1.000
 3849.00    0.66408   0.69196   -1.000
 3850.00    0.65681   0.68887   -1.000
 3851.00    0.65599   0.69492   -1.000
 3852.00    0.66821   0.70589   -1.000
 3853.00    0.67225   0.70955   -1.000
 3854.00    0.66943   0.69995   -1.000
 3855.00    0.65124   0.68399   -1.000
 3856.00    0.65475   0.66800   -1.000
 3857.00    0.65440   0.65134  586.018
 3858.00    0.62124   0.63383   81.470
 3859.00    0.59702   0.62260   75.376
 3860.00    0.59512   0.62942   74.446
 3861.00    0.62866   0.65506   -1.000
 3862.00    0.67005   0.68681   -1.000
 3863.00    0.70077   0.70662   -1.000
 3864.00    0.68760   0.70965   -1.000
 3865.00    0.68008   0.70555   -1.000
 3866.00    0.68719   0.70203   -1.000
 3867.00    0.69366   0.70190   -1.000
 3868.00    0.67868   0.70177   -1.000
 3869.00    0.66744   0.69388   -1.000
 3870.00    0.64573   0.67527   -1.000
 3871.00    0.60677   0.65186   -1.000
 3872.00    0.59688   0.63742   -1.000
 3873.00    0.63055   0.64348   -1.000
 3874.00    0.65735   0.66931   -1.000
 3875.00    0.68185   0.69329   -1.000
 3876.00    0.68905   0.69307  572.317
 3877.00    0.65986   0.67180   -1.000
 3878.00    0.62287   0.65047   -1.000
 3879.00    0.61127   0.64338   -1.000
 3880.00    0.61486   0.64622   -1.000
 3881.00    0.60298   0.64731   -1.000
 3882.00    0.59537   0.64327   -1.000
 3883.00    0.62746   0.63704   -1.000
 3884.00    0.65135   0.62475   -1.000
 3885.00    0.63993   0.59722   -1.000
 3886.00    0.61788   0.55428   -1.000
 3887.00    0.58929   0.51174   -1.000
 3888.00    0.55693   0.48756   -1.000
 3889.00    0.55548   0.49301   -1.000
 3890.00    0.59951   0.52906   -1.000
 3891.00    0.65502   0.58307   -1.000
 3892.00    0.69790   0.63086   -1.000
 3893.00    0.71029   0.65681   -1.000
 3894.00    0.70452   0.66707   -1.000
 3895.00    0.71427   0.67599   -1.000
 3896.00    0.73097   0.69050   -1.000
 3897.00    0.74257   0.70421   -1.000
 3898.00    0.73782   0.70961   -1.000
 3899.00    0.72884   0.71071   -1.000
 3900.00    0.72963   0.71563   -1.000
 3901.00    0.73968   0.72404   -1.000
 3902.00    0.73608   0.72791   -1.000
 3903.00    0.73040   0.72131   -1.000
 3904.00    0.72036   0.70829   -1.000
 3905.00    0.72259   0.69957   -1.000
 3906.00    0.72180   0.70446   -1.000
 3907.00    0.72926   0.72634  494.074
 3908.00    0.77022   0.75840   -1.000
 3909.00    0.80255   0.78524   -1.000
 3910.00    0.81343   0.80040   -1.000
 3911.00    0.82258   0.80778   -1.000
 3912.00    0.82461   0.80812   -1.000
 3913.00    0.82279   0.80134   -1.000
 3914.00    0.81402   0.79156   -1.000
 3915.00    0.80534   0.78280   -1.000
 3916.00    0.78998   0.77621   -1.000
 3917.00    0.77619   0.76861   -1.000
 3918.00    0.77726   0.75552   -1.000
 3919.00    0.74330   0.73677   -1.000
 3920.00    0.72095   0.71765  529.989
 3921.00    0.70847   0.70692  542.607
 3922.00    0.71128   0.70809  539.491
 3923.00    0.73154   0.71452   -1.000
 3924.00    0.71898   0.71522  532.552
 3925.00    0.70173   0.70261  556.644
 3926.00    0.67786   0.67508  586.018
 3927.00    0.61673   0.63471   -1.000
 3928.00    0.55406   0.58757   91.181
 3929.00    0.49664   0.53912   -1.000
 3930.00    0.44333   0.48888   -1.000
 3931.00    0.39034   0.43741   -1.000
 3932.00    0.33427   0.38788   -1.000
 3933.00    0.28519   0.35309   -1.000
 3934.00    0.28136   0.35117   -1.000
 3935.00    0.31182   0.38445   -1.000
 3936.00    0.37354   0.43798   -1.000
 3937.00    0.44328   0.49818   -1.000
 3938.00    0.51281   0.55589   -1.000
 3939.00    0.56812   0.60546   -1.000
 3940.00    0.61189   0.64387   -1.000
 3941.00    0.64150   0.66681   -1.000
 3942.00    0.65697   0.67521   -1.000
 3943.00    0.65542   0.67731   -1.000
 3944.00    0.67711   0.68383   -1.000
 3945.00    0.71748   0.70073   -1.000
 3946.00    0.74419   0.72188   -1.000
 3947.00    0.75376   0.73670   -1.000
 3948.00    0.75573   0.74569   -1.000
 3949.00    0.76044   0.75571  472.720
 3950.00    0.77741   0.76526   -1.000
 3951.00    0.78241   0.76892   -1.000
 3952.00    0.78183   0.76976   -1.000
 3953.00    0.78342   0.77460   -1.000
 3954.00    0.81539   0.78108   -1.000
 3955.00    0.80718   0.77886   -1.000
 3956.00    0.78792   0.76752   -1.000
 3957.00    0.75524   0.75905  472.581
 3958.00    0.76669   0.75604   -1.000
 3959.00    0.77021   0.74476   -1.000
 3960.00    0.73753   0.71314   -1.000
 3961.00    0.66872   0.66620  586.018
 3962.00    0.62002   0.62211  586.018
 3963.00    0.58333   0.58836  586.018
 3964.00    0.55417   0.55474   85.984
 3965.00    0.49331   0.50776   86.175
 3966.00    0.41847   0.44147  105.571
 3967.00    0.33007   0.37074   -1.000
 3968.00    0.27945   0.31994   -1.000
 3969.00    0.27562   0.30511   -1.000
 3970.00    0.31074   0.32913  115.018
 3971.00    0.38767   0.38342   94.502
 3972.00    0.47105   0.45170   78.899
 3973.00    0.54678   0.52181   -1.000
 3974.00    0.60399   0.58766   -1.000
 3975.00    0.66541   0.64521   -1.000
 3976.00    0.71684   0.69454   -1.000
 3977.00    0.74831   0.73662   -1.000
 3978.00    0.78990   0.77451   -1.000
 3979.00    0.82950   0.80589   -1.000
 3980.00    0.85742   0.82355   -1.000
 3981.00    0.85750   0.82637   -1.000
 3982.00    0.85212   0.82223   -1.000
 3983.00    0.84423   0.82291   -1.000
 3984.00    0.85602   0.83259   -1.000
 3985.00    0.86966   0.84550   -1.000
 3986.00    0.89437   0.85746   -1.000
 3987.00    0.90410   0.86922   -1.000
 3988.00    0.90046   0.88078   -1.000
 3989.00    0.89779   0.88948  382.343
 3990.00    0.91690   0.89576   -1.000
 3991.00    0.92934   0.90400   -1.000
 3992.00    0.93571   0.91459   -1.000
 3993.00    0.93500   0.92078   -1.000
 3994.00    0.93815   0.91636   -1.000
 3995.00    0.92403   0.90193   -1.000
 3996.00    0.91066   0.88552   -1.000
 3997.00    0.89937   0.87805   -1.000
 3998.00    0.90098   0.88529   -1.000
 3999.00    0.93694   0.90332   -1.000
 4000.00    0.96881   0.92443   -1.000
 4001.00    0.98186   0.94035   -1.000
 4002.00    0.98139   0.94370   -1.000
 4003.00    0.98045   0.93021   -1.000
 4004.00    0.95729   0.90203   -1.000
 4005.00    0.91232   0.87319   -1.000
 4006.00    0.89801   0.86681   -1.000
 4007.00    0.93837   0.88825   -1.000
 4008.00    0.96134   0.91938   -1.000
 4009.00    0.98058   0.94269   -1.000
 4010.00    0.99730   0.95417   -1.000
 4011.00    1.01003   0.95847   -1.000
 4012.00    0.98860   0.96058   -1.000
 4013.00    0.97542   0.96377   -1.000
 4014.00    1.01099   0.96808   -1.000
 4015.00    1.01275   0.97047   -1.000
 4016.00    1.00000   0.97030   -1.000
 4017.00    0.99208   0.97069   -1.000
 4018.00    0.99136   0.97574   -1.000
 4019.00    0.99888   0.98371   -1.000
 4020.00    0.99456   0.98880  342.919
 4021.00    0.99500   0.98738  347.523
 4022.00    1.00425   0.98095   -1.000
 4023.00    1.00362   0.97153   -1.000
 4024.00    0.98871   0.96236   -1.000
 4025.00    0.98396   0.96209   -1.000
 4026.00    1.01166   0.97574   -1.000
 4027.00    1.04866   0.99429   -1.000
 4028.00    1.04625   0.99764   -1.000
 4029.00    1.00602   0.97573   -1.000
 4030.00    0.96650   0.93887   -1.000
 4031.00    0.93111   0.90430   -1.000
 4032.00    0.92786   0.88597   -1.000
 4033.00    0.94007   0.88708   -1.000
 4034.00    0.94693   0.90520   -1.000
 4035.00    0.96948   0.93698   -1.000
 4036.00    1.01011   0.97765   -1.000
 4037.00    1.05205   1.01583   -1.000
 4038.00    1.07425   1.03601   -1.000
 4039.00    1.05410   1.03297   -1.000
 4040.00    1.02145   1.01998  335.368
 4041.00    1.01081   1.00949  339.543
 4042.00    1.02101   0.99601   -1.000
 4043.00    1.00215   0.96445   -1.000
 4044.00    0.93248   0.91233   -1.000
 4045.00    0.87364   0.86942  420.433
 4046.00    0.87817   0.86681   -1.000
 4047.00    0.94266   0.90376   -1.000
 4048.00    1.00715   0.95622   -1.000
 4049.00    1.02184   0.99764   -1.000
 4050.00    1.03822   1.01754   -1.000
 4051.00    1.04355   1.01882   -1.000
 4052.00    1.02924   1.00676   -1.000
 4053.00    1.01299   0.98815   -1.000
 4054.00    0.99383   0.97326   -1.000
 4055.00    0.98132   0.96468   -1.000
 4056.00    0.98229   0.95747   -1.000
 4057.00    0.98190   0.95314   -1.000
 4058.00    0.98879   0.95859   -1.000
 4059.00    1.01494   0.97473   -1.000
 4060.00    1.02624   0.98710   -1.000
 4061.00    1.02676   0.97565   -1.000
 4062.00    0.98501   0.94145   -1.000
 4063.00    0.92772   0.90453   -1.000
 4064.00    0.92278   0.88613   -1.000
 4065.00    0.95180   0.89122   -1.000
 4066.00    0.96571   0.91019   -1.000
 4067.00    0.97500   0.93357   -1.000
 4068.00    1.00631   0.95526   -1.000
 4069.00    1.03978   0.96367   -1.000
 4070.00    1.01717   0.95035   -1.000
 4071.00    0.98109   0.92760   -1.000
 4072.00    0.98115   0.91808   -1.000
 4073.00    0.99287   0.92855   -1.000
 4074.00    0.99548   0.93875   -1.000
 4075.00    0.96671   0.92699   -1.000
 4076.00    0.89625   0.89804  394.958
 4077.00    0.86067   0.87485   -1.000
 4078.00    0.87273   0.87856   -1.000
 4079.00    0.92089   0.91141  372.920
 4080.00    0.98867   0.95614   -1.000
 4081.00    1.02241   0.98654   -1.000
 4082.00    1.01717   0.98976   -1.000
 4083.00    0.99552   0.97409   -1.000
 4084.00    0.97744   0.95889   -1.000
 4085.00    0.97236   0.96016   -1.000
 4086.00    1.00740   0.97936   -1.000
 4087.00    1.04026   1.00704   -1.000
 4088.00    1.07260   1.02845   -1.000
 4089.00    1.08104   1.03386   -1.000
 4090.00    1.07045   1.02420   -1.000
 4091.00    1.04869   1.00980   -1.000
 4092.00    1.03520   0.99875   -1.000
 4093.00    1.03610   0.98791   -1.000
 4094.00    1.02145   0.97049   -1.000
 4095.00    0.98374   0.94314   -1.000
 4096.00    0.95161   0.91111   -1.000
 4097.00    0.93519   0.88014   -1.000
 4098.00    0.91644   0.84532   -1.000
 4099.00    0.88168   0.79722   -1.000
 4100.00    0.81823   0.73712   -1.000
 4101.00    0.74485   0.68850   -1.000
 4102.00    0.73719   0.68015   -1.000
 4103.00    0.79039   0.71968   -1.000
 4104.00    0.86172   0.78892   -1.000
 4105.00    0.93020   0.85610   -1.000
 4106.00    0.96678   0.90225   -1.000
 4107.00    0.97930   0.92849   -1.000
 4108.00    0.97519   0.93979   -1.000
 4109.00    0.96239   0.94233   -1.000
 4110.00    0.96515   0.94527   -1.000
 4111.00    0.96177   0.95365  362.554
 4112.00    0.97549   0.96747  354.690
 4113.00    0.99579   0.98507   -1.000
 4114.00    1.01031   1.00450  342.931
 4115.00    1.03613   1.01939   -1.000
 4116.00    1.04216   1.02287   -1.000
 4117.00    1.01915   1.01392  347.135
 4118.00    0.98661   0.99918   -1.000
 4119.00    0.98142   0.98817  363.634
 4120.00    0.99862   0.98610   -1.000
 4121.00    0.98770   0.99027  356.169
 4122.00    0.97590   0.99538   -1.000
 4123.00    0.99619   1.00179  352.745
 4124.00    1.01709   1.01137  346.712
 4125.00    1.03669   1.01914   -1.000
 4126.00    1.03046   1.01678   -1.000
 4127.00    1.01597   1.00515   -1.000
 4128.00    1.00176   0.99323  359.769
 4129.00    1.00023   0.98598   -1.000
 4130.00    1.00481   0.97702   -1.000
 4131.00    0.98207   0.96018   -1.000
 4132.00    0.95327   0.94290   -1.000
 4133.00    0.93608   0.93992  391.074
 4134.00    0.95173   0.95847  379.679
 4135.00    0.98876   0.99105  361.091
 4136.00    1.03336   1.02479  348.552
 4137.00    1.05321   1.05028  342.301
 4138.00    1.06459   1.06663  336.952
 4139.00    1.06155   1.07361   -1.000
 4140.00    1.05012   1.06373   -1.000
 4141.00    1.02501   1.03169  357.894
 4142.00    0.97114   0.98744   -1.000
 4143.00    0.92123   0.95193   -1.000
 4144.00    0.92109   0.94695   -1.000
 4145.00    0.97651   0.97344  375.001
 4146.00    1.01509   1.00712  359.979
 4147.00    1.03845   1.02624   -1.000
 4148.00    1.03128   1.02762  360.764
 4149.00    1.00313   1.02298   -1.000
 4150.00    0.99935   1.02246   -1.000
 4151.00    1.00599   1.02406   -1.000
 4152.00    0.99748   1.02070   -1.000
 4153.00    0.98891   1.00998   -1.000
 4154.00    0.98766   0.99816   -1.000
 4155.00    0.98872   0.99437  372.756
 4156.00    0.97761   1.00188   -1.000
 4157.00    1.14974   1.01735   -1.000
 4158.00    1.28567   1.03624   -1.000
 4159.00    0.97691   1.05361   -1.000
 4160.00    0.83066   1.06587   -1.000
 4161.00    1.01711   1.07453   -1.000
 4162.00    1.07921   1.08252  343.716
 4163.00    1.06615   1.08859   -1.000
 4164.00    1.06429   1.08871   -1.000
 4165.00    1.04673   1.07964   -1.000
 4166.00    1.03346   1.06402   -1.000
 4167.00    1.02200   1.05078   -1.000
 4168.00    1.01609   1.04654   -1.000
 4169.00    1.03294   1.04501   -1.000
 4170.00    1.03312   1.03079  364.107
 4171.00    0.99820   0.99945  383.852
 4172.00    0.94205   0.96420   -1.000
 4173.00    0.91242   0.94775   -1.000
 4174.00    0.92585   0.95891   -1.000
 4175.00    0.96806   0.98280   -1.000
 4176.00    0.97988   0.99985   -1.000
 4177.00    0.97887   1.00701   -1.000
 4178.00    0.96903   1.01453   -1.000
 4179.00    0.99018   1.02662   -1.000
 4180.00    1.00629   1.03481   -1.000
 4181.00    0.99567   1.03320   -1.000
 4182.00    1.00024   1.02894   -1.000
 4183.00    1.00738   1.03289   -1.000
 4184.00    1.01478   1.04318   -1.000
 4185.00    1.02334   1.04582   -1.000
 4186.00    1.02051   1.03485   -1.000
 4187.00    1.00668   1.02028   -1.000
 4188.00    0.99765   1.01590   -1.000
 4189.00    1.00659   1.02389   -1.000
 4190.00    1.02436   1.03587   -1.000
 4191.00    1.02938   1.04840   -1.000
 4192.00    1.03558   1.06234   -1.000
 4193.00    1.06451   1.07155  347.425
 4194.00    1.05957   1.06596  355.917
 4195.00    1.01681   1.04351   -1.000
 4196.00    0.98185   1.01260   -1.000
 4197.00    0.96727   0.98534   -1.000
 4198.00    0.96009   0.96738  396.188
 4199.00    0.96662   0.95864   -1.000
 4200.00    0.97477   0.95867   -1.000
 4201.00    0.97278   0.96501  384.610
 4202.00    0.98412   0.97541  382.315
 4203.00    1.00006   0.99163  376.642
 4204.00    1.00260   1.01391   -1.000
 4205.00    1.01358   1.03849   -1.000
 4206.00    1.03581   1.06163   -1.000
 4207.00    1.05821   1.07924   -1.000
 4208.00    1.06357   1.08725   -1.000
 4209.00    1.05135   1.08666   -1.000
 4210.00    1.04901   1.08487   -1.000
 4211.00    1.05455   1.08831   -1.000
 4212.00    1.05505   1.09181   -1.000
 4213.00    1.05246   1.08275   -1.000
 4214.00    1.01965   1.05878   -1.000
 4215.00    0.98035   1.03417   -1.000
 4216.00    0.98410   1.02662   -1.000
 4217.00    1.02389   1.04313   -1.000
 4218.00    1.06061   1.07426   -1.000
 4219.00    1.09334   1.10158   -1.000
 4220.00    1.10337   1.11398   -1.000
 4221.00    1.10792   1.10759  324.133
 4222.00    1.09793   1.07887   -1.000
 4223.00    1.04915   1.02651   -1.000
 4224.00    0.98181   0.95798   -1.000
 4225.00    0.89686   0.89062   -1.000
 4226.00    0.82614   0.85124   -1.000
 4227.00    0.83183   0.86269   -1.000
 4228.00    0.92398   0.92366  401.986
 4229.00    1.02267   0.99772   -1.000
 4230.00    1.06808   1.04811   -1.000
 4231.00    1.07136   1.06398  334.510
 4232.00    1.06139   1.05492  341.029
 4233.00    1.04413   1.03789  349.962
 4234.00    1.03388   1.02394   -1.000
 4235.00    1.02504   1.01557   -1.000
 4236.00    1.01104   1.01255  368.681
 4237.00    1.01141   1.01636  366.950
 4238.00    1.02097   1.02882  358.880
 4239.00    1.03117   1.04669   -1.000
 4240.00    1.05451   1.06466   -1.000
 4241.00    1.07501   1.07941  341.880
 4242.00    1.08505   1.09212  340.072
 4243.00    1.09226   1.10551   -1.000
 4244.00    1.10782   1.11668  327.708
 4245.00    1.11713   1.11583  330.006
 4246.00    1.08288   1.09607   -1.000
 4247.00    1.03180   1.06400   -1.000
 4248.00    1.00882   1.03573   -1.000
 4249.00    1.00085   1.02183   -1.000
 4250.00    1.00178   1.02445   -1.000
 4251.00    1.02371   1.03741   -1.000
 4252.00    1.05600   1.04938  351.192
 4253.00    1.06113   1.04866   -1.000
 4254.00    1.04002   1.03940  360.856
 4255.00    1.04264   1.04131  357.791
 4256.00    1.07349   1.05783   -1.000
 4257.00    1.09601   1.06888   -1.000
 4258.00    1.08001   1.05592   -1.000
 4259.00    1.02343   1.02487  371.067
 4260.00    0.99627   1.00481  382.095
 4261.00    1.00892   1.01719  370.230
 4262.00    1.04830   1.05831   -1.000
 4263.00    1.09651   1.10450  330.716
 4264.00    1.12245   1.13545   -1.000
 4265.00    1.13704   1.14517  320.710
 4266.00    1.11992   1.13808   -1.000
 4267.00    1.10225   1.11954   -1.000
 4268.00    1.08257   1.09003  346.032
 4269.00    1.05601   1.04916   -1.000
 4270.00    1.00983   1.00306   -1.000
 4271.00    0.95295   0.96300   -1.000
 4272.00    0.92820   0.94243   -1.000
 4273.00    0.94155   0.94602  404.284
 4274.00    0.95820   0.96693  394.142
 4275.00    0.98199   1.00074   -1.000
 4276.00    1.04082   1.04583  353.361
 4277.00    1.09336   1.08741  336.188
 4278.00    1.09788   1.10685  334.349
 4279.00    1.08002   1.10019   -1.000
 4280.00    1.03388   1.08279   -1.000
 4281.00    1.02878   1.07236   -1.000
 4282.00    1.05058   1.07291   -1.000
 4283.00    1.05870   1.07424   -1.000
 4284.00    1.04631   1.06766   -1.000
 4285.00    1.02314   1.05530   -1.000
 4286.00    0.99081   1.03989   -1.000
 4287.00    0.97395   1.02047   -1.000
 4288.00    0.95791   0.99369   -1.000
 4289.00    0.93100   0.96427   -1.000
 4290.00    0.90803   0.95098   -1.000
 4291.00    0.94257   0.96655   -1.000
 4292.00    0.98510   0.99810   -1.000
 4293.00    1.02065   1.02188  366.833
 4294.00    1.02985   1.02506  369.234
 4295.00    1.02390   1.01194   -1.000
 4296.00    0.98398   0.98921  383.495
 4297.00    0.93660   0.95624   -1.000
 4298.00    0.90142   0.91230   -1.000
 4299.00    0.84553   0.86975   -1.000
 4300.00    0.81619   0.84380   -1.000
 4301.00    0.82542   0.83874   -1.000
 4302.00    0.82384   0.84758   -1.000
 4303.00    0.84375   0.86255   -1.000
 4304.00    0.86308   0.87765   -1.000
 4305.00    0.86509   0.88250   -1.000
 4306.00    0.86148   0.86899  460.149
 4307.00    0.82276   0.84356   -1.000
 4308.00    0.80163   0.82451   -1.000
 4309.00    0.80248   0.82868   -1.000
 4310.00    0.81796   0.85714   -1.000
 4311.00    0.85044   0.89579   -1.000
 4312.00    0.88896   0.93515   -1.000
 4313.00    0.92785   0.97910   -1.000
 4314.00    0.97618   1.03420   -1.000
 4315.00    1.05765   1.10144   -1.000
 4316.00    1.13036   1.16667   -1.000
 4317.00    1.18877   1.21142   -1.000
 4318.00    1.22091   1.22672  302.034
 4319.00    1.20389   1.21844   -1.000
 4320.00    1.17651   1.19729   -1.000
 4321.00    1.14840   1.16421   -1.000
 4322.00    1.10321   1.11421  338.912
 4323.00    1.03797   1.05010   -1.000
 4324.00    0.97267   0.98995   -1.000
 4325.00    0.93897   0.96235   -1.000
 4326.00    0.97871   0.98529  391.181
 4327.00    1.04668   1.04973  350.832
 4328.00    1.13627   1.11705   -1.000
 4329.00    1.16491   1.15742  316.446
 4330.00    1.15425   1.16974   -1.000
 4331.00    1.14586   1.17088   -1.000
 4332.00    1.14950   1.17523   -1.000
 4333.00    1.15785   1.18026   -1.000
 4334.00    1.16493   1.17500  306.231
 4335.00    1.15887   1.14701   -1.000
 4336.00    1.09686   1.08699   -1.000
 4337.00    1.02911   0.99777   -1.000
 4338.00    0.93869   0.90295   -1.000
 4339.00    0.85381   0.83200   -1.000
 4340.00    0.81191   0.80777  440.630
 4341.00    0.86226   0.83902   -1.000
 4342.00    0.95789   0.91067   -1.000
 4343.00    1.02914   0.98805   -1.000
 4344.00    1.07764   1.04874   -1.000
 4345.00    1.11237   1.09361   -1.000
 4346.00    1.13856   1.13011  320.694
 4347.00    1.15682   1.16135  317.143
 4348.00    1.16523   1.18194   -1.000
 4349.00    1.17050   1.17938  312.358
 4350.00    1.12632   1.14742   -1.000
 4351.00    1.05498   1.10258   -1.000
 4352.00    1.02695   1.07763   -1.000
 4353.00    1.06694   1.08875   -1.000
 4354.00    1.12265   1.12506  330.836
 4355.00    1.14199   1.16246   -1.000
 4356.00    1.17212   1.18592   -1.000
 4357.00    1.19585   1.19454  312.724
 4358.00    1.17117   1.19380   -1.000
 4359.00    1.14445   1.19333   -1.000
 4360.00    1.16317   1.20266   -1.000
 4361.00    1.19772   1.22180   -1.000
 4362.00    1.21529   1.24096   -1.000
 4363.00    1.22652   1.25518   -1.000
 4364.00    1.23740   1.26498   -1.000
 4365.00    1.23691   1.26452   -1.000
 4366.00    1.21416   1.24726   -1.000
 4367.00    1.17648   1.22104   -1.000
 4368.00    1.15651   1.19949   -1.000
 4369.00    1.16448   1.18793   -1.000
 4370.00    1.16476   1.18230   -1.000
 4371.00    1.16650   1.17453  318.076
 4372.00    1.16141   1.15798  320.935
 4373.00    1.13075   1.13174  333.147
 4374.00    1.08528   1.10629   -1.000
 4375.00    1.07074   1.09952   -1.000
 4376.00    1.10840   1.12073   -1.000
 4377.00    1.16841   1.15624   -1.000
 4378.00    1.20850   1.18407   -1.000
 4379.00    1.20444   1.19030   -1.000
 4380.00    1.19445   1.16889   -1.000
 4381.00    1.17174   1.11720   -1.000
 4382.00    1.09627   1.04295   -1.000
 4383.00    1.00602   0.97300   -1.000
 4384.00    0.97153   0.94703   -1.000
 4385.00    1.01390   0.97989   -1.000
 4386.00    1.09069   1.04108   -1.000
 4387.00    1.14371   1.09073   -1.000
 4388.00    1.15268   1.11304   -1.000
 4389.00    1.13454   1.11818   -1.000
 4390.00    1.12513   1.12181  336.974
 4391.00    1.14092   1.13185   -1.000
 4392.00    1.17043   1.14577   -1.000
 4393.00    1.17890   1.15288   -1.000
 4394.00    1.14441   1.15283  331.817
 4395.00    1.14145   1.15987   -1.000
 4396.00    1.18735   1.18140  317.445
 4397.00    1.21732   1.20371   -1.000
 4398.00    1.21028   1.20621  310.669
 4399.00    1.17646   1.18903   -1.000
 4400.00    1.14805   1.17036   -1.000
 4401.00    1.16039   1.16178  328.925
 4402.00    1.18383   1.15514   -1.000
 4403.00    1.17835   1.13470   -1.000
 4404.00    1.12670   1.10411   -1.000
 4405.00    1.09601   1.08646   -1.000
 4406.00    1.12668   1.09332   -1.000
 4407.00    1.13269   1.11557   -1.000
 4408.00    1.13452   1.14195  336.717
 4409.00    1.16238   1.17516   -1.000
 4410.00    1.20757   1.21727  310.838
 4411.00    1.24600   1.25263  300.017
 4412.00    1.25869   1.26170  295.862
 4413.00    1.24651   1.23936  302.807
 4414.00    1.21288   1.19600   -1.000
 4415.00    1.16123   1.15649  331.895
 4416.00    1.14487   1.14716  331.279
 4417.00    1.16437   1.17442  320.456
 4418.00    1.20660   1.22061   -1.000
 4419.00    1.24024   1.26231   -1.000
 4420.00    1.24541   1.27975   -1.000
 4421.00    1.22253   1.26995   -1.000
 4422.00    1.19276   1.24980   -1.000
 4423.00    1.19519   1.23707   -1.000
 4424.00    1.20071   1.23584   -1.000
 4425.00    1.20018   1.23735   -1.000
 4426.00    1.19023   1.23607   -1.000
 4427.00    1.18640   1.23682   -1.000
 4428.00    1.18806   1.24099   -1.000
 4429.00    1.17901   1.24500   -1.000
 4430.00    1.17628   1.24770   -1.000
 4431.00    1.18259   1.24866   -1.000
 4432.00    1.18998   1.24399   -1.000
 4433.00    1.17580   1.22693   -1.000
 4434.00    1.14473   1.20049   -1.000
 4435.00    1.13089   1.18620   -1.000
 4436.00    1.17231   1.20374   -1.000
 4437.00    1.24312   1.24750  304.594
 4438.00    1.28413   1.29159  291.166
 4439.00    1.29010   1.31086   -1.000
 4440.00    1.27085   1.29681   -1.000
 4441.00    1.23320   1.25958   -1.000
 4442.00    1.19321   1.22475   -1.000
 4443.00    1.15274   1.21626   -1.000
 4444.00    1.17553   1.24050   -1.000
 4445.00    1.23217   1.28109   -1.000
 4446.00    1.26860   1.31355   -1.000
 4447.00    1.28084   1.32709   -1.000
 4448.00    1.28613   1.32759   -1.000
 4449.00    1.28273   1.32403   -1.000
 4450.00    1.26234   1.31880   -1.000
 4451.00    1.25614   1.31016   -1.000
 4452.00    1.26444   1.29284   -1.000
 4453.00    1.24936   1.25980   -1.000
 4454.00    1.21533   1.21750  326.988
 4455.00    1.18181   1.18534  334.630
 4456.00    1.19159   1.17703   -1.000
 4457.00    1.21669   1.18704   -1.000
 4458.00    1.22439   1.19922   -1.000
 4459.00    1.21450   1.20511  325.361
 4460.00    1.20223   1.20783  328.628
 4461.00    1.20377   1.21426   -1.000
 4462.00    1.20833   1.22940   -1.000
 4463.00    1.24411   1.25299  313.613
 4464.00    1.28392   1.27630  305.700
 4465.00    1.28614   1.28970  304.632
 4466.00    1.27007   1.28979   -1.000
 4467.00    1.26763   1.27967   -1.000
 4468.00    1.24983   1.26670   -1.000
 4469.00    1.23330   1.26089   -1.000
 4470.00    1.23936   1.27064   -1.000
 4471.00    1.26876   1.29641   -1.000
 4472.00    1.30633   1.33002   -1.000
 4473.00    1.34074   1.35982   -1.000
 4474.00    1.36592   1.37830   -1.000
 4475.00    1.37454   1.38674   -1.000
 4476.00    1.37881   1.39104   -1.000
 4477.00    1.38335   1.39185  277.733
 4478.00    1.38438   1.38050  279.840
 4479.00    1.35408   1.34980  289.488
 4480.00    1.30831   1.30701  302.527
 4481.00    1.27042   1.27577  311.645
 4482.00    1.25924   1.27578   -1.000
 4483.00    1.29545   1.30573   -1.000
 4484.00    1.34703   1.35002  285.607
 4485.00    1.37850   1.38754  279.048
 4486.00    1.39019   1.40152   -1.000
 4487.00    1.37552   1.38816   -1.000
 4488.00    1.33774   1.35926   -1.000
 4489.00    1.29579   1.33327   -1.000
 4490.00    1.29486   1.32555   -1.000
 4491.00    1.33084   1.33691  292.607
 4492.00    1.35547   1.35261  287.596
 4493.00    1.35467   1.35603  291.038
 4494.00    1.31328   1.34452   -1.000
 4495.00    1.29939   1.33419   -1.000
 4496.00    1.30500   1.33885   -1.000
 4497.00    1.32215   1.35588   -1.000
 4498.00    1.35009   1.37403   -1.000
 4499.00    1.37058   1.38431   -1.000
 4500.00    1.36524   1.38557   -1.000
 4501.00    1.34459   1.38773   -1.000
 4502.00    1.35042   1.40342   -1.000
 4503.00    1.39865   1.43191   31.473
 4504.00    1.45348   1.46044   26.546
 4505.00    1.45410   1.47600   26.664
 4506.00    1.43517   1.47455   27.181
 4507.00    1.43107   1.46273   27.481
 4508.00    1.41778   1.45262   27.525
 4509.00    1.43026   1.45114   27.335
 4510.00    1.44290   1.45448   27.140
 4511.00    1.43503   1.45332   27.329
 4512.00    1.41441   1.44239   27.845
 4513.00    1.39831   1.42553   28.351
 4514.00    1.38063   1.41035   28.561
 4515.00    1.37702   1.40199   28.449
 4516.00    1.37834   1.40066   28.413
 4517.00    1.37592   1.40078   28.725
 4518.00    1.36160   1.39897   28.915
 4519.00    1.36507   1.39991   28.489
 4520.00    1.39673   1.40646   27.927
 4521.00    1.40887   1.41235   27.946
 4522.00    1.37826   1.40897   28.556
 4523.00    1.35491   1.39490   29.152
 4524.00    1.34489   1.37592   29.436
 4525.00    1.32560   1.35491   29.903
 4526.00    1.29922   1.32878   30.781
 4527.00    1.27485   1.29768   31.664
 4528.00    1.26595   1.27060   32.097
 4529.00    1.26508   1.25978   31.922
 4530.00    1.28316   1.26821   31.388
 4531.00    1.30652   1.28584   30.814
 4532.00    1.31745   1.29572   30.620
 4533.00    1.28791   1.28908   31.377
 4534.00    1.24910   1.27605   32.437
 4535.00    1.24406   1.27711   32.173
 4536.00    1.29801   1.30544   30.465
 4537.00    1.37423   1.35392   28.660
 4538.00    1.41519   1.39948   27.793
 4539.00    1.41232   1.42136   27.961
 4540.00    1.40753   1.41854   28.605
 4541.00    1.39722   1.40723   28.656
 4542.00    1.39375   1.40238   28.458
 4543.00    1.40311   1.40401   28.340
 4544.00    1.37732   1.40264   38.866
 4545.00    1.42449   1.39476   14.384
 4546.00    0.75629   1.38506   -1.000
 4547.00    0.05527   1.37475   -1.000
 4548.00   -0.05809   1.36021    0.000
 4549.00    0.65995   1.34481   -1.000
 4550.00    0.74138   1.34083   -1.000
 4551.00    0.58539   1.35269   -1.000
 4552.00    1.29639   1.36641   29.683
 4553.00    1.33644   1.36708   30.117
 4554.00    1.29888   1.35758   30.419
 4555.00    1.30909   1.35322   30.038
 4556.00    1.36050   1.36749   29.001
 4557.00    1.40666   1.39982   27.837
 4558.00    1.43346   1.43517   27.279
 4559.00    1.44666   1.46079   27.367
 4560.00    1.45991   1.47511   27.374
 4561.00    1.45601   1.47876   27.380
 4562.00    1.41584   1.46963   27.950
 4563.00    1.38680   1.44823   28.650
 4564.00    1.37263   1.42398   29.166
 4565.00    1.37676   1.41160   28.932
 4566.00    1.40220   1.41971   28.234
 4567.00    1.43441   1.44355   27.486
 4568.00    1.46127   1.46669   27.161
 4569.00    1.46108   1.47381   27.400
 4570.00    1.41705   1.46146   28.059
 4571.00    1.36781   1.43961   28.800
 4572.00    1.36725   1.42648   28.697
 4573.00    1.40272   1.43419   27.891
 4574.00    1.43543   1.45493   27.439
 4575.00    1.44976   1.47112   27.413
 4576.00    1.45635   1.47540   27.531
 4577.00    1.44581   1.46973   27.688
 4578.00    1.42557   1.45450   28.128
 4579.00    1.39300   1.42942   28.936
 4580.00    1.36091   1.40155   29.569
 4581.00    1.37128   1.38160   29.562
 4582.00    1.37778   1.37459   29.175
 4583.00    1.38451   1.37755   28.935
 4584.00    1.38213   1.38419   28.989
 4585.00    1.38630   1.39055   29.164
 4586.00    1.40083   1.39929   28.826
 4587.00    1.42534   1.41481   28.102
 4588.00    1.45379   1.43552   27.486
 4589.00    1.46369   1.45260   27.385
 4590.00    1.44958   1.45679   27.741
 4591.00    1.43277   1.44686   28.252
 4592.00    1.40878   1.43069   28.752
 4593.00    1.40141   1.41963   28.833
 4594.00    1.39197   1.41871   28.614
 4595.00    1.40799   1.42418   28.385
 4596.00    1.42611   1.43168   28.293
 4597.00    1.43695   1.43973   28.232
 4598.00    1.45606   1.44573   28.169
 4599.00    1.44979   1.44571   28.383
 4600.00    1.43433   1.43962   28.641
 4601.00    1.41718   1.43259   28.741
 4602.00    1.40944   1.43012   28.477
 4603.00    1.40642   1.43261   28.156
 4604.00    1.43118   1.43732   28.162
 4605.00    1.44809   1.44383   28.128
 4606.00    1.45396   1.45442   27.850
 4607.00    1.46352   1.47086   27.323
 4608.00    1.48675   1.49196   26.740
 4609.00    1.50775   1.51198   26.396
 4610.00    1.51301   1.52132   26.467
 4611.00    1.50435   1.51617   26.809
 4612.00    1.47799   1.50441   27.117
 4613.00    1.47180   1.49557   27.306
 4614.00    1.49459   1.49373   27.205
 4615.00    1.50058   1.49676   26.972
 4616.00    1.49622   1.49895   26.848
 4617.00    1.49012   1.49702   26.997
 4618.00    1.48512   1.49269   27.198
 4619.00    1.48983   1.49083   27.198
 4620.00    1.49078   1.49590   26.962
 4621.00    1.50697   1.50783   26.549
 4622.00    1.52565   1.52013   26.493
 4623.00    1.50776   1.52550   26.555
 4624.00    1.50168   1.52365   26.609
 4625.00    1.51481   1.51868   26.833
 4626.00    1.49563   1.51285   26.921
 4627.00    1.49599   1.50806   26.914
 4628.00    1.49317   1.50515   27.067
 4629.00    1.47675   1.50415   27.140
 4630.00    1.49543   1.50622   27.024
 4631.00    1.50876   1.51189   26.729
 4632.00    1.50032   1.51619   26.799
 4633.00    1.48556   1.51213   27.165
 4634.00    1.47468   1.50103   27.478
 4635.00    1.48016   1.49039   27.489
 4636.00    1.48195   1.48306   27.682
 4637.00    1.46710   1.47651   28.037
 4638.00    1.45834   1.47048   28.182
 4639.00    1.45581   1.46852   28.157
 4640.00    1.46606   1.47481   27.726
 4641.00    1.49527   1.48922   27.064
 4642.00    1.52305   1.50464   26.659
 4643.00    1.52798   1.51011   26.716
 4644.00    1.50881   1.49961   27.175
 4645.00    1.47812   1.47645   27.917
 4646.00    1.43919   1.44795   28.696
 4647.00    1.42003   1.42578   28.895
 4648.00    1.43455   1.42269   28.447
 4649.00    1.47475   1.44033   27.793
 4650.00    1.49596   1.46769   27.381
 4651.00    1.50146   1.49041   27.298
 4652.00    1.49304   1.50077   27.245
 4653.00    1.48135   1.49897   27.527
 4654.00    1.47162   1.48812   28.136
 4655.00    1.44517   1.47539   28.500
 4656.00    1.44378   1.47225   28.317
 4657.00    1.46674   1.48763   27.482
 4658.00    1.52790   1.52033   26.440
 4659.00    1.55941   1.55696   25.798
 4660.00    1.56544   1.57914   25.713
 4661.00    1.54686   1.57814   25.998
 4662.00    1.51474   1.55953   26.606
 4663.00    1.50147   1.53388   27.149
 4664.00    1.50576   1.50683   27.264
 4665.00    1.50167   1.47677   27.665
 4666.00    1.45550   1.44077   28.777
 4667.00    1.39707   1.40605   29.990
 4668.00    1.37052   1.38937   30.160
 4669.00    1.41157   1.40093   29.328
 4670.00    1.46707   1.43374   28.125
 4671.00    1.49577   1.47046   27.315
 4672.00    1.51187   1.49665   27.091
 4673.00    1.51375   1.50944   27.097
 4674.00    1.51360   1.51643   27.075
 4675.00    1.52277   1.52579   26.758
 4676.00    1.54589   1.53547   26.357
 4677.00    1.56325   1.53476   26.429
 4678.00    1.53597   1.51865   26.960
 4679.00    1.50140   1.49440   27.504
 4680.00    1.48710   1.47393   27.969
 4681.00    1.47225   1.46409   28.260
 4682.00    1.46808   1.46541   27.976
 4683.00    1.48771   1.47580   27.302
 4684.00    1.52609   1.48972   26.904
 4685.00    1.53775   1.50022   26.948
 4686.00    1.52180   1.50476   26.972
 4687.00    1.51188   1.50553   27.110
 4688.00    1.51799   1.50522   27.130
 4689.00    1.52525   1.50499   27.131
 4690.00    1.51705   1.50465   27.305
 4691.00    1.50117   1.50383   27.380
 4692.00    1.50326   1.50552   27.096
 4693.00    1.53438   1.51329   26.697
 4694.00    1.55087   1.52487   26.122
 4695.00    1.56957   1.53428   25.759
 4696.00    1.56855   1.53681   25.837
 4697.00    1.56521   1.52833   26.517
 4698.00    1.52771   1.50890   27.322
 4699.00    1.50109   1.48624   27.699
 4700.00    1.51630   1.46766   27.533
 4701.00    1.51641   1.45379   27.686
 4702.00    1.49357   1.44287   28.150
 4703.00    1.47538   1.43873   28.340
 4704.00    1.48702   1.44668   27.874
 4705.00    1.51436   1.46191   27.444
 4706.00    1.51526   1.47060   27.738
 4707.00    1.48815   1.46541   28.285
 4708.00    1.46400   1.45480   28.593
 4709.00    1.44813   1.45342   28.489
 4710.00    1.48645   1.46598   27.721
 4711.00    1.53664   1.48555   26.948
 4712.00    1.55917   1.50187   26.629
 4713.00    1.55463   1.50691   26.829
 4714.00    1.52792   1.50288   27.314
 4715.00    1.51087   1.50235   27.376
 4716.00    1.52510   1.51456   26.888
 4717.00    1.55474   1.53683   26.364
 4718.00    1.57337   1.55863   26.163
 4719.00    1.58243   1.57249   26.065
 4720.00    1.58130   1.57785   25.976
 4721.00    1.57381   1.57758   26.162
 4722.00    1.55910   1.57571   26.356
 4723.00    1.55940   1.57611   26.239
 4724.00    1.57216   1.57873   25.966
 4725.00    1.57232   1.57706   25.968
 4726.00    1.55362   1.56287   26.535
 4727.00    1.51138   1.53448   27.511
 4728.00    1.48240   1.50197   28.182
 4729.00    1.48474   1.48038   28.159
 4730.00    1.50695   1.47547   27.885
 4731.00    1.51960   1.48284   27.656
 4732.00    1.51721   1.49702   27.336
 4733.00    1.52991   1.51291   27.087
 4734.00    1.54680   1.52419   26.925
 4735.00    1.55395   1.52783   26.775
 4736.00    1.54605   1.52687   27.014
 4737.00    1.53898   1.52693   27.082
 4738.00    1.55551   1.53204   26.771
 4739.00    1.56372   1.54120   26.739
 4740.00    1.55151   1.54863   26.882
 4741.00    1.55249   1.55153   26.932
 4742.00    1.56582   1.55397   26.743
 4743.00    1.56595   1.55897   26.457
 4744.00    1.57863   1.56486   26.471
 4745.00    1.58049   1.56997   26.501
 4746.00    1.58393   1.57488   26.327
 4747.00    1.58972   1.58179   26.066
 4748.00    1.58513   1.59103   25.987
 4749.00    1.58651   1.60000   26.018
 4750.00    1.59341   1.60623   26.038
 4751.00    1.60033   1.60650   26.208
 4752.00    1.58746   1.59784   26.496
 4753.00    1.57544   1.58189   26.728
 4754.00    1.56194   1.56504   26.915
 4755.00    1.55016   1.55493   26.894
 4756.00    1.54100   1.55461   26.980
 4757.00    1.54224   1.56178   27.171
 4758.00    1.54609   1.57228   27.222
 4759.00    1.55481   1.58214   27.023
 4760.00    1.55829   1.58545   26.951
 4761.00    1.53732   1.57568   27.320
 4762.00    1.51058   1.55190   27.980
 4763.00    1.48703   1.52242   28.383
 4764.00    1.48786   1.49965   28.460
 4765.00    1.48994   1.48907   28.410
 4766.00    1.51383   1.48982   28.226
 4767.00    1.52952   1.50226   27.856
 4768.00    1.53816   1.52675   27.248
 4769.00    1.55606   1.55564   26.840
 4770.00    1.56995   1.57521   26.838
 4771.00    1.55057   1.57968   27.048
 4772.00    1.53638   1.57684   27.289
 4773.00    1.55778   1.57900   27.038
 4774.00    1.58634   1.59156   26.483
 4775.00    1.59659   1.60802   26.255
 4776.00    1.59382   1.61935   26.255
 4777.00    1.58996   1.62286   26.328
 4778.00    1.57666   1.61974   26.489
 4779.00    1.55848   1.61207   26.775
 4780.00    1.55317   1.60284   26.951
 4781.00    1.55117   1.59412   27.028
 4782.00    1.55269   1.58460   27.152
 4783.00    1.55383   1.57389   27.362
 4784.00    1.54625   1.56494   27.379
 4785.00    1.54185   1.55882   27.457
 4786.00    1.52395   1.55422   27.711
 4787.00    1.50758   1.55143   27.886
 4788.00    1.51498   1.55228   27.880
 4789.00    1.52352   1.55740   27.753
 4790.00    1.53748   1.56721   27.585
 4791.00    1.55828   1.58254   27.311
 4792.00    1.57380   1.60340   26.880
 4793.00    1.59022   1.62838   26.297
 4794.00    1.62235   1.65341   25.828
 4795.00    1.64489   1.67188   25.693
 4796.00    1.63277   1.67621   25.913
 4797.00    1.60642   1.66422   26.409
 4798.00    1.57471   1.64227   26.911
 4799.00    1.55957   1.62139   27.253
 4800.00    1.56492   1.61228   27.080
 4801.00    1.58774   1.61967   26.562
 4802.00    1.60941   1.63727   26.160
 4803.00    1.61172   1.65119   26.150
 4804.00    1.59633   1.65161   26.466
 4805.00    1.57490   1.64038   26.810
 4806.00    1.56632   1.62700   27.066
 4807.00    1.56594   1.61789   27.089
 4808.00    1.58009   1.61469   27.026
 4809.00    1.59927   1.61873   26.910
 4810.00    1.60348   1.62832   26.680
 4811.00    1.60387   1.63757   26.482
 4812.00    1.59354   1.64337   26.340
 4813.00    1.59423   1.64768   26.301
 4814.00    1.60771   1.65342   26.243
 4815.00    1.61147   1.66247   26.152
 4816.00    1.61622   1.67423   25.995
 4817.00    1.63378   1.68536   25.833
 4818.00    1.64534   1.69254   25.721
 4819.00    1.64017   1.69545   25.701
 4820.00    1.63412   1.69422   25.701
 4821.00    1.62738   1.68450   25.900
 4822.00    1.60266   1.66185   26.532
 4823.00    1.57329   1.63111   27.067
 4824.00    1.56146   1.60754   27.084
 4825.00    1.59382   1.60549   26.652
 4826.00    1.61288   1.62194   26.229
 4827.00    1.60885   1.63951   26.275
 4828.00    1.59580   1.64562   26.566
 4829.00    1.60063   1.64172   26.752
 4830.00    1.59665   1.63474   26.765
 4831.00    1.58265   1.62579   26.980
 4832.00    1.57517   1.61594   27.054
 4833.00    1.59991   1.61217   26.676
 4834.00    1.62396   1.61869   26.309
 4835.00    1.61673   1.63125   26.181
 4836.00    1.61768   1.64155   26.209
 4837.00    1.62239   1.64374   26.325
 4838.00    1.61101   1.63669   26.658
 4839.00    1.58334   1.62261   27.124
 4840.00    1.57586   1.60716   27.200
 4841.00    1.59171   1.59703   27.148
 4842.00    1.58645   1.59499   27.021
 4843.00    1.58696   1.59891   26.826
 4844.00    1.60119   1.60696   26.566
 4845.00    1.62389   1.61976   26.166
 4846.00    1.64023   1.63236   25.995
 4847.00    1.62962   1.63419   26.442
 4848.00    1.60880   1.62435   26.861
 4849.00    1.57776   1.61466   26.909
 4850.00    1.58338   1.61437   26.574
 4851.00    1.59379   1.61932   26.470
 4852.00    1.59554   1.61800   26.596
 4853.00    1.58604   1.60226   26.815
 4854.00    1.54606   1.57065   27.545
 4855.00    1.50330   1.53119   28.339
 4856.00    1.51219   1.49756   28.387
 4857.00    1.52008   1.47444   28.119
 4858.00    1.49438   1.44484   28.749
 4859.00    1.39815   1.38184   31.010
 4860.00    1.24386   1.28590   34.559
 4861.00    1.14912   1.19779   36.572
 4862.00    1.18420   1.16828   34.815
 4863.00    1.30970   1.21267   -1.000
 4864.00    1.40821   1.29914   -1.000
 4865.00    1.46441   1.38704   28.661
 4866.00    1.50875   1.45660   28.006
 4867.00    1.53441   1.50516   27.709
 4868.00    1.54256   1.53440   27.575
 4869.00    1.53528   1.54262   27.768
 4870.00    1.51894   1.52746   28.484
 4871.00    1.49383   1.49634   29.203
 4872.00    1.48230   1.47313   29.080
 4873.00    1.51291   1.48079   28.316
 4874.00    1.53421   1.51582   27.779
 4875.00    1.54369   1.55403   27.531
 4876.00    1.54789   1.57720   27.374
 4877.00    1.55328   1.58835   27.275
 4878.00    1.57402   1.60152   26.918
 4879.00    1.59264   1.62154   26.614
 4880.00    1.58979   1.63983   26.781
 4881.00    1.57682   1.64544   27.203
 4882.00    1.56131   1.63786   27.406
 4883.00    1.55559   1.62608   27.345
 4884.00    1.55515   1.61382   27.458
 4885.00    1.55709   1.59871   27.849
 4886.00    1.54756   1.58344   28.038
 4887.00    1.54186   1.57396   27.927
 4888.00    1.56082   1.56945   27.871
 4889.00    1.56397   1.56002   28.223
 4890.00    1.53481   1.54015   28.827
 4891.00    1.51411   1.52332   28.752
 4892.00    1.54626   1.53408   27.719
 4893.00    1.61862   1.58345   26.442
 4894.00    1.68216   1.65379   25.599
 4895.00    1.70943   1.71406   25.084
 4896.00    1.71203   1.74782   24.916
 4897.00    1.70611   1.75737   24.948
 4898.00    1.69548   1.75039   25.424
 4899.00    1.65909   1.73359   26.025
 4900.00    1.63647   1.71482   26.360
 4901.00    1.63691   1.70074   26.286
 4902.00    1.63757   1.69075   26.297
 4903.00    1.63037   1.68116   26.585
 4904.00    1.63886   1.67707   26.384
 4905.00    1.66735   1.68847   25.850
 4906.00    1.70369   1.71055   25.597
 4907.00    1.69172   1.72404   25.775
 4908.00    1.66339   1.71516   26.348
 4909.00    1.62862   1.68610   27.099
 4910.00    1.61189   1.65233   27.508
 4911.00    1.61436   1.63289   27.242
 4912.00    1.63117   1.63782   26.762
 4913.00    1.64838   1.66156   26.377
 4914.00    1.66349   1.69037   26.032
 4915.00    1.69807   1.71255   25.786
 4916.00    1.69960   1.71639   25.859
 4917.00    1.65960   1.68980   26.654
 4918.00    1.59599   1.63057   28.049
 4919.00    1.54077   1.55561   29.426
 4920.00    1.50018   1.49671   29.921
 4921.00    1.50657   1.47937   29.124
 4922.00    1.55772   1.50278   28.072
 4923.00    1.59361   1.54313   27.568
 4924.00    1.59700   1.57810   27.490
 4925.00    1.61233   1.60641   27.188
 4926.00    1.64478   1.63794   26.524
 4927.00    1.68030   1.67507   26.016
 4928.00    1.71302   1.71143   25.741
 4929.00    1.72730   1.73947   25.556
 4930.00    1.73557   1.75427   25.399
 4931.00    1.72618   1.75184   25.591
 4932.00    1.67695   1.72904   26.228
 4933.00    1.62714   1.69216   27.155
 4934.00    1.61014   1.65970   27.360
 4935.00    1.62486   1.64693   26.941
 4936.00    1.64631   1.64741   26.851
 4937.00    1.62919   1.63838   27.529
 4938.00    1.59425   1.61298   28.305
 4939.00    1.58895   1.59362   28.209
 4940.00    1.61094   1.60467   27.340
 4941.00    1.66414   1.64630   26.449
 4942.00    1.70675   1.69638   25.908
 4943.00    1.71526   1.73220   25.638
 4944.00    1.72296   1.74646   25.621
 4945.00    1.72098   1.74453   25.782
 4946.00    1.70698   1.73773   25.858
 4947.00    1.71014   1.73801   25.666
 4948.00    1.73338   1.75012   25.369
 4949.00    1.73966   1.76747   25.259
 4950.00    1.74108   1.77945   25.158
 4951.00    1.75379   1.78135   25.255
 4952.00    1.75146   1.77518   25.424
 4953.00    1.72122   1.76410   25.702
 4954.00    1.70590   1.74715   26.020
 4955.00    1.68358   1.71502   26.661
 4956.00    1.62987   1.65840   27.945
 4957.00    1.55608   1.59155   29.129
 4958.00    1.54672   1.55346   28.800
 4959.00    1.61852   1.57194   27.286
 4960.00    1.69050   1.63279   26.248
 4961.00    1.69896   1.69427   25.945
 4962.00    1.68478   1.72876   26.022
 4963.00    1.68004   1.73639   26.219
 4964.00    1.67167   1.72564   26.516
 4965.00    1.65473   1.70373   27.044
 4966.00    1.64581   1.67987   27.431
 4967.00    1.64304   1.66279   27.489
 4968.00    1.64595   1.65562   27.419
 4969.00    1.64338   1.65820   27.234
 4970.00    1.65515   1.66961   26.955
 4971.00    1.67268   1.68755   26.665
 4972.00    1.68087   1.70841   26.351
 4973.00    1.71074   1.72818   26.092
 4974.00    1.72926   1.74242   25.965
 4975.00    1.71777   1.74782   26.104
 4976.00    1.70752   1.74333   26.367
 4977.00    1.69225   1.72997   26.714
 4978.00    1.67104   1.71064   27.141
 4979.00    1.65738   1.68866   27.492
 4980.00    1.64435   1.66290   27.874
 4981.00    1.60945   1.62629   28.714
 4982.00    1.55334   1.57755   29.655
 4983.00    1.52518   1.53294   29.802
 4984.00    1.55265   1.51670   29.319
 4985.00    1.59407   1.53860   28.532
 4986.00    1.63301   1.58656   27.638
 4987.00    1.67575   1.63839   26.923
 4988.00    1.68793   1.67521   26.842
 4989.00    1.66785   1.68751   27.186
 4990.00    1.64355   1.67963   27.487
 4991.00    1.65380   1.66669   27.540
 4992.00    1.66552   1.66181   27.331
 4993.00    1.66559   1.66680   27.195
 4994.00    1.66852   1.67610   27.167
 4995.00    1.67430   1.68590   27.047
 4996.00    1.70197   1.69483   26.910
 4997.00    1.70547   1.69879   27.029
 4998.00    1.67262   1.69007   27.363
 4999.00    1.63112   1.66507   27.890
 5000.00    1.60200   1.63133   28.275
 5001.00    1.60939   1.60410   28.345
 5002.00    1.62844   1.59414   28.117
 5003.00    1.63755   1.59762   27.917
 5004.00    1.62968   1.59876   28.229
 5005.00    1.60545   1.58528   28.907
 5006.00    1.58126   1.56407   29.160
 5007.00    1.59296   1.55786   28.573
 5008.00    1.63701   1.57964   27.720
 5009.00    1.67955   1.61624   27.340
 5010.00    1.66221   1.64099   27.601
 5011.00    1.63716   1.63597   28.364
 5012.00    1.58918   1.60325   29.401
 5013.00    1.54823   1.56167   30.155
 5014.00    1.52951   1.53326   30.136
 5015.00    1.56134   1.52795   29.542
 5016.00    1.60202   1.53846   28.914
 5017.00    1.61075   1.55108   28.719
 5018.00    1.60903   1.56077   28.708
 5019.00    1.62172   1.57317   28.432
 5020.00    1.64788   1.59001   28.183
 5021.00    1.65336   1.60382   28.255
 5022.00    1.64097   1.60960   28.329
 5023.00    1.64653   1.61375   28.200
 5024.00    1.66562   1.62683   27.921
 5025.00    1.67725   1.64625   27.716
 5026.00    1.67835   1.65700   27.801
 5027.00    1.66285   1.65402   27.936
 5028.00    1.66555   1.64870   27.739
 5029.00    1.70170   1.65346   27.253
 5030.00    1.72057   1.67120   26.844
 5031.00    1.73565   1.69698   26.416
 5032.00    1.75861   1.72308   26.092
 5033.00    1.75157   1.73966   26.083
 5034.00    1.72375   1.73503   26.800
 5035.00    1.68354   1.70652   27.843
 5036.00    1.64580   1.66842   28.406
 5037.00    1.63677   1.63919   28.559
 5038.00    1.63215   1.61967   28.872
 5039.00    1.59057   1.59140   29.891
 5040.00    1.52704   1.54657   31.111
 5041.00    1.50350   1.50952   31.317
 5042.00    1.53764   1.51368   30.016
 5043.00    1.63725   1.56611   28.205
 5044.00    1.71188   1.64259   26.965
 5045.00    1.73734   1.71001   26.322
 5046.00    1.79735   1.74889   25.380
 5047.00    1.66613   1.75435   25.892
 5048.00    0.51037   1.73038   -1.000
 5049.00    0.07455   1.68978   -1.000
 5050.00    0.06400   1.65132   -1.000
 5051.00    0.93463   1.63059   -1.000
 5052.00    1.57138   1.63447   27.585
 5053.00    1.71593   1.66101   26.895
 5054.00    1.75687   1.69744   26.377
 5055.00    1.77745   1.72701   26.092
 5056.00    1.79168   1.74416   25.985
 5057.00    1.79083   1.75492   26.014
 5058.00    1.78255   1.76490   26.063
 5059.00    1.78162   1.77536   26.062
 5060.00    1.78252   1.78467   25.908
 5061.00    1.79338   1.79029   25.893
 5062.00    1.79471   1.78687   26.194
 5063.00    1.75288   1.76543   26.899
 5064.00    1.69555   1.72638   27.838
 5065.00    1.66690   1.68686   28.262
 5066.00    1.68562   1.66557   28.012
 5067.00    1.71772   1.66494   27.595
 5068.00    1.71642   1.67399   27.458
 5069.00    1.72538   1.68332   27.336
 5070.00    1.74973   1.69106   27.162
 5071.00    1.74131   1.69401   27.323
 5072.00    1.72038   1.68898   27.543
 5073.00    1.71065   1.68212   27.285
 5074.00    1.72952   1.68318   27.049
 5075.00    1.74803   1.69204   26.988
 5076.00    1.73743   1.69929   26.966
 5077.00    1.73388   1.69497   27.187
 5078.00    1.69825   1.67183   28.037
 5079.00    1.63461   1.63278   29.329
 5080.00    1.60851   1.59656   29.829
 5081.00    1.62361   1.58264   29.333
 5082.00    1.66819   1.59230   28.701
 5083.00    1.67990   1.61414   28.282
 5084.00    1.70037   1.63965   27.771
 5085.00    1.74048   1.66737   27.286
 5086.00    1.75578   1.69472   27.052
 5087.00    1.75829   1.71522   26.994
 5088.00    1.76633   1.72680   26.873
 5089.00    1.76808   1.73386   26.686
 5090.00    1.77385   1.74100   26.532
 5091.00    1.77418   1.75077   26.394
 5092.00    1.80845   1.76406   26.112
 5093.00    1.80951   1.77779   25.867
 5094.00    1.81097   1.78325   26.035
 5095.00    1.92187   1.77014   -1.000
 5096.00    1.82180   1.73687   27.113
 5097.00    1.73060   1.69381   27.761
 5098.00    1.69751   1.65626   28.357
 5099.00    1.68680   1.63674   28.521
 5100.00    1.72707   1.64259   27.928
 5101.00    1.76704   1.66991   27.129
 5102.00    1.76929   1.70168   26.811
 5103.00    1.76670   1.71998   26.916
 5104.00    1.75442   1.72044   27.246
 5105.00    1.74090   1.70855   27.595
 5106.00    1.71755   1.68995   27.934
 5107.00    1.69215   1.66917   28.284
 5108.00    1.67548   1.65239   28.298
 5109.00    1.66786   1.64618   28.134
 5110.00    1.68050   1.65364   27.934
 5111.00    1.70810   1.67319   27.560
 5112.00    1.74499   1.69882   27.212
 5113.00    1.76940   1.72314   26.880
 5114.00    1.78543   1.74319   26.626
 5115.00    1.80523   1.76059   26.470
 5116.00    1.81480   1.77626   26.210
 5117.00    1.82452   1.78877   25.981
 5118.00    1.83052   1.79488   26.017
 5119.00    1.81742   1.79061   26.322
 5120.00    1.79835   1.77433   26.714
 5121.00    1.77901   1.74881   27.150
 5122.00    1.73026   1.71848   27.814
 5123.00    1.69127   1.68653   28.640
 5124.00    1.66975   1.65811   28.936
 5125.00    1.67496   1.64059   28.738
 5126.00    1.69032   1.63691   28.578
 5127.00    1.69811   1.64104   28.413
 5128.00    1.69646   1.64510   28.424
 5129.00    1.69838   1.64804   28.409
 5130.00    1.70816   1.65486   28.086
 5131.00    1.72654   1.66902   27.619
 5132.00    1.74635   1.68810   27.359
 5133.00    1.77067   1.70657   27.105
 5134.00    1.78608   1.72110   26.863
 5135.00    1.79077   1.73004   26.770
 5136.00    1.77409   1.72866   27.176
 5137.00    1.74892   1.71326   27.819
 5138.00    1.70911   1.68861   28.299
 5139.00    1.69299   1.66674   28.394
 5140.00    1.71194   1.65635   28.176
 5141.00    1.72485   1.65609   28.318
 5142.00    1.70118   1.65885   28.749
 5143.00    1.68462   1.66224   28.674
 5144.00    1.70489   1.66792   28.228
 5145.00    1.71839   1.67323   28.074
 5146.00    1.70335   1.67144   28.290
 5147.00    1.71673   1.66344   28.391
 5148.00    1.73739   1.66069   28.098
 5149.00    1.74586   1.66785   27.910
 5150.00    1.72116   1.67379   28.187
 5151.00    1.68754   1.66850   28.684
 5152.00    1.68982   1.65546   28.922
 5153.00    1.69184   1.64440   28.820
 5154.00    1.71316   1.64444   28.321
 5155.00    1.75511   1.66204   27.621
 5156.00    1.78576   1.69566   26.917
 5157.00    1.82600   1.73430   26.388
 5158.00    1.84317   1.76526   26.154
 5159.00    1.83302   1.78292   26.125
 5160.00    1.84093   1.78770   26.202
 5161.00    1.83894   1.78141   26.345
 5162.00    1.81885   1.76455   26.622
 5163.00    1.80664   1.73702   27.022
 5164.00    1.77102   1.69437   27.968
 5165.00    1.67623   1.62408   30.105
 5166.00    1.53616   1.52345   33.177
 5167.00    1.43377   1.41951   35.604
 5168.00    1.42339   1.35870   35.302
 5169.00    1.49752   1.36183   -1.000
 5170.00    1.54474   1.39359   -1.000
 5171.00    1.49532   1.39784   -1.000
 5172.00    1.40535   1.36664   36.875
 5173.00    1.41221   1.34859   35.900
 5174.00    1.53603   1.39222   -1.000
 5175.00    1.66950   1.49195   -1.000
 5176.00    1.74932   1.59665   -1.000
 5177.00    1.77652   1.66733   -1.000
 5178.00    1.78309   1.69923   27.701
 5179.00    1.79088   1.70150   27.932
 5180.00    1.75642   1.67345   28.815
 5181.00    1.67846   1.60606   30.754
 5182.00    1.55264   1.50295   34.151
 5183.00    1.43052   1.39926   37.043
 5184.00    1.43436   1.35005   -1.000
 5185.00    1.54863   1.38756   -1.000
 5186.00    1.68670   1.48792   -1.000
 5187.00    1.76037   1.59393   -1.000
 5188.00    1.77079   1.66371   -1.000
 5189.00    1.77375   1.69434   27.672
 5190.00    1.76972   1.69874   27.915
 5191.00    1.71333   1.68170   28.727
 5192.00    1.66840   1.65196   29.545
 5193.00    1.66947   1.62921   29.461
 5194.00    1.70458   1.62729   28.981
 5195.00    1.73351   1.64243   28.541
 5196.00    1.74800   1.66423   28.124
 5197.00    1.77325   1.68958   27.578
 5198.00    1.79388   1.72016   27.096
 5199.00    1.81672   1.75089   26.843
 5200.00    1.83252   1.77215   26.793
 5201.00    1.82279   1.77698   26.978
 5202.00    1.79940   1.76176   27.434
 5203.00    1.76866   1.72610   28.048
 5204.00    1.72371   1.67462   28.900
 5205.00    1.67239   1.61900   29.796
 5206.00    1.65664   1.57478   30.014
 5207.00    1.66149   1.55071   -1.000
 5208.00    1.65987   1.54473   -1.000
 5209.00    1.65350   1.55539   -1.000
 5210.00    1.69693   1.58717   -1.000
 5211.00    1.76915   1.64242   -1.000
 5212.00    1.82714   1.70983   -1.000
 5213.00    1.87849   1.76609   -1.000
 5214.00    1.88479   1.78983   26.382
 5215.00    1.82959   1.77938   26.972
 5216.00    1.79326   1.75503   27.346
 5217.00    1.80310   1.74463   27.189
 5218.00    1.83513   1.76159   26.642
 5219.00    1.86560   1.79778   26.213
 5220.00    1.88742   1.83484   25.987
 5221.00    1.90929   1.85797   25.872
 5222.00    1.88734   1.86024   26.149
 5223.00    1.85493   1.83778   26.892
 5224.00    1.79725   1.78897   27.970
 5225.00    1.73362   1.71832   29.266
 5226.00    1.67684   1.64681   30.156
 5227.00    1.67964   1.60771   29.701
 5228.00    1.74788   1.62396   -1.000
 5229.00    1.81853   1.68430   -1.000
 5230.00    1.86853   1.74936   -1.000
 5231.00    1.88219   1.78339   -1.000
 5232.00    1.86648   1.78013   26.757
 5233.00    1.83580   1.75673   27.250
 5234.00    1.81523   1.74068   27.261
 5235.00    1.84260   1.75182   26.702
 5236.00    1.88231   1.78878   26.062
 5237.00    1.91731   1.83315   25.726
 5238.00    1.93058   1.86643   25.671
 5239.00    1.91945   1.88181   25.742
 5240.00    1.92679   1.88338   25.713
 5241.00    1.94207   1.87890   25.573
 5242.00    1.92856   1.87457   25.587
 5243.00    1.92540   1.87550   25.548
 5244.00    1.93052   1.88120   25.505
 5245.00    1.90581   1.88072   25.945
 5246.00    1.86540   1.86259   26.728
 5247.00    1.82514   1.83001   27.383
 5248.00    1.81324   1.79880   27.524
 5249.00    1.81890   1.78057   27.572
 5250.00    1.80396   1.77479   27.733
 5251.00    1.79906   1.77635   27.643
 5252.00    1.82902   1.78391   27.288
 5253.00    1.84415   1.79407   27.001
 5254.00    1.84391   1.80103   26.972
 5255.00    1.85072   1.80792   26.806
 5256.00    1.89064   1.82580   26.231
 5257.00    1.94374   1.85766   25.528
 5258.00    1.97633   1.89049   25.243
 5259.00    1.97209   1.90495   25.424
 5260.00    1.92758   1.88825   26.067
 5261.00    1.86242   1.84067   27.128
 5262.00    1.79118   1.77182   28.408
 5263.00    1.74831   1.69697   29.443
 5264.00    1.70830   1.63259   30.101
 5265.00    1.68488   1.59301   -1.000
 5266.00    1.70295   1.58363   -1.000
 5267.00    1.73991   1.59245   -1.000
 5268.00    1.72837   1.59398   -1.000
 5269.00    1.66125   1.57458   -1.000
 5270.00    1.64968   1.55468   -1.000
 5271.00    1.73234   1.57054   -1.000
 5272.00    1.82302   1.62794   -1.000
 5273.00    1.86194   1.69245   -1.000
 5274.00    1.85982   1.73394   -1.000
 5275.00    1.85258   1.75509   -1.000
 5276.00    1.87500   1.77793   -1.000
 5277.00    1.92604   1.81637   -1.000
 5278.00    1.97098   1.86147   -1.000
 5279.00    1.97910   1.88922   25.350
 5280.00    1.95000   1.88371   25.909
 5281.00    1.90683   1.85110   26.583
 5282.00    1.87484   1.81139   27.097
 5283.00    1.85732   1.78391   27.275
 5284.00    1.87874   1.78484   -1.000
 5285.00    1.95099   1.81968   -1.000
 5286.00    1.97768   1.87503   -1.000
 5287.00    1.98221   1.92511   24.925
 5288.00    2.01330   1.95361   25.023
 5289.00    2.00439   1.96352   25.040
 5290.00    2.00112   1.96683   24.909
 5291.00    1.99969   1.96770   24.843
 5292.00    1.99411   1.96471   24.965
 5293.00    1.99885   1.95800   25.192
 5294.00    1.99053   1.94565   25.516
 5295.00    1.94361   1.92036   26.165
 5296.00    1.88542   1.87613   27.138
 5297.00    1.82793   1.82136   27.912
 5298.00    1.82255   1.78119   27.851
 5299.00    1.85722   1.77548   27.200
 5300.00    1.88455   1.79829   26.666
 5301.00    1.88352   1.82915   26.457
 5302.00    1.90817   1.85649   26.154
 5303.00    1.96367   1.88495   25.493
 5304.00    2.00453   1.91864   24.993
 5305.00    2.03701   1.94733   24.881
 5306.00    2.02070   1.95884   25.089
 5307.00    1.99011   1.95557   25.314
 5308.00    1.99725   1.95161   25.196
 5309.00    2.01135   1.95849   24.940
 5310.00    2.04630   1.97382   24.767
 5311.00    2.03914   1.98596   24.769
 5312.00    2.03332   1.98718   24.896
 5313.00    2.02488   1.97714   25.009
 5314.00    2.01366   1.95970   25.181
 5315.00    2.00072   1.93819   25.424
 5316.00    1.98421   1.91718   25.654
 5317.00    1.97916   1.90522   25.689
 5318.00    1.99483   1.90940   25.521
 5319.00    2.00391   1.92499   25.400
 5320.00    2.00220   1.93783   25.469
 5321.00    1.99024   1.93627   25.640
 5322.00    1.96742   1.91787   25.928
 5323.00    1.94227   1.88717   26.366
 5324.00    1.93862   1.85326   26.640
 5325.00    1.94206   1.82280   -1.000
 5326.00    1.90566   1.78868   -1.000
 5327.00    1.82330   1.73848   -1.000
 5328.00    1.74595   1.68320   29.999
 5329.00    1.75681   1.66079   -1.000
 5330.00    1.86561   1.69664   -1.000
 5331.00    1.94589   1.77035   -1.000
 5332.00    1.95622   1.83899   -1.000
 5333.00    1.98165   1.88030   -1.000
 5334.00    2.01554   1.90455   -1.000
 5335.00    2.02002   1.92336   -1.000
 5336.00    2.00306   1.93433   25.528
 5337.00    1.99420   1.93169   25.697
 5338.00    1.97784   1.91379   25.964
 5339.00    1.95892   1.88213   26.576
 5340.00    1.91640   1.84595   27.074
 5341.00    1.91134   1.82448   26.935
 5342.00    1.95077   1.83357   -1.000
 5343.00    1.98495   1.86584   -1.000
 5344.00    1.99545   1.89573   -1.000
 5345.00    1.98117   1.90472   25.849
 5346.00    1.97366   1.89560   26.018
 5347.00    1.97641   1.88024   -1.000
 5348.00    1.96354   1.86802   -1.000
 5349.00    1.95079   1.86491   26.459
 5350.00    1.96456   1.87560   26.105
 5351.00    2.00364   1.90092   -1.000
 5352.00    2.02930   1.93282   -1.000
 5353.00    2.04858   1.95996   25.057
 5354.00    2.06315   1.97984   24.877
 5355.00    2.07626   1.99822   24.571
 5356.00    2.08631   2.01669   24.370
 5357.00    2.08975   2.02989   24.368
 5358.00    2.08410   2.03450   24.405
 5359.00    2.07978   2.03080   24.488
 5360.00    2.06591   2.01939   24.752
 5361.00    2.04188   1.99954   25.156
 5362.00    2.01901   1.97342   25.533
 5363.00    2.00101   1.94652   25.736
 5364.00    1.98565   1.92358   25.887
 5365.00    1.97603   1.90752   26.042
 5366.00    1.98572   1.90007   25.990
 5367.00    1.99193   1.89748   -1.000
 5368.00    1.98184   1.88892   -1.000
 5369.00    1.94919   1.86282   26.820
 5370.00    1.89316   1.82067   27.624
 5371.00    1.86770   1.78323   -1.000
 5372.00    1.91903   1.77828   -1.000
 5373.00    1.99858   1.81728   -1.000
 5374.00    2.04843   1.88351   -1.000
 5375.00    2.07986   1.94490   -1.000
 5376.00    2.08474   1.98001   -1.000
 5377.00    2.07913   1.99096   24.821
 5378.00    2.08161   1.98994   24.865
 5379.00    2.05644   1.98517   24.998
 5380.00    2.03598   1.97684   25.235
 5381.00    2.02869   1.96377   25.485
 5382.00    2.03137   1.94862   25.625
 5383.00    2.02446   1.93779   25.623
 5384.00    2.02117   1.93832   25.513
 5385.00    2.04962   1.95220   -1.000
 5386.00    2.06047   1.97175   25.177
 5387.00    2.06588   1.98393   25.274
 5388.00    2.04140   1.98049   25.506
 5389.00    2.01157   1.96298   25.882
 5390.00    1.99896   1.93888   26.187
 5391.00    2.00379   1.91650   26.323
 5392.00    1.99579   1.90019   -1.000
 5393.00    1.98131   1.89026   -1.000
 5394.00    1.97296   1.88299   -1.000
 5395.00    1.95698   1.87066   26.938
 5396.00    1.91801   1.84866   27.464
 5397.00    1.88882   1.82569   27.549
 5398.00    1.91867   1.82040   -1.000
 5399.00    1.98751   1.84232   -1.000
 5400.00    2.03526   1.87977   -1.000
 5401.00    2.03226   1.90958   -1.000
 5402.00    2.01423   1.91702   -1.000
 5403.00    1.98412   1.89590   26.757
 5404.00    1.92329   1.85006   27.631
 5405.00    1.89264   1.79964   -1.000
 5406.00    1.90249   1.77211   -1.000
 5407.00    1.93380   1.77870   -1.000
 5408.00    1.95989   1.80394   -1.000
 5409.00    1.94695   1.82286   -1.000
 5410.00    1.93569   1.83025   -1.000
 5411.00    1.97212   1.84322   -1.000
 5412.00    2.03121   1.87237   -1.000
 5413.00    2.05618   1.90720   -1.000
 5414.00    2.04504   1.93229   -1.000
 5415.00    2.04090   1.94661   -1.000
 5416.00    2.05765   1.96114   -1.000
 5417.00    2.07232   1.97888   -1.000
 5418.00    2.06449   1.99141   25.282
 5419.00    2.05313   1.99281   25.520
 5420.00    2.05288   1.98562   25.686
 5421.00    2.06125   1.97658   25.610
 5422.00    2.06213   1.96755   -1.000
 5423.00    2.03569   1.95559   25.810
 5424.00    2.01859   1.94344   26.066
 5425.00    2.03705   1.94317   -1.000
 5426.00    2.06009   1.96030   -1.000
 5427.00    2.07236   1.97761   -1.000
 5428.00    2.02848   1.96837   26.079
 5429.00    1.97321   1.93004   26.913
 5430.00    1.95337   1.89053   27.055
 5431.00    1.98167   1.87569   -1.000
 5432.00    2.00213   1.88227   -1.000
 5433.00    1.98048   1.88556   -1.000
 5434.00    1.95506   1.87504   27.213
 5435.00    1.94895   1.86574   27.158
 5436.00    1.97768   1.87751   -1.000
 5437.00    2.01935   1.91576   -1.000
 5438.00    2.06804   1.96724   -1.000
 5439.00    2.09955   2.01243   25.005
 5440.00    2.11325   2.04157   24.784
 5441.00    2.12022   2.05651   24.725
 5442.00    2.11170   2.06144   24.721
 5443.00    2.10123   2.05294   24.954
 5444.00    2.07133   2.02284   25.578
 5445.00    1.99834   1.96973   26.600
 5446.00    1.92764   1.90874   27.511
 5447.00    1.90641   1.86774   27.431
 5448.00    1.96135   1.86743   -1.000
 5449.00    2.02148   1.90421   -1.000
 5450.00    2.05335   1.95153   -1.000
 5451.00    2.06186   1.98336   25.527
 5452.00    2.05013   1.98977   25.725
 5453.00    2.01622   1.97043   26.286
 5454.00    1.95889   1.93116   27.033
 5455.00    1.92923   1.88781   27.644
 5456.00    1.94612   1.86713   27.351
 5457.00    1.99910   1.88683   -1.000
 5458.00    2.06314   1.93546   -1.000
 5459.00    2.07453   1.98008   25.495
 5460.00    2.05762   1.99688   25.753
 5461.00    2.04537   1.98324   26.224
 5462.00    2.01676   1.95423   26.597
 5463.00    2.01250   1.92976   26.765
 5464.00    2.03509   1.92385   -1.000
 5465.00    2.04697   1.93738   -1.000
 5466.00    2.05854   1.96002   -1.000
 5467.00    2.07523   1.98061   -1.000
 5468.00    2.08270   1.99427   25.622
 5469.00    2.06934   2.00042   25.828
 5470.00    2.05845   1.99818   26.099
 5471.00    2.06321   1.98913   26.212
 5472.00    2.05567   1.97723   26.339
 5473.00    2.03105   1.96282   26.595
 5474.00    2.00953   1.94184   26.965
 5475.00    1.98886   1.91179   27.523
 5476.00    1.96113   1.87915   27.973
 5477.00    1.95561   1.86055   -1.000
 5478.00    1.98951   1.87005   -1.000
 5479.00    2.03460   1.90075   -1.000
 5480.00    2.03727   1.92816   -1.000
 5481.00    2.02889   1.93624   -1.000
 5482.00    2.02240   1.93529   26.886
 5483.00    2.03715   1.94540   -1.000
 5484.00    2.06871   1.97043   -1.000
 5485.00    2.09650   1.99643   -1.000
 5486.00    2.08420   2.00627   25.859
 5487.00    2.06559   1.99662   26.225
 5488.00    2.05212   1.98004   26.403
 5489.00    2.04371   1.97217   26.421
 5490.00    2.04443   1.97795   26.253
 5491.00    2.06670   1.98976   26.060
 5492.00    2.07943   1.99861   25.954
 5493.00    2.08149   2.00212   25.996
 5494.00    2.08930   2.00222   26.013
 5495.00    2.09337   1.99956   -1.000
 5496.00    2.06959   1.99230   26.180
 5497.00    2.04106   1.98228   26.368
 5498.00    2.05114   1.97660   26.260
 5499.00    2.07933   1.97845   -1.000
 5500.00    2.07491   1.97979   -1.000
 5501.00    2.05129   1.97034   26.534
 5502.00    2.04951   1.95412   -1.000
 5503.00    2.06179   1.94517   -1.000
 5504.00    2.07024   1.94590   -1.000
 5505.00    2.05474   1.94491   -1.000
 5506.00    2.02245   1.93605   26.947
 5507.00    2.01813   1.92803   -1.000
 5508.00    2.04876   1.93369   -1.000
 5509.00    2.07990   1.95117   -1.000
 5510.00    2.07030   1.96363   -1.000
 5511.00    2.03573   1.95852   26.818
 5512.00    2.00676   1.93748   27.275
 5513.00    2.00302   1.91494   -1.000
 5514.00    2.01872   1.90623   -1.000
 5515.00    2.03583   1.91641   -1.000
 5516.00    2.07309   1.94019   -1.000
 5517.00    2.10341   1.96992   -1.000
 5518.00    2.12758   2.00019   -1.000
 5519.00    2.14175   2.02532   -1.000
 5520.00    2.15080   2.04027   -1.000
 5521.00    2.13626   2.04457   -1.000
 5522.00    2.13949   2.04318   -1.000
 5523.00    2.14010   2.04035   -1.000
 5524.00    2.11779   2.03389   25.720
 5525.00    2.09188   2.01693   26.051
 5526.00    2.05936   1.98566   26.630
 5527.00    2.00962   1.94633   27.316
 5528.00    1.99477   1.91560   27.531
 5529.00    2.03835   1.91195   -1.000
 5530.00    2.08323   1.93859   -1.000
 5531.00    2.10106   1.97790   -1.000
 5532.00    2.11209   2.00517   -1.000
 5533.00    2.10163   2.01084   26.159
 5534.00    2.08354   2.00233   26.302
 5535.00    2.08773   1.99244   -1.000
 5536.00    2.09433   1.99069   -1.000
 5537.00    2.11590   1.99838   -1.000
 5538.00    2.12740   2.01034   -1.000
 5539.00    2.14308   2.02234   -1.000
 5540.00    2.15720   2.03460   -1.000
 5541.00    2.15486   2.04439   -1.000
 5542.00    2.14231   2.04506   -1.000
 5543.00    2.12300   2.03548   25.885
 5544.00    2.11896   2.02388   -1.000
 5545.00    2.11885   2.01900   -1.000
 5546.00    2.12955   2.02305   -1.000
 5547.00    2.14576   2.03330   -1.000
 5548.00    2.14844   2.04807   -1.000
 5549.00    2.16873   2.06473   -1.000
 5550.00    2.18742   2.07707   -1.000
 5551.00    2.18432   2.08023   -1.000
 5552.00    2.17496   2.07405   -1.000
 5553.00    2.14582   2.06123   25.777
 5554.00    2.12352   2.04791   25.920
 5555.00    2.11935   2.04085   25.896
 5556.00    2.13703   2.04141   -1.000
 5557.00    2.14919   2.04532   -1.000
 5558.00    2.14551   2.04900   -1.000
 5559.00    2.14390   2.05214   -1.000
 5560.00    2.13867   2.05278   25.754
 5561.00    2.14273   2.04690   -1.000
 5562.00    2.13074   2.03444   -1.000
 5563.00    2.11013   2.02086   -1.000
 5564.00    2.10859   2.01121   -1.000
 5565.00    2.10761   2.00536   -1.000
 5566.00    2.09661   2.00068   -1.000
 5567.00    2.09626   1.99647   -1.000
 5568.00    2.09594   1.99350   -1.000
 5569.00    2.09354   1.99211   -1.000
 5570.00    2.09939   1.99188   -1.000
 5571.00    2.10038   1.99116   -1.000
 5572.00    2.09118   1.98800   -1.000
 5573.00    2.06003   1.98485   26.423
 5574.00    1.96228   1.98857   26.154
 5575.00    1.54079   2.00058   -1.000
 5576.00    0.70791   2.01386   -1.000
 5577.00   -0.05647   2.02447    0.000
 5578.00    0.16750   2.03524   -1.000
 5579.00    0.94065   2.04596   -1.000
 5580.00    1.58552   2.05235   -1.000
 5581.00    1.97851   2.05258   26.438
 5582.00    2.11421   2.04888   26.137
 5583.00    2.12567   2.04354   26.057
 5584.00    2.13743   2.03417   -1.000
 5585.00    2.11761   2.01291   -1.000
 5586.00    2.05929   1.97397   -1.000
 5587.00    2.01180   1.92519   -1.000
 5588.00    2.00960   1.88644   -1.000
 5589.00    2.02341   1.87382   -1.000
 5590.00    2.03622   1.88800   -1.000
 5591.00    2.06615   1.91739   -1.000
 5592.00    2.08678   1.94570   -1.000
 5593.00    2.08191   1.96323   -1.000
 5594.00    2.07338   1.97313   -1.000
 5595.00    2.10128   1.98516   -1.000
 5596.00    2.12892   2.00045   -1.000
 5597.00    2.12048   2.00781   -1.000
 5598.00    2.07758   1.99779   27.004
 5599.00    2.06401   1.97600   -1.000
 5600.00    2.06585   1.95555   -1.000
 5601.00    2.06960   1.94097   -1.000
 5602.00    2.05031   1.93392   -1.000
 5603.00    2.05494   1.94337   -1.000
 5604.00    2.10208   1.97568   -1.000
 5605.00    2.15475   2.02296   -1.000
 5606.00    2.18278   2.06804   -1.000
 5607.00    2.19614   2.09790   -1.000
 5608.00    2.19221   2.11141   25.475
 5609.00    2.19385   2.11527   25.527
 5610.00    2.19080   2.11671   25.510
 5611.00    2.19533   2.11849   25.434
 5612.00    2.19023   2.11448   25.533
 5613.00    2.15708   2.09226   26.024
 5614.00    2.09693   2.04612   26.902
 5615.00    2.06024   1.98984   27.566
 5616.00    2.06396   1.95231   -1.000
 5617.00    2.10710   1.95284   -1.000
 5618.00    2.13771   1.98205   -1.000
 5619.00    2.14428   2.01454   -1.000
 5620.00    2.15696   2.03774   -1.000
 5621.00    2.16257   2.05188   -1.000
 5622.00    2.16098   2.05598   -1.000
 5623.00    2.13389   2.04534   -1.000
 5624.00    2.10204   2.02283   27.138
 5625.00    2.09067   2.00398   -1.000
 5626.00    2.10733   2.00416   -1.000
 5627.00    2.14932   2.02346   -1.000
 5628.00    2.17213   2.04890   -1.000
 5629.00    2.18064   2.06814   -1.000
 5630.00    2.20135   2.07895   -1.000
 5631.00    2.20994   2.08516   -1.000
 5632.00    2.20712   2.08815   -1.000
 5633.00    2.20111   2.08650   -1.000
 5634.00    2.18706   2.07907   -1.000
 5635.00    2.17783   2.06702   -1.000
 5636.00    2.16129   2.05365   -1.000
 5637.00    2.13832   2.04282   -1.000
 5638.00    2.14131   2.03727   -1.000
 5639.00    2.15317   2.03662   -1.000
 5640.00    2.15049   2.03665   -1.000
 5641.00    2.14419   2.03434   -1.000
 5642.00    2.14539   2.03305   -1.000
 5643.00    2.15756   2.03715   -1.000
 5644.00    2.15074   2.04523   -1.000
 5645.00    2.15831   2.05399   -1.000
 5646.00    2.16874   2.06207   -1.000
 5647.00    2.17896   2.06776   -1.000
 5648.00    2.18576   2.06917   -1.000
 5649.00    2.18784   2.06738   -1.000
 5650.00    2.19573   2.06695   -1.000
 5651.00    2.19570   2.07142   -1.000
 5652.00    2.20731   2.07793   -1.000
 5653.00    2.20938   2.07924   -1.000
 5654.00    2.19410   2.07193   -1.000
 5655.00    2.17335   2.05751   -1.000
 5656.00    2.15129   2.03676   -1.000
 5657.00    2.09822   2.00816   -1.000
 5658.00    2.04776   1.97722   28.043
 5659.00    2.05927   1.95995   -1.000
 5660.00    2.09895   1.96559   -1.000
 5661.00    2.12409   1.98386   -1.000
 5662.00    2.12374   1.99989   -1.000
 5663.00    2.12756   2.01212   -1.000
 5664.00    2.14764   2.02767   -1.000
 5665.00    2.15468   2.04682   -1.000
 5666.00    2.15396   2.05973   -1.000
 5667.00    2.14193   2.06038   26.501
 5668.00    2.13491   2.05477   26.545
 5669.00    2.13895   2.05231   -1.000
 5670.00    2.15476   2.05720   -1.000
 5671.00    2.17979   2.06865   -1.000
 5672.00    2.19701   2.08355   -1.000
 5673.00    2.21578   2.09771   -1.000
 5674.00    2.22732   2.10706   -1.000
 5675.00    2.22626   2.11073   -1.000
 5676.00    2.21864   2.11177   -1.000
 5677.00    2.21134   2.11334   -1.000
 5678.00    2.20522   2.11399   -1.000
 5679.00    2.21057   2.10964   -1.000
 5680.00    2.21190   2.09796   -1.000
 5681.00    2.18615   2.07923   -1.000
 5682.00    2.16633   2.05689   -1.000
 5683.00    2.16929   2.03890   -1.000
 5684.00    2.17814   2.03315   -1.000
 5685.00    2.17737   2.03867   -1.000
 5686.00    2.16269   2.04507   -1.000
 5687.00    2.14804   2.04355   -1.000
 5688.00    2.15125   2.03743   -1.000
 5689.00    2.17216   2.03769   -1.000
 5690.00    2.19079   2.05087   -1.000
 5691.00    2.21902   2.07361   -1.000
 5692.00    2.22161   2.09629   -1.000
 5693.00    2.22036   2.11151   -1.000
 5694.00    2.23006   2.11816   -1.000
 5695.00    2.22247   2.11906   -1.000
 5696.00    2.20614   2.11620   -1.000
 5697.00    2.20446   2.10920   -1.000
 5698.00    2.18521   2.09728   -1.000
 5699.00    2.16510   2.08139   26.502
 5700.00    2.15848   2.06482   -1.000
 5701.00    2.14356   2.05173   -1.000
 5702.00    2.13621   2.04603   -1.000
 5703.00    2.15252   2.04929   -1.000
 5704.00    2.13673   2.05659   26.383
 5705.00    2.13605   2.05839   26.543
 5706.00    2.13290   2.04825   -1.000
 5707.00    2.10550   2.02771   27.402
 5708.00    2.08068   2.00252   27.839
 5709.00    2.06780   1.97957   -1.000
 5710.00    2.06342   1.96703   -1.000
 5711.00    2.07174   1.97076   -1.000
 5712.00    2.10759   1.99112   -1.000
 5713.00    2.15549   2.02408   -1.000
 5714.00    2.19458   2.06084   -1.000
 5715.00    2.20930   2.09030   -1.000
 5716.00    2.22888   2.10775   -1.000
 5717.00    2.22754   2.11695   -1.000
 5718.00    2.21120   2.12405   -1.000
 5719.00    2.21717   2.13265   25.516
 5720.00    2.23057   2.14371   -1.000
 5721.00    2.25092   2.15578   -1.000
 5722.00    2.26492   2.16613   -1.000
 5723.00    2.26069   2.17269   -1.000
 5724.00    2.25388   2.17384   25.309
 5725.00    2.23931   2.16747   25.512
 5726.00    2.20979   2.15391   25.780
 5727.00    2.19029   2.13934   25.991
 5728.00    2.19488   2.13198   25.880
 5729.00    2.20864   2.13338   25.721
 5730.00    2.20873   2.13726   25.773
 5731.00    2.20608   2.13772   25.903
 5732.00    2.21894   2.13714   25.826
 5733.00    2.24798   2.14274   -1.000
 5734.00    2.26585   2.15514   -1.000
 5735.00    2.25762   2.16678   -1.000
 5736.00    2.25040   2.17086   25.452
 5737.00    2.23755   2.16796   25.525
 5738.00    2.24394   2.16367   25.550
 5739.00    2.24993   2.16192   -1.000
 5740.00    2.23915   2.16219   25.642
 5741.00    2.23774   2.16164   25.698
 5742.00    2.23766   2.15966   25.647
 5743.00    2.23683   2.15937   25.618
 5744.00    2.25795   2.16378   -1.000
 5745.00    2.25605   2.17035   -1.000
 5746.00    2.25183   2.17209   25.416
 5747.00    2.24569   2.16581   25.664
 5748.00    2.23543   2.15790   25.777
 5749.00    2.23158   2.15688   25.643
 5750.00    2.24437   2.16108   25.555
 5751.00    2.23844   2.15874   25.734
 5752.00    2.21577   2.14239   26.044
 5753.00    2.18561   2.11936   26.311
 5754.00    2.17620   2.10612   26.327
 5755.00    2.21624   2.11402   -1.000
 5756.00    2.25387   2.13968   -1.000
 5757.00    2.27815   2.16835   -1.000
 5758.00    2.27806   2.18564   -1.000
 5759.00    2.27486   2.18503   -1.000
 5760.00    2.24678   2.16859   25.874
 5761.00    2.21663   2.14390   26.228
 5762.00    2.20022   2.12231   26.379
 5763.00    2.19290   2.11598   26.127
 5764.00    2.22660   2.13058   -1.000
 5765.00    2.24994   2.15867   -1.000
 5766.00    2.25072   2.18534   25.244
 5767.00    2.26430   2.20060   25.217
 5768.00    2.26857   2.20476   25.175
 5769.00    2.27320   2.20276   25.218
 5770.00    2.26725   2.19804   25.301
 5771.00    2.24591   2.19121   25.437
 5772.00    2.23347   2.18208   25.595
 5773.00    2.22526   2.17230   25.667
 5774.00    2.22440   2.16515   25.700
 5775.00    2.21996   2.16302   25.654
 5776.00    2.21828   2.16592   25.530
 5777.00    2.20063   2.16986   25.496
 5778.00    2.16226   2.16653   25.568
 5779.00    2.10595   2.14939   25.916
 5780.00    2.04672   2.12043   26.490
 5781.00    2.03494   2.08987   26.861
 5782.00    2.07166   2.06947   26.846
 5783.00    2.11925   2.06372   26.742
 5784.00    2.15217   2.06737   -1.000
 5785.00    2.16684   2.07455   -1.000
 5786.00    2.18465   2.08644   -1.000
 5787.00    2.22267   2.10597   -1.000
 5788.00    2.24546   2.12833   -1.000
 5789.00    2.25042   2.14316   -1.000
 5790.00    2.24264   2.14612   -1.000
 5791.00    2.23649   2.14370   -1.000
 5792.00    2.23571   2.14707   -1.000
 5793.00    2.23558   2.16132   25.426
 5794.00    2.24184   2.18092   25.271
 5795.00    2.25389   2.19590   25.241
 5796.00    2.21016   2.19958   25.378
 5797.00    2.19147   2.19301   25.543
 5798.00    2.21460   2.18569   25.448
 5799.00    2.26200   2.18852   25.138
 5800.00    2.30805   2.20276   -1.000
 5801.00    2.30822   2.21897   -1.000
 5802.00    2.30140   2.22674   24.893
 5803.00    2.29082   2.22216   25.091
 5804.00    2.28020   2.20899   25.296
 5805.00    2.27823   2.19567   -1.000
 5806.00    2.27490   2.18953   -1.000
 5807.00    2.28308   2.19170   -1.000
 5808.00    2.28390   2.19812   -1.000
 5809.00    2.27664   2.20485   25.194
 5810.00    2.29085   2.21047   -1.000
 5811.00    2.30658   2.21417   -1.000
 5812.00    2.29000   2.21436   25.008
 5813.00    2.29070   2.20973   25.046
 5814.00    2.29485   2.20004   -1.000
 5815.00    2.27459   2.18729   -1.000
 5816.00    2.26997   2.17804   -1.000
 5817.00    2.28304   2.18058   -1.000
 5818.00    2.29833   2.19574   -1.000
 5819.00    2.30122   2.21418   -1.000
 5820.00    2.31290   2.22601   -1.000
 5821.00    2.31444   2.22921   -1.000
 5822.00    2.31232   2.22746   -1.000
 5823.00    2.31064   2.22475   -1.000
 5824.00    2.31020   2.22321   -1.000
 5825.00    2.31306   2.22347   -1.000
 5826.00    2.31661   2.22563   -1.000
 5827.00    2.31617   2.22918   -1.000
 5828.00    2.32572   2.23292   -1.000
 5829.00    2.32595   2.23567   -1.000
 5830.00    2.32411   2.23705   -1.000
 5831.00    2.31830   2.23714   24.691
 5832.00    2.30555   2.23551   24.732
 5833.00    2.29843   2.23143   24.889
 5834.00    2.30756   2.22549   -1.000
 5835.00    2.32659   2.22086   -1.000
 5836.00    2.32418   2.22069   -1.000
 5837.00    2.32197   2.22407   -1.000
 5838.00    2.32693   2.22741   -1.000
 5839.00    2.32677   2.23004   -1.000
 5840.00    2.32040   2.23440   -1.000
 5841.00    2.30877   2.24083   24.568
 5842.00    2.31320   2.24599   24.562
 5843.00    2.32872   2.24651   -1.000
 5844.00    2.32582   2.24174   -1.000
 5845.00    2.31366   2.23269   -1.000
 5846.00    2.29624   2.22115   25.022
 5847.00    2.27831   2.21048   25.146
 5848.00    2.26426   2.20423   25.132
 5849.00    2.25584   2.20220   25.164
 5850.00    2.26519   2.19940   25.300
 5851.00    2.26485   2.19059   25.458
 5852.00    2.24656   2.17562   25.702
 5853.00    2.22263   2.16003   25.839
 5854.00    2.22187   2.14893   25.889
 5855.00    2.23934   2.13989   -1.000
 5856.00    2.22387   2.12496   -1.000
 5857.00    2.19702   2.10287   -1.000
 5858.00    2.20359   2.08674   -1.000
 5859.00    2.23147   2.09080   -1.000
 5860.00    2.25362   2.11279   -1.000
 5861.00    2.26463   2.13810   -1.000
 5862.00    2.26418   2.15593   -1.000
 5863.00    2.26377   2.16598   -1.000
 5864.00    2.26198   2.17161   -1.000
 5865.00    2.25431   2.17210   25.626
 5866.00    2.25397   2.16668   -1.000
 5867.00    2.25938   2.16123   -1.000
 5868.00    2.27089   2.16422   -1.000
 5869.00    2.28592   2.17755   -1.000
 5870.00    2.30170   2.19436   -1.000
 5871.00    2.30115   2.20565   -1.000
 5872.00    2.30704   2.20765   -1.000
 5873.00    2.31227   2.20323   -1.000
 5874.00    2.29004   2.19753   -1.000
 5875.00    2.28847   2.19306   -1.000
 5876.00    2.30160   2.18877   -1.000
 5877.00    2.29202   2.18271   -1.000
 5878.00    2.26756   2.17407   -1.000
 5879.00    2.25824   2.16362   -1.000
 5880.00    2.25238   2.15364   -1.000
 5881.00    2.25386   2.14610   -1.000
 5882.00    2.27300   2.13996   -1.000
 5883.00    2.26522   2.13233   -1.000
 5884.00    2.25616   2.12243   -1.000
 5885.00    2.24991   2.11014   -1.000
 5886.00    2.21317   2.08679   -1.000
 5887.00    2.08991   2.03222   27.105
 5888.00    1.80387   1.93312   -1.000
 5889.00    1.48191   1.80913   -1.000
 5890.00    1.39773   1.71391   -1.000
 5891.00    1.59753   1.69392   30.659
 5892.00    1.85644   1.73974   -1.000
 5893.00    1.95929   1.79443   -1.000
 5894.00    1.87180   1.80981   29.059
 5895.00    1.68633   1.78467   29.864
 5896.00    1.60966   1.75889   -1.000
 5897.00    1.77612   1.77475   29.049
 5898.00    1.99030   1.83837   -1.000
 5899.00    2.13048   1.92045   -1.000
 5900.00    2.19687   1.99269   -1.000
 5901.00    2.21767   2.04828   -1.000
 5902.00    2.23339   2.08922   -1.000
 5903.00    2.24414   2.11608   -1.000
 5904.00    2.25549   2.13044   -1.000
 5905.00    2.25302   2.13694   -1.000
 5906.00    2.24105   2.14134   -1.000
 5907.00    2.24611   2.14723   -1.000
 5908.00    2.25093   2.15476   -1.000
 5909.00    2.25087   2.16234   -1.000
 5910.00    2.25456   2.16818   25.929
 5911.00    2.25681   2.16979   25.956
 5912.00    2.24554   2.16371   26.048
 5913.00    2.21405   2.14856   26.405
 5914.00    2.19786   2.12953   26.622
 5915.00    2.19893   2.11629   26.589
 5916.00    2.20736   2.11512   -1.000
 5917.00    2.22051   2.12535   -1.000
 5918.00    2.23346   2.14189   -1.000
 5919.00    2.22979   2.15817   26.162
 5920.00    2.23081   2.16869   26.067
 5921.00    2.23342   2.17185   26.068
 5922.00    2.23468   2.17027   26.093
 5923.00    2.23109   2.16882   25.998
 5924.00    2.23417   2.17131   25.913
 5925.00    2.25130   2.17787   25.863
 5926.00    2.24874   2.18445   25.842
 5927.00    2.26434   2.18506   25.886
 5928.00    2.24447   2.17654   26.065
 5929.00    2.22848   2.16293   26.270
 5930.00    2.24479   2.15368   -1.000
 5931.00    2.25967   2.15527   -1.000
 5932.00    2.26349   2.16418   -1.000
 5933.00    2.25664   2.17054   26.056
 5934.00    2.24792   2.17063   26.242
 5935.00    2.23977   2.17086   26.293
 5936.00    2.25527   2.17754   26.140
 5937.00    2.28056   2.18860   -1.000
 5938.00    2.28855   2.19680   -1.000
 5939.00    2.27296   2.19687   25.893
 5940.00    2.24278   2.18867   26.152
 5941.00    2.23054   2.17731   26.307
 5942.00    2.24264   2.17055   26.300
 5943.00    2.25320   2.17286   26.154
 5944.00    2.26277   2.18190   25.999
 5945.00    2.26038   2.19087   25.893
 5946.00    2.25561   2.19348   25.954
 5947.00    2.25349   2.18751   26.178
 5948.00    2.23313   2.17658   26.454
 5949.00    2.22482   2.16833   26.530
 5950.00    2.23731   2.16718   26.406
 5951.00    2.24227   2.16956   26.303
 5952.00    2.24062   2.16914   26.360
 5953.00    2.24140   2.16632   26.347
 5954.00    2.24898   2.16608   26.298
 5955.00    2.24993   2.16756   26.299
 5956.00    2.23999   2.16577   26.402
 5957.00    2.23702   2.16210   26.446
 5958.00    2.24992   2.16368   -1.000
 5959.00    2.27424   2.17432   -1.000
 5960.00    2.28785   2.19069   -1.000
 5961.00    2.29105   2.20591   25.693
 5962.00    2.29599   2.21513   25.661
 5963.00    2.29712   2.21722   25.715
 5964.00    2.29053   2.21334   25.853
 5965.00    2.28115   2.20637   25.944
 5966.00    2.27736   2.20093   26.038
 5967.00    2.26963   2.20085   25.989
 5968.00    2.28300   2.20618   25.798
 5969.00    2.29003   2.21412   25.724
 5970.00    2.29297   2.22235   25.715
 5971.00    2.30214   2.22900   25.662
 5972.00    2.28057   2.23184   25.632
 5973.00    2.28498   2.22896   25.759
 5974.00    2.28849   2.21923   25.962
 5975.00    2.25904   2.20334   26.161
 5976.00    2.25160   2.18579   26.349
 5977.00    2.24187   2.17378   26.472
 5978.00    2.25062   2.17272   26.370
 5979.00    2.26624   2.18233   -1.000
 5980.00    2.27422   2.19607   26.040
 5981.00    2.27360   2.20413   26.092
 5982.00    2.27746   2.19935   26.297
 5983.00    2.25526   2.18298   26.529
 5984.00    2.23885   2.16536   26.667
 5985.00    2.24348   2.15841   -1.000
 5986.00    2.25895   2.16563   -1.000
 5987.00    2.26998   2.18069   -1.000
 5988.00    2.27853   2.19521   -1.000
 5989.00    2.27837   2.20506   25.936
 5990.00    2.27656   2.20997   25.963
 5991.00    2.28244   2.21262   26.024
 5992.00    2.29526   2.21805   25.910
 5993.00    2.31180   2.22885   -1.000
 5994.00    2.31122   2.23985   25.613
 5995.00    2.30418   2.24229   25.775
 5996.00    2.29174   2.23375   25.957
 5997.00    2.28052   2.22061   26.076
 5998.00    2.28218   2.21160   26.134
 5999.00    2.28292   2.21014   26.095
 6000.00    2.29076   2.21265   26.113
 6001.00    2.27880   2.21299   26.260
 6002.00    2.26511   2.20869   26.354
 6003.00    2.26068   2.20330   26.351
 6004.00    2.25731   2.20130   26.283
 6005.00    2.25719   2.20026   26.293
 6006.00    2.24642   2.19274   26.471
 6007.00    2.23583   2.17798   26.735
 6008.00    2.23341   2.16672   26.754
 6009.00    2.24189   2.17017   26.466
 6010.00    2.25022   2.18654   26.187
 6011.00    2.26397   2.20221   26.177
 6012.00    2.27517   2.20652   26.368
 6013.00    2.28018   2.20147   -1.000
 6014.00    2.28486   2.19540   -1.000
 6015.00    2.27180   2.19252   -1.000
 6016.00    2.27003   2.19132   -1.000
 6017.00    2.27991   2.18963   -1.000
 6018.00    2.27278   2.18665   -1.000
 6019.00    2.26316   2.18145   -1.000
 6020.00    2.25720   2.17465   -1.000
 6021.00    2.25404   2.17056   -1.000
 6022.00    2.25581   2.17286   -1.000
 6023.00    2.25392   2.18017   26.399
 6024.00    2.26700   2.19001   -1.000
 6025.00    2.27901   2.20274   26.216
 6026.00    2.28896   2.21775   26.130
 6027.00    2.29792   2.23179   25.973
 6028.00    2.30551   2.24358   25.854
 6029.00    2.31339   2.25375   25.813
 6030.00    2.32073   2.26158   25.818
 6031.00    2.31546   2.26657   25.875
 6032.00    2.30499   2.27067   25.837
 6033.00    2.31938   2.27594   25.725
 6034.00    2.32614   2.28175   25.655
 6035.00    2.32897   2.28554   25.641
 6036.00    2.32936   2.28570   25.596
 6037.00    2.32795   2.28270   25.617
 6038.00    2.32409   2.27756   25.756
 6039.00    2.31450   2.27099   25.817
 6040.00    2.30641   2.26448   25.896
 6041.00    2.32416   2.26068   25.852
 6042.00    2.32800   2.26173   25.813
 6043.00    2.32441   2.26776   25.689
 6044.00    2.33571   2.27656   25.488
 6045.00    2.34756   2.28495   25.484
 6046.00    2.35550   2.29124   25.494
 6047.00    2.34786   2.29606   25.455
 6048.00    2.34114   2.30005   25.475
 6049.00    2.35144   2.30261   25.560
 6050.00    2.34226   2.30315   25.621
 6051.00    2.35261   2.30135   25.646
 6052.00    2.34804   2.29614   25.693
 6053.00    2.34008   2.28677   25.794
 6054.00    2.32662   2.27458   25.876
 6055.00    2.30131   2.26270   26.014
 6056.00    2.30586   2.25508   26.100
 6057.00    2.31461   2.25489   26.064
 6058.00    2.32598   2.26205   25.932
 6059.00    2.32521   2.27258   25.797
 6060.00    2.32143   2.28111   25.815
 6061.00    2.32267   2.28294   25.873
 6062.00    2.31550   2.27504   26.219
 6063.00    2.34944   2.25752   -1.000
 6064.00    2.22203   2.23534   25.957
 6065.00    2.22291   2.21912   38.845
 6066.00    1.30551   2.22025   -1.000
 6067.00    1.13489   2.23982   -1.000
 6068.00    1.99896   2.26672   -1.000
 6069.00    2.38640   2.28937   -1.000
 6070.00    2.24594   2.30366   25.251
 6071.00    2.33794   2.31117   24.873
 6072.00    1.07913   2.31484   -1.000
 6073.00    1.30190   2.31658   -1.000
 6074.00    2.26805   2.31641   25.592
 6075.00    2.36544   2.31283   25.672
 6076.00    2.33961   2.30411   25.803
 6077.00    2.32397   2.29038   25.950
 6078.00    2.30647   2.27500   26.148
 6079.00    2.30094   2.26280   26.312
 6080.00    2.30301   2.25545   26.339
 6081.00    2.30294   2.25027   26.361
 6082.00    2.29253   2.24543   26.432
 6083.00    2.28740   2.24239   26.438
 6084.00    2.28333   2.24250   26.419
 6085.00    2.28130   2.24570   26.392
 6086.00    2.29046   2.25187   26.319
 6087.00    2.30461   2.25915   26.215
 6088.00    2.30568   2.26306   26.252
 6089.00    2.28726   2.26049   26.404
 6090.00    2.27448   2.25346   26.522
 6091.00    2.27348   2.24754   26.519
 6092.00    2.28416   2.24746   26.361
 6093.00    2.30283   2.25419   26.224
 6094.00    2.31812   2.26513   26.078
 6095.00    2.32276   2.27605   25.962
 6096.00    2.32395   2.28410   25.960
 6097.00    2.32801   2.28935   26.022
 6098.00    2.32109   2.29224   26.043
 6099.00    2.31122   2.28897   26.046
 6100.00    2.29775   2.27145   26.328
 6101.00    2.26655   2.23629   26.948
 6102.00    2.21880   2.19484   27.409
 6103.00    2.21190   2.17004   27.270
 6104.00    2.25284   2.17660   -1.000
 6105.00    2.28624   2.20610   -1.000
 6106.00    2.29093   2.23829   26.233
 6107.00    2.28512   2.26134   26.319
 6108.00    2.29440   2.27575   26.390
 6109.00    2.29782   2.28553   26.385
 6110.00    2.30445   2.29137   26.332
 6111.00    2.30335   2.29325   26.221
 6112.00    2.30991   2.29454   26.204
 6113.00    2.31126   2.29848   26.079
 6114.00    2.31499   2.30357   26.006
 6115.00    2.32248   2.30571   26.092
 6116.00    2.31417   2.30349   26.261
 6117.00    2.30839   2.29861   26.312
 6118.00    2.29437   2.29001   26.429
 6119.00    2.27520   2.27199   26.789
 6120.00    2.25246   2.24105   27.145
 6121.00    2.21303   2.20365   27.412
 6122.00    2.21053   2.17601   27.457
 6123.00    2.24754   2.17176   -1.000
 6124.00    2.27021   2.18938   -1.000
 6125.00    2.27501   2.21544   26.650
 6126.00    2.26919   2.23681   26.795
 6127.00    2.25062   2.24875   26.782
 6128.00    2.27783   2.25537   26.723
 6129.00    2.28698   2.26466   26.520
 6130.00    2.29200   2.28019   26.270
 6131.00    2.28453   2.29737   26.196
 6132.00    2.28974   2.30795   26.238
 6133.00    2.28650   2.30386   26.469
 6134.00    2.24751   2.27790   27.037
 6135.00    2.18777   2.22950   27.827
 6136.00    2.12823   2.17345   28.543
 6137.00    2.11711   2.13656   28.689
 6138.00    2.15205   2.13640   28.040
 6139.00    2.20125   2.16331   27.244
 6140.00    2.22066   2.19333   26.895
 6141.00    2.22473   2.21498   26.914
 6142.00    2.21875   2.23380   26.963
 6143.00    2.23383   2.25649   26.721
 6144.00    2.27210   2.27930   26.400
 6145.00    2.28781   2.29323   26.332
 6146.00    2.28352   2.29451   26.442
 6147.00    2.28467   2.28582   26.608
 6148.00    2.26723   2.27246   26.799
 6149.00    2.24732   2.25998   26.960
 6150.00    2.23604   2.25291   26.977
 6151.00    2.23826   2.25362   26.885
 6152.00    2.25914   2.25969   26.704
 6153.00    2.26004   2.26355   26.655
 6154.00    2.25673   2.25952   26.859
 6155.00    2.25747   2.25019   27.010
 6156.00    2.23986   2.24178   27.039
 6157.00    2.22336   2.23543   27.141
 6158.00    2.20768   2.22445   27.414
 6159.00    2.17775   2.19789   27.918
 6160.00    2.12323   2.14931   28.739
 6161.00    2.05942   2.08719   29.583
 6162.00    2.02816   2.03528   29.925
 6163.00    2.05288   2.01661   29.545
 6164.00    2.09500   2.03460   28.753
 6165.00    2.11450   2.07243   28.274
 6166.00    2.12261   2.10832   28.128
 6167.00    2.13147   2.12667   28.186
 6168.00    2.11962   2.12286   28.528
 6169.00    2.09146   2.10834   28.830
 6170.00    2.08603   2.10448   28.665
 6171.00    2.11657   2.12172   28.133
 6172.00    2.14215   2.15112   27.722
 6173.00    2.14774   2.17841   27.711
 6174.00    2.15950   2.19685   27.739
 6175.00    2.16764   2.20698   27.678
 6176.00    2.16690   2.21269   27.623
 6177.00    2.16918   2.21845   27.550
 6178.00    2.17303   2.22585   27.419
 6179.00    2.17702   2.23344   27.316
 6180.00    2.18848   2.24072   27.228
 6181.00    2.20076   2.24886   27.105
 6182.00    2.20599   2.25699   27.030
 6183.00    2.20864   2.26122   27.074
 6184.00    2.19293   2.25829   27.168
 6185.00    2.17618   2.24799   27.374
 6186.00    2.16729   2.23271   27.669
 6187.00    2.14838   2.21603   27.958
 6188.00    2.13250   2.19953   28.226
 6189.00    2.11930   2.18048   28.435
 6190.00    2.08287   2.15706   28.794
 6191.00    2.06485   2.13741   28.998
 6192.00    2.08179   2.13585   28.717
 6193.00    2.12369   2.15590   28.029
 6194.00    2.15941   2.18607   27.546
 6195.00    2.16350   2.21344   27.355
 6196.00    2.16802   2.23173   27.307
 6197.00    2.17305   2.23848   27.467
 6198.00    2.15884   2.23382   27.778
 6199.00    2.14707   2.22301   28.015
 6200.00    2.13439   2.21589   28.010
 6201.00    2.13627   2.21964   27.744
 6202.00    2.14694   2.23277   27.398
 6203.00    2.15142   2.24857   27.297
 6204.00    2.15579   2.26176   27.297
 6205.00    2.16827   2.27073   27.255
 6206.00    2.18877   2.27632   27.249
 6207.00    2.20419   2.27968   27.347
 6208.00    2.20559   2.28042   27.355
 6209.00    2.18964   2.27642   27.464
 6210.00    2.16500   2.26526   27.707
 6211.00    2.15362   2.24561   27.928
 6212.00    2.13659   2.21850   28.197
 6213.00    2.10573   2.18907   28.616
 6214.00    2.09368   2.16563   28.919
 6215.00    2.08810   2.15408   29.012
 6216.00    2.09489   2.15353   28.668
 6217.00    2.10519   2.15729   28.503
 6218.00    2.10563   2.15852   28.694
 6219.00    2.10747   2.15648   28.621
 6220.00    2.10466   2.15665   28.412
 6221.00    2.10220   2.16332   28.554
 6222.00    2.14465   2.17397   30.511
 6223.00    2.09566   2.18306   29.828
 6224.00    1.82251   2.18875   -1.000
 6225.00    2.02347   2.19226   -1.000
 6226.00    2.13345   2.19330   28.265
 6227.00    2.14263   2.18816   28.411
 6228.00    2.12411   2.17182   28.781
 6229.00    2.08987   2.14418   29.256
 6230.00    2.05390   2.11484   29.641
 6231.00    2.05018   2.09878   29.559
 6232.00    2.06344   2.10501   29.154
 6233.00    2.10271   2.13029   28.610
 6234.00    2.13531   2.16243   28.137
 6235.00    2.15477   2.18766   27.977
 6236.00    2.15984   2.19753   28.140
 6237.00    2.13353   2.19232   28.420
 6238.00    2.11611   2.17883   28.710
 6239.00    2.10410   2.16481   29.015
 6240.00    2.09480   2.15446   29.154
 6241.00    2.07853   2.14713   29.153
 6242.00    2.06245   2.13911   29.344
 6243.00    2.05718   2.12825   29.543
 6244.00    2.06417   2.11700   29.544
 6245.00    2.07982   2.11085   29.369
 6246.00    2.09027   2.11551   29.085
 6247.00    2.09985   2.13332   28.721
 6248.00    2.13308   2.15914   28.414
 6249.00    2.13485   2.18122   28.359
 6250.00    2.11939   2.18799   28.598
 6251.00    2.09146   2.17569   29.106
 6252.00    2.06313   2.15126   29.487
 6253.00    2.06250   2.12738   29.702
 6254.00    2.06753   2.11277   29.795
 6255.00    2.05832   2.10674   29.791
 6256.00    2.04042   2.10323   30.032
 6257.00    2.01324   2.09905   30.305
 6258.00    2.02694   2.09762   30.216
 6259.00    2.04932   2.10520   29.787
 6260.00    2.07835   2.12493   29.336
 6261.00    2.10360   2.15380   28.934
 6262.00    2.12237   2.18318   28.491
 6263.00    2.12806   2.20383   28.317
 6264.00    2.11388   2.21242   28.508
 6265.00    2.11377   2.21386   28.707
 6266.00    2.10922   2.21554   28.611
 6267.00    2.10282   2.21939   28.406
 6268.00    2.10788   2.22179   28.473
 6269.00    2.09983   2.22046   28.618
 6270.00    2.08857   2.21862   28.600
 6271.00    2.10491   2.22056   28.505
 6272.00    2.13155   2.22537   28.434
 6273.00    2.13856   2.22691   28.494
 6274.00    2.12029   2.21916   28.690
 6275.00    2.10012   2.20148   28.921
 6276.00    2.06529   2.17841   29.360
 6277.00    2.02838   2.15597   30.080
 6278.00    1.99553   2.13828   -1.000
 6279.00    1.96537   2.12746   -1.000
 6280.00    1.95644   2.12610   -1.000
 6281.00    1.94447   2.13644   -1.000
 6282.00    1.95049   2.15720   -1.000
 6283.00    1.95683   2.18322   -1.000
 6284.00    1.98124   2.20815   -1.000
 6285.00    2.01630   2.22808   -1.000
 6286.00    2.06139   2.24261   -1.000
 6287.00    2.10511   2.25240   -1.000
 6288.00    2.13222   2.25663   28.204
 6289.00    2.14402   2.25369   28.334
 6290.00    2.14281   2.24476   28.568
 6291.00    2.14501   2.23437   28.785
 6292.00    2.13650   2.22669   28.859
 6293.00    2.11874   2.22270   28.890
 6294.00    2.11423   2.21977   28.940
 6295.00    2.10520   2.21341   29.145
 6296.00    2.09162   2.20187   29.344
 6297.00    2.07335   2.18935   29.405
 6298.00    2.05578   2.18147   29.369
 6299.00    2.06533   2.17809   29.253
 6300.00    2.06791   2.17449   29.122
 6301.00    2.06407   2.16985   29.326
 6302.00    2.07700   2.17052   29.658
 6303.00    2.09885   2.18260   29.480
 6304.00    2.12125   2.20385   29.027
 6305.00    2.13074   2.22669   28.657
 6306.00    2.13886   2.24594   28.402
 6307.00    2.16038   2.25992   28.146
 6308.00    2.16737   2.26772   28.075
 6309.00    2.15146   2.26918   28.183
 6310.00    2.15449   2.26607   28.369
 6311.00    2.14746   2.26079   28.489
 6312.00    2.13024   2.25406   28.604
 6313.00    2.13075   2.24457   28.642
 6314.00    2.11851   2.23183   28.877
 6315.00    2.10897   2.21815   29.005
 6316.00    2.11425   2.20629   28.997
 6317.00    2.11355   2.19815   28.968
 6318.00    2.10175   2.19699   29.001
 6319.00    2.10849   2.20632   28.913
 6320.00    2.14431   2.22421   28.590
 6321.00    2.16762   2.24330   28.298
 6322.00    2.16329   2.25896   28.170
 6323.00    2.17148   2.27267   28.077
 6324.00    2.18404   2.28584   27.931
 6325.00    2.19019   2.29616   27.835
 6326.00    2.19491   2.30164   27.812
 6327.00    2.20314   2.30340   27.688
 6328.00    2.20338   2.30391   27.692
 6329.00    2.20210   2.30476   27.716
 6330.00    2.20639   2.30684   27.735
 6331.00    2.22069   2.31034   27.648
 6332.00    2.22197   2.31204   27.594
 6333.00    2.20391   2.30522   27.655
 6334.00    2.18215   2.28647   27.727
 6335.00    2.18185   2.26174   28.303
 6336.00    2.19136   2.24332   28.454
 6337.00    2.16856   2.23999   28.242
 6338.00    2.18702   2.25104   27.957
 6339.00    2.20529   2.26969   27.651
 6340.00    2.21685   2.28847   27.494
 6341.00    2.22492   2.30044   27.362
 6342.00    2.21259   2.30144   27.363
 6343.00    2.19468   2.29364   27.585
 6344.00    2.18532   2.28479   27.655
 6345.00    2.18313   2.28241   27.590
 6346.00    2.18798   2.28910   27.448
 6347.00    2.20143   2.30320   27.260
 6348.00    2.23268   2.32081   27.144
 6349.00    2.22893   2.33675   27.138
 6350.00    2.22667   2.34668   27.088
 6351.00    2.21811   2.34879   27.101
 6352.00    2.20600   2.34301   27.208
 6353.00    2.19843   2.33056   27.333
 6354.00    2.18835   2.31509   27.624
 6355.00    2.16780   2.30153   27.877
 6356.00    2.16695   2.29127   27.918
 6357.00    2.17199   2.28093   27.986
 6358.00    2.15662   2.26828   28.277
 6359.00    2.14491   2.25544   28.429
 6360.00    2.14173   2.24483   28.342
 6361.00    2.14713   2.23702   28.244
 6362.00    2.14664   2.23344   28.210
 6363.00    2.14887   2.23661   28.123
 6364.00    2.16006   2.24717   27.947
 6365.00    2.17084   2.26294   27.767
 6366.00    2.19717   2.28069   27.614
 6367.00    2.21664   2.29721   27.442
 6368.00    2.21946   2.30921   27.260
 6369.00    2.22160   2.31513   27.174
 6370.00    2.22645   2.31775   27.184
 6371.00    2.23577   2.32222   27.108
 6372.00    2.24323   2.33073   27.001
 6373.00    2.23228   2.34044   27.048
 6374.00    2.22432   2.34697   27.079
 6375.00    2.22983   2.34827   27.131
 6376.00    2.21855   2.34453   27.227
 6377.00    2.19802   2.33671   27.361
 6378.00    2.18538   2.32667   27.543
 6379.00    2.18123   2.31701   27.660
 6380.00    2.17255   2.30972   27.689
 6381.00    2.17778   2.30567   27.736
 6382.00    2.18179   2.30474   27.738
 6383.00    2.18953   2.30624   27.672
 6384.00    2.18005   2.31005   27.772
 6385.00    2.18590   2.31647   27.848
 6386.00    2.18350   2.32412   27.835
 6387.00    2.16724   2.33010   -1.000
 6388.00    2.15646   2.33266   -1.000
 6389.00    2.15421   2.33148   -1.000
 6390.00    2.13130   2.32496   -1.000
 6391.00    2.11110   2.31062   -1.000
 6392.00    2.09068   2.29062   -1.000
 6393.00    2.07712   2.27484   -1.000
 6394.00    2.07422   2.27399   -1.000
 6395.00    2.07831   2.28898   -1.000
 6396.00    2.08867   2.30833   -1.000
 6397.00    2.08220   2.31669   -1.000
 6398.00    2.05992   2.30665   -1.000
 6399.00    2.02663   2.28555   -1.000
 6400.00    2.01230   2.27107   -1.000
 6401.00    2.02080   2.27647   -1.000
 6402.00    2.03884   2.29976   -1.000
 6403.00    2.05690   2.32756   -1.000
 6404.00    2.05454   2.34646   -1.000
 6405.00    2.03414   2.34991   -1.000
 6406.00    2.01126   2.34000   -1.000
 6407.00    1.98665   2.32592   -1.000
 6408.00    1.97137   2.31726   -1.000
 6409.00    1.96515   2.31553   -1.000
 6410.00    1.95061   2.31492   -1.000
 6411.00    1.92118   2.31228   -1.000
 6412.00    1.90664   2.31109   -1.000
 6413.00    1.92011   2.31479   -1.000
 6414.00    1.91743   2.32186   -1.000
 6415.00    1.91185   2.32891   -1.000
 6416.00    1.89955   2.33354   -1.000
 6417.00    1.88146   2.33304   -1.000
 6418.00    1.84760   2.32445   -1.000
 6419.00    1.82667   2.30881   -1.000
 6420.00    1.79501   2.29387   -1.000
 6421.00    1.77688   2.29047   -1.000
 6422.00    1.78645   2.30371   -1.000
 6423.00    1.79841   2.32776   -1.000
 6424.00    1.79158   2.35196   -1.000
 6425.00    1.78072   2.37035   -1.000
 6426.00    1.76014   2.38166   -1.000
 6427.00    1.74352   2.38373   -1.000
 6428.00    1.72204   2.37289   -1.000
