###################################################################
## OUTPUT of StarlightChains_v04.for    [Cid@UFSC - 01/Apr/2007] ##
###################################################################

## Some input info
NGC6652_b_1.cxt                          [arq_obs]
Base.BC03.N                              [arq_base]
NGC6652_b_1.msk                          [arq_masks]
StCv04.C99.config                        [arq_config]
   45                                    [N_base]
    0                                    [N_YAV_components = # of components with extra extinction!]
    0                                    [i_FitPowerLaw (1/0 = Yes/No)]
-9.99                                    [alpha_PowerLaw]
CCM                                      [red_law_option]
 1.458241                                [q_norm = A(l_norm)/A(V)]

## (Re)Sampling Parameters
 3359.00                                 [l_ini (A)]
 6428.00                                 [l_fin (A)]
    1.00                                 [dl    (A)]     (OBS: dl_cushion =    50.00 A)

## Normalization info
 4020.00                                 [l_norm (A) - for base]
 4010.00                                 [llow_norm (A) - window for f_obs]
 4060.00                                 [lupp_norm (A) - window for f_obs]
1.611308E-14                             [fobs_norm (in input units)]

## S/N
 4730.00                                 [llow_SN (A) - window for S/N]
 4780.00                                 [lupp_SN (A) - window for S/N]
  60.034                                 [S/N in S/N window]
  49.598                                 [S/N in norm. window]
  73.857                                 [S/N_err in S/N window]
  61.019                                 [S/N_err in norm. window]
  1.0000                                 [fscale_chi2]

## etc...
  2147483591                             [idum_orig]
  3066                                   [NOl_eff]
  1940                                   [Nl_eff]
  1126    NSIGMA                         [Ntot_cliped & clip_method]
  1155560                                [Nglobal_steps]
   7                                     [N_chains]
   7                                     [NEX0s_base = N_base in EX0s-fits]
 0   0   1      173   2.0   7.711E+02    [Clip-Bug, RC-Crash & Burn-In warning-flags, n_censored_weights, wei_nsig_threshold & wei_limit]
    18     18.393     18.389      0.004  [idt_all, wdt_TotTime, wdt_UsrTime & wdt_SysTime (sec)]

## Synthesis Results - Best model ##

 2.18375E+00                             [chi2/Nl_eff]
     1.78725                             [adev (%)]

   101.03662                             [sum-of-x (%)]
 1.89444E-14                             [Flux_tot (units of input spectrum!)]
 3.62838E-10                             [Mini_tot (???)]
 1.87516E-10                             [Mcor_tot (???)]

  26.36                                  [v0_min  (km/s)]
  53.69                                  [vd_min  (km/s)]
 0.1128                                  [AV_min  (mag)]
 0.0000                                  [YAV_min (mag)]

# j     x_j(%)      Mini_j(%)     Mcor_j(%)     age_j(yr)     Z_j      (L/M)_j    YAV?  Mstars   component_j        a/Fe...       SSP_chi2r SSP_adev(%)   SSP_AV   SSP_x(%)
  1      0.0000     0.0000E+00    0.0000E+00    1.000000E+06  0.00400  1.114E-02    0   1.0000   age020_m42            0.0000     2.2443E+02    14.4476   4.0000    70.4677
  2      0.0000     0.0000E+00    0.0000E+00    3.160000E+06  0.00400  4.073E-02    0   0.9999   age045_m42            0.0000     7.3445E+01     9.8470   3.0444    87.6039
  3      0.0000     0.0000E+00    0.0000E+00    5.010000E+06  0.00400  2.534E-02    0   0.9488   age055_m42            0.0000     1.2767E+02    12.9161   3.5610    78.1935
  4      0.0000     0.0000E+00    0.0000E+00    1.000000E+07  0.00400  1.271E-02    0   0.8862   age070_m42            0.0000     1.1382E+02    12.6349   2.7480    82.5197
  5      0.0000     0.0000E+00    0.0000E+00    2.512000E+07  0.00400  5.070E-03    0   0.8174   age090_m42            0.0000     1.0397E+02    12.0361   2.6141    84.0850
  6      0.0000     0.0000E+00    0.0000E+00    4.000000E+07  0.00400  3.505E-03    0   0.7851   age104_m42            0.0000     7.7449E+01    10.1695   2.2632    88.0379
  7      0.0000     0.0000E+00    0.0000E+00    1.015200E+08  0.00400  2.268E-03    0   0.7207   age116_m42            0.0000     1.1707E+02     8.1279   1.8979   110.3100
  8      0.0000     0.0000E+00    0.0000E+00    2.861200E+08  0.00400  1.079E-03    0   0.6613   age125_m42            0.0000     1.1670E+02     8.2404   1.3917   112.9162
  9      0.0000     0.0000E+00    0.0000E+00    6.405400E+08  0.00400  5.077E-04    0   0.6197   age132_m42            0.0000     1.2625E+02     8.5410   1.0030   118.3086
 10      3.4817     5.0896E-01    5.9326E-01    9.047900E+08  0.00400  3.535E-04    0   0.6024   age135_m42            0.0000     7.1640E+01     6.7631   0.8376   114.5495
 11     26.7268     7.2311E+00    7.9978E+00    1.434000E+09  0.00400  1.910E-04    0   0.5716   age139_m42            0.0000     2.2912E+01     4.1782   0.3902   109.7275
 12     33.3298     1.7543E+01    1.8544E+01    2.500000E+09  0.00400  9.818E-05    0   0.5463   age150_m42            0.0000     2.6798E+00     1.7854   0.2287   100.7073
 13      0.0000     0.0000E+00    0.0000E+00    5.000000E+09  0.00400  4.718E-05    0   0.5228   age161_m42            0.0000     7.9374E+00     2.6480   0.1229    95.2238
 14     29.6785     6.9554E+01    6.7024E+01    1.100000E+10  0.00400  2.205E-05    0   0.4980   age185_m42            0.0000     1.8898E+01     3.6976  -0.1133    92.1389
 15      0.0000     0.0000E+00    0.0000E+00    1.300000E+10  0.00400  1.883E-05    0   0.4927   age193_m42            0.0000     2.1976E+01     3.9449  -0.1235    91.7258
 16      0.0000     0.0000E+00    0.0000E+00    1.000000E+06  0.02000  1.989E-02    0   1.0000   age020_m62            0.0000     2.1738E+02    14.4446   4.0000    70.7654
 17      0.0000     0.0000E+00    0.0000E+00    3.160000E+06  0.02000  3.772E-02    0   0.9858   age045_m62            0.0000     1.9104E+02    15.1137   4.0000    71.6170
 18      0.0000     0.0000E+00    0.0000E+00    5.010000E+06  0.02000  3.227E-02    0   0.9342   age055_m62            0.0000     9.7279E+01    11.4349   3.3614    82.8238
 19      0.0000     0.0000E+00    0.0000E+00    1.000000E+07  0.02000  1.011E-02    0   0.8751   age070_m62            0.0000     2.0701E+02    16.4943   2.8928    75.2819
 20      0.0000     0.0000E+00    0.0000E+00    2.512000E+07  0.02000  4.206E-03    0   0.8099   age090_m62            0.0000     1.6965E+02    14.6684   2.8064    76.8942
 21      0.0000     0.0000E+00    0.0000E+00    4.000000E+07  0.02000  3.373E-03    0   0.7799   age104_m62            0.0000     7.2708E+01     9.7946   2.4451    90.7631
 22      0.0000     0.0000E+00    0.0000E+00    1.015200E+08  0.02000  1.878E-03    0   0.7221   age116_m62            0.0000     9.5729E+01     7.9699   1.9956   108.1571
 23      0.0000     0.0000E+00    0.0000E+00    2.861200E+08  0.02000  8.869E-04    0   0.6700   age125_m62            0.0000     2.1690E+02    10.7380   1.2830   122.6604
 24      0.0000     0.0000E+00    0.0000E+00    6.405400E+08  0.02000  3.657E-04    0   0.6322   age132_m62            0.0000     1.2394E+02     8.9361   0.6645   123.4487
 25      0.0000     0.0000E+00    0.0000E+00    9.047900E+08  0.02000  2.312E-04    0   0.6152   age135_m62            0.0000     5.6687E+01     6.3253   0.3825   118.6566
 26      0.0000     0.0000E+00    0.0000E+00    1.434000E+09  0.02000  1.168E-04    0   0.5865   age139_m62            0.0000     6.8152E+00     2.6173   0.1260   106.3707
 27      0.0000     0.0000E+00    0.0000E+00    2.500000E+09  0.02000  5.505E-05    0   0.5610   age150_m62            0.0000     8.5004E+00     3.0179  -0.1968   101.4338
 28      0.0000     0.0000E+00    0.0000E+00    5.000000E+09  0.02000  2.596E-05    0   0.5353   age161_m62            0.0000     2.6090E+01     4.7286  -0.5259   101.0136
 29      0.0000     0.0000E+00    0.0000E+00    1.100000E+10  0.02000  1.169E-05    0   0.5103   age185_m62            0.0000     5.2804E+01     6.5593  -0.9036   102.5250
 30      0.0000     0.0000E+00    0.0000E+00    1.300000E+10  0.02000  9.691E-06    0   0.5047   age193_m62            0.0000     5.8873E+01     6.8767  -0.9493   102.6761
 31      0.0000     0.0000E+00    0.0000E+00    1.000000E+06  0.05000  2.651E-02    0   0.9998   age020_m72            0.0000     2.0771E+02    13.9615   4.0000    71.7021
 32      0.0000     0.0000E+00    0.0000E+00    3.160000E+06  0.05000  4.817E-02    0   0.9577   age045_m72            0.0000     1.4994E+02    13.6237   3.8315    75.8742
 33      0.0000     0.0000E+00    0.0000E+00    5.010000E+06  0.05000  3.101E-02    0   0.9147   age055_m72            0.0000     1.4129E+02    13.3819   3.4656    78.5204
 34      0.0000     0.0000E+00    0.0000E+00    1.000000E+07  0.05000  8.954E-03    0   0.8524   age070_m72            0.0000     1.4245E+02    13.2285   3.7273    76.7129
 35      0.0000     0.0000E+00    0.0000E+00    2.512000E+07  0.05000  4.207E-03    0   0.7902   age090_m72            0.0000     8.5316E+01    10.4387   3.2012    84.7373
 36      0.0000     0.0000E+00    0.0000E+00    4.000000E+07  0.05000  3.198E-03    0   0.7618   age104_m72            0.0000     5.9713E+01     7.1797   2.4716    99.9669
 37      0.0000     0.0000E+00    0.0000E+00    1.015200E+08  0.05000  1.716E-03    0   0.7092   age116_m72            0.0000     1.1353E+02     8.3071   2.0422   109.7632
 38      0.0000     0.0000E+00    0.0000E+00    2.861200E+08  0.05000  7.047E-04    0   0.6618   age125_m72            0.0000     2.0819E+02    10.8608   1.0592   123.5624
 39      0.0000     0.0000E+00    0.0000E+00    6.405400E+08  0.05000  2.633E-04    0   0.6253   age132_m72            0.0000     8.6795E+01     7.8605   0.3108   121.4799
 40      0.0000     0.0000E+00    0.0000E+00    9.047900E+08  0.05000  1.484E-04    0   0.6088   age135_m72            0.0000     1.7921E+01     4.0065  -0.0221   110.1365
 41      7.8198     5.1629E+00    5.8412E+00    1.434000E+09  0.05000  7.827E-05    0   0.5847   age139_m72            0.0000     1.3679E+01     3.7741  -0.3338   103.4763
 42      0.0000     0.0000E+00    0.0000E+00    2.500000E+09  0.05000  3.759E-05    0   0.5583   age150_m72            0.0000     2.9795E+01     5.0617  -0.6228   101.2787
 43      0.0000     0.0000E+00    0.0000E+00    5.000000E+09  0.05000  1.548E-05    0   0.5320   age161_m72            0.0000     5.4829E+01     6.7425  -1.0000   100.0464
 44      0.0000     0.0000E+00    0.0000E+00    1.100000E+10  0.05000  6.532E-06    0   0.5070   age185_m72            0.0000     1.6238E+02    12.0752  -1.0000    93.1885
 45      0.0000     0.0000E+00    0.0000E+00    1.300000E+10  0.05000  5.316E-06    0   0.5018   age193_m72            0.0000     2.2845E+02    14.1906  -1.0000    90.8290


## Synthesis Results - Average & Chains ##

# j      x_j: min, <> & last-chain-values for 1 ...  7 chains
  1      0.0000      0.0016      0.0000      0.0000      0.0000      0.0000      0.0000      0.0000      0.0000
  2      0.0000      0.0282      0.0243      0.0000      0.0000      0.1654      0.0000      0.0001      0.0000
  3      0.0000      0.0040      0.0000      0.0000      0.0000      0.0000      0.0000      0.0000      0.0000
  4      0.0000      0.0168      0.0000      0.0000      0.0000      0.0000      0.0000      0.0000      0.0000
  5      0.0000      0.0134      0.0000      0.0000      0.0000      0.0000      0.0000      0.0000      0.0000
  6      0.0000      0.0174      0.0000      0.0000      0.0000      0.0000      0.0000      0.0000      0.0000
  7      0.0000      0.1371      0.1958      0.1356      0.0000      0.4548      0.2753      0.0000      0.0000
  8      0.0000      0.0975      0.0000      0.0000      0.0000      0.0000      0.0000      0.0308      0.0000
  9      0.0000      0.3192      0.1596      0.0510      0.0000      0.0000      0.8435      0.4185      0.0000
 10      3.4817      7.9823      7.8297      6.5513      6.7562      7.5565      7.8364      7.1738      7.8517
 11     26.7268     31.2850     29.5271     31.7261     31.8245     30.2060     29.6402     31.3168     31.0300
 12     33.3298      8.8549     14.6883     14.0031     16.1524     13.1210     12.6367     11.1801     14.7854
 13      0.0000      2.6075      2.5204      3.6801      2.0194      3.3676      2.3324      4.6514      2.5150
 14     29.6785     41.5673     38.5700     37.3498     36.9767     37.3731     39.8039     39.1142     38.3077
 15      0.0000      0.1827      0.3822      0.2338      0.4173      0.0000      0.0000      0.0000      0.0000
 16      0.0000      0.0008      0.0000      0.0000      0.0000      0.0000      0.0000      0.0000      0.0000
 17      0.0000      0.0023      0.0000      0.0000      0.0000      0.0000      0.0000      0.0000      0.0000
 18      0.0000      0.0124      0.0000      0.0000      0.0000      0.0000      0.0000      0.0000      0.0000
 19      0.0000      0.0034      0.0000      0.0000      0.0000      0.0000      0.0000      0.0000      0.0000
 20      0.0000      0.0031      0.0000      0.0000      0.0000      0.0000      0.0000      0.0000      0.0000
 21      0.0000      0.0069      0.0000      0.0000      0.0000      0.0000      0.0000      0.0000      0.0000
 22      0.0000      0.0277      0.0000      0.0000      0.0000      0.0000      0.0000      0.0000      0.0000
 23      0.0000      0.0161      0.0000      0.0000      0.0000      0.0000      0.0000      0.0000      0.0000
 24      0.0000      0.0301      0.0000      0.0000      0.0000      0.0000      0.0000      0.0000      0.0000
 25      0.0000      0.1034      0.1150      0.0000      0.0000      0.0519      0.0000      0.0044      0.0000
 26      0.0000      0.5571      0.0000      0.0299      0.6019      0.4113      0.0512      0.0000      0.0000
 27      0.0000      1.0758      0.9472      0.7121      1.2282      0.8327      1.2408      1.1573      1.0250
 28      0.0000      0.7240      1.3809      0.7652      0.6547      0.9758      0.5541      0.9273      0.7245
 29      0.0000      0.0636      0.0000      0.1045      0.0000      0.0000      0.0000      0.0122      0.0757
 30      0.0000      0.0589      0.0000      0.0000      0.5794      0.0000      0.0000      0.0146      0.0000
 31      0.0000      0.0030      0.0000      0.0000      0.0000      0.0000      0.0000      0.0000      0.0000
 32      0.0000      0.0031      0.0000      0.0000      0.0000      0.0000      0.0000      0.0000      0.0000
 33      0.0000      0.0043      0.0000      0.0000      0.0000      0.0000      0.0325      0.0000      0.0000
 34      0.0000      0.0026      0.0000      0.0000      0.0000      0.0000      0.0000      0.0000      0.0000
 35      0.0000      0.0038      0.0000      0.0000      0.0000      0.0000      0.0000      0.0000      0.0000
 36      0.0000      0.0240      0.0000      0.0000      0.0000      0.0000      0.0000      0.0000      0.0000
 37      0.0000      0.0253      0.0000      0.0000      0.0000      0.1046      0.0000      0.0000      0.0078
 38      0.0000      0.0379      0.0000      0.0000      0.0000      0.0000      0.0000      0.0000      0.0000
 39      0.0000      0.9568      0.9796      0.6843      0.0248      0.3855      0.3597      0.9734      0.0000
 40      0.0000      0.4520      0.0865      0.0000      0.0000      0.0000      0.0000      0.0000      0.0000
 41      7.8198      2.8608      2.7768      4.1637      3.5376      5.3018      5.0998      3.5984      3.9809
 42      0.0000      0.7934      0.8157      0.8443      0.2784      0.7753      0.3561      0.4005      0.7086
 43      0.0000      0.0301      0.0000      0.0000      0.0000      0.0000      0.0000      0.0000      0.0000
 44      0.0000      0.0190      0.0000      0.0000      0.0000      0.0000      0.0007      0.0000      0.0000
 45      0.0000      0.0109      0.0296      0.0000      0.0527      0.0000      0.0000      0.0000      0.0000

# j      m_j: min, <> & last-chain-values for 1 ...  7 chains
  1  0.0000E+00  1.2024E-05  0.0000E+00  0.0000E+00  0.0000E+00  0.0000E+00  0.0000E+00  0.0000E+00  0.0000E+00
  2  0.0000E+00  5.7460E-05  5.1015E-05  0.0000E+00  0.0000E+00  3.5592E-04  0.0000E+00  1.4076E-07  0.0000E+00
  3  0.0000E+00  1.2331E-05  0.0000E+00  0.0000E+00  0.0000E+00  0.0000E+00  0.0000E+00  0.0000E+00  0.0000E+00
  4  0.0000E+00  9.7300E-05  0.0000E+00  0.0000E+00  0.0000E+00  0.0000E+00  0.0000E+00  0.0000E+00  0.0000E+00
  5  0.0000E+00  1.7987E-04  0.0000E+00  0.0000E+00  0.0000E+00  0.0000E+00  0.0000E+00  0.0000E+00  0.0000E+00
  6  0.0000E+00  3.2267E-04  0.0000E+00  0.0000E+00  0.0000E+00  0.0000E+00  0.0000E+00  0.0000E+00  0.0000E+00
  7  0.0000E+00  3.6155E-03  5.3201E-03  3.7546E-03  0.0000E+00  1.2668E-02  7.4968E-03  0.0000E+00  0.0000E+00
  8  0.0000E+00  4.9570E-03  0.0000E+00  0.0000E+00  0.0000E+00  0.0000E+00  0.0000E+00  1.6135E-03  0.0000E+00
  9  0.0000E+00  3.2332E-02  1.6660E-02  5.4285E-03  0.0000E+00  0.0000E+00  8.8231E-02  4.3625E-02  0.0000E+00
 10  5.9326E-01  1.1286E+00  1.1409E+00  9.7283E-01  9.9265E-01  1.1289E+00  1.1444E+00  1.0440E+00  1.1630E+00
 11  7.9978E+00  7.7683E+00  7.5558E+00  8.2735E+00  8.2114E+00  7.9246E+00  7.6014E+00  8.0036E+00  8.0714E+00
 12  1.8544E+01  4.0881E+00  6.9885E+00  6.7896E+00  7.7489E+00  6.4003E+00  6.0256E+00  5.3126E+00  7.1507E+00
 13  0.0000E+00  2.3973E+00  2.3881E+00  3.5535E+00  1.9293E+00  3.2713E+00  2.2148E+00  4.4016E+00  2.4223E+00
 14  6.7024E+01  7.7894E+01  7.4486E+01  7.3506E+01  7.2002E+01  7.3995E+01  7.7037E+01  7.5441E+01  7.5199E+01
 15  0.0000E+00  3.9656E-01  8.5522E-01  5.3301E-01  9.4139E-01  0.0000E+00  0.0000E+00  0.0000E+00  0.0000E+00
 16  0.0000E+00  3.4375E-06  0.0000E+00  0.0000E+00  0.0000E+00  0.0000E+00  0.0000E+00  0.0000E+00  0.0000E+00
 17  0.0000E+00  4.9537E-06  0.0000E+00  0.0000E+00  0.0000E+00  0.0000E+00  0.0000E+00  0.0000E+00  0.0000E+00
 18  0.0000E+00  2.9890E-05  0.0000E+00  0.0000E+00  0.0000E+00  0.0000E+00  0.0000E+00  0.0000E+00  0.0000E+00
 19  0.0000E+00  2.4430E-05  0.0000E+00  0.0000E+00  0.0000E+00  0.0000E+00  0.0000E+00  0.0000E+00  0.0000E+00
 20  0.0000E+00  4.9290E-05  0.0000E+00  0.0000E+00  0.0000E+00  0.0000E+00  0.0000E+00  0.0000E+00  0.0000E+00
 21  0.0000E+00  1.3292E-04  0.0000E+00  0.0000E+00  0.0000E+00  0.0000E+00  0.0000E+00  0.0000E+00  0.0000E+00
 22  0.0000E+00  8.8487E-04  0.0000E+00  0.0000E+00  0.0000E+00  0.0000E+00  0.0000E+00  0.0000E+00  0.0000E+00
 23  0.0000E+00  1.0070E-03  0.0000E+00  0.0000E+00  0.0000E+00  0.0000E+00  0.0000E+00  0.0000E+00  0.0000E+00
 24  0.0000E+00  4.3129E-03  0.0000E+00  0.0000E+00  0.0000E+00  0.0000E+00  0.0000E+00  0.0000E+00  0.0000E+00
 25  0.0000E+00  2.2820E-02  2.6167E-02  0.0000E+00  0.0000E+00  1.2105E-02  0.0000E+00  9.9209E-04  0.0000E+00
 26  0.0000E+00  2.3211E-01  0.0000E+00  1.3077E-02  2.6057E-01  1.8104E-01  2.2017E-02  0.0000E+00  0.0000E+00
 27  0.0000E+00  9.0961E-01  8.2536E-01  6.3233E-01  1.0791E+00  7.4393E-01  1.0835E+00  1.0071E+00  9.0791E-01
 28  0.0000E+00  1.2387E+00  2.4348E+00  1.3749E+00  1.1640E+00  1.7640E+00  9.7906E-01  1.6330E+00  1.2986E+00
 29  0.0000E+00  2.3034E-01  0.0000E+00  3.9766E-01  0.0000E+00  0.0000E+00  0.0000E+00  4.5381E-02  2.8722E-01
 30  0.0000E+00  2.5466E-01  0.0000E+00  0.0000E+00  2.6015E+00  0.0000E+00  0.0000E+00  6.4838E-02  0.0000E+00
 31  0.0000E+00  9.4229E-06  0.0000E+00  0.0000E+00  0.0000E+00  0.0000E+00  0.0000E+00  0.0000E+00  0.0000E+00
 32  0.0000E+00  5.1104E-06  0.0000E+00  0.0000E+00  0.0000E+00  0.0000E+00  0.0000E+00  0.0000E+00  0.0000E+00
 33  0.0000E+00  1.0580E-05  0.0000E+00  0.0000E+00  0.0000E+00  0.0000E+00  8.2127E-05  0.0000E+00  0.0000E+00
 34  0.0000E+00  2.0830E-05  0.0000E+00  0.0000E+00  0.0000E+00  0.0000E+00  0.0000E+00  0.0000E+00  0.0000E+00
 35  0.0000E+00  5.8816E-05  0.0000E+00  0.0000E+00  0.0000E+00  0.0000E+00  0.0000E+00  0.0000E+00  0.0000E+00
 36  0.0000E+00  4.7399E-04  0.0000E+00  0.0000E+00  0.0000E+00  0.0000E+00  0.0000E+00  0.0000E+00  0.0000E+00
 37  0.0000E+00  8.6925E-04  0.0000E+00  0.0000E+00  0.0000E+00  3.7898E-03  0.0000E+00  0.0000E+00  2.7959E-04
 38  0.0000E+00  2.9529E-03  0.0000E+00  0.0000E+00  0.0000E+00  0.0000E+00  0.0000E+00  0.0000E+00  0.0000E+00
 39  0.0000E+00  1.8853E-01  1.9893E-01  1.4161E-01  5.0869E-03  8.0261E-02  7.3211E-02  1.9742E-01  0.0000E+00
 40  0.0000E+00  1.5384E-01  3.0355E-02  0.0000E+00  0.0000E+00  0.0000E+00  0.0000E+00  0.0000E+00  0.0000E+00
 41  5.8412E+00  1.7732E+00  1.7737E+00  2.7104E+00  2.2785E+00  3.4721E+00  3.2648E+00  2.2956E+00  2.5848E+00
 42  0.0000E+00  9.7771E-01  1.0359E+00  1.0927E+00  3.5647E-01  1.0095E+00  4.5328E-01  5.0798E-01  9.1475E-01
 43  0.0000E+00  8.5797E-02  0.0000E+00  0.0000E+00  0.0000E+00  0.0000E+00  0.0000E+00  0.0000E+00  0.0000E+00
 44  0.0000E+00  1.2247E-01  0.0000E+00  0.0000E+00  0.0000E+00  0.0000E+00  4.7293E-03  0.0000E+00  0.0000E+00
 45  0.0000E+00  8.5339E-02  2.3853E-01  0.0000E+00  4.2890E-01  0.0000E+00  0.0000E+00  0.0000E+00  0.0000E+00

# AV, chi2 & Mass for <> & i_chain = 1 ...  7 solutions
AV       0.1128      0.1006      0.1036      0.1011      0.1010      0.1041      0.1005      0.1014      0.1035
chi2 2.1838E+00  2.2323E+00  2.2156E+00  2.2097E+00  2.2109E+00  2.2105E+00  2.2171E+00  2.2186E+00  2.2098E+00
Mass 1.8752E-10  2.2230E-10  2.1659E-10  2.1180E-10  2.1404E-10  2.1139E-10  2.1521E-10  2.1621E-10  2.1302E-10
  25.29                                  [v0_min (km/s) before EX0s...]
  55.94                                  [vd_min (km/s) before EX0s...]


## Synthetic spectrum (Best Model) ##l_obs f_obs f_syn wei
 3070    [Nl_obs]
 3359.00    0.00000   0.42125   -2.000
 3360.00    0.00000   0.38066   -2.000
 3361.00    0.08722   0.36473   -1.000
 3362.00    0.19619   0.38273   -1.000
 3363.00    0.22105   0.42405   -1.000
 3364.00    0.24578   0.46474   -1.000
 3365.00    0.25644   0.48465   -1.000
 3366.00    0.25275   0.47616   -1.000
 3367.00    0.24760   0.44554   -1.000
 3368.00    0.24040   0.41367   -1.000
 3369.00    0.22535   0.39492   -1.000
 3370.00    0.21673   0.38813   -1.000
 3371.00    0.22179   0.38479   -1.000
 3372.00    0.22320   0.38239   -1.000
 3373.00    0.23372   0.39184   -1.000
 3374.00    0.25270   0.41961   -1.000
 3375.00    0.27115   0.46117   -1.000
 3376.00    0.28642   0.49611   -1.000
 3377.00    0.29945   0.50219   -1.000
 3378.00    0.30573   0.47934   -1.000
 3379.00    0.29365   0.44407   -1.000
 3380.00    0.28472   0.41964   -1.000
 3381.00    0.28157   0.41777   -1.000
 3382.00    0.29422   0.43596   -1.000
 3383.00    0.30451   0.45830   -1.000
 3384.00    0.29897   0.47356   -1.000
 3385.00    0.31210   0.48659   -1.000
 3386.00    0.32402   0.49815   -1.000
 3387.00    0.32089   0.50214   -1.000
 3388.00    0.32680   0.50003   -1.000
 3389.00    0.34781   0.49675   -1.000
 3390.00    0.37344   0.49214   -1.000
 3391.00    0.38156   0.48191   -1.000
 3392.00    0.36737   0.46370   -1.000
 3393.00    0.35382   0.44844   -1.000
 3394.00    0.35185   0.45103   -1.000
 3395.00    0.36308   0.47254   -1.000
 3396.00    0.38432   0.50301   -1.000
 3397.00    0.40383   0.53165   -1.000
 3398.00    0.42166   0.55196   -1.000
 3399.00    0.43544   0.55948   -1.000
 3400.00    0.43864   0.55309   -1.000
 3401.00    0.44029   0.53685   -1.000
 3402.00    0.43850   0.51619   -1.000
 3403.00    0.42498   0.49747   -1.000
 3404.00    0.41407   0.48748   -1.000
 3405.00    0.40950   0.48367   -1.000
 3406.00    0.39804   0.47775   -1.000
 3407.00    0.39026   0.46766   -1.000
 3408.00    0.38861   0.45919   -1.000
 3409.00    0.39119   0.46184   -1.000
 3410.00    0.40438   0.47502   -1.000
 3411.00    0.41234   0.48577   -1.000
 3412.00    0.40851   0.48328   -1.000
 3413.00    0.39924   0.46898   -1.000
 3414.00    0.38735   0.45639   -1.000
 3415.00    0.38328   0.45538   -1.000
 3416.00    0.38613   0.46682   -1.000
 3417.00    0.40112   0.48609   -1.000
 3418.00    0.42711   0.50876   -1.000
 3419.00    0.44273   0.53066   -1.000
 3420.00    0.45409   0.54522   -1.000
 3421.00    0.45805   0.54559   -1.000
 3422.00    0.44452   0.53525   -1.000
 3423.00    0.43363   0.52214   -1.000
 3424.00    0.43468   0.51282   -1.000
 3425.00    0.44126   0.51015   -1.000
 3426.00    0.44704   0.51274   -1.000
 3427.00    0.45630   0.52176   -1.000
 3428.00    0.45915   0.54275   -1.000
 3429.00    0.46529   0.56589   -1.000
 3430.00    0.48206   0.57481   -1.000
 3431.00    0.49023   0.56285   -1.000
 3432.00    0.47847   0.53890   -1.000
 3433.00    0.46434   0.52008   -1.000
 3434.00    0.46714   0.51521   -1.000
 3435.00    0.47451   0.52289   -1.000
 3436.00    0.47557   0.52969   -1.000
 3437.00    0.46832   0.52611   -1.000
 3438.00    0.44328   0.50882   -1.000
 3439.00    0.41536   0.47909   -1.000
 3440.00    0.39991   0.44058   -1.000
 3441.00    0.38827   0.40602  186.920
 3442.00    0.37912   0.39078  198.688
 3443.00    0.37810   0.39650  203.267
 3444.00    0.38339   0.41258   -1.000
 3445.00    0.40134   0.43099   -1.000
 3446.00    0.42868   0.45329   -1.000
 3447.00    0.44813   0.48341   -1.000
 3448.00    0.45579   0.51616   -1.000
 3449.00    0.47077   0.54065   -1.000
 3450.00    0.49025   0.54792   -1.000
 3451.00    0.49939   0.53621   -1.000
 3452.00    0.48636   0.51133   -1.000
 3453.00    0.46915   0.49218   -1.000
 3454.00    0.47397   0.49112   -1.000
 3455.00    0.48848   0.50294   -1.000
 3456.00    0.49892   0.51271   -1.000
 3457.00    0.49751   0.50663   -1.000
 3458.00    0.48605   0.48904  771.054
 3459.00    0.46934   0.47050  771.054
 3460.00    0.45578   0.45498  336.287
 3461.00    0.44276   0.44875  164.282
 3462.00    0.44707   0.46128  165.084
 3463.00    0.47022   0.48492   -1.000
 3464.00    0.49319   0.50232   -1.000
 3465.00    0.50987   0.50683   -1.000
 3466.00    0.50931   0.50394   -1.000
 3467.00    0.50116   0.50653   -1.000
 3468.00    0.50963   0.51735   -1.000
 3469.00    0.53016   0.53022  771.054
 3470.00    0.54114   0.53820   -1.000
 3471.00    0.53948   0.53664  771.054
 3472.00    0.52945   0.52374   -1.000
 3473.00    0.51281   0.50098   -1.000
 3474.00    0.49401   0.47060   -1.000
 3475.00    0.47276   0.44307   -1.000
 3476.00    0.44748   0.43341   -1.000
 3477.00    0.44739   0.44758  167.260
 3478.00    0.47310   0.47519  169.320
 3479.00    0.49694   0.50174  266.156
 3480.00    0.50825   0.51763   -1.000
 3481.00    0.51903   0.52056  771.054
 3482.00    0.52375   0.51434   -1.000
 3483.00    0.52024   0.50394   -1.000
 3484.00    0.50907   0.49734   -1.000
 3485.00    0.50788   0.50365  771.054
 3486.00    0.52850   0.52471   -1.000
 3487.00    0.54425   0.54081   -1.000
 3488.00    0.54792   0.53408   -1.000
 3489.00    0.53876   0.50795   -1.000
 3490.00    0.50915   0.48096   -1.000
 3491.00    0.48702   0.47062   -1.000
 3492.00    0.47908   0.47505   -1.000
 3493.00    0.48295   0.48246   -1.000
 3494.00    0.49452   0.48223   -1.000
 3495.00    0.50032   0.47271   -1.000
 3496.00    0.49056   0.46213   -1.000
 3497.00    0.48423   0.46517   -1.000
 3498.00    0.49980   0.48968   -1.000
 3499.00    0.53057   0.51824   -1.000
 3500.00    0.56142   0.53396   -1.000
 3501.00    0.58026   0.53918   -1.000
 3502.00    0.58245   0.54308   -1.000
 3503.00    0.57849   0.54994   -1.000
 3504.00    0.57158   0.55097   -1.000
 3505.00    0.55815   0.54084   -1.000
 3506.00    0.55147   0.52897   -1.000
 3507.00    0.55641   0.52370   -1.000
 3508.00    0.55900   0.52342   -1.000
 3509.00    0.56164   0.52085   -1.000
 3510.00    0.56111   0.51202   -1.000
 3511.00    0.54481   0.50071   -1.000
 3512.00    0.52892   0.49077   -1.000
 3513.00    0.52497   0.47878   -1.000
 3514.00    0.51882   0.47284   -1.000
 3515.00    0.51859   0.48527   -1.000
 3516.00    0.53985   0.51415   -1.000
 3517.00    0.56949   0.54685   -1.000
 3518.00    0.58322   0.56402   -1.000
 3519.00    0.57570   0.55822   -1.000
 3520.00    0.54850   0.53425   -1.000
 3521.00    0.53181   0.50628   -1.000
 3522.00    0.51663   0.48456   -1.000
 3523.00    0.49503   0.46394   -1.000
 3524.00    0.47571   0.44338   -1.000
 3525.00    0.45449   0.43057   -1.000
 3526.00    0.44988   0.43514  165.566
 3527.00    0.47220   0.46139  168.730
 3528.00    0.49958   0.49819  259.619
 3529.00    0.53223   0.52786   -1.000
 3530.00    0.55874   0.54019   -1.000
 3531.00    0.56346   0.53784   -1.000
 3532.00    0.55442   0.53196   -1.000
 3533.00    0.55346   0.53435   -1.000
 3534.00    0.56351   0.54543   -1.000
 3535.00    0.56126   0.55598   -1.000
 3536.00    0.56746   0.56109   -1.000
 3537.00    0.57331   0.56510   -1.000
 3538.00    0.57091   0.57393  771.054
 3539.00    0.57817   0.58483   -1.000
 3540.00    0.58304   0.58643   -1.000
 3541.00    0.57854   0.57809  771.054
 3542.00    0.57427   0.57380  771.054
 3543.00    0.56814   0.57848   -1.000
 3544.00    0.57000   0.58773   -1.000
 3545.00    0.57511   0.59274   -1.000
 3546.00    0.56429   0.58905   -1.000
 3547.00    0.55175   0.58217   -1.000
 3548.00    0.54826   0.57852   -1.000
 3549.00    0.55449   0.58049   -1.000
 3550.00    0.55456   0.58402   -1.000
 3551.00    0.55838   0.58406   -1.000
 3552.00    0.55729   0.57637   -1.000
 3553.00    0.53636   0.56405   -1.000
 3554.00    0.52271   0.55573   -1.000
 3555.00    0.52234   0.55508   -1.000
 3556.00    0.53323   0.55917   -1.000
 3557.00    0.53636   0.55986   -1.000
 3558.00    0.53549   0.55389   -1.000
 3559.00    0.52638   0.54782   -1.000
 3560.00    0.52595   0.55071   -1.000
 3561.00    0.53840   0.56570   -1.000
 3562.00    0.54559   0.58205   -1.000
 3563.00    0.55097   0.58124   -1.000
 3564.00    0.53419   0.54717   -1.000
 3565.00    0.48816   0.49837   -1.000
 3566.00    0.46165   0.46881  370.246
 3567.00    0.45751   0.46364  167.435
 3568.00    0.45554   0.46538  170.940
 3569.00    0.45336   0.45488  169.295
 3570.00    0.44724   0.43726  170.874
 3571.00    0.45079   0.43554   -1.000
 3572.00    0.46802   0.45189   -1.000
 3573.00    0.48587   0.47123   -1.000
 3574.00    0.49760   0.48197   -1.000
 3575.00    0.50297   0.48414   -1.000
 3576.00    0.50468   0.48594   -1.000
 3577.00    0.50781   0.48836   -1.000
 3578.00    0.50017   0.48317   -1.000
 3579.00    0.47911   0.46296   -1.000
 3580.00    0.45104   0.43338   -1.000
 3581.00    0.42531   0.40962   -1.000
 3582.00    0.41313   0.40170   -1.000
 3583.00    0.42021   0.40774   -1.000
 3584.00    0.41598   0.41039  195.642
 3585.00    0.39622   0.39968  197.974
 3586.00    0.38736   0.38753  203.584
 3587.00    0.39348   0.38687  208.902
 3588.00    0.41282   0.40361  206.619
 3589.00    0.43637   0.43383  195.852
 3590.00    0.46525   0.46942  185.781
 3591.00    0.50255   0.50077  173.800
 3592.00    0.53024   0.51918   -1.000
 3593.00    0.53721   0.52421   -1.000
 3594.00    0.54524   0.52615   -1.000
 3595.00    0.55246   0.53794   -1.000
 3596.00    0.56566   0.55801   -1.000
 3597.00    0.58492   0.57676   -1.000
 3598.00    0.59781   0.59103   -1.000
 3599.00    0.60191   0.59936  771.054
 3600.00    0.59471   0.59743  771.054
 3601.00    0.58348   0.58060  771.054
 3602.00    0.56583   0.55066   -1.000
 3603.00    0.54186   0.51981   -1.000
 3604.00    0.52721   0.50087   -1.000
 3605.00    0.52526   0.49873   -1.000
 3606.00    0.52678   0.50361   -1.000
 3607.00    0.52568   0.50154   -1.000
 3608.00    0.51524   0.48803   -1.000
 3609.00    0.49363   0.47299   -1.000
 3610.00    0.49557   0.47465   -1.000
 3611.00    0.51352   0.49076   -1.000
 3612.00    0.52164   0.50624   -1.000
 3613.00    0.52880   0.51808   -1.000
 3614.00    0.53804   0.53080   -1.000
 3615.00    0.54518   0.54551  771.054
 3616.00    0.55197   0.54863   -1.000
 3617.00    0.54007   0.52091   -1.000
 3618.00    0.50040   0.47973   -1.000
 3619.00    0.47294   0.46006   -1.000
 3620.00    0.48179   0.47407   -1.000
 3621.00    0.51296   0.50725  237.159
 3622.00    0.54118   0.53744   -1.000
 3623.00    0.56666   0.55555   -1.000
 3624.00    0.58775   0.56874   -1.000
 3625.00    0.60550   0.58997   -1.000
 3626.00    0.62143   0.61874   -1.000
 3627.00    0.62749   0.64325   -1.000
 3628.00    0.62941   0.64760   -1.000
 3629.00    0.60475   0.61723   -1.000
 3630.00    0.55443   0.56193   -1.000
 3631.00    0.50669   0.51020   -1.000
 3632.00    0.48469   0.48814   -1.000
 3633.00    0.49121   0.49710   -1.000
 3634.00    0.50461   0.51845   -1.000
 3635.00    0.51845   0.53566   -1.000
 3636.00    0.53747   0.54583   -1.000
 3637.00    0.56385   0.55907   -1.000
 3638.00    0.58599   0.58014   -1.000
 3639.00    0.60238   0.60491  771.054
 3640.00    0.61467   0.62040  771.054
 3641.00    0.60585   0.61598   -1.000
 3642.00    0.58293   0.59458   -1.000
 3643.00    0.56576   0.56695  771.054
 3644.00    0.55019   0.54560   -1.000
 3645.00    0.53269   0.53455  771.054
 3646.00    0.52384   0.52619  771.054
 3647.00    0.51596   0.51762  771.054
 3648.00    0.52014   0.51394   -1.000
 3649.00    0.53193   0.51899   -1.000
 3650.00    0.55002   0.53381   -1.000
 3651.00    0.57032   0.55793   -1.000
 3652.00    0.59074   0.58467   -1.000
 3653.00    0.60880   0.60694  302.323
 3654.00    0.62096   0.62096  120.386
 3655.00    0.62366   0.62831  117.896
 3656.00    0.63255   0.63728  116.699
 3657.00    0.63654   0.64916  115.990
 3658.00    0.64700   0.65804  114.682
 3659.00    0.64700   0.66160  113.229
 3660.00    0.65283   0.66029  111.983
 3661.00    0.65130   0.65302  112.088
 3662.00    0.64322   0.64099  112.501
 3663.00    0.62749   0.62724  113.756
 3664.00    0.61751   0.61831  115.223
 3665.00    0.61847   0.61780  116.844
 3666.00    0.62426   0.62018  116.928
 3667.00    0.62363   0.61796  115.978
 3668.00    0.62109   0.60633  116.871
 3669.00    0.61202   0.59520  118.984
 3670.00    0.60438   0.59753  120.822
 3671.00    0.61029   0.61297  122.573
 3672.00    0.63067   0.63118  120.409
 3673.00    0.64243   0.64066  116.540
 3674.00    0.64607   0.63994  114.877
 3675.00    0.63869   0.63043  114.625
 3676.00    0.62900   0.61278  114.700
 3677.00    0.60957   0.59170  116.052
 3678.00    0.59327   0.57187  119.716
 3679.00    0.59001   0.55882   -1.000
 3680.00    0.59244   0.55504   -1.000
 3681.00    0.59842   0.55979   -1.000
 3682.00    0.60163   0.57173   -1.000
 3683.00    0.60365   0.58321   -1.000
 3684.00    0.60335   0.58365  121.273
 3685.00    0.59335   0.56608   -1.000
 3686.00    0.57167   0.54050   -1.000
 3687.00    0.55489   0.52514   -1.000
 3688.00    0.56309   0.53162   -1.000
 3689.00    0.58710   0.55820   -1.000
 3690.00    0.61448   0.59401   -1.000
 3691.00    0.64340   0.62198   -1.000
 3692.00    0.64281   0.63000  114.207
 3693.00    0.63321   0.62488  112.214
 3694.00    0.63293   0.61733  113.861
 3695.00    0.63055   0.61111  116.550
 3696.00    0.63511   0.60809   -1.000
 3697.00    0.64395   0.61355   -1.000
 3698.00    0.65087   0.63295  115.534
 3699.00    0.67093   0.66047  113.321
 3700.00    0.69434   0.67906  109.838
 3701.00    0.69813   0.67478  107.495
 3702.00    0.66782   0.64058   -1.000
 3703.00    0.62270   0.58765   -1.000
 3704.00    0.56882   0.53474   -1.000
 3705.00    0.53664   0.50119   -1.000
 3706.00    0.53520   0.49410   -1.000
 3707.00    0.54254   0.50206   -1.000
 3708.00    0.56255   0.51435   -1.000
 3709.00    0.57533   0.52692   -1.000
 3710.00    0.58599   0.53933   -1.000
 3711.00    0.59718   0.55708   -1.000
 3712.00    0.62810   0.58814   -1.000
 3713.00    0.66501   0.62729   -1.000
 3714.00    0.69508   0.66124   -1.000
 3715.00    0.71035   0.67929   -1.000
 3716.00    0.71219   0.67761   -1.000
 3717.00    0.69776   0.65574   -1.000
 3718.00    0.65482   0.61323   -1.000
 3719.00    0.58114   0.54835   -1.000
 3720.00    0.51802   0.48068   -1.000
 3721.00    0.48064   0.44038   -1.000
 3722.00    0.47912   0.44373   43.819
 3723.00    0.52065   0.48623   22.809
 3724.00    0.58330   0.54675   -1.000
 3725.00    0.63358   0.59390   -1.000
 3726.00    0.65392   0.60971   -1.000
 3727.00    0.63936   0.60817   -1.000
 3728.00    0.62930   0.60982  119.989
 3729.00    0.63720   0.61604  123.082
 3730.00    0.64225   0.61344   -1.000
 3731.00    0.61971   0.58581   -1.000
 3732.00    0.57329   0.53198   -1.000
 3733.00    0.51625   0.46653   -1.000
 3734.00    0.46032   0.41055   42.728
 3735.00    0.42492   0.38187   16.820
 3736.00    0.42228   0.38990   18.448
 3737.00    0.45720   0.43073   18.622
 3738.00    0.51816   0.49463   17.413
 3739.00    0.58093   0.56255   22.119
 3740.00    0.63143   0.61339   -1.000
 3741.00    0.65385   0.63499  126.902
 3742.00    0.64719   0.62762  121.614
 3743.00    0.61994   0.59835  122.625
 3744.00    0.58574   0.56050   -1.000
 3745.00    0.55227   0.52679   -1.000
 3746.00    0.52253   0.49812   -1.000
 3747.00    0.49625   0.46681   -1.000
 3748.00    0.46252   0.42834   44.764
 3749.00    0.43269   0.40107   16.806
 3750.00    0.44242   0.40838   17.633
 3751.00    0.50280   0.45412   24.032
 3752.00    0.57487   0.52174   -1.000
 3753.00    0.63368   0.59158   -1.000
 3754.00    0.68353   0.64812   -1.000
 3755.00    0.71710   0.67885   -1.000
 3756.00    0.70472   0.67145   -1.000
 3757.00    0.66619   0.63202   -1.000
 3758.00    0.60994   0.58709  118.718
 3759.00    0.57300   0.56317  134.039
 3760.00    0.58645   0.56895  144.574
 3761.00    0.61854   0.58776   -1.000
 3762.00    0.64245   0.60208   -1.000
 3763.00    0.65209   0.60988   -1.000
 3764.00    0.65119   0.61186   -1.000
 3765.00    0.64953   0.60508   -1.000
 3766.00    0.64814   0.58998   -1.000
 3767.00    0.62105   0.57126   -1.000
 3768.00    0.60362   0.55253   -1.000
 3769.00    0.59908   0.53522   -1.000
 3770.00    0.59188   0.52375   -1.000
 3771.00    0.59173   0.52966   -1.000
 3772.00    0.61317   0.55906   -1.000
 3773.00    0.66193   0.59766   -1.000
 3774.00    0.68497   0.62831   -1.000
 3775.00    0.68644   0.64785   -1.000
 3776.00    0.70871   0.66265   -1.000
 3777.00    0.72341   0.67957   -1.000
 3778.00    0.73253   0.70080   -1.000
 3779.00    0.74036   0.72486  111.650
 3780.00    0.76046   0.74676  109.419
 3781.00    0.78268   0.76247  106.026
 3782.00    0.78853   0.77226  104.077
 3783.00    0.78976   0.77619  103.423
 3784.00    0.78987   0.76845  102.991
 3785.00    0.76527   0.74161  103.714
 3786.00    0.72380   0.70194  107.022
 3787.00    0.69186   0.66488  113.450
 3788.00    0.66546   0.64063  121.280
 3789.00    0.65827   0.63126   -1.000
 3790.00    0.66430   0.63226   -1.000
 3791.00    0.66251   0.63450   -1.000
 3792.00    0.65602   0.62667   -1.000
 3793.00    0.63983   0.60450   -1.000
 3794.00    0.60652   0.57316   -1.000
 3795.00    0.58573   0.53989   -1.000
 3796.00    0.55710   0.50640   -1.000
 3797.00    0.51838   0.47186   -1.000
 3798.00    0.49698   0.44961   -1.000
 3799.00    0.51302   0.46295   -1.000
 3800.00    0.57142   0.51084   -1.000
 3801.00    0.63016   0.57595   -1.000
 3802.00    0.67510   0.63730   -1.000
 3803.00    0.71176   0.68016   -1.000
 3804.00    0.73344   0.70087   -1.000
 3805.00    0.72904   0.70060   -1.000
 3806.00    0.70788   0.68679  115.071
 3807.00    0.69551   0.68002  117.595
 3808.00    0.70255   0.69581  121.552
 3809.00    0.73217   0.72646  122.334
 3810.00    0.74219   0.75377  118.592
 3811.00    0.74571   0.76005  114.843
 3812.00    0.72965   0.73884  114.569
 3813.00    0.69283   0.69734  117.927
 3814.00    0.65220   0.65239  124.661
 3815.00    0.62596   0.62488  132.375
 3816.00    0.62859   0.62645  139.811
 3817.00    0.64260   0.64293  143.736
 3818.00    0.65645   0.64903  140.247
 3819.00    0.64172   0.63217  136.891
 3820.00    0.60788   0.60406  141.246
 3821.00    0.59591   0.59172  150.717
 3822.00    0.60986   0.59736  155.418
 3823.00    0.61968   0.59815   -1.000
 3824.00    0.59227   0.57923  145.987
 3825.00    0.54896   0.54679  150.439
 3826.00    0.53275   0.52011   50.471
 3827.00    0.52713   0.50779   17.154
 3828.00    0.52666   0.50581   17.382
 3829.00    0.52297   0.50480   17.188
 3830.00    0.51601   0.49629   16.906
 3831.00    0.50194   0.47573   16.756
 3832.00    0.46344   0.44409   17.116
 3833.00    0.43281   0.40855   18.059
 3834.00    0.42018   0.38188   19.296
 3835.00    0.41934   0.37335   19.612
 3836.00    0.43012   0.38077   19.097
 3837.00    0.43807   0.39418   18.409
 3838.00    0.42980   0.40657   18.217
 3839.00    0.43748   0.42282   18.636
 3840.00    0.47407   0.45399   18.883
 3841.00    0.51650   0.50141   18.330
 3842.00    0.57150   0.55753   22.597
 3843.00    0.61858   0.60920  154.776
 3844.00    0.65121   0.64456  141.238
 3845.00    0.66737   0.66516  133.999
 3846.00    0.66852   0.68140  132.251
 3847.00    0.66995   0.69762   -1.000
 3848.00    0.67398   0.70494   -1.000
 3849.00    0.66612   0.70142   -1.000
 3850.00    0.64871   0.69795   -1.000
 3851.00    0.65317   0.70340   -1.000
 3852.00    0.67347   0.71765   -1.000
 3853.00    0.68577   0.72797   -1.000
 3854.00    0.67241   0.72258   -1.000
 3855.00    0.66076   0.70650   -1.000
 3856.00    0.64602   0.68833   -1.000
 3857.00    0.63139   0.66771   -1.000
 3858.00    0.61474   0.64436   -1.000
 3859.00    0.57743   0.62588   49.745
 3860.00    0.56279   0.62776   16.396
 3861.00    0.59528   0.65443   17.087
 3862.00    0.65634   0.69585   21.390
 3863.00    0.70745   0.72899  146.178
 3864.00    0.71983   0.73808  133.377
 3865.00    0.70649   0.73328   -1.000
 3866.00    0.69424   0.72741   -1.000
 3867.00    0.69410   0.72465   -1.000
 3868.00    0.68996   0.72307   -1.000
 3869.00    0.66497   0.71380   -1.000
 3870.00    0.62938   0.69083   -1.000
 3871.00    0.60141   0.65828   -1.000
 3872.00    0.58864   0.63349   51.785
 3873.00    0.60999   0.63107   20.800
 3874.00    0.65162   0.65458  154.729
 3875.00    0.68154   0.68390  140.217
 3876.00    0.68560   0.68988  129.391
 3877.00    0.65578   0.66836  126.753
 3878.00    0.61229   0.63989   -1.000
 3879.00    0.60296   0.62513  143.296
 3880.00    0.61247   0.62458  150.849
 3881.00    0.60473   0.62608  151.508
 3882.00    0.58571   0.62231   -1.000
 3883.00    0.59176   0.61329  154.396
 3884.00    0.62250   0.59872   -1.000
 3885.00    0.62168   0.57239   -1.000
 3886.00    0.59039   0.53045   -1.000
 3887.00    0.54384   0.48783   -1.000
 3888.00    0.53012   0.46179   -1.000
 3889.00    0.53855   0.46417   -1.000
 3890.00    0.57764   0.49657   -1.000
 3891.00    0.63477   0.54855   -1.000
 3892.00    0.67682   0.59677   -1.000
 3893.00    0.69849   0.62305   -1.000
 3894.00    0.69564   0.63162   -1.000
 3895.00    0.70263   0.63963   -1.000
 3896.00    0.71120   0.65766   -1.000
 3897.00    0.72931   0.67770   -1.000
 3898.00    0.74693   0.68892   -1.000
 3899.00    0.74231   0.69405   -1.000
 3900.00    0.74308   0.70261   -1.000
 3901.00    0.75207   0.71457   -1.000
 3902.00    0.75147   0.72184   -1.000
 3903.00    0.74062   0.71710  107.124
 3904.00    0.73582   0.70199   -1.000
 3905.00    0.71688   0.68979  113.339
 3906.00    0.70830   0.69322  116.192
 3907.00    0.72745   0.71582  118.712
 3908.00    0.77136   0.75242  116.196
 3909.00    0.80232   0.78634  109.004
 3910.00    0.81583   0.80705  102.720
 3911.00    0.83128   0.81817  100.715
 3912.00    0.84415   0.82296   99.826
 3913.00    0.83164   0.82096   98.952
 3914.00    0.81981   0.81358   98.768
 3915.00    0.81345   0.80325  100.175
 3916.00    0.79744   0.79303  102.344
 3917.00    0.78837   0.78313  104.518
 3918.00    0.77881   0.76891  105.834
 3919.00    0.75229   0.74949  107.621
 3920.00    0.72784   0.72852  111.170
 3921.00    0.71718   0.71515  116.234
 3922.00    0.72118   0.71638  121.126
 3923.00    0.72926   0.72663  122.744
 3924.00    0.73022   0.73104  121.295
 3925.00    0.71693   0.71770  119.724
 3926.00    0.68053   0.68542  121.815
 3927.00    0.62242   0.63677  129.213
 3928.00    0.56297   0.57793   -1.000
 3929.00    0.47421   0.51558   -1.000
 3930.00    0.39106   0.44850   18.645
 3931.00    0.33665   0.37788   21.854
 3932.00    0.27656   0.31114   25.619
 3933.00    0.22848   0.26413   30.261
 3934.00    0.21854   0.25271   34.923
 3935.00    0.24224   0.28269   37.082
 3936.00    0.29917   0.34369   34.681
 3937.00    0.37518   0.42055   29.715
 3938.00    0.46779   0.49771   24.517
 3939.00    0.54252   0.56452   20.245
 3940.00    0.59645   0.61647   21.683
 3941.00    0.63661   0.64901  153.965
 3942.00    0.65034   0.66360  143.987
 3943.00    0.65397   0.66837  139.482
 3944.00    0.66772   0.67477  138.524
 3945.00    0.69451   0.69242  136.965
 3946.00    0.73867   0.71679   -1.000
 3947.00    0.76244   0.73428   -1.000
 3948.00    0.75442   0.74313  112.127
 3949.00    0.75900   0.75241  111.086
 3950.00    0.78905   0.76279  109.584
 3951.00    0.80185   0.76745   -1.000
 3952.00    0.78656   0.76704  102.946
 3953.00    0.77612   0.76892  103.709
 3954.00    0.79424   0.77429  104.561
 3955.00    0.81290   0.77233   -1.000
 3956.00    0.79088   0.75849   -1.000
 3957.00    0.76931   0.74603  102.335
 3958.00    0.77399   0.74166   -1.000
 3959.00    0.78058   0.73204   -1.000
 3960.00    0.74600   0.70103   -1.000
 3961.00    0.66957   0.64790   -1.000
 3962.00    0.60488   0.59244  122.242
 3963.00    0.56128   0.54864  137.681
 3964.00    0.52270   0.50939  150.764
 3965.00    0.46633   0.45964   59.985
 3966.00    0.38706   0.38830   17.502
 3967.00    0.30507   0.31097   20.732
 3968.00    0.25144   0.25498   25.567
 3969.00    0.23643   0.23827   30.720
 3970.00    0.27032   0.26303   32.759
 3971.00    0.33694   0.31857   29.577
 3972.00    0.41440   0.38769   24.331
 3973.00    0.49082   0.45976   20.071
 3974.00    0.56495   0.52948   20.985
 3975.00    0.63141   0.59187   -1.000
 3976.00    0.68642   0.64712   -1.000
 3977.00    0.73721   0.69545   -1.000
 3978.00    0.77742   0.74111   -1.000
 3979.00    0.82595   0.78162   -1.000
 3980.00    0.86412   0.80738   -1.000
 3981.00    0.85916   0.81460   -1.000
 3982.00    0.84354   0.81135   -1.000
 3983.00    0.84144   0.81180   93.167
 3984.00    0.85608   0.82183   -1.000
 3985.00    0.88103   0.83665   -1.000
 3986.00    0.88722   0.85149   -1.000
 3987.00    0.89444   0.86679   89.833
 3988.00    0.90237   0.88190   88.336
 3989.00    0.91270   0.89441   86.793
 3990.00    0.92553   0.90407   86.198
 3991.00    0.94903   0.91445   86.380
 3992.00    0.96220   0.92723   85.528
 3993.00    0.96309   0.93559   83.486
 3994.00    0.96271   0.93222   82.018
 3995.00    0.94663   0.91709   83.267
 3996.00    0.91427   0.89786   85.295
 3997.00    0.90676   0.88616   87.197
 3998.00    0.91113   0.89098   88.688
 3999.00    0.93239   0.90985   88.889
 4000.00    0.96955   0.93556   -1.000
 4001.00    0.99012   0.95864   82.577
 4002.00    0.98697   0.96807   80.080
 4003.00    0.99040   0.95705   78.861
 4004.00    0.96017   0.92681   78.223
 4005.00    0.90832   0.88960   80.503
 4006.00    0.89119   0.87264   85.894
 4007.00    0.91807   0.89028   89.367
 4008.00    0.96804   0.92636   -1.000
 4009.00    0.99039   0.95860   82.788
 4010.00    1.00000   0.97622   79.951
 4011.00    1.00795   0.98185   78.985
 4012.00    0.99779   0.98308   78.242
 4013.00    0.98948   0.98518   78.144
 4014.00    1.00088   0.98874   78.705
 4015.00    1.00465   0.99033   78.947
 4016.00    1.00415   0.98888   78.232
 4017.00    0.99182   0.98717   77.417
 4018.00    0.99166   0.99037   78.188
 4019.00    1.00561   0.99840   78.929
 4020.00    1.02117   1.00581   78.361
 4021.00    1.01918   1.00782   77.365
 4022.00    1.00257   1.00480   77.755
 4023.00    0.99096   0.99941   78.809
 4024.00    0.98962   0.99399   79.262
 4025.00    0.99689   0.99544   79.801
 4026.00    1.01468   1.00870   79.967
 4027.00    1.04059   1.02772   77.755
 4028.00    1.04307   1.03265   75.160
 4029.00    1.01925   1.00886   74.046
 4030.00    0.97940   0.96605   75.175
 4031.00    0.93224   0.92372   78.699
 4032.00    0.91268   0.89935   83.843
 4033.00    0.92211   0.89805   86.891
 4034.00    0.93774   0.91545   87.499
 4035.00    0.96598   0.94589   86.025
 4036.00    1.00070   0.98605   82.905
 4037.00    1.04537   1.02784   78.759
 4038.00    1.06761   1.05404   75.065
 4039.00    1.05204   1.05370   72.846
 4040.00    1.03578   1.03833   72.932
 4041.00    1.02917   1.02488   74.573
 4042.00    1.02043   1.01290   76.206
 4043.00    0.99740   0.98663   76.933
 4044.00    0.94606   0.93371   77.825
 4045.00    0.88782   0.88141   82.293
 4046.00    0.87248   0.86883   90.256
 4047.00    0.91783   0.90091   95.397
 4048.00    0.99024   0.95669   -1.000
 4049.00    1.03114   1.00590   81.888
 4050.00    1.03230   1.03137   77.427
 4051.00    1.03219   1.03477   75.491
 4052.00    1.03035   1.02278   74.876
 4053.00    1.00255   1.00196   75.676
 4054.00    0.98591   0.98364   77.794
 4055.00    0.98062   0.97283   79.681
 4056.00    0.97350   0.96345   80.800
 4057.00    0.96849   0.95589   81.412
 4058.00    0.96918   0.95796   82.008
 4059.00    0.98203   0.97443   82.587
 4060.00    1.00346   0.99496   81.229
 4061.00    1.01898   0.99354   78.429
 4062.00    0.98557   0.96121   77.358
 4063.00    0.92070   0.91656   79.419
 4064.00    0.89280   0.88916   85.370
 4065.00    0.92040   0.89119   90.155
 4066.00    0.95039   0.90940   -1.000
 4067.00    0.96243   0.93114   83.962
 4068.00    0.97609   0.95368   81.940
 4069.00    1.01343   0.96704   -1.000
 4070.00    1.00935   0.95804   -1.000
 4071.00    0.95965   0.93336   76.951
 4072.00    0.94369   0.91605   80.200
 4073.00    0.96530   0.92106   -1.000
 4074.00    0.98467   0.93290   -1.000
 4075.00    0.96921   0.92484   -1.000
 4076.00    0.91983   0.89525   79.701
 4077.00    0.86219   0.86443   84.133
 4078.00    0.85390   0.85709   90.784
 4079.00    0.89908   0.88117   92.514
 4080.00    0.95811   0.92536   88.775
 4081.00    0.99898   0.96233   -1.000
 4082.00    1.00246   0.97090   77.353
 4083.00    0.97943   0.95491   75.616
 4084.00    0.96054   0.93446   77.193
 4085.00    0.95635   0.93048   79.685
 4086.00    0.97347   0.94804   80.506
 4087.00    1.00139   0.97766   79.008
 4088.00    1.03136   1.00202   76.230
 4089.00    1.04788   1.00850   -1.000
 4090.00    1.03170   0.99727   71.390
 4091.00    1.01940   0.97880   -1.000
 4092.00    1.00505   0.96396   -1.000
 4093.00    0.98684   0.95184   74.762
 4094.00    0.98678   0.93509   -1.000
 4095.00    0.94854   0.90892   -1.000
 4096.00    0.92246   0.87736   -1.000
 4097.00    0.89849   0.84728   -1.000
 4098.00    0.87689   0.81572   -1.000
 4099.00    0.85722   0.77238   -1.000
 4100.00    0.79938   0.71352   -1.000
 4101.00    0.73345   0.65915   -1.000
 4102.00    0.69799   0.64027   -1.000
 4103.00    0.74246   0.66822   -1.000
 4104.00    0.83047   0.73065   -1.000
 4105.00    0.89104   0.79721   -1.000
 4106.00    0.93602   0.84502   -1.000
 4107.00    0.94698   0.87340   -1.000
 4108.00    0.95057   0.88768   -1.000
 4109.00    0.93823   0.89325   -1.000
 4110.00    0.91888   0.89840   80.315
 4111.00    0.93161   0.90834   81.869
 4112.00    0.95368   0.92324   82.769
 4113.00    0.97460   0.94199   81.553
 4114.00    0.99576   0.96395   79.737
 4115.00    1.00654   0.98336   78.400
 4116.00    1.02078   0.99212   77.258
 4117.00    1.01493   0.98728   76.665
 4118.00    0.99039   0.97448   77.242
 4119.00    0.96755   0.96299   79.063
 4120.00    0.96765   0.95942   81.560
 4121.00    0.97644   0.96375   82.198
 4122.00    0.97195   0.97030   81.128
 4123.00    0.98427   0.97749   80.412
 4124.00    0.99432   0.98690   80.403
 4125.00    1.00135   0.99518   79.433
 4126.00    1.00809   0.99507   78.145
 4127.00    0.99850   0.98654   78.083
 4128.00    0.97284   0.97779   79.263
 4129.00    0.96743   0.97397   80.873
 4130.00    0.96771   0.96831   81.474
 4131.00    0.94771   0.95146   81.952
 4132.00    0.92689   0.92903   83.199
 4133.00    0.92058   0.91691   85.890
 4134.00    0.93228   0.92733   88.305
 4135.00    0.96013   0.95749   88.059
 4136.00    1.00334   0.99484   84.859
 4137.00    1.02418   1.02654   80.699
 4138.00    1.03436   1.04827   78.281
 4139.00    1.04181   1.06006   77.063
 4140.00    1.03435   1.05497   75.968
 4141.00    1.01818   1.02546   75.917
 4142.00    0.98159   0.98069   77.821
 4143.00    0.92363   0.94069   82.311
 4144.00    0.91111   0.92774   89.105
 4145.00    0.94972   0.94921   92.756
 4146.00    0.99204   0.98370   88.837
 4147.00    1.01833   1.00644   83.651
 4148.00    1.01821   1.01016   80.856
 4149.00    0.99431   1.00560   80.357
 4150.00    0.97845   1.00530   82.057
 4151.00    0.98279   1.00809   84.246
 4152.00    0.98131   1.00535   85.058
 4153.00    0.97092   0.99262   84.397
 4154.00    0.95227   0.97623   84.061
 4155.00    0.94569   0.96793   84.961
 4156.00    0.95799   0.97336   85.980
 4157.00    0.96061   0.98888   83.865
 4158.00    0.98322   1.00830   83.406
 4159.00    1.12408   1.02653   -1.000
 4160.00    1.11024   1.03988   -1.000
 4161.00    1.00432   1.04930   -1.000
 4162.00    0.98802   1.05819   -1.000
 4163.00    1.02606   1.06663   -1.000
 4164.00    1.04335   1.07042   77.639
 4165.00    1.02253   1.06368   -1.000
 4166.00    1.00256   1.04754   -1.000
 4167.00    0.99713   1.03172   80.799
 4168.00    0.99542   1.02452   82.589
 4169.00    1.00745   1.02226   83.630
 4170.00    1.00553   1.00944   82.840
 4171.00    0.96443   0.97887   81.606
 4172.00    0.91574   0.94025   82.948
 4173.00    0.89111   0.91725   -1.000
 4174.00    0.90569   0.92432   92.950
 4175.00    0.93461   0.94915   92.647
 4176.00    0.94447   0.96991   89.182
 4177.00    0.94156   0.98014   -1.000
 4178.00    0.94114   0.98962   -1.000
 4179.00    0.95389   1.00338   -1.000
 4180.00    0.96914   1.01289   -1.000
 4181.00    0.96813   1.01009   -1.000
 4182.00    0.96916   1.00119   84.254
 4183.00    0.97202   1.00015   84.255
 4184.00    0.98482   1.00928   83.230
 4185.00    0.99622   1.01418   81.544
 4186.00    0.97713   1.00528   80.263
 4187.00    0.95157   0.98989   80.688
 4188.00    0.95221   0.98212   83.498
 4189.00    0.96767   0.98828   85.568
 4190.00    0.97962   1.00155   84.574
 4191.00    0.99149   1.01548   82.741
 4192.00    0.99446   1.03058   82.234
 4193.00    1.00852   1.04231   81.045
 4194.00    1.01322   1.04056   79.321
 4195.00    0.98255   1.02149   78.609
 4196.00    0.95176   0.99060   -1.000
 4197.00    0.92761   0.96042   -1.000
 4198.00    0.91591   0.94025   88.090
 4199.00    0.92507   0.93037   89.463
 4200.00    0.94016   0.92929   89.493
 4201.00    0.95023   0.93485   88.421
 4202.00    0.94788   0.94287   87.087
 4203.00    0.95301   0.95388   86.871
 4204.00    0.95579   0.97164   86.220
 4205.00    0.96295   0.99419   84.891
 4206.00    0.99120   1.01703   84.220
 4207.00    1.01103   1.03594   82.488
 4208.00    1.01589   1.04665   80.443
 4209.00    1.01876   1.04839   79.000
 4210.00    1.01805   1.04653   78.720
 4211.00    1.01668   1.04908   79.036
 4212.00    1.01901   1.05502   78.811
 4213.00    1.01294   1.05153   78.324
 4214.00    0.99145   1.03085   79.006
 4215.00    0.95078   1.00373   -1.000
 4216.00    0.92921   0.98778   -1.000
 4217.00    0.96072   0.99312   87.318
 4218.00    1.01401   1.01767   83.903
 4219.00    1.05039   1.04556   78.585
 4220.00    1.05678   1.06244   75.276
 4221.00    1.06343   1.06273   73.339
 4222.00    1.05274   1.04244   72.719
 4223.00    0.99829   0.99742   73.625
 4224.00    0.94197   0.93212   76.945
 4225.00    0.88036   0.86128   82.640
 4226.00    0.80909   0.81067   91.171
 4227.00    0.78987   0.80679  103.283
 4228.00    0.86318   0.85787  110.204
 4229.00    0.96722   0.93307   -1.000
 4230.00    1.02291   0.99083   -1.000
 4231.00    1.02863   1.01556   79.689
 4232.00    1.02269   1.01301   75.966
 4233.00    1.01109   0.99827   75.688
 4234.00    1.00024   0.98237   77.524
 4235.00    0.98535   0.96914   79.485
 4236.00    0.96083   0.95992   80.289
 4237.00    0.95696   0.95767   82.208
 4238.00    0.95996   0.96599   83.520
 4239.00    0.97058   0.98234   82.701
 4240.00    0.99583   1.00016   80.755
 4241.00    1.01495   1.01499   79.617
 4242.00    1.02145   1.02637   78.091
 4243.00    1.02469   1.03642   77.114
 4244.00    1.02548   1.04493   76.738
 4245.00    1.03156   1.04614   75.345
 4246.00    1.02781   1.03178   73.906
 4247.00    0.97921   1.00300   74.975
 4248.00    0.93754   0.97452   78.554
 4249.00    0.93152   0.95967   81.444
 4250.00    0.93856   0.96289   83.383
 4251.00    0.96186   0.97759   84.021
 4252.00    1.00007   0.99172   83.721
 4253.00    1.00787   0.99334   81.195
 4254.00    0.97782   0.98167   79.093
 4255.00    0.96780   0.97624   79.791
 4256.00    0.98122   0.98852   81.854
 4257.00    1.01457   1.00347   80.485
 4258.00    1.01270   0.99819   77.388
 4259.00    0.96925   0.96902   77.104
 4260.00    0.93153   0.94225   80.341
 4261.00    0.92202   0.94497   84.734
 4262.00    0.95912   0.97898   86.483
 4263.00    1.01035   1.02231   82.839
 4264.00    1.03932   1.05358   77.638
 4265.00    1.06234   1.06589   74.136
 4266.00    1.04968   1.06227   72.582
 4267.00    1.03442   1.04863   72.560
 4268.00    1.00375   1.02582   73.894
 4269.00    0.97217   0.99143   76.411
 4270.00    0.93529   0.94900   78.757
 4271.00    0.89807   0.90806   81.951
 4272.00    0.86777   0.88169   87.490
 4273.00    0.88062   0.87839   92.620
 4274.00    0.90455   0.89374   93.184
 4275.00    0.92631   0.92148   90.932
 4276.00    0.95816   0.96134   88.528
 4277.00    0.99698   1.00358   84.364
 4278.00    1.01859   1.02843   78.876
 4279.00    1.00328   1.02544   75.481
 4280.00    0.97493   1.00616   75.788
 4281.00    0.95613   0.99102   79.336
 4282.00    0.95193   0.98906   81.920
 4283.00    0.97252   0.99205   81.928
 4284.00    0.98235   0.98673   80.721
 4285.00    0.95559   0.97386   80.104
 4286.00    0.92648   0.95807   81.301
 4287.00    0.91468   0.93933   83.767
 4288.00    0.89990   0.91471   85.810
 4289.00    0.87309   0.88509   87.085
 4290.00    0.85846   0.86676   90.613
 4291.00    0.86241   0.87592   95.010
 4292.00    0.91405   0.90492   94.718
 4293.00    0.94548   0.93276   89.639
 4294.00    0.93998   0.94284   84.052
 4295.00    0.93123   0.93343   82.760
 4296.00    0.90660   0.91162   83.673
 4297.00    0.87351   0.87975   85.114
 4298.00    0.81322   0.83660   87.200
 4299.00    0.75950   0.79172   91.898
 4300.00    0.72957   0.76123  100.060
 4301.00    0.73678   0.75184  107.180
 4302.00    0.74275   0.75870  107.983
 4303.00    0.75871   0.77266  104.612
 4304.00    0.77404   0.78778  103.108
 4305.00    0.78229   0.79609  101.553
 4306.00    0.77567   0.78798  100.412
 4307.00    0.75512   0.76523  101.056
 4308.00    0.72304   0.74248  104.830
 4309.00    0.69849   0.73777   -1.000
 4310.00    0.71372   0.75807   -1.000
 4311.00    0.74412   0.79193   -1.000
 4312.00    0.78974   0.82741  104.014
 4313.00    0.82673   0.86735   97.209
 4314.00    0.87953   0.91705   92.414
 4315.00    0.94080   0.97780   88.683
 4316.00    1.02295   1.04022   83.357
 4317.00    1.08237   1.08767   75.974
 4318.00    1.09862   1.10895   70.422
 4319.00    1.08455   1.10537   68.178
 4320.00    1.06592   1.08756   68.338
 4321.00    1.05057   1.05829   69.488
 4322.00    1.01509   1.01235   71.121
 4323.00    0.94434   0.95125   73.625
 4324.00    0.88363   0.89091   77.387
 4325.00    0.83341   0.85627   83.285
 4326.00    0.84738   0.86400   90.763
 4327.00    0.91657   0.91250   93.837
 4328.00    0.99854   0.97362   -1.000
 4329.00    1.04374   1.01550   -1.000
 4330.00    1.03245   1.03110   72.499
 4331.00    1.03802   1.03156   71.372
 4332.00    1.05030   1.03228   71.751
 4333.00    1.05397   1.03509   71.280
 4334.00    1.02942   1.03135   69.990
 4335.00    1.03964   1.01058   69.325
 4336.00    1.01106   0.96423   -1.000
 4337.00    0.93989   0.89077   -1.000
 4338.00    0.85763   0.80618   -1.000
 4339.00    0.77644   0.73600   82.964
 4340.00    0.71724   0.70271   90.631
 4341.00    0.74167   0.71853   97.944
 4342.00    0.84578   0.77583   -1.000
 4343.00    0.92140   0.84518   -1.000
 4344.00    0.93478   0.90137   -1.000
 4345.00    0.98230   0.94299   -1.000
 4346.00    1.01693   0.97640   -1.000
 4347.00    1.02101   1.00507   73.488
 4348.00    1.03303   1.02703   72.300
 4349.00    1.04005   1.03298   71.558
 4350.00    1.02107   1.01335   70.378
 4351.00    0.95778   0.97523   70.741
 4352.00    0.90492   0.94651   -1.000
 4353.00    0.93082   0.94857   80.619
 4354.00    0.98380   0.97844   81.346
 4355.00    1.00278   1.01509   77.744
 4356.00    1.02407   1.04055   74.220
 4357.00    1.04928   1.05289   72.019
 4358.00    1.05193   1.05614   70.590
 4359.00    1.02833   1.05633   70.744
 4360.00    1.03011   1.06238   72.385
 4361.00    1.06535   1.07891   73.186
 4362.00    1.09105   1.09802   71.614
 4363.00    1.08539   1.11216   69.393
 4364.00    1.08716   1.12241   68.726
 4365.00    1.10587   1.12564   68.467
 4366.00    1.09253   1.11448   67.668
 4367.00    1.05736   1.09279   67.687
 4368.00    1.03251   1.07227   69.946
 4369.00    1.02510   1.05879   72.516
 4370.00    1.03400   1.05129   73.175
 4371.00    1.04688   1.04431   72.359
 4372.00    1.03868   1.03148   71.939
 4373.00    1.01822   1.01036   71.910
 4374.00    0.99043   0.98687   72.705
 4375.00    0.96551   0.97494   75.851
 4376.00    0.98026   0.98764   78.833
 4377.00    1.03062   1.01880   78.646
 4378.00    1.06274   1.04927   75.181
 4379.00    1.06469   1.06440   71.378
 4380.00    1.07031   1.05549   70.285
 4381.00    1.05658   1.01722   -1.000
 4382.00    0.99275   0.95373   -1.000
 4383.00    0.89824   0.88505   75.755
 4384.00    0.84896   0.84778   84.547
 4385.00    0.87455   0.86633   94.124
 4386.00    0.94329   0.92000   -1.000
 4387.00    1.00851   0.96919   -1.000
 4388.00    1.02352   0.99275   -1.000
 4389.00    1.01907   0.99683   74.937
 4390.00    1.00667   0.99804   75.142
 4391.00    1.01119   1.00543   76.013
 4392.00    1.03336   1.01821   76.207
 4393.00    1.03809   1.02703   74.612
 4394.00    1.02024   1.02722   72.917
 4395.00    1.00654   1.02860   73.565
 4396.00    1.02880   1.04216   75.288
 4397.00    1.07177   1.06163   74.867
 4398.00    1.08318   1.06800   71.220
 4399.00    1.04893   1.05595   69.239
 4400.00    1.01466   1.03857   70.419
 4401.00    1.02349   1.02893   73.150
 4402.00    1.05210   1.02577   75.284
 4403.00    1.04911   1.01462   -1.000
 4404.00    1.00773   0.99089   72.824
 4405.00    0.98220   0.97098   75.667
 4406.00    0.99588   0.96961   80.245
 4407.00    1.01447   0.98427   -1.000
 4408.00    1.01412   1.00431   77.706
 4409.00    1.01183   1.02957   76.683
 4410.00    1.06207   1.06580   76.023
 4411.00    1.10363   1.10189   72.964
 4412.00    1.12011   1.11758   69.815
 4413.00    1.12330   1.10497   67.487
 4414.00    1.08842   1.07000   66.783
 4415.00    1.03226   1.03056   68.761
 4416.00    1.00850   1.01176   72.887
 4417.00    1.04306   1.02708   75.415
 4418.00    1.07767   1.06531   74.798
 4419.00    1.10715   1.10576   72.050
 4420.00    1.13124   1.12920   69.029
 4421.00    1.10924   1.12731   67.136
 4422.00    1.08194   1.11137   67.666
 4423.00    1.07145   1.09756   69.549
 4424.00    1.08402   1.09288   70.766
 4425.00    1.07982   1.09219   70.272
 4426.00    1.06521   1.08916   69.934
 4427.00    1.07227   1.08792   70.235
 4428.00    1.08222   1.09200   70.566
 4429.00    1.08749   1.09754   70.031
 4430.00    1.06965   1.10179   69.759
 4431.00    1.07094   1.10354   70.524
 4432.00    1.08417   1.09993   70.732
 4433.00    1.07145   1.08586   69.838
 4434.00    1.03669   1.06087   69.306
 4435.00    1.02095   1.04086   71.778
 4436.00    1.02778   1.04680   75.375
 4437.00    1.07496   1.08035   76.059
 4438.00    1.13164   1.12164   72.828
 4439.00    1.15026   1.14621   68.255
 4440.00    1.13800   1.14205   65.453
 4441.00    1.10603   1.11236   65.396
 4442.00    1.07038   1.07650   67.595
 4443.00    1.03861   1.05904   70.913
 4444.00    1.04409   1.07152   73.893
 4445.00    1.08662   1.10388   74.008
 4446.00    1.11345   1.13438   71.092
 4447.00    1.12156   1.14983   68.045
 4448.00    1.11872   1.15215   66.828
 4449.00    1.11498   1.14993   66.917
 4450.00    1.10365   1.14689   67.046
 4451.00    1.11316   1.14105   67.825
 4452.00    1.12530   1.12837   68.490
 4453.00    1.10177   1.10208   67.915
 4454.00    1.05697   1.06414   68.423
 4455.00    1.03128   1.03069   71.056
 4456.00    1.03417   1.01739   74.378
 4457.00    1.05401   1.02407   75.837
 4458.00    1.05870   1.03679   74.438
 4459.00    1.05011   1.04505   73.110
 4460.00    1.05510   1.04927   73.214
 4461.00    1.05061   1.05429   73.606
 4462.00    1.05381   1.06383   74.398
 4463.00    1.07767   1.08064   75.056
 4464.00    1.10226   1.10080   73.486
 4465.00    1.11285   1.11466   70.529
 4466.00    1.11256   1.11672   68.912
 4467.00    1.11050   1.10909   68.869
 4468.00    1.08812   1.09828   68.920
 4469.00    1.06791   1.09283   69.736
 4470.00    1.06815   1.10038   71.112
 4471.00    1.10153   1.12153   71.505
 4472.00    1.14759   1.14959   70.456
 4473.00    1.16321   1.17466   68.192
 4474.00    1.17858   1.18922   65.824
 4475.00    1.18184   1.19393   64.051
 4476.00    1.17495   1.19455   63.548
 4477.00    1.19157   1.19400   63.689
 4478.00    1.19162   1.18760   63.107
 4479.00    1.16790   1.16797   62.744
 4480.00    1.12181   1.13523   63.341
 4481.00    1.08193   1.10402   65.757
 4482.00    1.07817   1.09301   68.773
 4483.00    1.09375   1.10778   70.683
 4484.00    1.13453   1.14097   69.815
 4485.00    1.17460   1.17595   66.794
 4486.00    1.18441   1.19554   64.280
 4487.00    1.17268   1.19255   62.932
 4488.00    1.14564   1.17327   63.065
 4489.00    1.11400   1.15059   64.545
 4490.00    1.10692   1.13830   67.067
 4491.00    1.12172   1.14312   68.585
 4492.00    1.15355   1.15707   67.784
 4493.00    1.15459   1.16562   65.935
 4494.00    1.13842   1.16028   64.903
 4495.00    1.11518   1.14985   65.925
 4496.00    1.11177   1.14840   67.986
 4497.00    1.13160   1.15782   69.438
 4498.00    1.15403   1.17103   68.635
 4499.00    1.17401   1.18088   66.225
 4500.00    1.17240   1.18413   64.366
 4501.00    1.15676   1.18461   63.739
 4502.00    1.15637   1.19318   64.524
 4503.00    1.19279   1.21297   64.868
 4504.00    1.21062   1.23604   63.152
 4505.00    1.22377   1.25166   60.959
 4506.00    1.22519   1.25405   59.903
 4507.00    1.21442   1.24644   60.334
 4508.00    1.19629   1.23762   61.593
 4509.00    1.19555   1.23449   62.188
 4510.00    1.21745   1.23599   62.228
 4511.00    1.21204   1.23570   61.741
 4512.00    1.19794   1.22797   61.311
 4513.00    1.18079   1.21425   61.846
 4514.00    1.16495   1.20090   63.087
 4515.00    1.16657   1.19210   64.215
 4516.00    1.17213   1.18890   64.605
 4517.00    1.16170   1.18783   64.275
 4518.00    1.15049   1.18459   64.231
 4519.00    1.15330   1.18237   65.028
 4520.00    1.15987   1.18581   65.405
 4521.00    1.17956   1.19138   64.279
 4522.00    1.16541   1.19094   63.003
 4523.00    1.14228   1.18051   63.207
 4524.00    1.13827   1.16420   64.725
 4525.00    1.13656   1.14682   66.039
 4526.00    1.11206   1.12679   66.599
 4527.00    1.08695   1.10199   67.721
 4528.00    1.06495   1.07725   69.810
 4529.00    1.06031   1.06419   71.783
 4530.00    1.07462   1.06752   72.641
 4531.00    1.09228   1.08014   72.106
 4532.00    1.10118   1.08918   70.830
 4533.00    1.09092   1.08498   69.535
 4534.00    1.07061   1.07229   69.195
 4535.00    1.05655   1.06717   71.147
 4536.00    1.07971   1.08434   73.577
 4537.00    1.13593   1.12303   72.619
 4538.00    1.18833   1.16666   68.470
 4539.00    1.18943   1.19482   64.419
 4540.00    1.16346   1.20027   62.682
 4541.00    1.15866   1.19381   63.286
 4542.00    1.16506   1.18873   64.823
 4543.00    1.16190   1.18810   64.765
 4544.00    1.14856   1.18521   64.289
 4545.00    1.13735   1.17541   64.047
 4546.00    1.13367   1.16294   91.659
 4547.00    1.19372   1.15112   30.305
 4548.00    0.61891   1.13721   -1.000
 4549.00   -0.00749   1.12243    0.000
 4550.00   -0.06087   1.11566    0.000
 4551.00    0.53450   1.12277   -1.000
 4552.00    0.63859   1.13559   -1.000
 4553.00    0.41247   1.13989   -1.000
 4554.00    1.10881   1.13418   67.142
 4555.00    1.09238   1.12890   68.186
 4556.00    1.11202   1.13522   68.823
 4557.00    1.15122   1.15697   67.808
 4558.00    1.18626   1.18510   65.340
 4559.00    1.19374   1.20809   62.706
 4560.00    1.19904   1.22184   61.583
 4561.00    1.20784   1.22628   61.907
 4562.00    1.20027   1.22155   61.878
 4563.00    1.17952   1.20758   61.901
 4564.00    1.14788   1.18817   63.322
 4565.00    1.14509   1.17387   64.908
 4566.00    1.15319   1.17418   66.028
 4567.00    1.17663   1.18965   65.335
 4568.00    1.19924   1.20873   63.686
 4569.00    1.19107   1.21705   61.998
 4570.00    1.17492   1.20907   61.356
 4571.00    1.14243   1.19102   62.008
 4572.00    1.13656   1.17706   63.571
 4573.00    1.15982   1.17867   65.250
 4574.00    1.19078   1.19430   64.827
 4575.00    1.20220   1.21060   62.889
 4576.00    1.19585   1.21810   61.964
 4577.00    1.18366   1.21612   61.980
 4578.00    1.18009   1.20545   62.263
 4579.00    1.16623   1.18614   62.624
 4580.00    1.14027   1.16240   63.680
 4581.00    1.12305   1.14209   65.576
 4582.00    1.12430   1.13207   66.952
 4583.00    1.14024   1.13340   66.808
 4584.00    1.13884   1.13978   65.878
 4585.00    1.13856   1.14421   65.377
 4586.00    1.15052   1.14796   65.554
 4587.00    1.16485   1.15718   65.964
 4588.00    1.18607   1.17297   65.092
 4589.00    1.19053   1.18912   63.400
 4590.00    1.17927   1.19627   62.039
 4591.00    1.16460   1.19034   61.908
 4592.00    1.14893   1.17653   62.788
 4593.00    1.14792   1.16511   63.958
 4594.00    1.15195   1.16285   65.084
 4595.00    1.16037   1.16777   65.183
 4596.00    1.16676   1.17477   64.645
 4597.00    1.17033   1.18131   64.133
 4598.00    1.17402   1.18582   63.950
 4599.00    1.16793   1.18581   63.816
 4600.00    1.16040   1.18060   63.672
 4601.00    1.15129   1.17285   64.208
 4602.00    1.15348   1.16753   64.788
 4603.00    1.15815   1.16764   64.986
 4604.00    1.16502   1.17178   64.328
 4605.00    1.18002   1.17779   63.602
 4606.00    1.18261   1.18525   63.675
 4607.00    1.18044   1.19512   63.581
 4608.00    1.20138   1.20814   62.911
 4609.00    1.22494   1.22239   61.685
 4610.00    1.22757   1.23178   60.364
 4611.00    1.21449   1.22988   59.629
 4612.00    1.20044   1.22022   59.856
 4613.00    1.19110   1.21119   60.663
 4614.00    1.19038   1.20699   61.347
 4615.00    1.20581   1.20758   61.756
 4616.00    1.20523   1.20906   61.481
 4617.00    1.19827   1.20761   60.940
 4618.00    1.19363   1.20336   60.681
 4619.00    1.18165   1.20055   61.060
 4620.00    1.19490   1.20371   61.515
 4621.00    1.21346   1.21344   61.481
 4622.00    1.21893   1.22453   60.915
 4623.00    1.21380   1.22972   59.959
 4624.00    1.21108   1.22805   59.895
 4625.00    1.21356   1.22402   60.043
 4626.00    1.21274   1.21957   60.163
 4627.00    1.21794   1.21576   60.697
 4628.00    1.21870   1.21382   60.867
 4629.00    1.20592   1.21332   60.842
 4630.00    1.19675   1.21403   61.215
 4631.00    1.20982   1.21694   61.361
 4632.00    1.22184   1.22065   61.075
 4633.00    1.19510   1.21944   60.384
 4634.00    1.16768   1.21198   60.602
 4635.00    1.19691   1.20309   61.464
 4636.00    1.19711   1.19595   62.158
 4637.00    1.19055   1.18977   62.140
 4638.00    1.18191   1.18479   62.611
 4639.00    1.17671   1.18349   63.429
 4640.00    1.19261   1.18826   63.723
 4641.00    1.21651   1.19915   63.650
 4642.00    1.22156   1.21214   62.620
 4643.00    1.22286   1.21949   61.104
 4644.00    1.21851   1.21480   60.226
 4645.00    1.19516   1.19895   60.413
 4646.00    1.17260   1.17673   61.497
 4647.00    1.15850   1.15566   63.206
 4648.00    1.16845   1.14716   64.964
 4649.00    1.18811   1.15618   65.331
 4650.00    1.20262   1.17538   64.249
 4651.00    1.20462   1.19258   62.757
 4652.00    1.20128   1.20030   61.859
 4653.00    1.20237   1.19881   61.710
 4654.00    1.17897   1.19056   61.587
 4655.00    1.16560   1.17974   62.268
 4656.00    1.16036   1.17427   63.679
 4657.00    1.17323   1.18182   64.463
 4658.00    1.19977   1.20353   63.988
 4659.00    1.23151   1.23202   62.031
 4660.00    1.24786   1.25299   59.666
 4661.00    1.24241   1.25687   58.264
 4662.00    1.22014   1.24609   58.129
 4663.00    1.20443   1.22833   58.809
 4664.00    1.19885   1.20874   60.215
 4665.00    1.18653   1.18738   61.428
 4666.00    1.15450   1.16129   61.640
 4667.00    1.12039   1.13213   62.590
 4668.00    1.10229   1.11160   65.182
 4669.00    1.12688   1.11252   67.917
 4670.00    1.16544   1.13417   68.177
 4671.00    1.19009   1.16334   66.212
 4672.00    1.20065   1.18619   63.469
 4673.00    1.20285   1.19814   61.685
 4674.00    1.20837   1.20394   61.234
 4675.00    1.21363   1.21030   61.260
 4676.00    1.22467   1.21825   61.206
 4677.00    1.22289   1.21973   60.459
 4678.00    1.20572   1.20862   59.550
 4679.00    1.19627   1.18901   59.763
 4680.00    1.18477   1.17073   61.000
 4681.00    1.17242   1.16075   62.224
 4682.00    1.17526   1.15972   63.266
 4683.00    1.19545   1.16656   63.910
 4684.00    1.20884   1.17843   63.214
 4685.00    1.21265   1.18946   61.664
 4686.00    1.21527   1.19543   60.795
 4687.00    1.21064   1.19668   60.932
 4688.00    1.20458   1.19545   60.976
 4689.00    1.20424   1.19316   61.299
 4690.00    1.20187   1.19085   61.331
 4691.00    1.19774   1.18842   61.335
 4692.00    1.19566   1.18766   61.744
 4693.00    1.21053   1.19200   61.901
 4694.00    1.23327   1.20022   61.231
 4695.00    1.24443   1.20724   60.326
 4696.00    1.23611   1.20986   59.012
 4697.00    1.22756   1.20591   58.212
 4698.00    1.20592   1.19342   58.420
 4699.00    1.17723   1.17601   60.001
 4700.00    1.17573   1.15925   61.823
 4701.00    1.18891   1.14551   62.639
 4702.00    1.17158   1.13420   62.228
 4703.00    1.14374   1.12691   62.605
 4704.00    1.15747   1.12933   63.672
 4705.00    1.17425   1.14090   64.075
 4706.00    1.18267   1.15048   62.981
 4707.00    1.16506   1.14913   62.019
 4708.00    1.15556   1.14091   62.733
 4709.00    1.14534   1.13736   63.976
 4710.00    1.15877   1.14460   64.656
 4711.00    1.19399   1.15917   64.395
 4712.00    1.21320   1.17465   62.622
 4713.00    1.20886   1.18334   60.881
 4714.00    1.19671   1.18199   60.187
 4715.00    1.18701   1.17820   60.667
 4716.00    1.19936   1.18169   61.776
 4717.00    1.22389   1.19468   61.888
 4718.00    1.22646   1.21027   60.759
 4719.00    1.24195   1.22109   59.577
 4720.00    1.24740   1.22520   59.139
 4721.00    1.23358   1.22448   58.921
 4722.00    1.23246   1.22238   58.720
 4723.00    1.23698   1.22180   59.156
 4724.00    1.23096   1.22359   59.590
 4725.00    1.23175   1.22429   59.312
 4726.00    1.23644   1.21785   58.689
 4727.00    1.21160   1.20062   58.709
 4728.00    1.17861   1.17726   60.015
 4729.00    1.17830   1.15917   62.235
 4730.00    1.17811   1.15325   63.735
 4731.00    1.17641   1.15637   63.652
 4732.00    1.18657   1.16359   63.028
 4733.00    1.20253   1.17255   62.516
 4734.00    1.21236   1.17979   61.787
 4735.00    1.21034   1.18237   61.229
 4736.00    1.20526   1.18112   60.865
 4737.00    1.20053   1.17913   60.527
 4738.00    1.21013   1.18010   61.079
 4739.00    1.21709   1.18581   61.224
 4740.00    1.21702   1.19259   60.512
 4741.00    1.21213   1.19602   60.449
 4742.00    1.21298   1.19802   60.776
 4743.00    1.22470   1.20189   60.886
 4744.00    1.22803   1.20680   60.453
 4745.00    1.22712   1.21064   59.805
 4746.00    1.23030   1.21298   59.844
 4747.00    1.23041   1.21617   59.911
 4748.00    1.22935   1.22196   59.514
 4749.00    1.23194   1.22793   58.923
 4750.00    1.22927   1.23238   58.748
 4751.00    1.22706   1.23451   58.819
 4752.00    1.22061   1.23115   58.865
 4753.00    1.21922   1.22069   59.252
 4754.00    1.21313   1.20675   59.903
 4755.00    1.20283   1.19655   60.427
 4756.00    1.19619   1.19426   60.850
 4757.00    1.19487   1.19854   60.799
 4758.00    1.20051   1.20600   60.995
 4759.00    1.21399   1.21410   61.428
 4760.00    1.21662   1.21908   61.540
 4761.00    1.20273   1.21523   61.089
 4762.00    1.18212   1.20000   60.929
 4763.00    1.17089   1.17760   61.764
 4764.00    1.16367   1.15813   63.258
 4765.00    1.15891   1.14766   64.167
 4766.00    1.16865   1.14590   64.341
 4767.00    1.19218   1.15297   64.227
 4768.00    1.20683   1.16939   63.810
 4769.00    1.21975   1.19059   62.973
 4770.00    1.22587   1.20690   61.600
 4771.00    1.22486   1.21186   60.677
 4772.00    1.21329   1.20940   60.673
 4773.00    1.20427   1.20858   61.148
 4774.00    1.22411   1.21525   61.691
 4775.00    1.23117   1.22692   61.126
 4776.00    1.23681   1.23588   59.875
 4777.00    1.23881   1.23843   59.355
 4778.00    1.23833   1.23544   59.355
 4779.00    1.23330   1.22957   59.519
 4780.00    1.21611   1.22339   59.883
 4781.00    1.22121   1.21799   60.526
 4782.00    1.21374   1.21208   60.926
 4783.00    1.20265   1.20467   61.101
 4784.00    1.21002   1.19779   61.380
 4785.00    1.20573   1.19248   61.854
 4786.00    1.19575   1.18769   61.896
 4787.00    1.17970   1.18359   62.070
 4788.00    1.18151   1.18245   62.641
 4789.00    1.19267   1.18533   63.039
 4790.00    1.19483   1.19170   63.028
 4791.00    1.20742   1.20176   62.745
 4792.00    1.21424   1.21539   62.366
 4793.00    1.22781   1.23160   61.748
 4794.00    1.24292   1.24825   60.778
 4795.00    1.25313   1.26186   59.464
 4796.00    1.25073   1.26697   58.401
 4797.00    1.24093   1.26085   58.086
 4798.00    1.22326   1.24729   58.573
 4799.00    1.21031   1.23265   59.687
 4800.00    1.20553   1.22369   60.823
 4801.00    1.21113   1.22520   61.602
 4802.00    1.23064   1.23517   61.228
 4803.00    1.23261   1.24504   60.067
 4804.00    1.22952   1.24770   59.151
 4805.00    1.21274   1.24212   59.115
 4806.00    1.20648   1.23304   59.819
 4807.00    1.21245   1.22584   60.598
 4808.00    1.22040   1.22221   61.179
 4809.00    1.21443   1.22332   61.241
 4810.00    1.21323   1.22898   61.100
 4811.00    1.22103   1.23511   60.841
 4812.00    1.22430   1.23867   60.326
 4813.00    1.22702   1.24102   59.875
 4814.00    1.22912   1.24432   59.553
 4815.00    1.24039   1.24969   59.460
 4816.00    1.24830   1.25713   59.330
 4817.00    1.24718   1.26444   59.125
 4818.00    1.24734   1.26874   58.774
 4819.00    1.24611   1.26970   58.407
 4820.00    1.24876   1.26889   58.152
 4821.00    1.23933   1.26422   58.102
 4822.00    1.22480   1.25086   58.103
 4823.00    1.20139   1.22940   58.541
 4824.00    1.19154   1.20887   59.944
 4825.00    1.20015   1.20200   61.165
 4826.00    1.21417   1.21128   61.234
 4827.00    1.23000   1.22483   60.279
 4828.00    1.22621   1.23157   59.317
 4829.00    1.21331   1.23011   59.391
 4830.00    1.21592   1.22544   60.039
 4831.00    1.20815   1.21926   60.468
 4832.00    1.19973   1.21094   60.508
 4833.00    1.21258   1.20517   60.978
 4834.00    1.22581   1.20656   61.158
 4835.00    1.22639   1.21368   60.335
 4836.00    1.22828   1.22098   59.498
 4837.00    1.22753   1.22286   59.193
 4838.00    1.21568   1.21751   59.247
 4839.00    1.19388   1.20631   59.505
 4840.00    1.18282   1.19298   60.239
 4841.00    1.18563   1.18256   61.287
 4842.00    1.18731   1.17843   61.493
 4843.00    1.19303   1.17993   61.378
 4844.00    1.19383   1.18434   61.096
 4845.00    1.20288   1.19179   60.661
 4846.00    1.21371   1.20128   60.077
 4847.00    1.20747   1.20517   59.184
 4848.00    1.18150   1.19910   58.776
 4849.00    1.18071   1.19024   59.734
 4850.00    1.19120   1.18692   60.696
 4851.00    1.19334   1.18867   60.835
 4852.00    1.19293   1.18802   60.107
 4853.00    1.18891   1.17860   59.843
 4854.00    1.16213   1.15818   60.114
 4855.00    1.12658   1.12952   60.603
 4856.00    1.10975   1.10169   62.201
 4857.00    1.11179   1.08149   64.000
 4858.00    1.09599   1.06218   64.183
 4859.00    1.03104   1.02271   63.594
 4860.00    0.92193   0.95395   64.921
 4861.00    0.83330   0.88118   -1.000
 4862.00    0.83690   0.84456   77.769
 4863.00    0.92857   0.86544   -1.000
 4864.00    1.01104   0.92650   -1.000
 4865.00    1.07048   0.99405   -1.000
 4866.00    1.10864   1.04821   -1.000
 4867.00    1.13088   1.08587   -1.000
 4868.00    1.14140   1.11005   63.367
 4869.00    1.13859   1.12044   62.664
 4870.00    1.12885   1.11474   62.349
 4871.00    1.10429   1.09516   62.750
 4872.00    1.08432   1.07538   64.314
 4873.00    1.10616   1.07525   65.949
 4874.00    1.14159   1.09833   -1.000
 4875.00    1.15560   1.12821   64.099
 4876.00    1.15460   1.14769   62.847
 4877.00    1.15561   1.15456   62.260
 4878.00    1.16451   1.16023   61.900
 4879.00    1.18554   1.17298   61.671
 4880.00    1.19678   1.18905   60.895
 4881.00    1.18675   1.19879   60.196
 4882.00    1.17055   1.19740   60.517
 4883.00    1.16780   1.19067   61.447
 4884.00    1.17121   1.18376   61.940
 4885.00    1.16456   1.17419   61.830
 4886.00    1.15652   1.16236   62.057
 4887.00    1.15350   1.15298   62.908
 4888.00    1.15258   1.14783   63.371
 4889.00    1.14772   1.14193   63.152
 4890.00    1.13106   1.12930   63.012
 4891.00    1.11754   1.11568   63.754
 4892.00    1.13362   1.11703   65.095
 4893.00    1.18013   1.14489   65.026
 4894.00    1.22546   1.19276   62.801
 4895.00    1.24592   1.23787   59.926
 4896.00    1.25626   1.26498   57.962
 4897.00    1.25240   1.27441   56.763
 4898.00    1.24357   1.27143   56.341
 4899.00    1.23088   1.26096   56.393
 4900.00    1.21413   1.24839   57.404
 4901.00    1.21008   1.23854   58.757
 4902.00    1.21174   1.23154   59.557
 4903.00    1.21097   1.22390   59.444
 4904.00    1.20325   1.21691   59.445
 4905.00    1.21388   1.21961   60.057
 4906.00    1.23062   1.23376   59.686
 4907.00    1.24467   1.24639   58.513
 4908.00    1.22743   1.24520   57.891
 4909.00    1.19223   1.22848   58.235
 4910.00    1.16988   1.20474   59.478
 4911.00    1.16922   1.18685   61.156
 4912.00    1.18121   1.18422   62.143
 4913.00    1.20658   1.19661   61.640
 4914.00    1.22529   1.21555   60.567
 4915.00    1.23129   1.23255   59.681
 4916.00    1.23657   1.24013   58.897
 4917.00    1.22454   1.22871   58.325
 4918.00    1.17908   1.19354   58.440
 4919.00    1.12901   1.14283   60.122
 4920.00    1.09402   1.09689   63.191
 4921.00    1.10504   1.07632   66.327
 4922.00    1.13870   1.08620   -1.000
 4923.00    1.15840   1.11325   -1.000
 4924.00    1.16617   1.13873   63.614
 4925.00    1.18122   1.15695   62.380
 4926.00    1.20198   1.17491   62.149
 4927.00    1.21687   1.19748   61.518
 4928.00    1.23244   1.22205   60.070
 4929.00    1.23849   1.24207   58.883
 4930.00    1.23866   1.25339   58.228
 4931.00    1.24736   1.25397   57.802
 4932.00    1.23382   1.24105   57.443
 4933.00    1.19313   1.21622   57.813
 4934.00    1.16611   1.19119   59.180
 4935.00    1.17670   1.17861   61.233
 4936.00    1.19399   1.17882   61.847
 4937.00    1.18220   1.17737   60.986
 4938.00    1.15382   1.16262   60.703
 4939.00    1.14403   1.14568   62.099
 4940.00    1.17115   1.14583   63.863
 4941.00    1.20829   1.16896   -1.000
 4942.00    1.23391   1.20376   61.965
 4943.00    1.24111   1.23218   59.934
 4944.00    1.24077   1.24531   58.648
 4945.00    1.23336   1.24553   57.998
 4946.00    1.22855   1.24028   57.916
 4947.00    1.23417   1.23764   58.253
 4948.00    1.24576   1.24313   58.448
 4949.00    1.25219   1.25470   58.063
 4950.00    1.25198   1.26403   57.404
 4951.00    1.25850   1.26554   57.115
 4952.00    1.25423   1.26063   56.894
 4953.00    1.24532   1.25334   57.069
 4954.00    1.23263   1.24493   57.445
 4955.00    1.22840   1.23036   58.051
 4956.00    1.19824   1.19929   58.765
 4957.00    1.14732   1.15336   60.145
 4958.00    1.13239   1.11787   62.913
 4959.00    1.16953   1.11854   -1.000
 4960.00    1.22411   1.15502   -1.000
 4961.00    1.25014   1.20036   -1.000
 4962.00    1.24787   1.22935   59.501
 4963.00    1.24734   1.23859   58.686
 4964.00    1.23740   1.23457   58.804
 4965.00    1.21934   1.22206   59.234
 4966.00    1.20469   1.20598   59.885
 4967.00    1.20082   1.19235   61.029
 4968.00    1.20423   1.18443   61.949
 4969.00    1.20877   1.18243   62.145
 4970.00    1.21049   1.18647   62.003
 4971.00    1.21577   1.19592   61.608
 4972.00    1.22481   1.20844   60.993
 4973.00    1.22967   1.22122   60.338
 4974.00    1.23852   1.23191   59.633
 4975.00    1.23998   1.23780   59.034
 4976.00    1.23652   1.23713   58.719
 4977.00    1.23099   1.23007   58.975
 4978.00    1.21585   1.21816   59.552
 4979.00    1.20427   1.20385   60.321
 4980.00    1.19328   1.18760   61.268
 4981.00    1.17377   1.16516   62.085
 4982.00    1.14202   1.13240   62.934
 4983.00    1.11509   1.09667   64.721
 4984.00    1.11389   1.07559   66.846
 4985.00    1.13408   1.08198   -1.000
 4986.00    1.17304   1.11146   -1.000
 4987.00    1.20412   1.14795   -1.000
 4988.00    1.21869   1.17709   -1.000
 4989.00    1.21443   1.19026   61.003
 4990.00    1.19825   1.18719   60.673
 4991.00    1.19204   1.17678   61.373
 4992.00    1.19722   1.17003   62.082
 4993.00    1.20086   1.17115   62.259
 4994.00    1.20197   1.17686   61.841
 4995.00    1.20893   1.18341   61.503
 4996.00    1.21685   1.18952   61.419
 4997.00    1.21560   1.19359   61.175
 4998.00    1.21204   1.19123   60.865
 4999.00    1.18443   1.17818   61.066
 5000.00    1.17067   1.15671   61.778
 5001.00    1.16280   1.13579   62.926
 5002.00    1.17132   1.12507   -1.000
 5003.00    1.17866   1.12650   -1.000
 5004.00    1.17653   1.13045   -1.000
 5005.00    1.15703   1.12464   63.153
 5006.00    1.12839   1.10839   63.722
 5007.00    1.13571   1.09730   65.182
 5008.00    1.16301   1.10596   -1.000
 5009.00    1.19279   1.12996   -1.000
 5010.00    1.20041   1.15159   -1.000
 5011.00    1.18286   1.15453   61.870
 5012.00    1.15343   1.13572   62.309
 5013.00    1.12398   1.10632   63.922
 5014.00    1.11476   1.08334   66.211
 5015.00    1.13252   1.07644   -1.000
 5016.00    1.14698   1.08228   -1.000
 5017.00    1.14773   1.09143   -1.000
 5018.00    1.14165   1.09790   -1.000
 5019.00    1.15131   1.10450   -1.000
 5020.00    1.16983   1.11461   -1.000
 5021.00    1.17539   1.12412   -1.000
 5022.00    1.17397   1.12822   -1.000
 5023.00    1.17729   1.12892   -1.000
 5024.00    1.18914   1.13414   -1.000
 5025.00    1.19608   1.14640   -1.000
 5026.00    1.18903   1.15566   -1.000
 5027.00    1.18473   1.15486   62.702
 5028.00    1.18810   1.15028   -1.000
 5029.00    1.19620   1.15095   -1.000
 5030.00    1.20912   1.16010   -1.000
 5031.00    1.21890   1.17544   -1.000
 5032.00    1.22956   1.19191   -1.000
 5033.00    1.23939   1.20395   -1.000
 5034.00    1.23248   1.20446   59.061
 5035.00    1.19703   1.18886   58.953
 5036.00    1.16278   1.16381   60.365
 5037.00    1.15911   1.14221   62.665
 5038.00    1.15794   1.12900   64.104
 5039.00    1.14590   1.11370   -1.000
 5040.00    1.10699   1.08501   65.177
 5041.00    1.07360   1.05463   67.267
 5042.00    1.09575   1.04698   -1.000
 5043.00    1.14819   1.07320   -1.000
 5044.00    1.19315   1.12187   -1.000
 5045.00    1.22040   1.16962   -1.000
 5046.00    1.23435   1.20092   -1.000
 5047.00    1.22518   1.21148   59.648
 5048.00    1.22517   1.20179   57.642
 5049.00    1.15322   1.17729   58.305
 5050.00    0.46001   1.14969   -1.000
 5051.00    0.04195   1.13174   -1.000
 5052.00    0.00687   1.13071   -1.000
 5053.00    0.39174   1.14576   -1.000
 5054.00    0.97579   1.16889   -1.000
 5055.00    1.23334   1.18888   -1.000
 5056.00    1.24682   1.20105   -1.000
 5057.00    1.24541   1.20863   -1.000
 5058.00    1.24682   1.21469   58.765
 5059.00    1.24355   1.22001   58.795
 5060.00    1.24352   1.22411   58.907
 5061.00    1.23828   1.22627   58.921
 5062.00    1.23811   1.22522   58.621
 5063.00    1.23535   1.21557   58.530
 5064.00    1.20787   1.19313   59.114
 5065.00    1.17982   1.16618   60.589
 5066.00    1.17801   1.14841   62.654
 5067.00    1.19671   1.14528   -1.000
 5068.00    1.20351   1.15062   -1.000
 5069.00    1.20315   1.15606   -1.000
 5070.00    1.21412   1.16012   -1.000
 5071.00    1.21493   1.16263   -1.000
 5072.00    1.20436   1.16041   -1.000
 5073.00    1.19915   1.15443   -1.000
 5074.00    1.20589   1.15178   -1.000
 5075.00    1.21374   1.15570   -1.000
 5076.00    1.21365   1.16140   -1.000
 5077.00    1.21014   1.16126   -1.000
 5078.00    1.18923   1.14945   -1.000
 5079.00    1.14831   1.12522   61.380
 5080.00    1.12460   1.09895   63.089
 5081.00    1.13933   1.08562   -1.000
 5082.00    1.15535   1.08901   -1.000
 5083.00    1.16536   1.10222   -1.000
 5084.00    1.18756   1.11798   -1.000
 5085.00    1.20655   1.13511   -1.000
 5086.00    1.21956   1.15372   -1.000
 5087.00    1.21811   1.16938   -1.000
 5088.00    1.21904   1.17882   -1.000
 5089.00    1.21790   1.18381   -1.000
 5090.00    1.22351   1.18755   -1.000
 5091.00    1.22918   1.19196   -1.000
 5092.00    1.23588   1.19823   -1.000
 5093.00    1.24674   1.20620   -1.000
 5094.00    1.25937   1.21177   -1.000
 5095.00    1.24535   1.20794   -1.000
 5096.00    1.22044   1.19043   58.778
 5097.00    1.21017   1.16297   -1.000
 5098.00    1.18097   1.13520   -1.000
 5099.00    1.15540   1.11727   -1.000
 5100.00    1.17558   1.11567   -1.000
 5101.00    1.20186   1.13048   -1.000
 5102.00    1.21692   1.15271   -1.000
 5103.00    1.22783   1.16856   -1.000
 5104.00    1.22111   1.17199   -1.000
 5105.00    1.20547   1.16560   -1.000
 5106.00    1.19641   1.15323   -1.000
 5107.00    1.18402   1.13814   -1.000
 5108.00    1.17328   1.12475   -1.000
 5109.00    1.17720   1.11800   -1.000
 5110.00    1.18347   1.12038   -1.000
 5111.00    1.19700   1.13141   -1.000
 5112.00    1.21698   1.14819   -1.000
 5113.00    1.22706   1.16512   -1.000
 5114.00    1.22936   1.17841   -1.000
 5115.00    1.22755   1.18866   -1.000
 5116.00    1.22778   1.19758   60.270
 5117.00    1.23914   1.20527   -1.000
 5118.00    1.25619   1.20992   -1.000
 5119.00    1.25591   1.20912   -1.000
 5120.00    1.23674   1.20088   -1.000
 5121.00    1.22471   1.18610   -1.000
 5122.00    1.20759   1.16790   -1.000
 5123.00    1.17838   1.14845   61.229
 5124.00    1.15769   1.12933   62.636
 5125.00    1.16036   1.11495   -1.000
 5126.00    1.16819   1.10935   -1.000
 5127.00    1.17587   1.11081   -1.000
 5128.00    1.17643   1.11373   -1.000
 5129.00    1.17664   1.11535   -1.000
 5130.00    1.17665   1.11776   -1.000
 5131.00    1.18491   1.12388   -1.000
 5132.00    1.19646   1.13381   -1.000
 5133.00    1.20218   1.14441   -1.000
 5134.00    1.21068   1.15291   -1.000
 5135.00    1.21927   1.15844   -1.000
 5136.00    1.21661   1.15911   -1.000
 5137.00    1.19831   1.15161   -1.000
 5138.00    1.16994   1.13676   61.256
 5139.00    1.14955   1.12059   62.652
 5140.00    1.14895   1.11012   -1.000
 5141.00    1.16124   1.10745   -1.000
 5142.00    1.15839   1.10850   -1.000
 5143.00    1.15188   1.11043   -1.000
 5144.00    1.16341   1.11456   -1.000
 5145.00    1.17960   1.12059   -1.000
 5146.00    1.18042   1.12355   -1.000
 5147.00    1.17251   1.11996   -1.000
 5148.00    1.17869   1.11568   -1.000
 5149.00    1.18930   1.11828   -1.000
 5150.00    1.18416   1.12322   -1.000
 5151.00    1.16759   1.12178   -1.000
 5152.00    1.16004   1.11409   -1.000
 5153.00    1.16384   1.10616   -1.000
 5154.00    1.17250   1.10385   -1.000
 5155.00    1.18719   1.11092   -1.000
 5156.00    1.20632   1.12806   -1.000
 5157.00    1.22023   1.15040   -1.000
 5158.00    1.22811   1.17061   -1.000
 5159.00    1.23515   1.18394   -1.000
 5160.00    1.23560   1.18955   -1.000
 5161.00    1.22784   1.18833   -1.000
 5162.00    1.21686   1.18041   -1.000
 5163.00    1.20760   1.16577   -1.000
 5164.00    1.19037   1.14345   -1.000
 5165.00    1.14537   1.10665   -1.000
 5166.00    1.06875   1.04822   62.816
 5167.00    0.99618   0.97875   67.117
 5168.00    0.97233   0.92675   -1.000
 5169.00    1.00895   0.91723   -1.000
 5170.00    1.05153   0.93873   -1.000
 5171.00    1.04351   0.94933   -1.000
 5172.00    0.98501   0.93128   -1.000
 5173.00    0.96373   0.90953   -1.000
 5174.00    1.02993   0.92362   -1.000
 5175.00    1.12540   0.98285   -1.000
 5176.00    1.18987   1.05553   -1.000
 5177.00    1.21629   1.10978   -1.000
 5178.00    1.22945   1.13709   -1.000
 5179.00    1.23071   1.14332   -1.000
 5180.00    1.20859   1.13187   -1.000
 5181.00    1.16398   1.09622   -1.000
 5182.00    1.07796   1.03369   -1.000
 5183.00    0.97723   0.95979   68.651
 5184.00    0.94847   0.91064   -1.000
 5185.00    1.01590   0.91661   -1.000
 5186.00    1.11112   0.97267   -1.000
 5187.00    1.17101   1.04423   -1.000
 5188.00    1.18460   1.09593   -1.000
 5189.00    1.18158   1.11965   -1.000
 5190.00    1.18120   1.12605   -1.000
 5191.00    1.16742   1.11992   -1.000
 5192.00    1.14353   1.10330   -1.000
 5193.00    1.13598   1.08689   -1.000
 5194.00    1.15114   1.08139   -1.000
 5195.00    1.16606   1.08797   -1.000
 5196.00    1.17557   1.10029   -1.000
 5197.00    1.18577   1.11437   -1.000
 5198.00    1.19859   1.13185   -1.000
 5199.00    1.20930   1.15168   -1.000
 5200.00    1.21582   1.16775   -1.000
 5201.00    1.22078   1.17460   -1.000
 5202.00    1.21260   1.16905   -1.000
 5203.00    1.19392   1.15019   -1.000
 5204.00    1.16849   1.12042   -1.000
 5205.00    1.14319   1.08610   -1.000
 5206.00    1.13465   1.05631   -1.000
 5207.00    1.13176   1.03798   -1.000
 5208.00    1.13178   1.03130   -1.000
 5209.00    1.13749   1.03419   -1.000
 5210.00    1.15685   1.04908   -1.000
 5211.00    1.18797   1.07881   -1.000
 5212.00    1.21599   1.11956   -1.000
 5213.00    1.23058   1.15782   -1.000
 5214.00    1.22649   1.17857   -1.000
 5215.00    1.20768   1.17607   59.445
 5216.00    1.18847   1.15906   59.496
 5217.00    1.18783   1.14588   60.697
 5218.00    1.20668   1.14962   -1.000
 5219.00    1.23277   1.16955   -1.000
 5220.00    1.24689   1.19423   -1.000
 5221.00    1.25265   1.21273   -1.000
 5222.00    1.25426   1.21963   58.830
 5223.00    1.23861   1.21282   58.531
 5224.00    1.20587   1.19043   58.957
 5225.00    1.15935   1.15117   60.430
 5226.00    1.11617   1.10228   62.731
 5227.00    1.09752   1.06495   65.571
 5228.00    1.12932   1.05989   -1.000
 5229.00    1.17813   1.08896   -1.000
 5230.00    1.21110   1.13020   -1.000
 5231.00    1.22063   1.15803   -1.000
 5232.00    1.20925   1.16316   -1.000
 5233.00    1.19441   1.15196   -1.000
 5234.00    1.18671   1.13957   -1.000
 5235.00    1.19541   1.14064   -1.000
 5236.00    1.21993   1.15895   -1.000
 5237.00    1.24148   1.18550   -1.000
 5238.00    1.24822   1.20829   -1.000
 5239.00    1.24594   1.22067   58.278
 5240.00    1.24259   1.22360   58.037
 5241.00    1.24001   1.22148   58.154
 5242.00    1.24136   1.21786   58.155
 5243.00    1.24261   1.21613   57.885
 5244.00    1.24768   1.21870   57.820
 5245.00    1.25612   1.22139   57.783
 5246.00    1.24056   1.21533   57.676
 5247.00    1.21498   1.19851   58.402
 5248.00    1.20731   1.17854   60.038
 5249.00    1.20937   1.16442   -1.000
 5250.00    1.21027   1.15814   -1.000
 5251.00    1.20656   1.15679   -1.000
 5252.00    1.20557   1.15937   -1.000
 5253.00    1.20849   1.16503   -1.000
 5254.00    1.21152   1.16971   -1.000
 5255.00    1.21594   1.17269   -1.000
 5256.00    1.22853   1.18028   -1.000
 5257.00    1.24984   1.19616   -1.000
 5258.00    1.26563   1.21525   -1.000
 5259.00    1.26310   1.22674   -1.000
 5260.00    1.24687   1.22162   57.155
 5261.00    1.20997   1.19750   57.352
 5262.00    1.17256   1.15823   58.585
 5263.00    1.13781   1.11230   60.785
 5264.00    1.11084   1.07002   63.595
 5265.00    1.10277   1.04075   -1.000
 5266.00    1.10523   1.03065   -1.000
 5267.00    1.11820   1.03569   -1.000
 5268.00    1.12242   1.04043   -1.000
 5269.00    1.10126   1.03229   -1.000
 5270.00    1.08348   1.01640   -1.000
 5271.00    1.11453   1.01617   -1.000
 5272.00    1.16669   1.04396   -1.000
 5273.00    1.18583   1.08308   -1.000
 5274.00    1.18073   1.11239   -1.000
 5275.00    1.18131   1.12797   -1.000
 5276.00    1.19477   1.14021   -1.000
 5277.00    1.22022   1.15992   -1.000
 5278.00    1.24633   1.18651   -1.000
 5279.00    1.25703   1.20799   -1.000
 5280.00    1.24354   1.21099   57.349
 5281.00    1.21851   1.19456   57.212
 5282.00    1.20114   1.16983   58.254
 5283.00    1.19203   1.14939   59.761
 5284.00    1.19709   1.14274   -1.000
 5285.00    1.22185   1.15593   -1.000
 5286.00    1.25147   1.18532   -1.000
 5287.00    1.27281   1.21753   -1.000
 5288.00    1.25389   1.23951   57.347
 5289.00    1.22885   1.24893   56.419
 5290.00    1.25708   1.25230   56.493
 5291.00    1.27474   1.25359   56.614
 5292.00    1.27263   1.25240   56.389
 5293.00    1.26686   1.24933   56.185
 5294.00    1.25897   1.24355   56.358
 5295.00    1.25021   1.23096   56.830
 5296.00    1.22549   1.20750   57.511
 5297.00    1.19152   1.17486   58.784
 5298.00    1.17537   1.14615   60.825
 5299.00    1.18538   1.13619   -1.000
 5300.00    1.20931   1.14556   -1.000
 5301.00    1.21884   1.16301   -1.000
 5302.00    1.21821   1.17855   -1.000
 5303.00    1.23388   1.19294   -1.000
 5304.00    1.25596   1.21109   -1.000
 5305.00    1.26437   1.22886   -1.000
 5306.00    1.26420   1.23801   56.728
 5307.00    1.25874   1.23728   56.266
 5308.00    1.25499   1.23352   56.582
 5309.00    1.26452   1.23541   57.116
 5310.00    1.28101   1.24413   57.061
 5311.00    1.28308   1.25353   56.520
 5312.00    1.27663   1.25750   56.067
 5313.00    1.26990   1.25398   55.976
 5314.00    1.26355   1.24454   56.207
 5315.00    1.25649   1.23137   56.484
 5316.00    1.24215   1.21663   56.830
 5317.00    1.23486   1.20585   57.342
 5318.00    1.24421   1.20537   57.878
 5319.00    1.25985   1.21484   -1.000
 5320.00    1.26056   1.22525   57.802
 5321.00    1.24994   1.22695   57.475
 5322.00    1.23450   1.21735   57.521
 5323.00    1.21611   1.19933   57.866
 5324.00    1.20513   1.17871   58.450
 5325.00    1.20471   1.16034   -1.000
 5326.00    1.19689   1.14248   -1.000
 5327.00    1.15837   1.11636   -1.000
 5328.00    1.11399   1.08134   61.278
 5329.00    1.11416   1.05826   -1.000
 5330.00    1.16266   1.06798   -1.000
 5331.00    1.21024   1.10703   -1.000
 5332.00    1.22528   1.15067   -1.000
 5333.00    1.23197   1.17925   -1.000
 5334.00    1.24389   1.19467   -1.000
 5335.00    1.25088   1.20594   -1.000
 5336.00    1.25219   1.21349   -1.000
 5337.00    1.24232   1.21381   57.466
 5338.00    1.23139   1.20574   57.612
 5339.00    1.21912   1.18943   58.003
 5340.00    1.19756   1.16779   58.538
 5341.00    1.18652   1.15079   59.703
 5342.00    1.20459   1.14982   -1.000
 5343.00    1.22829   1.16628   -1.000
 5344.00    1.24460   1.18677   -1.000
 5345.00    1.24410   1.19648   -1.000
 5346.00    1.23407   1.19305   -1.000
 5347.00    1.22917   1.18340   -1.000
 5348.00    1.22138   1.17473   -1.000
 5349.00    1.21326   1.17089   -1.000
 5350.00    1.21845   1.17402   -1.000
 5351.00    1.23896   1.18523   -1.000
 5352.00    1.25062   1.20192   -1.000
 5353.00    1.25144   1.21722   58.026
 5354.00    1.25651   1.22777   57.049
 5355.00    1.26913   1.23725   56.682
 5356.00    1.27806   1.24807   56.354
 5357.00    1.28396   1.25762   55.730
 5358.00    1.28596   1.26241   55.188
 5359.00    1.28153   1.26188   55.067
 5360.00    1.27570   1.25716   55.152
 5361.00    1.26531   1.24780   55.309
 5362.00    1.24929   1.23342   55.786
 5363.00    1.23737   1.21653   56.628
 5364.00    1.22763   1.20056   57.515
 5365.00    1.22015   1.18834   58.088
 5366.00    1.21990   1.18195   58.438
 5367.00    1.22111   1.18049   -1.000
 5368.00    1.21636   1.17800   -1.000
 5369.00    1.20373   1.16713   58.722
 5370.00    1.18375   1.14537   59.089
 5371.00    1.16612   1.12074   -1.000
 5372.00    1.17468   1.10938   -1.000
 5373.00    1.21107   1.12288   -1.000
 5374.00    1.24691   1.15791   -1.000
 5375.00    1.26908   1.19666   -1.000
 5376.00    1.27863   1.22308   -1.000
 5377.00    1.27446   1.23381   -1.000
 5378.00    1.27087   1.23425   56.014
 5379.00    1.26531   1.23024   56.112
 5380.00    1.25029   1.22415   56.181
 5381.00    1.23728   1.21619   56.424
 5382.00    1.22915   1.20700   56.899
 5383.00    1.22566   1.19897   57.469
 5384.00    1.23200   1.19638   57.864
 5385.00    1.24663   1.20253   -1.000
 5386.00    1.25923   1.21510   -1.000
 5387.00    1.25932   1.22602   57.262
 5388.00    1.25273   1.22864   56.935
 5389.00    1.24597   1.22202   57.063
 5390.00    1.23608   1.20950   57.510
 5391.00    1.23388   1.19570   58.272
 5392.00    1.23576   1.18372   -1.000
 5393.00    1.22561   1.17461   -1.000
 5394.00    1.21579   1.16879   -1.000
 5395.00    1.21377   1.16313   -1.000
 5396.00    1.20289   1.15234   -1.000
 5397.00    1.18646   1.13760   -1.000
 5398.00    1.18783   1.12842   -1.000
 5399.00    1.20764   1.13500   -1.000
 5400.00    1.22581   1.15526   -1.000
 5401.00    1.22996   1.17564   -1.000
 5402.00    1.22614   1.18482   -1.000
 5403.00    1.20984   1.17780   58.383
 5404.00    1.18020   1.15429   58.716
 5405.00    1.16146   1.12391   59.971
 5406.00    1.16508   1.10350   -1.000
 5407.00    1.18627   1.10284   -1.000
 5408.00    1.20736   1.11698   -1.000
 5409.00    1.20594   1.13032   -1.000
 5410.00    1.19381   1.13501   -1.000
 5411.00    1.20062   1.13971   -1.000
 5412.00    1.22323   1.15351   -1.000
 5413.00    1.23823   1.17328   -1.000
 5414.00    1.23645   1.18836   -1.000
 5415.00    1.22879   1.19450   57.887
 5416.00    1.23657   1.19887   57.687
 5417.00    1.25054   1.20688   -1.000
 5418.00    1.24917   1.21535   57.493
 5419.00    1.24261   1.21918   57.082
 5420.00    1.23809   1.21735   57.074
 5421.00    1.23656   1.21292   57.529
 5422.00    1.23593   1.20757   57.980
 5423.00    1.22646   1.19956   57.975
 5424.00    1.21471   1.19002   57.720
 5425.00    1.22021   1.18534   58.097
 5426.00    1.24038   1.19189   -1.000
 5427.00    1.24766   1.20432   -1.000
 5428.00    1.22965   1.20529   57.742
 5429.00    1.20213   1.18753   57.427
 5430.00    1.19042   1.16318   58.472
 5431.00    1.20234   1.15045   -1.000
 5432.00    1.21770   1.15349   -1.000
 5433.00    1.21482   1.15827   -1.000
 5434.00    1.19645   1.15413   -1.000
 5435.00    1.19059   1.14648   -1.000
 5436.00    1.20353   1.14808   -1.000
 5437.00    1.22575   1.16598   -1.000
 5438.00    1.25154   1.19449   -1.000
 5439.00    1.27265   1.22149   -1.000
 5440.00    1.28301   1.23882   -1.000
 5441.00    1.27520   1.24733   56.743
 5442.00    1.26260   1.25071   56.152
 5443.00    1.25548   1.24810   55.912
 5444.00    1.23874   1.23480   55.886
 5445.00    1.21113   1.20772   56.226
 5446.00    1.18872   1.17290   57.366
 5447.00    1.18614   1.14503   59.418
 5448.00    1.20981   1.13860   -1.000
 5449.00    1.23986   1.15642   -1.000
 5450.00    1.25577   1.18509   -1.000
 5451.00    1.26308   1.20857   -1.000
 5452.00    1.26355   1.21870   -1.000
 5453.00    1.24690   1.21317   57.693
 5454.00    1.21760   1.19338   58.000
 5455.00    1.19534   1.16656   59.004
 5456.00    1.19571   1.14696   -1.000
 5457.00    1.22101   1.14959   -1.000
 5458.00    1.25215   1.17355   -1.000
 5459.00    1.26513   1.20158   -1.000
 5460.00    1.26036   1.21669   -1.000
 5461.00    1.24611   1.21352   57.695
 5462.00    1.22445   1.19776   57.994
 5463.00    1.21043   1.18041   58.952
 5464.00    1.21394   1.17196   -1.000
 5465.00    1.22780   1.17629   -1.000
 5466.00    1.23807   1.18882   -1.000
 5467.00    1.24336   1.20159   -1.000
 5468.00    1.24771   1.21054   -1.000
 5469.00    1.25012   1.21567   58.421
 5470.00    1.25312   1.21648   57.980
 5471.00    1.24950   1.21280   58.204
 5472.00    1.24107   1.20642   58.822
 5473.00    1.23299   1.19829   59.207
 5474.00    1.22062   1.18707   59.451
 5475.00    1.19817   1.17068   59.933
 5476.00    1.17301   1.15030   60.696
 5477.00    1.16920   1.13448   61.816
 5478.00    1.19142   1.13336   -1.000
 5479.00    1.21994   1.14815   -1.000
 5480.00    1.22860   1.16741   -1.000
 5481.00    1.22109   1.17745   -1.000
 5482.00    1.21756   1.17863   59.879
 5483.00    1.22638   1.18139   -1.000
 5484.00    1.23936   1.19172   -1.000
 5485.00    1.24322   1.20578   -1.000
 5486.00    1.24150   1.21406   58.956
 5487.00    1.23785   1.21155   58.132
 5488.00    1.22888   1.20246   58.255
 5489.00    1.22133   1.19589   59.024
 5490.00    1.22774   1.19676   59.602
 5491.00    1.23440   1.20227   59.736
 5492.00    1.23870   1.20755   59.491
 5493.00    1.24019   1.21027   59.043
 5494.00    1.23256   1.21096   58.733
 5495.00    1.23248   1.21008   58.719
 5496.00    1.23685   1.20613   58.806
 5497.00    1.23258   1.19923   58.804
 5498.00    1.22909   1.19314   59.038
 5499.00    1.23483   1.19139   -1.000
 5500.00    1.23642   1.19222   -1.000
 5501.00    1.22391   1.18879   -1.000
 5502.00    1.21135   1.18005   58.879
 5503.00    1.21894   1.17425   -1.000
 5504.00    1.23694   1.17481   -1.000
 5505.00    1.23769   1.17580   -1.000
 5506.00    1.22074   1.17166   -1.000
 5507.00    1.21122   1.16483   -1.000
 5508.00    1.22091   1.16411   -1.000
 5509.00    1.23235   1.17201   -1.000
 5510.00    1.22750   1.18111   -1.000
 5511.00    1.21454   1.18252   59.250
 5512.00    1.21130   1.17349   -1.000
 5513.00    1.20546   1.15995   -1.000
 5514.00    1.20210   1.15167   -1.000
 5515.00    1.21711   1.15443   -1.000
 5516.00    1.23958   1.16633   -1.000
 5517.00    1.25011   1.18215   -1.000
 5518.00    1.25226   1.19799   -1.000
 5519.00    1.26228   1.21125   -1.000
 5520.00    1.26141   1.21962   -1.000
 5521.00    1.25298   1.22243   57.352
 5522.00    1.25102   1.22160   57.376
 5523.00    1.25157   1.21982   57.486
 5524.00    1.24444   1.21698   57.648
 5525.00    1.23192   1.20929   57.798
 5526.00    1.21753   1.19358   58.026
 5527.00    1.19253   1.17115   58.625
 5528.00    1.17143   1.14994   59.745
 5529.00    1.17903   1.14110   61.245
 5530.00    1.20899   1.15122   -1.000
 5531.00    1.23167   1.17420   -1.000
 5532.00    1.23737   1.19439   -1.000
 5533.00    1.23269   1.20192   58.800
 5534.00    1.22465   1.19858   58.553
 5535.00    1.22155   1.19190   58.947
 5536.00    1.22649   1.18886   59.379
 5537.00    1.23427   1.19207   -1.000
 5538.00    1.24212   1.19858   -1.000
 5539.00    1.24814   1.20460   -1.000
 5540.00    1.25097   1.21029   -1.000
 5541.00    1.25157   1.21587   58.073
 5542.00    1.24768   1.21752   57.546
 5543.00    1.23741   1.21287   57.354
 5544.00    1.23166   1.20552   57.707
 5545.00    1.23124   1.20135   58.328
 5546.00    1.23229   1.20258   58.682
 5547.00    1.24070   1.20718   58.642
 5548.00    1.25078   1.21371   58.480
 5549.00    1.25788   1.22185   58.225
 5550.00    1.26091   1.22895   57.732
 5551.00    1.25822   1.23194   57.196
 5552.00    1.25659   1.23001   56.906
 5553.00    1.25274   1.22393   57.023
 5554.00    1.23989   1.21644   57.453
 5555.00    1.23275   1.21158   58.048
 5556.00    1.23636   1.21143   58.520
 5557.00    1.23954   1.21402   58.585
 5558.00    1.24384   1.21662   58.428
 5559.00    1.24734   1.21888   58.284
 5560.00    1.24895   1.22013   58.203
 5561.00    1.24201   1.21791   58.137
 5562.00    1.23015   1.21115   58.173
 5563.00    1.22317   1.20224   58.400
 5564.00    1.21759   1.19483   58.864
 5565.00    1.21616   1.19019   59.383
 5566.00    1.21584   1.18728   59.657
 5567.00    1.21879   1.18506   59.789
 5568.00    1.21783   1.18323   59.878
 5569.00    1.21170   1.18155   59.838
 5570.00    1.21297   1.17996   59.702
 5571.00    1.21450   1.17830   59.733
 5572.00    1.20655   1.17582   59.811
 5573.00    1.20058   1.17281   59.779
 5574.00    1.20809   1.17285   59.878
 5575.00    1.21409   1.17815   59.839
 5576.00    1.19826   1.18492   59.356
 5577.00    1.11548   1.19049   -1.000
 5578.00    0.89769   1.19667   -1.000
 5579.00    0.61224   1.20353   -1.000
 5580.00    0.50026   1.20799   -1.000
 5581.00    0.70318   1.20837   -1.000
 5582.00    1.03523   1.20637   -1.000
 5583.00    1.20570   1.20431   60.055
 5584.00    1.22511   1.20156   59.307
 5585.00    1.21642   1.19389   58.930
 5586.00    1.19546   1.17590   59.072
 5587.00    1.16489   1.14828   59.935
 5588.00    1.14918   1.12196   61.427
 5589.00    1.15588   1.10851   -1.000
 5590.00    1.17435   1.11174   -1.000
 5591.00    1.19472   1.12728   -1.000
 5592.00    1.20349   1.14560   -1.000
 5593.00    1.19982   1.15776   -1.000
 5594.00    1.19823   1.16222   61.075
 5595.00    1.20391   1.16508   -1.000
 5596.00    1.21588   1.17093   -1.000
 5597.00    1.22148   1.17649   -1.000
 5598.00    1.20976   1.17451   -1.000
 5599.00    1.19637   1.16480   59.788
 5600.00    1.19133   1.15481   60.661
 5601.00    1.18872   1.14714   -1.000
 5602.00    1.18350   1.14088   -1.000
 5603.00    1.18687   1.14126   -1.000
 5604.00    1.20898   1.15445   -1.000
 5605.00    1.23209   1.17878   -1.000
 5606.00    1.24664   1.20534   -1.000
 5607.00    1.24817   1.22494   58.912
 5608.00    1.25057   1.23508   57.910
 5609.00    1.25489   1.23881   57.541
 5610.00    1.25417   1.24003   57.554
 5611.00    1.25653   1.24096   57.667
 5612.00    1.25467   1.24003   57.698
 5613.00    1.24229   1.23118   57.567
 5614.00    1.21291   1.20929   57.606
 5615.00    1.17736   1.17829   58.365
 5616.00    1.17010   1.15187   60.043
 5617.00    1.19619   1.14529   -1.000
 5618.00    1.22303   1.15892   -1.000
 5619.00    1.23205   1.17870   -1.000
 5620.00    1.23191   1.19423   -1.000
 5621.00    1.23668   1.20359   59.488
 5622.00    1.23698   1.20704   59.323
 5623.00    1.22415   1.20336   59.027
 5624.00    1.21059   1.19242   59.004
 5625.00    1.20554   1.18052   59.746
 5626.00    1.21656   1.17686   60.954
 5627.00    1.23122   1.18426   -1.000
 5628.00    1.24184   1.19790   -1.000
 5629.00    1.25046   1.21057   -1.000
 5630.00    1.25329   1.21910   58.887
 5631.00    1.25433   1.22417   58.337
 5632.00    1.25188   1.22586   58.053
 5633.00    1.24354   1.22399   57.870
 5634.00    1.23620   1.21925   57.775
 5635.00    1.23375   1.21232   58.050
 5636.00    1.22817   1.20451   58.512
 5637.00    1.22181   1.19785   58.902
 5638.00    1.22457   1.19375   59.301
 5639.00    1.22515   1.19263   59.726
 5640.00    1.22024   1.19292   59.933
 5641.00    1.21922   1.19204   59.878
 5642.00    1.22159   1.19066   59.943
 5643.00    1.22431   1.19158   60.082
 5644.00    1.22698   1.19474   59.967
 5645.00    1.23175   1.19856   59.690
 5646.00    1.23254   1.20257   59.501
 5647.00    1.23373   1.20585   59.261
 5648.00    1.23927   1.20689   58.944
 5649.00    1.23894   1.20562   58.804
 5650.00    1.23778   1.20380   58.682
 5651.00    1.23923   1.20394   58.712
 5652.00    1.23833   1.20606   58.800
 5653.00    1.22980   1.20700   58.558
 5654.00    1.21791   1.20417   58.210
 5655.00    1.21508   1.19726   58.264
 5656.00    1.21002   1.18681   58.631
 5657.00    1.19364   1.17218   59.163
 5658.00    1.17644   1.15451   60.009
 5659.00    1.17200   1.14180   61.542
 5660.00    1.18391   1.14175   -1.000
 5661.00    1.20182   1.15107   -1.000
 5662.00    1.20175   1.16109   -1.000
 5663.00    1.19821   1.16820   60.978
 5664.00    1.21003   1.17515   60.984
 5665.00    1.22164   1.18488   60.723
 5666.00    1.22319   1.19367   59.899
 5667.00    1.21778   1.19629   59.332
 5668.00    1.21876   1.19398   59.404
 5669.00    1.22030   1.19167   59.775
 5670.00    1.22120   1.19266   59.997
 5671.00    1.22860   1.19726   59.942
 5672.00    1.23426   1.20387   59.661
 5673.00    1.23748   1.21033   59.195
 5674.00    1.23744   1.21492   58.634
 5675.00    1.23937   1.21675   58.051
 5676.00    1.23949   1.21677   57.767
 5677.00    1.23766   1.21708   57.908
 5678.00    1.23818   1.21768   57.931
 5679.00    1.23882   1.21647   57.763
 5680.00    1.23545   1.21162   57.864
 5681.00    1.22713   1.20249   58.159
 5682.00    1.21324   1.19009   58.439
 5683.00    1.20060   1.17820   58.954
 5684.00    1.19939   1.17156   59.675
 5685.00    1.20136   1.17200   60.113
 5686.00    1.19922   1.17591   59.975
 5687.00    1.19679   1.17694   59.633
 5688.00    1.19744   1.17369   59.634
 5689.00    1.20381   1.17109   60.156
 5690.00    1.21695   1.17460   -1.000
 5691.00    1.22905   1.18490   -1.000
 5692.00    1.23575   1.19736   -1.000
 5693.00    1.23763   1.20698   58.579
 5694.00    1.22935   1.21222   58.153
 5695.00    1.23018   1.21428   57.915
 5696.00    1.23498   1.21425   57.912
 5697.00    1.23182   1.21215   57.982
 5698.00    1.22856   1.20746   58.080
 5699.00    1.21990   1.19985   58.445
 5700.00    1.20319   1.19085   59.103
 5701.00    1.19181   1.18292   59.717
 5702.00    1.18858   1.17847   60.284
 5703.00    1.20011   1.17866   60.772
 5704.00    1.21046   1.18196   60.679
 5705.00    1.20337   1.18401   60.088
 5706.00    1.19039   1.18050   59.673
 5707.00    1.18102   1.17107   59.819
 5708.00    1.16697   1.15768   60.466
 5709.00    1.14845   1.14294   61.482
 5710.00    1.14252   1.13185   62.564
 5711.00    1.15141   1.12941   63.240
 5712.00    1.17206   1.13698   63.322
 5713.00    1.19078   1.15308   62.905
 5714.00    1.20934   1.17333   61.921
 5715.00    1.22261   1.19089   60.477
 5716.00    1.22503   1.20137   59.228
 5717.00    1.22330   1.20627   58.686
 5718.00    1.22697   1.20966   58.563
 5719.00    1.23009   1.21379   58.410
 5720.00    1.23592   1.21915   58.175
 5721.00    1.24383   1.22506   57.839
 5722.00    1.24570   1.23022   57.506
 5723.00    1.24259   1.23372   57.306
 5724.00    1.24052   1.23510   57.200
 5725.00    1.23905   1.23361   57.124
 5726.00    1.23522   1.22834   57.149
 5727.00    1.22753   1.22072   57.460
 5728.00    1.22229   1.21497   58.029
 5729.00    1.22883   1.21358   58.582
 5730.00    1.22993   1.21517   58.680
 5731.00    1.22003   1.21610   58.285
 5732.00    1.22103   1.21531   58.169
 5733.00    1.23092   1.21607   58.433
 5734.00    1.23526   1.22053   58.505
 5735.00    1.23484   1.22668   58.082
 5736.00    1.23488   1.23062   57.581
 5737.00    1.23530   1.23083   57.423
 5738.00    1.23286   1.22913   57.514
 5739.00    1.22845   1.22787   57.627
 5740.00    1.22576   1.22762   57.752
 5741.00    1.22535   1.22705   57.819
 5742.00    1.22586   1.22520   57.937
 5743.00    1.22231   1.22345   58.039
 5744.00    1.22385   1.22386   58.055
 5745.00    1.23504   1.22631   57.930
 5746.00    1.23460   1.22783   57.719
 5747.00    1.22179   1.22587   57.311
 5748.00    1.21850   1.22227   57.291
 5749.00    1.22376   1.22093   57.771
 5750.00    1.22625   1.22237   58.207
 5751.00    1.21599   1.22171   58.145
 5752.00    1.20158   1.21430   57.832
 5753.00    1.19031   1.20233   57.952
 5754.00    1.19416   1.19304   58.571
 5755.00    1.20475   1.19324   59.245
 5756.00    1.21650   1.20359   59.560
 5757.00    1.23019   1.21810   59.167
 5758.00    1.23663   1.22937   58.202
 5759.00    1.23070   1.23300   57.272
 5760.00    1.21666   1.22873   57.002
 5761.00    1.20137   1.21866   57.447
 5762.00    1.20022   1.20665   58.173
 5763.00    1.20552   1.19885   58.956
 5764.00    1.21102   1.20078   59.543
 5765.00    1.22341   1.21200   59.386
 5766.00    1.23659   1.22620   58.488
 5767.00    1.24002   1.23618   57.560
 5768.00    1.24043   1.23968   57.114
 5769.00    1.23824   1.23897   57.028
 5770.00    1.22868   1.23651   56.958
 5771.00    1.22204   1.23310   56.948
 5772.00    1.21980   1.22850   57.115
 5773.00    1.21910   1.22305   57.364
 5774.00    1.21626   1.21852   57.710
 5775.00    1.20802   1.21650   57.979
 5776.00    1.20675   1.21736   58.073
 5777.00    1.21142   1.21993   58.058
 5778.00    1.21149   1.22045   57.848
 5779.00    1.20341   1.21476   57.645
 5780.00    1.18586   1.20263   57.712
 5781.00    1.16755   1.18809   58.190
 5782.00    1.16125   1.17681   59.291
 5783.00    1.16097   1.17221   60.431
 5784.00    1.16535   1.17297   60.786
 5785.00    1.17768   1.17587   60.557
 5786.00    1.18910   1.17985   60.327
 5787.00    1.20227   1.18695   60.111
 5788.00    1.21125   1.19694   59.699
 5789.00    1.21008   1.20481   58.942
 5790.00    1.20892   1.20661   58.291
 5791.00    1.20566   1.20403   58.085
 5792.00    1.20734   1.20278   58.271
 5793.00    1.22207   1.20702   58.401
 5794.00    1.22226   1.21530   58.117
 5795.00    1.21689   1.22362   57.643
 5796.00    1.21933   1.22839   57.278
 5797.00    1.20993   1.22771   57.061
 5798.00    1.20880   1.22371   57.204
 5799.00    1.21463   1.22209   57.586
 5800.00    1.22386   1.22593   57.688
 5801.00    1.23485   1.23228   57.169
 5802.00    1.23580   1.23665   56.385
 5803.00    1.22759   1.23651   55.873
 5804.00    1.22043   1.23183   56.039
 5805.00    1.21623   1.22515   56.540
 5806.00    1.21293   1.22049   56.980
 5807.00    1.21542   1.22017   57.364
 5808.00    1.21735   1.22296   57.443
 5809.00    1.21760   1.22631   57.247
 5810.00    1.22823   1.22919   57.047
 5811.00    1.22471   1.23163   56.949
 5812.00    1.22556   1.23283   56.938
 5813.00    1.22886   1.23184   56.812
 5814.00    1.22759   1.22836   56.604
 5815.00    1.21895   1.22266   56.556
 5816.00    1.21431   1.21675   56.835
 5817.00    1.21766   1.21484   57.252
 5818.00    1.22800   1.21947   57.270
 5819.00    1.23905   1.22763   56.893
 5820.00    1.24219   1.23387   56.531
 5821.00    1.23874   1.23620   56.241
 5822.00    1.24107   1.23615   56.001
 5823.00    1.23896   1.23575   55.933
 5824.00    1.23313   1.23558   56.089
 5825.00    1.23540   1.23536   56.174
 5826.00    1.24104   1.23538   56.055
 5827.00    1.24403   1.23622   55.969
 5828.00    1.24284   1.23763   55.881
 5829.00    1.23962   1.23869   55.860
 5830.00    1.23619   1.23889   55.920
 5831.00    1.23421   1.23854   55.951
 5832.00    1.23320   1.23772   55.869
 5833.00    1.22960   1.23608   55.862
 5834.00    1.23148   1.23354   55.849
 5835.00    1.23879   1.23123   56.084
 5836.00    1.24309   1.23082   56.369
 5837.00    1.23875   1.23264   56.322
 5838.00    1.23187   1.23486   56.145
 5839.00    1.23295   1.23588   56.159
 5840.00    1.23730   1.23649   56.344
 5841.00    1.24256   1.23786   56.344
 5842.00    1.24153   1.23929   56.045
 5843.00    1.23882   1.23927   55.662
 5844.00    1.23778   1.23742   55.503
 5845.00    1.23009   1.23405   55.607
 5846.00    1.21919   1.22929   55.817
 5847.00    1.21349   1.22416   56.096
 5848.00    1.22025   1.22082   56.449
 5849.00    1.22623   1.22014   56.718
 5850.00    1.23108   1.21979   56.867
 5851.00    1.22428   1.21658   56.833
 5852.00    1.21104   1.20967   57.033
 5853.00    1.20333   1.20113   57.390
 5854.00    1.20129   1.19393   57.830
 5855.00    1.20077   1.18819   58.308
 5856.00    1.19407   1.18085   58.489
 5857.00    1.18474   1.16926   58.563
 5858.00    1.18134   1.15776   58.831
 5859.00    1.19228   1.15568   59.464
 5860.00    1.20669   1.16485   -1.000
 5861.00    1.20977   1.17836   59.008
 5862.00    1.21911   1.18946   58.345
 5863.00    1.21740   1.19643   58.000
 5864.00    1.21259   1.20117   57.809
 5865.00    1.21396   1.20346   57.617
 5866.00    1.20938   1.20148   57.645
 5867.00    1.20626   1.19730   57.839
 5868.00    1.20968   1.19580   58.074
 5869.00    1.21488   1.20000   58.237
 5870.00    1.22303   1.20849   57.957
 5871.00    1.22551   1.21637   57.390
 5872.00    1.22286   1.21996   57.007
 5873.00    1.22588   1.21932   56.867
 5874.00    1.22907   1.21688   56.937
 5875.00    1.22943   1.21452   57.049
 5876.00    1.22405   1.21231   57.006
 5877.00    1.22167   1.20951   57.008
 5878.00    1.22095   1.20572   57.230
 5879.00    1.21957   1.20095   57.420
 5880.00    1.21824   1.19577   57.625
 5881.00    1.21551   1.19096   58.085
 5882.00    1.21014   1.18634   58.309
 5883.00    1.20451   1.18095   58.218
 5884.00    1.20199   1.17481   58.102
 5885.00    1.20179   1.16863   58.216
 5886.00    1.19534   1.16040   -1.000
 5887.00    1.17626   1.14156   -1.000
 5888.00    1.12672   1.10159   58.907
 5889.00    1.04511   1.04245   60.173
 5890.00    0.95482   0.98587   63.106
 5891.00    0.88491   0.96141   -1.000
 5892.00    0.86831   0.97591   -1.000
 5893.00    0.91718   1.00416   -1.000
 5894.00    0.98919   1.01872   67.888
 5895.00    1.02528   1.01113   65.598
 5896.00    1.01324   0.99477   65.210
 5897.00    0.98394   0.99173   66.546
 5898.00    0.99051   1.01375   67.768
 5899.00    1.03984   1.05226   66.681
 5900.00    1.11086   1.09005   64.454
 5901.00    1.17042   1.12064   -1.000
 5902.00    1.19151   1.14461   -1.000
 5903.00    1.19458   1.16140   -1.000
 5904.00    1.19970   1.17084   58.706
 5905.00    1.20117   1.17520   58.555
 5906.00    1.19977   1.17768   58.525
 5907.00    1.20875   1.18050   58.554
 5908.00    1.21319   1.18385   58.613
 5909.00    1.20848   1.18703   58.540
 5910.00    1.20634   1.18962   58.412
 5911.00    1.20149   1.19099   58.394
 5912.00    1.19655   1.18956   58.590
 5913.00    1.19364   1.18363   58.649
 5914.00    1.18118   1.17420   58.768
 5915.00    1.17597   1.16594   59.232
 5916.00    1.18336   1.16288   60.010
 5917.00    1.19147   1.16572   60.203
 5918.00    1.19583   1.17262   59.951
 5919.00    1.19995   1.18050   59.629
 5920.00    1.19708   1.18625   59.420
 5921.00    1.19645   1.18852   59.202
 5922.00    1.19934   1.18831   59.046
 5923.00    1.20158   1.18756   58.900
 5924.00    1.20153   1.18808   58.962
 5925.00    1.20348   1.19051   58.912
 5926.00    1.19541   1.19385   58.662
 5927.00    1.18693   1.19525   58.516
 5928.00    1.18355   1.19206   58.438
 5929.00    1.17961   1.18484   58.455
 5930.00    1.17727   1.17793   58.693
 5931.00    1.18702   1.17604   59.165
 5932.00    1.19813   1.17964   59.444
 5933.00    1.19512   1.18417   59.145
 5934.00    1.18952   1.18553   58.622
 5935.00    1.19109   1.18557   58.639
 5936.00    1.18460   1.18802   59.135
 5937.00    1.18515   1.19283   59.420
 5938.00    1.19798   1.19711   59.314
 5939.00    1.20265   1.19808   58.847
 5940.00    1.20354   1.19493   58.438
 5941.00    1.19636   1.18935   58.401
 5942.00    1.19207   1.18489   58.793
 5943.00    1.19106   1.18431   59.342
 5944.00    1.19160   1.18707   59.502
 5945.00    1.19034   1.19067   59.320
 5946.00    1.19029   1.19223   58.942
 5947.00    1.18297   1.19018   58.641
 5948.00    1.17043   1.18527   58.559
 5949.00    1.16787   1.18082   58.892
 5950.00    1.17369   1.17977   59.489
 5951.00    1.18063   1.18124   59.954
 5952.00    1.17732   1.18155   59.878
 5953.00    1.17711   1.17935   59.562
 5954.00    1.18211   1.17797   59.485
 5955.00    1.17867   1.17879   59.610
 5956.00    1.17638   1.17864   59.508
 5957.00    1.18317   1.17686   59.438
 5958.00    1.19000   1.17664   59.544
 5959.00    1.19598   1.18032   59.761
 5960.00    1.19845   1.18726   59.715
 5961.00    1.19600   1.19445   59.295
 5962.00    1.19737   1.19925   58.603
 5963.00    1.20347   1.20099   58.173
 5964.00    1.19901   1.19981   58.034
 5965.00    1.18883   1.19645   58.050
 5966.00    1.18887   1.19279   58.269
 5967.00    1.19211   1.19105   58.568
 5968.00    1.20024   1.19202   58.752
 5969.00    1.20255   1.19477   58.854
 5970.00    1.19895   1.19818   58.569
 5971.00    1.20079   1.20164   58.195
 5972.00    1.19860   1.20395   58.136
 5973.00    1.19369   1.20383   58.091
 5974.00    1.19035   1.20044   57.969
 5975.00    1.18133   1.19358   58.042
 5976.00    1.17678   1.18487   58.450
 5977.00    1.17099   1.17783   58.919
 5978.00    1.17358   1.17595   59.355
 5979.00    1.17946   1.17986   59.724
 5980.00    1.18655   1.18661   59.797
 5981.00    1.18584   1.19178   59.388
 5982.00    1.17842   1.19146   58.955
 5983.00    1.16773   1.18482   58.886
 5984.00    1.16520   1.17529   59.176
 5985.00    1.16814   1.16890   59.707
 5986.00    1.17231   1.16918   60.156
 5987.00    1.17552   1.17464   60.259
 5988.00    1.17985   1.18137   59.852
 5989.00    1.18971   1.18657   59.272
 5990.00    1.18846   1.18939   59.006
 5991.00    1.18202   1.19029   58.791
 5992.00    1.18238   1.19139   58.613
 5993.00    1.19043   1.19493   58.766
 5994.00    1.18810   1.20011   58.762
 5995.00    1.17994   1.20249   58.357
 5996.00    1.17993   1.19969   57.957
 5997.00    1.17592   1.19400   58.015
 5998.00    1.17476   1.18920   58.480
 5999.00    1.17429   1.18753   58.829
 6000.00    1.17757   1.18814   59.028
 6001.00    1.17644   1.18841   59.066
 6002.00    1.17022   1.18643   58.986
 6003.00    1.17119   1.18308   59.160
 6004.00    1.16980   1.18110   59.496
 6005.00    1.17011   1.18101   59.599
 6006.00    1.16912   1.17937   59.512
 6007.00    1.16179   1.17332   59.399
 6008.00    1.15739   1.16594   59.588
 6009.00    1.16035   1.16375   60.115
 6010.00    1.17223   1.16929   60.545
 6011.00    1.17789   1.17791   60.246
 6012.00    1.17405   1.18243   59.507
 6013.00    1.16684   1.18108   59.110
 6014.00    1.15946   1.17768   59.342
 6015.00    1.16199   1.17529   59.795
 6016.00    1.16404   1.17429   59.895
 6017.00    1.16211   1.17360   59.617
 6018.00    1.16692   1.17242   59.739
 6019.00    1.16574   1.16997   59.981
 6020.00    1.15642   1.16583   59.994
 6021.00    1.14685   1.16175   59.912
 6022.00    1.14758   1.16063   60.203
 6023.00    1.15846   1.16278   60.416
 6024.00    1.15663   1.16627   60.053
 6025.00    1.15794   1.17125   59.721
 6026.00    1.16635   1.17843   59.643
 6027.00    1.17319   1.18572   59.481
 6028.00    1.16754   1.19134   59.144
 6029.00    1.16846   1.19618   58.936
 6030.00    1.17283   1.20053   58.568
 6031.00    1.17643   1.20349   58.386
 6032.00    1.18544   1.20523   58.351
 6033.00    1.18722   1.20686   58.412
 6034.00    1.18286   1.20874   58.490
 6035.00    1.18084   1.21017   58.305
 6036.00    1.18228   1.21052   58.065
 6037.00    1.18093   1.20972   57.970
 6038.00    1.18205   1.20786   57.932
 6039.00    1.17894   1.20477   57.862
 6040.00    1.17208   1.20083   58.028
 6041.00    1.16899   1.19736   58.326
 6042.00    1.16821   1.19571   58.433
 6043.00    1.16861   1.19652   58.541
 6044.00    1.17289   1.19953   58.388
 6045.00    1.17227   1.20353   58.257
 6046.00    1.17792   1.20705   57.879
 6047.00    1.18036   1.20989   57.547
 6048.00    1.17906   1.21275   57.637
 6049.00    1.17649   1.21520   57.606
 6050.00    1.17774   1.21650   57.544
 6051.00    1.17536   1.21626   57.664
 6052.00    1.17440   1.21433   57.860
 6053.00    1.16718   1.21038   57.955
 6054.00    1.16029   1.20439   58.017
 6055.00    1.15746   1.19781   58.173
 6056.00    1.16014   1.19294   58.409
 6057.00    1.16357   1.19176   58.619
 6058.00    1.16829   1.19448   58.924
 6059.00    1.17005   1.19930   59.001
 6060.00    1.17045   1.20365   58.810
 6061.00    1.16632   1.20569   58.479
 6062.00    1.16625   1.20389   58.289
 6063.00    1.16381   1.19719   58.419
 6064.00    1.15795   1.18629   58.749
 6065.00    1.08153   1.17506   -1.000
 6066.00    0.87153   1.17015   -1.000
 6067.00    1.06476   1.17539   -1.000
 6068.00    1.01125   1.18701   -1.000
 6069.00    0.33858   1.19862   -1.000
 6070.00    0.30151   1.20699   -1.000
 6071.00    0.90641   1.21155   -1.000
 6072.00    1.15328   1.21356   58.062
 6073.00    1.06036   1.21461   -1.000
 6074.00    0.97638   1.21525   -1.000
 6075.00    0.46922   1.21463   -1.000
 6076.00    0.79440   1.21156   -1.000
 6077.00    1.20721   1.20578   57.916
 6078.00    1.13925   1.19848   58.159
 6079.00    1.14446   1.19219   58.480
 6080.00    1.14858   1.18890   58.850
 6081.00    1.14969   1.18744   59.296
 6082.00    1.14582   1.18551   59.555
 6083.00    1.14198   1.18313   59.557
 6084.00    1.14026   1.18139   59.651
 6085.00    1.14069   1.18087   59.789
 6086.00    1.14855   1.18236   59.751
 6087.00    1.15327   1.18590   59.701
 6088.00    1.15317   1.18941   59.606
 6089.00    1.14911   1.19018   59.402
 6090.00    1.13808   1.18794   59.251
 6091.00    1.13840   1.18474   59.474
 6092.00    1.14364   1.18307   59.830
 6093.00    1.14664   1.18430   59.992
 6094.00    1.15240   1.18797   59.837
 6095.00    1.15944   1.19259   59.439
 6096.00    1.16080   1.19667   59.147
 6097.00    1.15681   1.19982   58.826
 6098.00    1.15268   1.20183   58.653
 6099.00    1.15128   1.20120   58.737
 6100.00    1.14446   1.19469   58.866
 6101.00    1.13091   1.17944   58.881
 6102.00    1.11888   1.15815   59.063
 6103.00    1.10656   1.14074   60.043
 6104.00    1.11191   1.13787   61.467
 6105.00    1.13259   1.14997   62.013
 6106.00    1.14232   1.16692   61.225
 6107.00    1.14034   1.18033   60.057
 6108.00    1.13789   1.18875   59.366
 6109.00    1.14535   1.19426   59.343
 6110.00    1.14565   1.19808   59.588
 6111.00    1.14549   1.19974   59.676
 6112.00    1.14100   1.19994   59.608
 6113.00    1.14060   1.20062   59.435
 6114.00    1.14750   1.20232   59.222
 6115.00    1.14076   1.20380   -1.000
 6116.00    1.14242   1.20368   58.853
 6117.00    1.13713   1.20218   -1.000
 6118.00    1.13488   1.19970   -1.000
 6119.00    1.13076   1.19401   -1.000
 6120.00    1.12149   1.18183   59.561
 6121.00    1.10907   1.16318   60.021
 6122.00    1.09764   1.14399   60.935
 6123.00    1.10306   1.13355   61.654
 6124.00    1.12068   1.13625   62.088
 6125.00    1.13395   1.14822   61.817
 6126.00    1.12839   1.16217   60.757
 6127.00    1.13411   1.17261   60.200
 6128.00    1.13057   1.17902   60.351
 6129.00    1.12821   1.18370   60.630
 6130.00    1.13263   1.18886   60.486
 6131.00    1.13407   1.19469   -1.000
 6132.00    1.13244   1.20001   -1.000
 6133.00    1.12880   1.20220   -1.000
 6134.00    1.11701   1.19648   -1.000
 6135.00    1.09957   1.17872   -1.000
 6136.00    1.08279   1.15137   -1.000
 6137.00    1.06587   1.12601   -1.000
 6138.00    1.07026   1.11619   63.640
 6139.00    1.08669   1.12403   64.866
 6140.00    1.10080   1.13820   64.460
 6141.00    1.10848   1.14923   62.617
 6142.00    1.10461   1.15732   61.101
 6143.00    1.10454   1.16671   -1.000
 6144.00    1.11336   1.17797   -1.000
 6145.00    1.12497   1.18669   -1.000
 6146.00    1.12415   1.18981   -1.000
 6147.00    1.11939   1.18825   -1.000
 6148.00    1.10805   1.18425   -1.000
 6149.00    1.10868   1.17978   -1.000
 6150.00    1.12058   1.17622   60.328
 6151.00    1.12314   1.17478   60.750
 6152.00    1.12419   1.17588   61.013
 6153.00    1.11510   1.17768   -1.000
 6154.00    1.10853   1.17685   -1.000
 6155.00    1.10556   1.17280   -1.000
 6156.00    1.10412   1.16843   -1.000
 6157.00    1.10882   1.16577   60.904
 6158.00    1.10405   1.16305   61.122
 6159.00    1.09744   1.15525   61.187
 6160.00    1.08021   1.13713   61.561
 6161.00    1.06103   1.10857   62.377
 6162.00    1.04985   1.07863   63.783
 6163.00    1.05132   1.06072   65.785
 6164.00    1.06171   1.06197   67.385
 6165.00    1.07817   1.07741   67.509
 6166.00    1.09046   1.09596   66.141
 6167.00    1.08690   1.10863   64.419
 6168.00    1.07787   1.11031   63.698
 6169.00    1.06707   1.10333   63.590
 6170.00    1.05786   1.09785   63.947
 6171.00    1.06850   1.10292   64.818
 6172.00    1.08501   1.11640   65.184
 6173.00    1.09127   1.13105   64.398
 6174.00    1.09373   1.14268   63.150
 6175.00    1.09153   1.15013   62.530
 6176.00    1.09594   1.15402   62.694
 6177.00    1.10291   1.15631   62.680
 6178.00    1.09967   1.15877   62.511
 6179.00    1.09467   1.16127   -1.000
 6180.00    1.09251   1.16354   -1.000
 6181.00    1.09484   1.16649   -1.000
 6182.00    1.10399   1.17049   -1.000
 6183.00    1.11143   1.17381   -1.000
 6184.00    1.11165   1.17416   -1.000
 6185.00    1.10618   1.17100   -1.000
 6186.00    1.09772   1.16538   -1.000
 6187.00    1.09622   1.15863   -1.000
 6188.00    1.09095   1.15174   -1.000
 6189.00    1.08369   1.14387   -1.000
 6190.00    1.07750   1.13295   63.455
 6191.00    1.06960   1.12067   64.022
 6192.00    1.07130   1.11469   64.546
 6193.00    1.08248   1.12050   65.358
 6194.00    1.09157   1.13387   65.462
 6195.00    1.09560   1.14738   64.402
 6196.00    1.10021   1.15757   62.823
 6197.00    1.10251   1.16311   62.020
 6198.00    1.09640   1.16339   -1.000
 6199.00    1.09496   1.15914   -1.000
 6200.00    1.08990   1.15385   -1.000
 6201.00    1.08956   1.15221   -1.000
 6202.00    1.09554   1.15598   -1.000
 6203.00    1.09734   1.16286   -1.000
 6204.00    1.09933   1.16994   -1.000
 6205.00    1.09461   1.17540   -1.000
 6206.00    1.09966   1.17871   -1.000
 6207.00    1.10309   1.18038   -1.000
 6208.00    1.10108   1.18104   -1.000
 6209.00    1.09886   1.18017   -1.000
 6210.00    1.09214   1.17648   -1.000
 6211.00    1.08961   1.16884   -1.000
 6212.00    1.08388   1.15726   -1.000
 6213.00    1.07258   1.14375   -1.000
 6214.00    1.06757   1.13210   -1.000
 6215.00    1.07086   1.12547   64.065
 6216.00    1.07258   1.12395   65.023
 6217.00    1.07332   1.12478   65.525
 6218.00    1.07301   1.12471   65.432
 6219.00    1.07083   1.12294   64.553
 6220.00    1.06710   1.12221   64.498
 6221.00    1.06943   1.12510   64.939
 6222.00    1.07978   1.13097   64.533
 6223.00    1.08173   1.13650   64.215
 6224.00    1.09188   1.13984   65.557
 6225.00    1.08747   1.14161   69.667
 6226.00    1.08920   1.14205   66.126
 6227.00    1.08576   1.14028   63.651
 6228.00    1.07432   1.13407   63.902
 6229.00    1.07002   1.12200   63.968
 6230.00    1.05116   1.10687   64.480
 6231.00    1.04275   1.09541   65.460
 6232.00    1.04645   1.09357   66.518
 6233.00    1.06334   1.10198   67.111
 6234.00    1.07243   1.11589   66.549
 6235.00    1.07553   1.12865   65.467
 6236.00    1.08087   1.13545   64.231
 6237.00    1.06601   1.13558   -1.000
 6238.00    1.06118   1.13133   -1.000
 6239.00    1.05782   1.12604   -1.000
 6240.00    1.04509   1.12152   -1.000
 6241.00    1.05049   1.11786   -1.000
 6242.00    1.04859   1.11383   -1.000
 6243.00    1.04215   1.10816   -1.000
 6244.00    1.03192   1.10109   -1.000
 6245.00    1.03452   1.09473   -1.000
 6246.00    1.04911   1.09227   66.862
 6247.00    1.04426   1.09679   66.688
 6248.00    1.05105   1.10810   -1.000
 6249.00    1.05914   1.12093   -1.000
 6250.00    1.05295   1.12824   -1.000
 6251.00    1.05124   1.12583   -1.000
 6252.00    1.03888   1.11528   -1.000
 6253.00    1.02259   1.10229   -1.000
 6254.00    1.02593   1.09276   -1.000
 6255.00    1.02504   1.08862   -1.000
 6256.00    1.02553   1.08774   -1.000
 6257.00    1.02442   1.08747   -1.000
 6258.00    1.02938   1.08739   -1.000
 6259.00    1.02777   1.08951   -1.000
 6260.00    1.04018   1.09566   -1.000
 6261.00    1.04841   1.10591   -1.000
 6262.00    1.05119   1.11805   -1.000
 6263.00    1.05888   1.12843   -1.000
 6264.00    1.05364   1.13415   -1.000
 6265.00    1.05205   1.13584   -1.000
 6266.00    1.05853   1.13698   -1.000
 6267.00    1.05625   1.13946   -1.000
 6268.00    1.06021   1.14171   -1.000
 6269.00    1.05975   1.14142   -1.000
 6270.00    1.05328   1.13926   -1.000
 6271.00    1.04652   1.13812   -1.000
 6272.00    1.05027   1.13913   -1.000
 6273.00    1.06033   1.14001   -1.000
 6274.00    1.06222   1.13718   -1.000
 6275.00    1.05633   1.12898   -1.000
 6276.00    1.05007   1.11742   -1.000
 6277.00    1.04205   1.10574   -1.000
 6278.00    1.02863   1.09634   -1.000
 6279.00    1.00698   1.09016   -1.000
 6280.00    0.98532   1.08810   -1.000
 6281.00    0.97244   1.09176   -1.000
 6282.00    0.97722   1.10108   -1.000
 6283.00    0.98882   1.11365   -1.000
 6284.00    0.99156   1.12621   -1.000
 6285.00    0.99530   1.13601   -1.000
 6286.00    1.00346   1.14228   -1.000
 6287.00    1.01097   1.14565   -1.000
 6288.00    1.02085   1.14669   -1.000
 6289.00    1.02856   1.14503   -1.000
 6290.00    1.03316   1.14083   -1.000
 6291.00    1.03001   1.13606   -1.000
 6292.00    1.02455   1.13268   -1.000
 6293.00    1.02830   1.13114   -1.000
 6294.00    1.03725   1.13056   -1.000
 6295.00    1.03890   1.12901   -1.000
 6296.00    1.03031   1.12470   -1.000
 6297.00    1.02026   1.11815   -1.000
 6298.00    1.00997   1.11224   -1.000
 6299.00    1.01332   1.10875   -1.000
 6300.00    1.00516   1.10618   -1.000
 6301.00    0.97610   1.10292   -1.000
 6302.00    0.95717   1.10116   -1.000
 6303.00    0.95087   1.10520   -1.000
 6304.00    0.96904   1.11562   -1.000
 6305.00    1.00772   1.12797   -1.000
 6306.00    1.03617   1.13796   -1.000
 6307.00    1.03832   1.14428   -1.000
 6308.00    1.03167   1.14722   -1.000
 6309.00    1.03383   1.14764   -1.000
 6310.00    1.03139   1.14670   -1.000
 6311.00    1.02354   1.14509   -1.000
 6312.00    1.02383   1.14266   -1.000
 6313.00    1.02697   1.13871   -1.000
 6314.00    1.02356   1.13277   -1.000
 6315.00    1.01604   1.12595   -1.000
 6316.00    1.01725   1.11988   -1.000
 6317.00    1.00986   1.11527   -1.000
 6318.00    1.00579   1.11320   -1.000
 6319.00    1.00794   1.11556   -1.000
 6320.00    1.01903   1.12268   -1.000
 6321.00    1.02772   1.13141   -1.000
 6322.00    1.02691   1.13840   -1.000
 6323.00    1.03120   1.14411   -1.000
 6324.00    1.04080   1.15032   -1.000
 6325.00    1.04879   1.15599   -1.000
 6326.00    1.05081   1.15910   -1.000
 6327.00    1.05493   1.15967   -1.000
 6328.00    1.05400   1.15905   -1.000
 6329.00    1.05212   1.15848   -1.000
 6330.00    1.04874   1.15843   -1.000
 6331.00    1.04249   1.15903   -1.000
 6332.00    1.04046   1.15955   -1.000
 6333.00    1.03318   1.15743   -1.000
 6334.00    1.03319   1.15006   -1.000
 6335.00    1.03038   1.13846   -1.000
 6336.00    1.01804   1.12774   -1.000
 6337.00    1.02796   1.12330   -1.000
 6338.00    0.98817   1.12643   -1.000
 6339.00    0.95107   1.13434   -1.000
 6340.00    1.05589   1.14368   -1.000
 6341.00    1.04556   1.15151   -1.000
 6342.00    1.05323   1.15509   -1.000
 6343.00    1.05233   1.15383   -1.000
 6344.00    1.04349   1.15017   -1.000
 6345.00    1.05018   1.14755   -1.000
 6346.00    1.05663   1.14812   -1.000
 6347.00    1.04947   1.15222   -1.000
 6348.00    1.05351   1.15888   -1.000
 6349.00    1.05633   1.16603   -1.000
 6350.00    1.06076   1.17130   -1.000
 6351.00    1.05494   1.17346   -1.000
 6352.00    1.05982   1.17227   -1.000
 6353.00    1.05891   1.16786   -1.000
 6354.00    1.04964   1.16136   -1.000
 6355.00    1.05286   1.15496   -1.000
 6356.00    1.04445   1.15029   -1.000
 6357.00    1.03068   1.14657   -1.000
 6358.00    1.02164   1.14216   -1.000
 6359.00    1.02742   1.13744   -1.000
 6360.00    1.02843   1.13361   -1.000
 6361.00    1.02998   1.13038   -1.000
 6362.00    1.03080   1.12756   -1.000
 6363.00    1.02545   1.12643   -1.000
 6364.00    1.02951   1.12818   -1.000
 6365.00    1.02298   1.13255   -1.000
 6366.00    1.02131   1.13834   -1.000
 6367.00    1.02801   1.14436   -1.000
 6368.00    1.03069   1.14931   -1.000
 6369.00    1.04531   1.15192   -1.000
 6370.00    1.04563   1.15262   -1.000
 6371.00    1.04500   1.15359   -1.000
 6372.00    1.04824   1.15626   -1.000
 6373.00    1.05461   1.15989   -1.000
 6374.00    1.05502   1.16269   -1.000
 6375.00    1.05610   1.16336   -1.000
 6376.00    1.05191   1.16170   -1.000
 6377.00    1.04044   1.15839   -1.000
 6378.00    1.04174   1.15444   -1.000
 6379.00    1.03610   1.15069   -1.000
 6380.00    1.04016   1.14738   -1.000
 6381.00    1.03652   1.14469   -1.000
 6382.00    1.03129   1.14292   -1.000
 6383.00    1.03464   1.14233   -1.000
 6384.00    1.03084   1.14315   -1.000
 6385.00    1.02359   1.14562   -1.000
 6386.00    1.02989   1.14913   -1.000
 6387.00    1.02653   1.15203   -1.000
 6388.00    1.01668   1.15321   -1.000
 6389.00    1.01114   1.15289   -1.000
 6390.00    1.00964   1.15092   -1.000
 6391.00    1.00037   1.14587   -1.000
 6392.00    0.99078   1.13727   -1.000
 6393.00    0.97684   1.12846   -1.000
 6394.00    0.96909   1.12487   -1.000
 6395.00    0.97281   1.12890   -1.000
 6396.00    0.98507   1.13726   -1.000
 6397.00    0.98491   1.14318   -1.000
 6398.00    0.97036   1.14153   -1.000
 6399.00    0.95761   1.13298   -1.000
 6400.00    0.93719   1.12435   -1.000
 6401.00    0.93790   1.12297   -1.000
 6402.00    0.94430   1.13031   -1.000
 6403.00    0.95026   1.14194   -1.000
 6404.00    0.94579   1.15184   -1.000
 6405.00    0.93604   1.15591   -1.000
 6406.00    0.93214   1.15320   -1.000
 6407.00    0.92535   1.14650   -1.000
 6408.00    0.91151   1.14075   -1.000
 6409.00    0.90846   1.13873   -1.000
 6410.00    0.90227   1.13868   -1.000
 6411.00    0.89983   1.13792   -1.000
 6412.00    0.89281   1.13734   -1.000
 6413.00    0.88524   1.13916   -1.000
 6414.00    0.88431   1.14299   -1.000
 6415.00    0.88515   1.14681   -1.000
 6416.00    0.87816   1.14935   -1.000
 6417.00    0.87297   1.14992   -1.000
 6418.00    0.86374   1.14746   -1.000
 6419.00    0.85284   1.14138   -1.000
 6420.00    0.83069   1.13358   -1.000
 6421.00    0.81628   1.12867   -1.000
 6422.00    0.82379   1.13094   -1.000
 6423.00    0.82477   1.14017   -1.000
 6424.00    0.83049   1.15150   -1.000
 6425.00    0.82267   1.16079   -1.000
 6426.00    0.81044   1.16707   -1.000
 6427.00    0.80322   1.16977   -1.000
 6428.00    0.79876   1.16736   -1.000
