###################################################################
## OUTPUT of StarlightChains_v04.for    [Cid@UFSC - 01/Apr/2007] ##
###################################################################

## Some input info
NGC6752_a_1.cxt                          [arq_obs]
Base.BC03.N                              [arq_base]
NGC6752_a_1.msk                          [arq_masks]
StCv04.C99.config                        [arq_config]
   45                                    [N_base]
    0                                    [N_YAV_components = # of components with extra extinction!]
    0                                    [i_FitPowerLaw (1/0 = Yes/No)]
-9.99                                    [alpha_PowerLaw]
CCM                                      [red_law_option]
 1.458241                                [q_norm = A(l_norm)/A(V)]

## (Re)Sampling Parameters
 3359.00                                 [l_ini (A)]
 6428.00                                 [l_fin (A)]
    1.00                                 [dl    (A)]     (OBS: dl_cushion =    50.00 A)

## Normalization info
 4020.00                                 [l_norm (A) - for base]
 4010.00                                 [llow_norm (A) - window for f_obs]
 4060.00                                 [lupp_norm (A) - window for f_obs]
7.975786E-14                             [fobs_norm (in input units)]

## S/N
 4730.00                                 [llow_SN (A) - window for S/N]
 4780.00                                 [lupp_SN (A) - window for S/N]
 127.889                                 [S/N in S/N window]
 126.487                                 [S/N in norm. window]
 304.987                                 [S/N_err in S/N window]
 301.644                                 [S/N_err in norm. window]
  1.0000                                 [fscale_chi2]

## etc...
  2147483589                             [idum_orig]
  3069                                   [NOl_eff]
   868                                   [Nl_eff]
  2201    NSIGMA                         [Ntot_cliped & clip_method]
  1151360                                [Nglobal_steps]
   7                                     [N_chains]
   5                                     [NEX0s_base = N_base in EX0s-fits]
 0   0   1      258   2.0   6.334E+02    [Clip-Bug, RC-Crash & Burn-In warning-flags, n_censored_weights, wei_nsig_threshold & wei_limit]
    22     22.234     22.214      0.020  [idt_all, wdt_TotTime, wdt_UsrTime & wdt_SysTime (sec)]

## Synthesis Results - Best model ##

 2.86346E+00                             [chi2/Nl_eff]
     0.57961                             [adev (%)]

   102.10548                             [sum-of-x (%)]
 1.42162E-13                             [Flux_tot (units of input spectrum!)]
 7.53547E-10                             [Mini_tot (???)]
 4.17466E-10                             [Mcor_tot (???)]

 -13.63                                  [v0_min  (km/s)]
 107.22                                  [vd_min  (km/s)]
 0.4148                                  [AV_min  (mag)]
 0.0000                                  [YAV_min (mag)]

# j     x_j(%)      Mini_j(%)     Mcor_j(%)     age_j(yr)     Z_j      (L/M)_j    YAV?  Mstars   component_j        a/Fe...       SSP_chi2r SSP_adev(%)   SSP_AV   SSP_x(%)
  1      0.0000     0.0000E+00    0.0000E+00    1.000000E+06  0.00400  1.114E-02    0   1.0000   age020_m42            0.0000     1.6321E+03    10.5803   3.3230    78.7647
  2     14.3255     6.4986E-02    1.1729E-01    3.160000E+06  0.00400  4.073E-02    0   0.9999   age045_m42            0.0000     2.9246E+02     4.7556   2.3460    93.1536
  3      0.0000     0.0000E+00    0.0000E+00    5.010000E+06  0.00400  2.534E-02    0   0.9488   age055_m42            0.0000     7.9117E+02     7.6094   2.7612    86.5663
  4      3.7648     5.4729E-02    8.7546E-02    1.000000E+07  0.00400  1.271E-02    0   0.8862   age070_m42            0.0000     6.4191E+02     7.4218   1.9733    90.1959
  5      0.0000     0.0000E+00    0.0000E+00    2.512000E+07  0.00400  5.070E-03    0   0.8174   age090_m42            0.0000     5.4740E+02     6.8292   1.8463    91.5922
  6      0.0000     0.0000E+00    0.0000E+00    4.000000E+07  0.00400  3.505E-03    0   0.7851   age104_m42            0.0000     3.0262E+02     4.9926   1.5343    94.3196
  7     21.6832     1.7665E+00    2.2980E+00    1.015200E+08  0.00400  2.268E-03    0   0.7207   age116_m42            0.0000     4.3026E+02     3.7423   1.5352   104.1019
  8      0.0000     0.0000E+00    0.0000E+00    2.861200E+08  0.00400  1.079E-03    0   0.6613   age125_m42            0.0000     5.1831E+02     4.5412   1.0555   105.7349
  9      0.0000     0.0000E+00    0.0000E+00    6.405400E+08  0.00400  5.077E-04    0   0.6197   age132_m42            0.0000     6.2260E+02     4.9305   0.7069   109.1887
 10     14.1183     7.3793E+00    8.0240E+00    9.047900E+08  0.00400  3.535E-04    0   0.6024   age135_m42            0.0000     3.4756E+02     3.9446   0.4666   108.2732
 11      0.0000     0.0000E+00    0.0000E+00    1.434000E+09  0.00400  1.910E-04    0   0.5716   age139_m42            0.0000     1.6082E+02     3.5832  -0.0680   106.7850
 12     48.2137     9.0734E+01    8.9473E+01    2.500000E+09  0.00400  9.818E-05    0   0.5463   age150_m42            0.0000     1.4005E+02     3.1449  -0.3527   102.2448
 13      0.0000     0.0000E+00    0.0000E+00    5.000000E+09  0.00400  4.718E-05    0   0.5228   age161_m42            0.0000     2.4977E+02     3.4959  -0.5224    98.8763
 14      0.0000     0.0000E+00    0.0000E+00    1.100000E+10  0.00400  2.205E-05    0   0.4980   age185_m42            0.0000     5.0444E+02     4.9042  -0.7860    96.6252
 15      0.0000     0.0000E+00    0.0000E+00    1.300000E+10  0.00400  1.883E-05    0   0.4927   age193_m42            0.0000     5.4334E+02     5.0517  -0.8029    96.4325
 16      0.0000     0.0000E+00    0.0000E+00    1.000000E+06  0.02000  1.989E-02    0   1.0000   age020_m62            0.0000     1.6300E+03    10.5300   3.2897    79.3741
 17      0.0000     0.0000E+00    0.0000E+00    3.160000E+06  0.02000  3.772E-02    0   0.9858   age045_m62            0.0000     1.4391E+03     9.9309   3.1504    81.4898
 18      0.0000     0.0000E+00    0.0000E+00    5.010000E+06  0.02000  3.227E-02    0   0.9342   age055_m62            0.0000     4.8132E+02     5.9624   2.6209    89.5300
 19      0.0000     0.0000E+00    0.0000E+00    1.000000E+07  0.02000  1.011E-02    0   0.8751   age070_m62            0.0000     1.5966E+03    11.4981   2.0075    85.9814
 20      0.0000     0.0000E+00    0.0000E+00    2.512000E+07  0.02000  4.206E-03    0   0.8099   age090_m62            0.0000     1.1547E+03     9.4580   1.9490    86.7144
 21      0.0000     0.0000E+00    0.0000E+00    4.000000E+07  0.02000  3.373E-03    0   0.7799   age104_m62            0.0000     2.2343E+02     4.4146   1.7553    95.7461
 22      0.0000     0.0000E+00    0.0000E+00    1.015200E+08  0.02000  1.878E-03    0   0.7221   age116_m62            0.0000     3.0905E+02     3.1365   1.5671   104.1320
 23      0.0000     0.0000E+00    0.0000E+00    2.861200E+08  0.02000  8.869E-04    0   0.6700   age125_m62            0.0000     1.0568E+03     6.4376   1.0623   110.6242
 24      0.0000     0.0000E+00    0.0000E+00    6.405400E+08  0.02000  3.657E-04    0   0.6322   age132_m62            0.0000     7.5333E+02     6.5259   0.3918   113.2215
 25      0.0000     0.0000E+00    0.0000E+00    9.047900E+08  0.02000  2.312E-04    0   0.6152   age135_m62            0.0000     4.2374E+02     5.5505   0.0124   112.1939
 26      0.0000     0.0000E+00    0.0000E+00    1.434000E+09  0.02000  1.168E-04    0   0.5865   age139_m62            0.0000     2.0983E+02     4.1495  -0.4148   106.4266
 27      0.0000     0.0000E+00    0.0000E+00    2.500000E+09  0.02000  5.505E-05    0   0.5610   age150_m62            0.0000     4.0403E+02     5.1254  -0.7929   103.3958
 28      0.0000     0.0000E+00    0.0000E+00    5.000000E+09  0.02000  2.596E-05    0   0.5353   age161_m62            0.0000     8.6342E+02     6.6731  -1.0000    99.9823
 29      0.0000     0.0000E+00    0.0000E+00    1.100000E+10  0.02000  1.169E-05    0   0.5103   age185_m62            0.0000     2.1448E+03    11.2447  -1.0000    91.2480
 30      0.0000     0.0000E+00    0.0000E+00    1.300000E+10  0.02000  9.691E-06    0   0.5047   age193_m62            0.0000     2.4006E+03    11.9475  -1.0000    90.1300
 31      0.0000     0.0000E+00    0.0000E+00    1.000000E+06  0.05000  2.651E-02    0   0.9998   age020_m72            0.0000     1.5148E+03     9.9602   3.2979    80.1258
 32      0.0000     0.0000E+00    0.0000E+00    3.160000E+06  0.05000  4.817E-02    0   0.9577   age045_m72            0.0000     9.8567E+02     8.0265   3.0088    84.8321
 33      0.0000     0.0000E+00    0.0000E+00    5.010000E+06  0.05000  3.101E-02    0   0.9147   age055_m72            0.0000     8.8747E+02     7.9389   2.6489    87.3583
 34      0.0000     0.0000E+00    0.0000E+00    1.000000E+07  0.05000  8.954E-03    0   0.8524   age070_m72            0.0000     9.5222E+02     7.8995   2.8959    85.8303
 35      0.0000     0.0000E+00    0.0000E+00    2.512000E+07  0.05000  4.207E-03    0   0.7902   age090_m72            0.0000     3.9978E+02     5.2169   2.4583    91.4619
 36      0.0000     0.0000E+00    0.0000E+00    4.000000E+07  0.05000  3.198E-03    0   0.7618   age104_m72            0.0000     1.3324E+02     2.3609   1.9372    99.8611
 37      0.0000     0.0000E+00    0.0000E+00    1.015200E+08  0.05000  1.716E-03    0   0.7092   age116_m72            0.0000     4.2561E+02     3.7698   1.6517   104.4621
 38      0.0000     0.0000E+00    0.0000E+00    2.861200E+08  0.05000  7.047E-04    0   0.6618   age125_m72            0.0000     1.0495E+03     6.8876   0.8505   111.1199
 39      0.0000     0.0000E+00    0.0000E+00    6.405400E+08  0.05000  2.633E-04    0   0.6253   age132_m72            0.0000     5.9605E+02     6.3373  -0.0003   112.8405
 40      0.0000     0.0000E+00    0.0000E+00    9.047900E+08  0.05000  1.484E-04    0   0.6088   age135_m72            0.0000     3.4373E+02     5.4836  -0.4899   107.6294
 41      0.0000     0.0000E+00    0.0000E+00    1.434000E+09  0.05000  7.827E-05    0   0.5847   age139_m72            0.0000     5.4870E+02     6.3381  -0.8885   104.1170
 42      0.0000     0.0000E+00    0.0000E+00    2.500000E+09  0.05000  3.759E-05    0   0.5583   age150_m72            0.0000     1.0273E+03     7.5364  -1.0000    97.6350
 43      0.0000     0.0000E+00    0.0000E+00    5.000000E+09  0.05000  1.548E-05    0   0.5320   age161_m72            0.0000     2.6858E+03    12.9724  -1.0000    85.9563
 44      0.0000     0.0000E+00    0.0000E+00    1.100000E+10  0.05000  6.532E-06    0   0.5070   age185_m72            0.0000     5.1623E+03    17.7033  -1.0000    75.4116
 45      0.0000     0.0000E+00    0.0000E+00    1.300000E+10  0.05000  5.316E-06    0   0.5018   age193_m72            0.0000     6.0843E+03    19.0148  -1.0000    72.3220


## Synthesis Results - Average & Chains ##

# j      x_j: min, <> & last-chain-values for 1 ...  7 chains
  1      0.0000      0.0024      0.0000      0.0000      0.0000      0.0000      0.0000      0.0000      0.0000
  2     14.3255     13.6109     13.7197     13.8120     13.7808     13.6417     13.8287     13.6748     13.6056
  3      0.0000      0.0115      0.0000      0.0000      0.0000      0.0000      0.0000      0.0000      0.0000
  4      3.7648      4.7878      4.7559      4.6929      4.6893      4.7858      4.5968      4.7033      4.8766
  5      0.0000      0.0212      0.0000      0.0000      0.0000      0.0000      0.0000      0.0000      0.0000
  6      0.0000      0.0225      0.0000      0.0095      0.0000      0.0000      0.0000      0.0000      0.0000
  7     21.6832     20.6072     20.7134     20.6510     20.9018     21.0287     21.0200     20.8063     20.7018
  8      0.0000      0.0448      0.0000      0.0000      0.0000      0.0000      0.0635      0.0000      0.0000
  9      0.0000      0.0580      0.0000      0.0321      0.0000      0.1369      0.1168      0.0361      0.0000
 10     14.1183     15.4211     15.5877     15.4346     15.1869     15.0766     14.7872     15.4468     15.5659
 11      0.0000      0.4043      0.0000      0.4535      0.3488      0.2310      0.0000      0.3387      0.3697
 12     48.2137     46.0401     46.5060     46.0269     46.4110     46.6523     46.4691     46.7243     46.4007
 13      0.0000      0.1013      0.1710      0.1212      0.1073      0.0000      0.2538      0.0000      0.0000
 14      0.0000      0.0307      0.0000      0.1031      0.0000      0.0955      0.0000      0.0000      0.0000
 15      0.0000      0.0195      0.0000      0.0007      0.0000      0.0000      0.0000      0.0000      0.0000
 16      0.0000      0.0022      0.0000      0.0000      0.0000      0.0000      0.0000      0.0000      0.0000
 17      0.0000      0.0043      0.0000      0.0000      0.0000      0.0000      0.0000      0.0000      0.0000
 18      0.0000      0.0222      0.0236      0.0000      0.0000      0.0000      0.0000      0.0527      0.0000
 19      0.0000      0.0052      0.0000      0.0000      0.0000      0.0000      0.0000      0.0000      0.0000
 20      0.0000      0.0053      0.0000      0.0000      0.0000      0.0000      0.0000      0.0000      0.0000
 21      0.0000      0.0100      0.0000      0.0000      0.0000      0.0000      0.0000      0.0000      0.0000
 22      0.0000      0.0198      0.0000      0.0000      0.0037      0.0000      0.0000      0.0000      0.0000
 23      0.0000      0.0209      0.0000      0.0000      0.0000      0.0000      0.0000      0.0000      0.0000
 24      0.0000      0.0356      0.0000      0.0775      0.0080      0.0000      0.0000      0.0000      0.0000
 25      0.0000      0.0901      0.0000      0.0000      0.0000      0.0387      0.0895      0.0000      0.0000
 26      0.0000      0.0443      0.0000      0.0662      0.0720      0.0000      0.0414      0.1760      0.0062
 27      0.0000      0.0137      0.0000      0.0000      0.0000      0.0000      0.0000      0.0000      0.0018
 28      0.0000      0.0086      0.0000      0.0000      0.0002      0.0000      0.0000      0.0000      0.0000
 29      0.0000      0.0081      0.0000      0.0000      0.0000      0.0000      0.0000      0.0000      0.0000
 30      0.0000      0.0035      0.0000      0.0000      0.0000      0.0000      0.0000      0.0000      0.0000
 31      0.0000      0.0044      0.0000      0.0000      0.0000      0.0000      0.0000      0.0000      0.0000
 32      0.0000      0.0044      0.0000      0.0028      0.0000      0.0000      0.0000      0.0000      0.0000
 33      0.0000      0.0077      0.0146      0.0000      0.0000      0.0000      0.0000      0.0000      0.0000
 34      0.0000      0.0027      0.0000      0.0049      0.0000      0.0000      0.0000      0.0000      0.0000
 35      0.0000      0.0056      0.0000      0.0000      0.0000      0.0000      0.0000      0.0000      0.0000
 36      0.0000      0.0129      0.0034      0.0000      0.0233      0.0000      0.0000      0.0000      0.0079
 37      0.0000      0.0239      0.0000      0.0000      0.0000      0.0065      0.0239      0.0000      0.0000
 38      0.0000      0.0280      0.0000      0.0000      0.0066      0.0000      0.0000      0.0000      0.0000
 39      0.0000      0.1195      0.2641      0.0000      0.1854      0.0000      0.3161      0.0000      0.0568
 40      0.0000      0.3455      0.2870      0.5524      0.2619      0.2956      0.4315      0.0852      0.3883
 41      0.0000      0.0875      0.0585      0.0857      0.1334      0.1006      0.0951      0.0000      0.1239
 42      0.0000      0.0076      0.0000      0.0000      0.0000      0.0000      0.0000      0.0730      0.0000
 43      0.0000      0.0026      0.0000      0.0000      0.0000      0.0000      0.0017      0.0000      0.0207
 44      0.0000      0.0008      0.0163      0.0000      0.0000      0.0000      0.0000      0.0000      0.0000
 45      0.0000      0.0012      0.0000      0.0000      0.0000      0.0000      0.0000      0.0000      0.0000

# j      m_j: min, <> & last-chain-values for 1 ...  7 chains
  1  0.0000E+00  7.1613E-05  0.0000E+00  0.0000E+00  0.0000E+00  0.0000E+00  0.0000E+00  0.0000E+00  0.0000E+00
  2  1.1729E-01  1.1232E-01  1.1303E-01  1.1375E-01  1.1408E-01  1.1249E-01  1.1398E-01  1.1305E-01  1.1266E-01
  3  0.0000E+00  1.4445E-04  0.0000E+00  0.0000E+00  0.0000E+00  0.0000E+00  0.0000E+00  0.0000E+00  0.0000E+00
  4  8.7546E-02  1.1221E-01  1.1128E-01  1.0977E-01  1.1025E-01  1.1208E-01  1.0761E-01  1.1043E-01  1.1468E-01
  5  0.0000E+00  1.1510E-03  0.0000E+00  0.0000E+00  0.0000E+00  0.0000E+00  0.0000E+00  0.0000E+00  0.0000E+00
  6  0.0000E+00  1.6938E-03  0.0000E+00  7.1021E-04  0.0000E+00  0.0000E+00  0.0000E+00  0.0000E+00  0.0000E+00
  7  2.2980E+00  2.2011E+00  2.2089E+00  2.2014E+00  2.2396E+00  2.2445E+00  2.2426E+00  2.2264E+00  2.2188E+00
  8  0.0000E+00  9.2251E-03  0.0000E+00  0.0000E+00  0.0000E+00  0.0000E+00  1.3058E-02  0.0000E+00  0.0000E+00
  9  0.0000E+00  2.3809E-02  0.0000E+00  1.3154E-02  0.0000E+00  5.6109E-02  4.7867E-02  1.4833E-02  0.0000E+00
 10  8.0240E+00  8.8333E+00  8.9142E+00  8.8233E+00  8.7265E+00  8.6298E+00  8.4605E+00  8.8641E+00  8.9468E+00
 11  0.0000E+00  4.0673E-01  0.0000E+00  4.5525E-01  3.5200E-01  2.3225E-01  0.0000E+00  3.4133E-01  3.7320E-01
 12  8.9473E+01  8.6111E+01  8.6841E+01  8.5913E+01  8.7077E+01  8.7193E+01  8.6813E+01  8.7549E+01  8.7082E+01
 13  0.0000E+00  3.7725E-01  6.3581E-01  4.5040E-01  4.0101E-01  0.0000E+00  9.4419E-01  0.0000E+00  0.0000E+00
 14  0.0000E+00  2.3325E-01  0.0000E+00  7.8123E-01  0.0000E+00  7.2443E-01  0.0000E+00  0.0000E+00  0.0000E+00
 15  0.0000E+00  1.7172E-01  0.0000E+00  6.0559E-03  0.0000E+00  0.0000E+00  0.0000E+00  0.0000E+00  0.0000E+00
 16  0.0000E+00  3.6606E-05  0.0000E+00  0.0000E+00  0.0000E+00  0.0000E+00  0.0000E+00  0.0000E+00  0.0000E+00
 17  0.0000E+00  3.7400E-05  0.0000E+00  0.0000E+00  0.0000E+00  0.0000E+00  0.0000E+00  0.0000E+00  0.0000E+00
 18  0.0000E+00  2.1594E-04  2.2928E-04  0.0000E+00  0.0000E+00  0.0000E+00  0.0000E+00  5.1347E-04  0.0000E+00
 19  0.0000E+00  1.5256E-04  0.0000E+00  0.0000E+00  0.0000E+00  0.0000E+00  0.0000E+00  0.0000E+00  0.0000E+00
 20  0.0000E+00  3.4288E-04  0.0000E+00  0.0000E+00  0.0000E+00  0.0000E+00  0.0000E+00  0.0000E+00  0.0000E+00
 21  0.0000E+00  7.7370E-04  0.0000E+00  0.0000E+00  0.0000E+00  0.0000E+00  0.0000E+00  0.0000E+00  0.0000E+00
 22  0.0000E+00  2.5579E-03  0.0000E+00  0.0000E+00  4.7736E-04  0.0000E+00  0.0000E+00  0.0000E+00  0.0000E+00
 23  0.0000E+00  5.3072E-03  0.0000E+00  0.0000E+00  0.0000E+00  0.0000E+00  0.0000E+00  0.0000E+00  0.0000E+00
 24  0.0000E+00  2.0692E-02  0.0000E+00  4.4924E-02  4.6413E-03  0.0000E+00  0.0000E+00  0.0000E+00  0.0000E+00
 25  0.0000E+00  8.0628E-02  0.0000E+00  0.0000E+00  0.0000E+00  3.4558E-02  7.9950E-02  0.0000E+00  0.0000E+00
 26  0.0000E+00  7.4779E-02  0.0000E+00  1.1153E-01  1.2184E-01  0.0000E+00  6.9780E-02  2.9759E-01  1.0456E-02
 27  0.0000E+00  4.6901E-02  0.0000E+00  0.0000E+00  0.0000E+00  0.0000E+00  0.0000E+00  0.0000E+00  6.1196E-03
 28  0.0000E+00  5.9451E-02  0.0000E+00  0.0000E+00  1.4890E-03  0.0000E+00  0.0000E+00  0.0000E+00  0.0000E+00
 29  0.0000E+00  1.1949E-01  0.0000E+00  0.0000E+00  0.0000E+00  0.0000E+00  0.0000E+00  0.0000E+00  0.0000E+00
 30  0.0000E+00  6.0433E-02  0.0000E+00  0.0000E+00  0.0000E+00  0.0000E+00  0.0000E+00  0.0000E+00  0.0000E+00
 31  0.0000E+00  5.5292E-05  0.0000E+00  0.0000E+00  0.0000E+00  0.0000E+00  0.0000E+00  0.0000E+00  0.0000E+00
 32  0.0000E+00  2.9449E-05  0.0000E+00  1.8631E-05  0.0000E+00  0.0000E+00  0.0000E+00  0.0000E+00  0.0000E+00
 33  0.0000E+00  7.6244E-05  1.4480E-04  0.0000E+00  0.0000E+00  0.0000E+00  0.0000E+00  0.0000E+00  0.0000E+00
 34  0.0000E+00  8.6014E-05  0.0000E+00  1.5788E-04  0.0000E+00  0.0000E+00  0.0000E+00  0.0000E+00  0.0000E+00
 35  0.0000E+00  3.5670E-04  0.0000E+00  0.0000E+00  0.0000E+00  0.0000E+00  0.0000E+00  0.0000E+00  0.0000E+00
 36  0.0000E+00  1.0309E-03  2.7020E-04  0.0000E+00  1.8717E-03  0.0000E+00  0.0000E+00  0.0000E+00  6.3096E-04
 37  0.0000E+00  3.3188E-03  0.0000E+00  0.0000E+00  0.0000E+00  9.0596E-04  3.3148E-03  0.0000E+00  0.0000E+00
 38  0.0000E+00  8.8393E-03  0.0000E+00  0.0000E+00  2.0847E-03  0.0000E+00  0.0000E+00  0.0000E+00  0.0000E+00
 39  0.0000E+00  9.5401E-02  2.1050E-01  0.0000E+00  1.4847E-01  0.0000E+00  2.5201E-01  0.0000E+00  4.5488E-02
 40  0.0000E+00  4.7640E-01  3.9506E-01  7.6018E-01  3.6232E-01  4.0739E-01  5.9439E-01  1.1764E-01  5.3727E-01
 41  0.0000E+00  2.1973E-01  1.4667E-01  2.1475E-01  3.3611E-01  2.5247E-01  2.3857E-01  0.0000E+00  3.1223E-01
 42  0.0000E+00  3.7878E-02  0.0000E+00  0.0000E+00  0.0000E+00  0.0000E+00  0.0000E+00  3.6526E-01  0.0000E+00
 43  0.0000E+00  2.9560E-02  0.0000E+00  0.0000E+00  0.0000E+00  0.0000E+00  1.9125E-02  0.0000E+00  2.3978E-01
 44  0.0000E+00  2.1426E-02  4.2330E-01  0.0000E+00  0.0000E+00  0.0000E+00  0.0000E+00  0.0000E+00  0.0000E+00
 45  0.0000E+00  3.9160E-02  0.0000E+00  0.0000E+00  0.0000E+00  0.0000E+00  0.0000E+00  0.0000E+00  0.0000E+00

# AV, chi2 & Mass for <> & i_chain = 1 ...  7 solutions
AV       0.4148      0.4204      0.4196      0.4182      0.4202      0.4204      0.4186      0.4192      0.4191
chi2 2.8635E+00  2.8986E+00  2.8867E+00  2.8859E+00  2.8850E+00  2.8853E+00  2.8820E+00  2.8874E+00  2.8885E+00
Mass 4.1747E-10  4.1736E-10  4.1753E-10  4.1692E-10  4.1592E-10  4.1765E-10  4.1683E-10  4.1590E-10  4.1520E-10
 -13.64                                  [v0_min (km/s) before EX0s...]
 107.28                                  [vd_min (km/s) before EX0s...]


## Synthetic spectrum (Best Model) ##l_obs f_obs f_syn wei
 3070    [Nl_obs]
 3359.00    0.00000   0.53567   -2.000
 3360.00    0.09616   0.52162   -1.000
 3361.00    0.22707   0.52072   -1.000
 3362.00    0.23840   0.53334   -1.000
 3363.00    0.26163   0.55166   -1.000
 3364.00    0.28134   0.56500   -1.000
 3365.00    0.28968   0.56660   -1.000
 3366.00    0.28910   0.55698   -1.000
 3367.00    0.28790   0.54248   -1.000
 3368.00    0.28563   0.53017   -1.000
 3369.00    0.27901   0.52308   -1.000
 3370.00    0.27596   0.51968   -1.000
 3371.00    0.27711   0.51791   -1.000
 3372.00    0.27934   0.51955   -1.000
 3373.00    0.28998   0.52875   -1.000
 3374.00    0.30504   0.54597   -1.000
 3375.00    0.32064   0.56452   -1.000
 3376.00    0.33357   0.57432   -1.000
 3377.00    0.34226   0.57034   -1.000
 3378.00    0.34775   0.55692   -1.000
 3379.00    0.34329   0.54412   -1.000
 3380.00    0.33740   0.54017   -1.000
 3381.00    0.34452   0.54649   -1.000
 3382.00    0.35088   0.55835   -1.000
 3383.00    0.35318   0.57004   -1.000
 3384.00    0.35916   0.57919   -1.000
 3385.00    0.36974   0.58583   -1.000
 3386.00    0.37255   0.58957   -1.000
 3387.00    0.37246   0.59008   -1.000
 3388.00    0.37817   0.58843   -1.000
 3389.00    0.38322   0.58578   -1.000
 3390.00    0.38925   0.58175   -1.000
 3391.00    0.39405   0.57574   -1.000
 3392.00    0.39757   0.56977   -1.000
 3393.00    0.40039   0.56838   -1.000
 3394.00    0.40680   0.57456   -1.000
 3395.00    0.41681   0.58683   -1.000
 3396.00    0.42880   0.60049   -1.000
 3397.00    0.44338   0.61071   -1.000
 3398.00    0.45523   0.61438   -1.000
 3399.00    0.46314   0.61086   -1.000
 3400.00    0.46879   0.60191   -1.000
 3401.00    0.46634   0.59058   -1.000
 3402.00    0.45966   0.58007   -1.000
 3403.00    0.45138   0.57279   -1.000
 3404.00    0.44066   0.56871   -1.000
 3405.00    0.43716   0.56532   -1.000
 3406.00    0.43322   0.56077   -1.000
 3407.00    0.42676   0.55650   -1.000
 3408.00    0.42826   0.55579   -1.000
 3409.00    0.42941   0.55969   -1.000
 3410.00    0.43326   0.56543   -1.000
 3411.00    0.43787   0.56893   -1.000
 3412.00    0.43283   0.56862   -1.000
 3413.00    0.42280   0.56640   -1.000
 3414.00    0.41979   0.56552   -1.000
 3415.00    0.42481   0.56837   -1.000
 3416.00    0.43332   0.57571   -1.000
 3417.00    0.44224   0.58649   -1.000
 3418.00    0.45299   0.59801   -1.000
 3419.00    0.46414   0.60655   -1.000
 3420.00    0.46949   0.60927   -1.000
 3421.00    0.46894   0.60633   -1.000
 3422.00    0.46742   0.60066   -1.000
 3423.00    0.46765   0.59535   -1.000
 3424.00    0.46506   0.59218   -1.000
 3425.00    0.46409   0.59207   -1.000
 3426.00    0.47023   0.59610   -1.000
 3427.00    0.47938   0.60472   -1.000
 3428.00    0.48823   0.61526   -1.000
 3429.00    0.49323   0.62203   -1.000
 3430.00    0.49778   0.62088   -1.000
 3431.00    0.50190   0.61300   -1.000
 3432.00    0.50077   0.60382   -1.000
 3433.00    0.49802   0.59855   -1.000
 3434.00    0.49493   0.59849   -1.000
 3435.00    0.50153   0.60068   -1.000
 3436.00    0.50547   0.60045   -1.000
 3437.00    0.49730   0.59429   -1.000
 3438.00    0.48320   0.58118   -1.000
 3439.00    0.46937   0.56282   -1.000
 3440.00    0.46093   0.54388   -1.000
 3441.00    0.45206   0.53046   -1.000
 3442.00    0.44458   0.52629   -1.000
 3443.00    0.44811   0.53032   -1.000
 3444.00    0.45874   0.53920   -1.000
 3445.00    0.47133   0.55125   -1.000
 3446.00    0.48549   0.56658   -1.000
 3447.00    0.49789   0.58395   -1.000
 3448.00    0.50587   0.59882   -1.000
 3449.00    0.51226   0.60530   -1.000
 3450.00    0.52079   0.60076   -1.000
 3451.00    0.52113   0.58840   -1.000
 3452.00    0.51484   0.57538   -1.000
 3453.00    0.51163   0.56817   -1.000
 3454.00    0.51655   0.56824   -1.000
 3455.00    0.52884   0.57160   -1.000
 3456.00    0.53179   0.57254   -1.000
 3457.00    0.52586   0.56828   -1.000
 3458.00    0.52339   0.56028   -1.000
 3459.00    0.51532   0.55203   -1.000
 3460.00    0.50792   0.54729   -1.000
 3461.00    0.51035   0.54910   -1.000
 3462.00    0.51164   0.55724   -1.000
 3463.00    0.51693   0.56706   -1.000
 3464.00    0.52844   0.57380   -1.000
 3465.00    0.53282   0.57698   -1.000
 3466.00    0.53537   0.57933   -1.000
 3467.00    0.54189   0.58302   -1.000
 3468.00    0.54832   0.58780   -1.000
 3469.00    0.55637   0.59179   -1.000
 3470.00    0.56071   0.59276   -1.000
 3471.00    0.55842   0.58904   -1.000
 3472.00    0.55038   0.58007   -1.000
 3473.00    0.54155   0.56689   -1.000
 3474.00    0.53238   0.55287   -1.000
 3475.00    0.51766   0.54332   -1.000
 3476.00    0.51275   0.54233   82.754
 3477.00    0.51854   0.54948   83.835
 3478.00    0.53478   0.56045   -1.000
 3479.00    0.55453   0.57031   -1.000
 3480.00    0.56748   0.57585   -1.000
 3481.00    0.57267   0.57628  633.355
 3482.00    0.57066   0.57330  633.355
 3483.00    0.56682   0.57089  633.355
 3484.00    0.56555   0.57329   -1.000
 3485.00    0.56984   0.58114   -1.000
 3486.00    0.57860   0.58961   -1.000
 3487.00    0.58360   0.59187   -1.000
 3488.00    0.57880   0.58532   -1.000
 3489.00    0.56382   0.57402   -1.000
 3490.00    0.55104   0.56505   -1.000
 3491.00    0.54006   0.56216   -1.000
 3492.00    0.53883   0.56298   -1.000
 3493.00    0.54575   0.56247   -1.000
 3494.00    0.54861   0.55827   -1.000
 3495.00    0.54393   0.55317   -1.000
 3496.00    0.54271   0.55282   -1.000
 3497.00    0.55045   0.56024   -1.000
 3498.00    0.56174   0.57194   -1.000
 3499.00    0.56761   0.58124   -1.000
 3500.00    0.57220   0.58543   -1.000
 3501.00    0.58188   0.58692   -1.000
 3502.00    0.58417   0.58816  633.355
 3503.00    0.58003   0.58806   -1.000
 3504.00    0.57952   0.58463   -1.000
 3505.00    0.57803   0.57911  633.355
 3506.00    0.57549   0.57494  633.355
 3507.00    0.58124   0.57356   -1.000
 3508.00    0.58648   0.57312   -1.000
 3509.00    0.58776   0.57106   -1.000
 3510.00    0.58620   0.56663   -1.000
 3511.00    0.57538   0.56081   -1.000
 3512.00    0.56482   0.55519   -1.000
 3513.00    0.55820   0.55241   -1.000
 3514.00    0.55446   0.55573  633.355
 3515.00    0.55969   0.56594   -1.000
 3516.00    0.57595   0.57951  633.355
 3517.00    0.58873   0.59042  633.355
 3518.00    0.59161   0.59381  633.355
 3519.00    0.58719   0.58882  633.355
 3520.00    0.57869   0.57850  633.355
 3521.00    0.56489   0.56687  633.355
 3522.00    0.55541   0.55589  633.355
 3523.00    0.55153   0.54592   -1.000
 3524.00    0.54306   0.53844  175.772
 3525.00    0.53113   0.53677   81.958
 3526.00    0.52685   0.54341   83.518
 3527.00    0.53569   0.55694  128.856
 3528.00    0.55798   0.57192   -1.000
 3529.00    0.57806   0.58267   -1.000
 3530.00    0.58270   0.58719   -1.000
 3531.00    0.57987   0.58780   -1.000
 3532.00    0.57914   0.58826   -1.000
 3533.00    0.58391   0.59047   -1.000
 3534.00    0.58961   0.59380  633.355
 3535.00    0.59099   0.59703   -1.000
 3536.00    0.58880   0.60008   -1.000
 3537.00    0.58982   0.60378   -1.000
 3538.00    0.59755   0.60804   -1.000
 3539.00    0.60681   0.61117  633.355
 3540.00    0.60507   0.61198   -1.000
 3541.00    0.59470   0.61178   -1.000
 3542.00    0.59086   0.61279   -1.000
 3543.00    0.59736   0.61533   -1.000
 3544.00    0.59857   0.61764   -1.000
 3545.00    0.59630   0.61811   -1.000
 3546.00    0.59382   0.61710   -1.000
 3547.00    0.59189   0.61631   -1.000
 3548.00    0.59231   0.61675   -1.000
 3549.00    0.59291   0.61776   -1.000
 3550.00    0.59238   0.61773   -1.000
 3551.00    0.58874   0.61545   -1.000
 3552.00    0.58379   0.61110   -1.000
 3553.00    0.57643   0.60635   -1.000
 3554.00    0.57347   0.60310   -1.000
 3555.00    0.57201   0.60194   -1.000
 3556.00    0.56674   0.60176   -1.000
 3557.00    0.56819   0.60105   -1.000
 3558.00    0.57399   0.59978   -1.000
 3559.00    0.57830   0.59993   -1.000
 3560.00    0.57907   0.60340   -1.000
 3561.00    0.58199   0.60863   -1.000
 3562.00    0.58722   0.60985   -1.000
 3563.00    0.58008   0.60145   -1.000
 3564.00    0.56507   0.58438   -1.000
 3565.00    0.54754   0.56658   -1.000
 3566.00    0.53279   0.55517   82.921
 3567.00    0.52937   0.54999   84.599
 3568.00    0.53059   0.54584   83.793
 3569.00    0.52623   0.53967   84.621
 3570.00    0.52251   0.53387   87.023
 3571.00    0.52389   0.53241   86.873
 3572.00    0.52797   0.53565   83.646
 3573.00    0.53681   0.54041  124.913
 3574.00    0.54649   0.54398  633.355
 3575.00    0.54669   0.54607  633.355
 3576.00    0.54767   0.54709  633.355
 3577.00    0.55427   0.54585   -1.000
 3578.00    0.55055   0.54020   -1.000
 3579.00    0.54030   0.53013  186.261
 3580.00    0.52821   0.51907   86.885
 3581.00    0.51571   0.51130   93.018
 3582.00    0.51004   0.50800   96.346
 3583.00    0.50938   0.50635   96.848
 3584.00    0.50581   0.50295   98.039
 3585.00    0.49498   0.49811  100.832
 3586.00    0.48733   0.49566  103.430
 3587.00    0.48987   0.49913  102.171
 3588.00    0.49839   0.50932   96.840
 3589.00    0.51279   0.52439   91.870
 3590.00    0.53281   0.54067   85.865
 3591.00    0.55480   0.55414  123.728
 3592.00    0.56967   0.56279   -1.000
 3593.00    0.57517   0.56805   -1.000
 3594.00    0.57421   0.57335  633.355
 3595.00    0.57762   0.58090  633.355
 3596.00    0.58528   0.59010   -1.000
 3597.00    0.59094   0.59873   -1.000
 3598.00    0.59465   0.60447   -1.000
 3599.00    0.59493   0.60527   -1.000
 3600.00    0.59554   0.59981  609.004
 3601.00    0.59418   0.58871   -1.000
 3602.00    0.58131   0.57527   -1.000
 3603.00    0.56775   0.56416  633.355
 3604.00    0.56298   0.55854  633.355
 3605.00    0.56426   0.55774   -1.000
 3606.00    0.56827   0.55792   -1.000
 3607.00    0.57051   0.55581   -1.000
 3608.00    0.56374   0.55196   -1.000
 3609.00    0.55092   0.54987  633.355
 3610.00    0.54682   0.55177   -1.000
 3611.00    0.55228   0.55649   -1.000
 3612.00    0.56119   0.56196  633.355
 3613.00    0.56686   0.56778  633.355
 3614.00    0.57027   0.57373  633.355
 3615.00    0.57581   0.57697  633.355
 3616.00    0.58242   0.57336   -1.000
 3617.00    0.57326   0.56334   -1.000
 3618.00    0.55573   0.55393  633.355
 3619.00    0.54826   0.55265  180.943
 3620.00    0.55951   0.56084  121.935
 3621.00    0.58244   0.57381   -1.000
 3622.00    0.59750   0.58617   -1.000
 3623.00    0.59872   0.59641  633.355
 3624.00    0.59937   0.60674   -1.000
 3625.00    0.61000   0.61897   -1.000
 3626.00    0.62499   0.63065   -1.000
 3627.00    0.63150   0.63564  574.326
 3628.00    0.62673   0.62846  573.299
 3629.00    0.60910   0.60947  593.293
 3630.00    0.58687   0.58634  633.355
 3631.00    0.56555   0.56932  633.355
 3632.00    0.55527   0.56423   -1.000
 3633.00    0.56405   0.56909   -1.000
 3634.00    0.57157   0.57733   -1.000
 3635.00    0.58075   0.58407  633.355
 3636.00    0.59692   0.58960   -1.000
 3637.00    0.60898   0.59679   -1.000
 3638.00    0.61728   0.60605   -1.000
 3639.00    0.62585   0.61378   -1.000
 3640.00    0.62120   0.61537   -1.000
 3641.00    0.61358   0.60917  589.266
 3642.00    0.60301   0.59776  606.241
 3643.00    0.59384   0.58586   -1.000
 3644.00    0.58747   0.57706   -1.000
 3645.00    0.58697   0.57189   -1.000
 3646.00    0.58685   0.56903   -1.000
 3647.00    0.58385   0.56789   -1.000
 3648.00    0.58311   0.56937   -1.000
 3649.00    0.58613   0.57462   -1.000
 3650.00    0.59040   0.58368   -1.000
 3651.00    0.59809   0.59508  633.355
 3652.00    0.61213   0.60643   -1.000
 3653.00    0.62401   0.61574   -1.000
 3654.00    0.63158   0.62259   -1.000
 3655.00    0.63377   0.62812   -1.000
 3656.00    0.63586   0.63348  573.872
 3657.00    0.64340   0.63823  567.434
 3658.00    0.64952   0.64079   -1.000
 3659.00    0.64608   0.63998   -1.000
 3660.00    0.63827   0.63588  554.820
 3661.00    0.63510   0.62979  557.117
 3662.00    0.63037   0.62362   -1.000
 3663.00    0.63104   0.61921   -1.000
 3664.00    0.63515   0.61725   -1.000
 3665.00    0.63752   0.61661   -1.000
 3666.00    0.63841   0.61515   -1.000
 3667.00    0.63403   0.61184   -1.000
 3668.00    0.62332   0.60846   -1.000
 3669.00    0.61667   0.60837   -1.000
 3670.00    0.62207   0.61302   -1.000
 3671.00    0.63022   0.62020   -1.000
 3672.00    0.63239   0.62586   -1.000
 3673.00    0.63221   0.62711  568.547
 3674.00    0.63341   0.62342   -1.000
 3675.00    0.63249   0.61578   -1.000
 3676.00    0.62516   0.60593   -1.000
 3677.00    0.61644   0.59619   -1.000
 3678.00    0.61064   0.58898   -1.000
 3679.00    0.60666   0.58592   -1.000
 3680.00    0.60612   0.58703   -1.000
 3681.00    0.61107   0.59065   -1.000
 3682.00    0.61627   0.59400   -1.000
 3683.00    0.61222   0.59396   -1.000
 3684.00    0.60785   0.58876   -1.000
 3685.00    0.60299   0.58017   -1.000
 3686.00    0.59571   0.57372   -1.000
 3687.00    0.59472   0.57503   -1.000
 3688.00    0.60778   0.58527   -1.000
 3689.00    0.62436   0.60019   -1.000
 3690.00    0.63733   0.61353   -1.000
 3691.00    0.64573   0.62167   -1.000
 3692.00    0.64405   0.62504   -1.000
 3693.00    0.64034   0.62552   -1.000
 3694.00    0.64300   0.62393   -1.000
 3695.00    0.64542   0.62115   -1.000
 3696.00    0.64535   0.62049   -1.000
 3697.00    0.64441   0.62638   -1.000
 3698.00    0.65439   0.63948   -1.000
 3699.00    0.67500   0.65342   -1.000
 3700.00    0.68419   0.65789   -1.000
 3701.00    0.67422   0.64579   -1.000
 3702.00    0.64617   0.61877   -1.000
 3703.00    0.61234   0.58690   -1.000
 3704.00    0.58555   0.56277   -1.000
 3705.00    0.57563   0.55392   -1.000
 3706.00    0.58841   0.55896   -1.000
 3707.00    0.60838   0.57001   -1.000
 3708.00    0.62112   0.57875   -1.000
 3709.00    0.62173   0.58160   -1.000
 3710.00    0.61633   0.58179   -1.000
 3711.00    0.61068   0.58670   -1.000
 3712.00    0.62300   0.60169   -1.000
 3713.00    0.64616   0.62562   -1.000
 3714.00    0.67170   0.65159   -1.000
 3715.00    0.69064   0.67103   -1.000
 3716.00    0.70066   0.67694   -1.000
 3717.00    0.69562   0.66481   -1.000
 3718.00    0.66908   0.63400   -1.000
 3719.00    0.61848   0.59112   -1.000
 3720.00    0.56651   0.55067   -1.000
 3721.00    0.53948   0.52861  191.027
 3722.00    0.54501   0.53364  121.501
 3723.00    0.58148   0.56268   -1.000
 3724.00    0.63556   0.60261   -1.000
 3725.00    0.67650   0.63833   -1.000
 3726.00    0.68655   0.66221   -1.000
 3727.00    0.68173   0.67562   -1.000
 3728.00    0.69010   0.68132   -1.000
 3729.00    0.69911   0.67680   -1.000
 3730.00    0.69060   0.65612   -1.000
 3731.00    0.65932   0.61722   -1.000
 3732.00    0.61383   0.56706   -1.000
 3733.00    0.55615   0.51986   -1.000
 3734.00    0.51363   0.49059   83.830
 3735.00    0.50519   0.48853   91.515
 3736.00    0.52664   0.51422   91.881
 3737.00    0.57047   0.56035   85.657
 3738.00    0.62272   0.61471  118.341
 3739.00    0.66857   0.66384  633.355
 3740.00    0.70258   0.69727  625.817
 3741.00    0.71966   0.71073   -1.000
 3742.00    0.71429   0.70601   -1.000
 3743.00    0.69760   0.68799   -1.000
 3744.00    0.67584   0.66131   -1.000
 3745.00    0.64668   0.62833   -1.000
 3746.00    0.61815   0.58979   -1.000
 3747.00    0.58845   0.54818   -1.000
 3748.00    0.54852   0.51156   -1.000
 3749.00    0.51658   0.49260   87.338
 3750.00    0.51828   0.50102  129.118
 3751.00    0.55993   0.53649   -1.000
 3752.00    0.61977   0.58880   -1.000
 3753.00    0.67875   0.64366   -1.000
 3754.00    0.72172   0.68811   -1.000
 3755.00    0.74188   0.71349   -1.000
 3756.00    0.73834   0.71788   -1.000
 3757.00    0.72182   0.70773   -1.000
 3758.00    0.70125   0.69478   -1.000
 3759.00    0.69665   0.68862   -1.000
 3760.00    0.70853   0.69142   -1.000
 3761.00    0.72248   0.69913   -1.000
 3762.00    0.73577   0.70591   -1.000
 3763.00    0.74077   0.70677   -1.000
 3764.00    0.73887   0.69834   -1.000
 3765.00    0.72612   0.67949   -1.000
 3766.00    0.70335   0.65153   -1.000
 3767.00    0.67533   0.61765   -1.000
 3768.00    0.64744   0.58291   -1.000
 3769.00    0.60900   0.55498   -1.000
 3770.00    0.58189   0.54321   -1.000
 3771.00    0.58661   0.55349   -1.000
 3772.00    0.62237   0.58299   -1.000
 3773.00    0.66489   0.62167   -1.000
 3774.00    0.69596   0.66002   -1.000
 3775.00    0.71942   0.69443   -1.000
 3776.00    0.73889   0.72597   -1.000
 3777.00    0.76415   0.75618   -1.000
 3778.00    0.78891   0.78459  552.071
 3779.00    0.81218   0.80924  540.216
 3780.00    0.83222   0.82815  523.907
 3781.00    0.83936   0.84047  514.924
 3782.00    0.84170   0.84608  511.698
 3783.00    0.84583   0.84450  509.821
 3784.00    0.83888   0.83480  514.272
 3785.00    0.81910   0.81749  531.846
 3786.00    0.79915   0.79628  564.640
 3787.00    0.78297   0.77659   -1.000
 3788.00    0.77317   0.76198   -1.000
 3789.00    0.76713   0.75188   -1.000
 3790.00    0.76029   0.74222   -1.000
 3791.00    0.75449   0.72750   -1.000
 3792.00    0.74042   0.70340   -1.000
 3793.00    0.71355   0.66870   -1.000
 3794.00    0.68037   0.62557   -1.000
 3795.00    0.64144   0.57888   -1.000
 3796.00    0.59747   0.53621   -1.000
 3797.00    0.55724   0.50817   -1.000
 3798.00    0.54558   0.50554   -1.000
 3799.00    0.57539   0.53239   -1.000
 3800.00    0.62873   0.58200   -1.000
 3801.00    0.68468   0.64036   -1.000
 3802.00    0.73303   0.69387   -1.000
 3803.00    0.76621   0.73444   -1.000
 3804.00    0.78027   0.76020   -1.000
 3805.00    0.78285   0.77462   -1.000
 3806.00    0.78160   0.78498  583.870
 3807.00    0.78746   0.79859   -1.000
 3808.00    0.80890   0.81773   -1.000
 3809.00    0.82969   0.83763   -1.000
 3810.00    0.84195   0.84957   -1.000
 3811.00    0.84376   0.84676   -1.000
 3812.00    0.82878   0.82948  586.309
 3813.00    0.81424   0.80585   -1.000
 3814.00    0.80176   0.78708   -1.000
 3815.00    0.79303   0.77990   -1.000
 3816.00    0.79084   0.78209   -1.000
 3817.00    0.80084   0.78491   -1.000
 3818.00    0.80271   0.78089   -1.000
 3819.00    0.78437   0.77024   -1.000
 3820.00    0.76968   0.75942   -1.000
 3821.00    0.76969   0.75309   -1.000
 3822.00    0.77995   0.74834   -1.000
 3823.00    0.77524   0.73835   -1.000
 3824.00    0.74937   0.72079   -1.000
 3825.00    0.72097   0.70017   -1.000
 3826.00    0.70507   0.68227   85.065
 3827.00    0.70362   0.66834   85.967
 3828.00    0.69839   0.65474   -1.000
 3829.00    0.68730   0.63626   -1.000
 3830.00    0.67409   0.60911   -1.000
 3831.00    0.64161   0.57251   -1.000
 3832.00    0.59829   0.52987   -1.000
 3833.00    0.55371   0.48888   -1.000
 3834.00    0.51937   0.45919   -1.000
 3835.00    0.50641   0.44799   -1.000
 3836.00    0.52011   0.45657   -1.000
 3837.00    0.54708   0.48096   -1.000
 3838.00    0.57384   0.51590   -1.000
 3839.00    0.60633   0.55786   -1.000
 3840.00    0.64553   0.60464   -1.000
 3841.00    0.68652   0.65313   -1.000
 3842.00    0.72723   0.69866   -1.000
 3843.00    0.76866   0.73699   -1.000
 3844.00    0.78937   0.76665   -1.000
 3845.00    0.79802   0.78894   -1.000
 3846.00    0.80825   0.80557  633.355
 3847.00    0.81656   0.81676  633.355
 3848.00    0.81729   0.82277   -1.000
 3849.00    0.81191   0.82608   -1.000
 3850.00    0.80886   0.83045   -1.000
 3851.00    0.81856   0.83716   -1.000
 3852.00    0.83229   0.84342   -1.000
 3853.00    0.84041   0.84518   -1.000
 3854.00    0.83915   0.84098  633.355
 3855.00    0.82282   0.83262   -1.000
 3856.00    0.80764   0.82283   -1.000
 3857.00    0.79947   0.81374   -1.000
 3858.00    0.78718   0.80780   -1.000
 3859.00    0.77298   0.80810   -1.000
 3860.00    0.77385   0.81611   -1.000
 3861.00    0.79631   0.82920   -1.000
 3862.00    0.83045   0.84152   -1.000
 3863.00    0.85627   0.84858   -1.000
 3864.00    0.86159   0.85026   -1.000
 3865.00    0.85540   0.84961  633.355
 3866.00    0.84955   0.84922  633.355
 3867.00    0.84321   0.84889   -1.000
 3868.00    0.83753   0.84568   -1.000
 3869.00    0.82258   0.83638   -1.000
 3870.00    0.80153   0.82104   -1.000
 3871.00    0.78736   0.80477   -1.000
 3872.00    0.77928   0.79506  116.220
 3873.00    0.78639   0.79585   -1.000
 3874.00    0.80351   0.80303  633.355
 3875.00    0.81791   0.80696   -1.000
 3876.00    0.81236   0.80071   -1.000
 3877.00    0.78127   0.78605   -1.000
 3878.00    0.75183   0.77035   -1.000
 3879.00    0.73947   0.75845   -1.000
 3880.00    0.73558   0.74871   -1.000
 3881.00    0.72404   0.73642   -1.000
 3882.00    0.70921   0.71831   -1.000
 3883.00    0.70619   0.69289   -1.000
 3884.00    0.70545   0.65871   -1.000
 3885.00    0.68470   0.61559   -1.000
 3886.00    0.64358   0.56830   -1.000
 3887.00    0.59624   0.52744   -1.000
 3888.00    0.56418   0.50545   -1.000
 3889.00    0.55587   0.50997   -1.000
 3890.00    0.58569   0.53954   -1.000
 3891.00    0.65104   0.58376   -1.000
 3892.00    0.70665   0.62941   -1.000
 3893.00    0.73092   0.66798   -1.000
 3894.00    0.74424   0.69870   -1.000
 3895.00    0.76303   0.72454   -1.000
 3896.00    0.78109   0.74704   -1.000
 3897.00    0.79024   0.76548   -1.000
 3898.00    0.80687   0.77970   -1.000
 3899.00    0.81298   0.79186   -1.000
 3900.00    0.81922   0.80400   -1.000
 3901.00    0.83592   0.81508   -1.000
 3902.00    0.84818   0.82189   -1.000
 3903.00    0.84997   0.82315   -1.000
 3904.00    0.83942   0.82195   -1.000
 3905.00    0.82534   0.82439  577.034
 3906.00    0.82682   0.83535   -1.000
 3907.00    0.84907   0.85483   -1.000
 3908.00    0.87489   0.87766  535.327
 3909.00    0.89401   0.89698  507.164
 3910.00    0.90243   0.90827   -1.000
 3911.00    0.90874   0.91107  493.598
 3912.00    0.90671   0.90736  489.485
 3913.00    0.89869   0.90035  489.561
 3914.00    0.89182   0.89339  497.013
 3915.00    0.88642   0.88826  507.919
 3916.00    0.88202   0.88432  518.066
 3917.00    0.87609   0.87966   -1.000
 3918.00    0.87028   0.87313   -1.000
 3919.00    0.86092   0.86578   -1.000
 3920.00    0.85062   0.86021   -1.000
 3921.00    0.84720   0.85835   -1.000
 3922.00    0.84681   0.85930   -1.000
 3923.00    0.84876   0.85910   -1.000
 3924.00    0.84495   0.85288   -1.000
 3925.00    0.83544   0.83725   -1.000
 3926.00    0.80987   0.81144   -1.000
 3927.00    0.77337   0.77677   -1.000
 3928.00    0.72834   0.73491  220.226
 3929.00    0.67078   0.68674   93.950
 3930.00    0.60797   0.63313   -1.000
 3931.00    0.53993   0.57814   -1.000
 3932.00    0.46270   0.53188   -1.000
 3933.00    0.40962   0.50784   -1.000
 3934.00    0.41010   0.51548   -1.000
 3935.00    0.46423   0.55303   -1.000
 3936.00    0.54781   0.60872   -1.000
 3937.00    0.63415   0.66844   -1.000
 3938.00    0.70031   0.72229   98.089
 3939.00    0.74847   0.76516  123.298
 3940.00    0.77901   0.79531   -1.000
 3941.00    0.79840   0.81313   -1.000
 3942.00    0.80912   0.82166   -1.000
 3943.00    0.81088   0.82608   -1.000
 3944.00    0.81455   0.83108   -1.000
 3945.00    0.83383   0.83835   -1.000
 3946.00    0.85769   0.84633   -1.000
 3947.00    0.86680   0.85257   -1.000
 3948.00    0.86536   0.85626   -1.000
 3949.00    0.86666   0.85808   -1.000
 3950.00    0.87041   0.85873   -1.000
 3951.00    0.87117   0.85896   -1.000
 3952.00    0.87084   0.85959   -1.000
 3953.00    0.87531   0.85997   -1.000
 3954.00    0.87947   0.85769   -1.000
 3955.00    0.87245   0.85108   -1.000
 3956.00    0.85802   0.84146   -1.000
 3957.00    0.84884   0.83109   -1.000
 3958.00    0.84828   0.81879   -1.000
 3959.00    0.83677   0.79988   -1.000
 3960.00    0.80333   0.77130   -1.000
 3961.00    0.76020   0.73491   -1.000
 3962.00    0.71943   0.69454   -1.000
 3963.00    0.68724   0.65094   -1.000
 3964.00    0.64566   0.60022   -1.000
 3965.00    0.57181   0.53913   88.348
 3966.00    0.47412   0.47137  105.261
 3967.00    0.38051   0.40883   -1.000
 3968.00    0.31677   0.36715   -1.000
 3969.00    0.30617   0.35719   -1.000
 3970.00    0.35282   0.38023   -1.000
 3971.00    0.43349   0.42868  117.300
 3972.00    0.52388   0.49111   -1.000
 3973.00    0.60438   0.55710   -1.000
 3974.00    0.67162   0.61991   -1.000
 3975.00    0.72954   0.67610   -1.000
 3976.00    0.77022   0.72492   -1.000
 3977.00    0.80296   0.76684   -1.000
 3978.00    0.84036   0.80165   -1.000
 3979.00    0.87267   0.82821   -1.000
 3980.00    0.88619   0.84539   -1.000
 3981.00    0.88950   0.85516   -1.000
 3982.00    0.89046   0.86225   -1.000
 3983.00    0.89982   0.87092   -1.000
 3984.00    0.91539   0.88200   -1.000
 3985.00    0.92759   0.89370   -1.000
 3986.00    0.93000   0.90461   -1.000
 3987.00    0.93772   0.91481   -1.000
 3988.00    0.94725   0.92483   -1.000
 3989.00    0.94903   0.93478   -1.000
 3990.00    0.95826   0.94441   -1.000
 3991.00    0.96849   0.95317   -1.000
 3992.00    0.97545   0.95946   -1.000
 3993.00    0.97928   0.96098   -1.000
 3994.00    0.97219   0.95679   -1.000
 3995.00    0.95992   0.94900   -1.000
 3996.00    0.95037   0.94211  432.716
 3997.00    0.94417   0.94045  439.474
 3998.00    0.94386   0.94561  438.566
 3999.00    0.95665   0.95544  424.912
 4000.00    0.97912   0.96517   -1.000
 4001.00    0.99207   0.97003   -1.000
 4002.00    0.99526   0.96697   -1.000
 4003.00    0.99293   0.95648   -1.000
 4004.00    0.97379   0.94349   -1.000
 4005.00    0.95487   0.93565   -1.000
 4006.00    0.95484   0.93833   -1.000
 4007.00    0.97280   0.95099   -1.000
 4008.00    0.99409   0.96699   -1.000
 4009.00    1.00010   0.97969   -1.000
 4010.00    1.00359   0.98669   -1.000
 4011.00    1.00127   0.98939   -1.000
 4012.00    0.99755   0.99069  387.208
 4013.00    0.99463   0.99246  389.874
 4014.00    0.99315   0.99506  390.341
 4015.00    0.99715   0.99795  386.440
 4016.00    0.99995   1.00107  383.712
 4017.00    0.99811   1.00498   -1.000
 4018.00    1.00120   1.00954   -1.000
 4019.00    1.01027   1.01337  386.991
 4020.00    1.00717   1.01430   -1.000
 4021.00    1.00214   1.01101   -1.000
 4022.00    1.00037   1.00411  390.406
 4023.00    0.99614   0.99642  392.704
 4024.00    0.99470   0.99187  395.449
 4025.00    0.99843   0.99302  394.328
 4026.00    1.00505   0.99819  382.827
 4027.00    1.01095   1.00160  370.960
 4028.00    1.01192   0.99773   -1.000
 4029.00    1.00000   0.98590   -1.000
 4030.00    0.98041   0.97122  393.320
 4031.00    0.96681   0.96038  417.433
 4032.00    0.96023   0.95770  430.791
 4033.00    0.96241   0.96415  432.250
 4034.00    0.97447   0.97796  423.685
 4035.00    0.99186   0.99643  407.251
 4036.00    1.01399   1.01554  386.925
 4037.00    1.02908   1.03049  369.620
 4038.00    1.03438   1.03751  360.433
 4039.00    1.02977   1.03642  362.173
 4040.00    1.01778   1.02993   -1.000
 4041.00    1.01094   1.02005   -1.000
 4042.00    1.01033   1.00528  381.069
 4043.00    0.99853   0.98518   -1.000
 4044.00    0.96758   0.96483  413.031
 4045.00    0.94397   0.95363   -1.000
 4046.00    0.94529   0.95868   -1.000
 4047.00    0.97058   0.97710   -1.000
 4048.00    1.00026   0.99917  401.549
 4049.00    1.01420   1.01536  381.632
 4050.00    1.01960   1.02124  373.048
 4051.00    1.02073   1.01784  371.046
 4052.00    1.01361   1.00905  376.164
 4053.00    1.00074   0.99939  386.555
 4054.00    0.99302   0.99205  395.311
 4055.00    0.98965   0.98830  400.420
 4056.00    0.98992   0.98768  403.390
 4057.00    0.98851   0.99007  406.584
 4058.00    0.99290   0.99496  408.006
 4059.00    1.00348   0.99879  399.716
 4060.00    1.00881   0.99646   -1.000
 4061.00    1.00066   0.98496   -1.000
 4062.00    0.97412   0.96733  397.485
 4063.00    0.95252   0.95104  426.891
 4064.00    0.95241   0.94194   -1.000
 4065.00    0.96130   0.94180   -1.000
 4066.00    0.96781   0.94809   -1.000
 4067.00    0.97973   0.95637   -1.000
 4068.00    0.99087   0.96168   -1.000
 4069.00    0.99673   0.96067   -1.000
 4070.00    0.98955   0.95359   -1.000
 4071.00    0.97075   0.94526   -1.000
 4072.00    0.96590   0.94039   -1.000
 4073.00    0.97281   0.93814   -1.000
 4074.00    0.97861   0.93320   -1.000
 4075.00    0.96662   0.92194   -1.000
 4076.00    0.93996   0.90826   -1.000
 4077.00    0.91752   0.90088   -1.000
 4078.00    0.92244   0.90588   -1.000
 4079.00    0.94397   0.92158   -1.000
 4080.00    0.97275   0.93928   -1.000
 4081.00    0.99002   0.94999   -1.000
 4082.00    0.98591   0.95007   -1.000
 4083.00    0.97045   0.94357   -1.000
 4084.00    0.95869   0.93764   -1.000
 4085.00    0.95847   0.93766   -1.000
 4086.00    0.96397   0.94374   -1.000
 4087.00    0.97774   0.95139   -1.000
 4088.00    0.99074   0.95499   -1.000
 4089.00    0.98716   0.95141   -1.000
 4090.00    0.97121   0.94163   -1.000
 4091.00    0.95663   0.92816   -1.000
 4092.00    0.94495   0.91251   -1.000
 4093.00    0.93940   0.89349   -1.000
 4094.00    0.92731   0.86937   -1.000
 4095.00    0.90854   0.83978   -1.000
 4096.00    0.87964   0.80495   -1.000
 4097.00    0.84642   0.76467   -1.000
 4098.00    0.81588   0.71789   -1.000
 4099.00    0.77022   0.66718   -1.000
 4100.00    0.70103   0.62194   -1.000
 4101.00    0.64088   0.59610   -1.000
 4102.00    0.63633   0.60055   -1.000
 4103.00    0.68841   0.63441   -1.000
 4104.00    0.75415   0.68530   -1.000
 4105.00    0.81246   0.73782   -1.000
 4106.00    0.84586   0.78117   -1.000
 4107.00    0.86854   0.81293   -1.000
 4108.00    0.88494   0.83574   -1.000
 4109.00    0.89316   0.85348   -1.000
 4110.00    0.90308   0.86974   -1.000
 4111.00    0.92103   0.88655   -1.000
 4112.00    0.93879   0.90442   -1.000
 4113.00    0.95280   0.92236   -1.000
 4114.00    0.96445   0.93823   -1.000
 4115.00    0.96834   0.94934   -1.000
 4116.00    0.97097   0.95363   -1.000
 4117.00    0.97105   0.95196   -1.000
 4118.00    0.96303   0.94767   -1.000
 4119.00    0.95049   0.94466  404.456
 4120.00    0.95225   0.94471   -1.000
 4121.00    0.95711   0.94760   -1.000
 4122.00    0.95785   0.95239  398.131
 4123.00    0.96745   0.95811   -1.000
 4124.00    0.97914   0.96310   -1.000
 4125.00    0.98385   0.96488   -1.000
 4126.00    0.98473   0.96214   -1.000
 4127.00    0.97127   0.95635   -1.000
 4128.00    0.96403   0.95041   -1.000
 4129.00    0.96965   0.94533   -1.000
 4130.00    0.96811   0.94040   -1.000
 4131.00    0.95692   0.93573   -1.000
 4132.00    0.94069   0.93434  427.444
 4133.00    0.93202   0.94005   -1.000
 4134.00    0.94868   0.95381  433.221
 4135.00    0.97143   0.97254  416.125
 4136.00    0.98536   0.99142  397.168
 4137.00    0.99791   1.00682   -1.000
 4138.00    1.00816   1.01588   -1.000
 4139.00    1.01008   1.01637  375.796
 4140.00    1.00572   1.00690  377.178
 4141.00    0.98475   0.98920  388.763
 4142.00    0.95613   0.96986   -1.000
 4143.00    0.93812   0.95789   -1.000
 4144.00    0.94227   0.95784   -1.000
 4145.00    0.96387   0.96783  434.727
 4146.00    0.98274   0.98014  411.304
 4147.00    0.98848   0.98812  399.546
 4148.00    0.98038   0.99088   -1.000
 4149.00    0.97397   0.99098   -1.000
 4150.00    0.97539   0.99069   -1.000
 4151.00    0.97892   0.98952   -1.000
 4152.00    0.97142   0.98606   -1.000
 4153.00    0.96131   0.98078   -1.000
 4154.00    0.95516   0.97651   -1.000
 4155.00    0.95596   0.97634   -1.000
 4156.00    0.96245   0.98140   -1.000
 4157.00    0.96856   0.99011   -1.000
 4158.00    0.98168   0.99933   -1.000
 4159.00    1.00359   1.00671  400.193
 4160.00    1.03676   1.01159   -1.000
 4161.00    1.04156   1.01495   -1.000
 4162.00    0.98410   1.01807   -1.000
 4163.00    0.96557   1.02079   -1.000
 4164.00    0.99378   1.02166   -1.000
 4165.00    1.00560   1.01954   -1.000
 4166.00    0.99412   1.01484   -1.000
 4167.00    0.98909   1.00875   -1.000
 4168.00    0.99069   1.00090   -1.000
 4169.00    0.99299   0.98932  408.677
 4170.00    0.98230   0.97217   -1.000
 4171.00    0.95927   0.95236  415.115
 4172.00    0.93356   0.93725  440.792
 4173.00    0.92205   0.93271   -1.000
 4174.00    0.92773   0.93865   -1.000
 4175.00    0.94185   0.94870   -1.000
 4176.00    0.95082   0.95686   -1.000
 4177.00    0.94867   0.96193   -1.000
 4178.00    0.95286   0.96642   -1.000
 4179.00    0.95857   0.97197   -1.000
 4180.00    0.96349   0.97726   -1.000
 4181.00    0.96367   0.98064   -1.000
 4182.00    0.96100   0.98265   -1.000
 4183.00    0.96601   0.98440   -1.000
 4184.00    0.97127   0.98574   -1.000
 4185.00    0.96747   0.98494   -1.000
 4186.00    0.95733   0.98169   -1.000
 4187.00    0.94845   0.97856   -1.000
 4188.00    0.95261   0.97807   -1.000
 4189.00    0.96772   0.98120   -1.000
 4190.00    0.97082   0.98689   -1.000
 4191.00    0.96938   0.99308   -1.000
 4192.00    0.97664   0.99756   -1.000
 4193.00    0.98439   0.99750   -1.000
 4194.00    0.98080   0.99045   -1.000
 4195.00    0.96832   0.97702   -1.000
 4196.00    0.95159   0.96059   -1.000
 4197.00    0.93334   0.94558   -1.000
 4198.00    0.92595   0.93547   -1.000
 4199.00    0.92596   0.93118  441.984
 4200.00    0.93534   0.93187  436.276
 4201.00    0.93854   0.93604  430.897
 4202.00    0.93657   0.94275   -1.000
 4203.00    0.93946   0.95180   -1.000
 4204.00    0.94517   0.96323   -1.000
 4205.00    0.95114   0.97582   -1.000
 4206.00    0.96018   0.98737   -1.000
 4207.00    0.96821   0.99595   -1.000
 4208.00    0.97068   1.00080   -1.000
 4209.00    0.97410   1.00312   -1.000
 4210.00    0.97203   1.00464   -1.000
 4211.00    0.97052   1.00543   -1.000
 4212.00    0.97564   1.00303   -1.000
 4213.00    0.97158   0.99552   -1.000
 4214.00    0.95174   0.98455   -1.000
 4215.00    0.93311   0.97557   -1.000
 4216.00    0.92995   0.97434   -1.000
 4217.00    0.94636   0.98177   -1.000
 4218.00    0.96652   0.99381   -1.000
 4219.00    0.97537   1.00400   -1.000
 4220.00    0.98428   1.00670   -1.000
 4221.00    0.98623   0.99893   -1.000
 4222.00    0.97436   0.97986  367.470
 4223.00    0.95422   0.95131  386.069
 4224.00    0.92960   0.91941   -1.000
 4225.00    0.89206   0.89405  462.548
 4226.00    0.85780   0.88558   -1.000
 4227.00    0.86705   0.89791   -1.000
 4228.00    0.91070   0.92520   -1.000
 4229.00    0.95196   0.95474  427.205
 4230.00    0.97510   0.97372  390.318
 4231.00    0.97699   0.97817  375.580
 4232.00    0.96455   0.97187   -1.000
 4233.00    0.94784   0.96206   -1.000
 4234.00    0.94253   0.95439   -1.000
 4235.00    0.94414   0.95099   -1.000
 4236.00    0.93886   0.95176   -1.000
 4237.00    0.93349   0.95602   -1.000
 4238.00    0.93754   0.96307   -1.000
 4239.00    0.94759   0.97157   -1.000
 4240.00    0.95881   0.97964   -1.000
 4241.00    0.96614   0.98643   -1.000
 4242.00    0.96481   0.99135   -1.000
 4243.00    0.96454   0.99371   -1.000
 4244.00    0.96830   0.99178   -1.000
 4245.00    0.96370   0.98430   -1.000
 4246.00    0.94465   0.97280   -1.000
 4247.00    0.93058   0.96127   -1.000
 4248.00    0.92221   0.95416   -1.000
 4249.00    0.91676   0.95324   -1.000
 4250.00    0.91935   0.95717   -1.000
 4251.00    0.93557   0.96254   -1.000
 4252.00    0.95176   0.96599   -1.000
 4253.00    0.95141   0.96698   -1.000
 4254.00    0.93924   0.96683   -1.000
 4255.00    0.93903   0.96739   -1.000
 4256.00    0.95424   0.96757   -1.000
 4257.00    0.96234   0.96383  382.533
 4258.00    0.95044   0.95570  384.849
 4259.00    0.92705   0.94757   -1.000
 4260.00    0.91678   0.94652   -1.000
 4261.00    0.92855   0.95591   -1.000
 4262.00    0.95081   0.97283   -1.000
 4263.00    0.96980   0.99053   -1.000
 4264.00    0.97920   1.00244   -1.000
 4265.00    0.98134   1.00599   -1.000
 4266.00    0.97636   1.00123   -1.000
 4267.00    0.96164   0.98942   -1.000
 4268.00    0.95156   0.97191   -1.000
 4269.00    0.94434   0.95063  392.982
 4270.00    0.92523   0.92924  411.250
 4271.00    0.89963   0.91287   -1.000
 4272.00    0.89169   0.90538   -1.000
 4273.00    0.89376   0.90840   -1.000
 4274.00    0.89835   0.92070   -1.000
 4275.00    0.91382   0.93879   -1.000
 4276.00    0.93665   0.95792   -1.000
 4277.00    0.95763   0.97247   -1.000
 4278.00    0.95594   0.97860   -1.000
 4279.00    0.94014   0.97690   -1.000
 4280.00    0.92728   0.97150   -1.000
 4281.00    0.92084   0.96663   -1.000
 4282.00    0.92140   0.96305   -1.000
 4283.00    0.92927   0.95960   -1.000
 4284.00    0.93239   0.95389   -1.000
 4285.00    0.92051   0.94483   -1.000
 4286.00    0.90863   0.93224   -1.000
 4287.00    0.90095   0.91662   -1.000
 4288.00    0.88770   0.90123   -1.000
 4289.00    0.86781   0.89102   -1.000
 4290.00    0.85926   0.88978   -1.000
 4291.00    0.87123   0.89686   -1.000
 4292.00    0.89197   0.90630   -1.000
 4293.00    0.90326   0.91141   -1.000
 4294.00    0.90103   0.90915   -1.000
 4295.00    0.89268   0.89993   -1.000
 4296.00    0.88682   0.88509  423.430
 4297.00    0.87149   0.86554  436.440
 4298.00    0.84137   0.84378  463.330
 4299.00    0.81366   0.82411   -1.000
 4300.00    0.80251   0.81144   -1.000
 4301.00    0.80384   0.80783  530.621
 4302.00    0.80996   0.81229  516.145
 4303.00    0.81692   0.82078  508.625
 4304.00    0.82489   0.82812  501.326
 4305.00    0.83137   0.83006  497.602
 4306.00    0.82822   0.82574  504.207
 4307.00    0.81051   0.81928   -1.000
 4308.00    0.79322   0.81705   -1.000
 4309.00    0.79406   0.82237   -1.000
 4310.00    0.80946   0.83386   -1.000
 4311.00    0.82298   0.84802   -1.000
 4312.00    0.83027   0.86341   -1.000
 4313.00    0.84093   0.88254   -1.000
 4314.00    0.86347   0.90804   -1.000
 4315.00    0.90133   0.93806   -1.000
 4316.00    0.94171   0.96666   -1.000
 4317.00    0.96508   0.98611   -1.000
 4318.00    0.96994   0.99278   -1.000
 4319.00    0.96102   0.98723   -1.000
 4320.00    0.95029   0.97240   -1.000
 4321.00    0.94327   0.95082  354.757
 4322.00    0.92534   0.92452  368.463
 4323.00    0.89405   0.89761  389.336
 4324.00    0.86654   0.87703   -1.000
 4325.00    0.85405   0.87012   -1.000
 4326.00    0.86627   0.87870   -1.000
 4327.00    0.89766   0.89660  419.726
 4328.00    0.92349   0.91400   -1.000
 4329.00    0.92861   0.92320  357.511
 4330.00    0.92223   0.92392  353.742
 4331.00    0.91794   0.91886  354.648
 4332.00    0.91223   0.90981  351.311
 4333.00    0.89935   0.89481  345.657
 4334.00    0.88792   0.86955   -1.000
 4335.00    0.87301   0.83038   -1.000
 4336.00    0.83744   0.77771   -1.000
 4337.00    0.78301   0.71790   -1.000
 4338.00    0.71698   0.66269   -1.000
 4339.00    0.65626   0.62622   -1.000
 4340.00    0.62275   0.61811   -1.000
 4341.00    0.63816   0.63940  483.924
 4342.00    0.70035   0.68160   -1.000
 4343.00    0.76706   0.73227   -1.000
 4344.00    0.81422   0.78087   -1.000
 4345.00    0.84713   0.82317   -1.000
 4346.00    0.87198   0.85778   -1.000
 4347.00    0.89158   0.88329   -1.000
 4348.00    0.90461   0.89736  352.772
 4349.00    0.90870   0.89935   -1.000
 4350.00    0.89843   0.89363  354.852
 4351.00    0.87852   0.88849   -1.000
 4352.00    0.87142   0.89180   -1.000
 4353.00    0.88684   0.90550   -1.000
 4354.00    0.90957   0.92488   -1.000
 4355.00    0.92724   0.94342   -1.000
 4356.00    0.94106   0.95667   -1.000
 4357.00    0.94603   0.96458   -1.000
 4358.00    0.93957   0.96976   -1.000
 4359.00    0.93641   0.97555   -1.000
 4360.00    0.94659   0.98363   -1.000
 4361.00    0.96296   0.99343   -1.000
 4362.00    0.97228   1.00298   -1.000
 4363.00    0.97038   1.00983   -1.000
 4364.00    0.97049   1.01202   -1.000
 4365.00    0.97340   1.00823   -1.000
 4366.00    0.96370   0.99904   -1.000
 4367.00    0.94893   0.98735   -1.000
 4368.00    0.94348   0.97678   -1.000
 4369.00    0.94687   0.96890   -1.000
 4370.00    0.94963   0.96253   -1.000
 4371.00    0.95187   0.95500  356.046
 4372.00    0.95383   0.94494   -1.000
 4373.00    0.94435   0.93429   -1.000
 4374.00    0.92609   0.92820  378.961
 4375.00    0.91407   0.93108   -1.000
 4376.00    0.92826   0.94270   -1.000
 4377.00    0.95202   0.95766  367.333
 4378.00    0.96432   0.96797  351.965
 4379.00    0.96834   0.96734  348.537
 4380.00    0.96483   0.95279   -1.000
 4381.00    0.94973   0.92606   -1.000
 4382.00    0.92023   0.89464   -1.000
 4383.00    0.88499   0.87055   -1.000
 4384.00    0.86959   0.86286   -1.000
 4385.00    0.88737   0.87278   -1.000
 4386.00    0.91875   0.89225   -1.000
 4387.00    0.93941   0.91115   -1.000
 4388.00    0.94608   0.92423   -1.000
 4389.00    0.93949   0.93173  373.001
 4390.00    0.93998   0.93669  376.497
 4391.00    0.94566   0.94045  375.234
 4392.00    0.95630   0.94250   -1.000
 4393.00    0.95492   0.94274   -1.000
 4394.00    0.93981   0.94312  366.226
 4395.00    0.93483   0.94636   -1.000
 4396.00    0.94676   0.95183  365.932
 4397.00    0.96456   0.95555  350.030
 4398.00    0.96732   0.95444   -1.000
 4399.00    0.95383   0.94983  351.838
 4400.00    0.94709   0.94576  364.667
 4401.00    0.94965   0.94361  371.306
 4402.00    0.95727   0.94144   -1.000
 4403.00    0.95341   0.93742   -1.000
 4404.00    0.93842   0.93268  379.965
 4405.00    0.93415   0.93059  397.741
 4406.00    0.94380   0.93305   -1.000
 4407.00    0.94563   0.93975  383.315
 4408.00    0.94233   0.95016  378.736
 4409.00    0.95151   0.96316   -1.000
 4410.00    0.97304   0.97601  357.097
 4411.00    0.99008   0.98389  342.568
 4412.00    0.99178   0.98213   -1.000
 4413.00    0.98394   0.97042   -1.000
 4414.00    0.96321   0.95385   -1.000
 4415.00    0.94234   0.94084  363.945
 4416.00    0.93899   0.93852  372.619
 4417.00    0.94601   0.94841  366.761
 4418.00    0.96275   0.96563  352.726
 4419.00    0.98096   0.98185  339.209
 4420.00    0.98327   0.99128  332.886
 4421.00    0.97663   0.99288   -1.000
 4422.00    0.96999   0.99036   -1.000
 4423.00    0.96940   0.98771   -1.000
 4424.00    0.97105   0.98633   -1.000
 4425.00    0.97234   0.98582   -1.000
 4426.00    0.96592   0.98577   -1.000
 4427.00    0.96167   0.98631   -1.000
 4428.00    0.96791   0.98754   -1.000
 4429.00    0.97150   0.98863   -1.000
 4430.00    0.96946   0.98851   -1.000
 4431.00    0.97176   0.98602   -1.000
 4432.00    0.97236   0.98052  344.982
 4433.00    0.96152   0.97339   -1.000
 4434.00    0.94589   0.96861   -1.000
 4435.00    0.94053   0.97066   -1.000
 4436.00    0.95784   0.98093   -1.000
 4437.00    0.98169   0.99517   -1.000
 4438.00    0.99632   1.00584   -1.000
 4439.00    0.99773   1.00671   -1.000
 4440.00    0.98677   0.99693   -1.000
 4441.00    0.97097   0.98186   -1.000
 4442.00    0.94905   0.96986   -1.000
 4443.00    0.93671   0.96798   -1.000
 4444.00    0.94499   0.97682   -1.000
 4445.00    0.96381   0.99149   -1.000
 4446.00    0.97598   1.00479   -1.000
 4447.00    0.97748   1.01245   -1.000
 4448.00    0.97861   1.01426   -1.000
 4449.00    0.97518   1.01237   -1.000
 4450.00    0.97397   1.00848   -1.000
 4451.00    0.97616   1.00236   -1.000
 4452.00    0.97849   0.99275   -1.000
 4453.00    0.97148   0.97990  341.846
 4454.00    0.95075   0.96685   -1.000
 4455.00    0.93990   0.95814   -1.000
 4456.00    0.94835   0.95582  373.806
 4457.00    0.96037   0.95845  366.677
 4458.00    0.96460   0.96267  361.875
 4459.00    0.95869   0.96636  362.888
 4460.00    0.95641   0.96951   -1.000
 4461.00    0.95855   0.97320   -1.000
 4462.00    0.96196   0.97820   -1.000
 4463.00    0.97156   0.98378   -1.000
 4464.00    0.97872   0.98802   -1.000
 4465.00    0.97798   0.98869   -1.000
 4466.00    0.97457   0.98521   -1.000
 4467.00    0.96545   0.97927   -1.000
 4468.00    0.95053   0.97467   -1.000
 4469.00    0.94984   0.97515   -1.000
 4470.00    0.95797   0.98236   -1.000
 4471.00    0.97149   0.99488   -1.000
 4472.00    0.98730   1.00936   -1.000
 4473.00    1.00223   1.02236   -1.000
 4474.00    1.00790   1.03165   -1.000
 4475.00    1.00444   1.03640   -1.000
 4476.00    0.99972   1.03639   -1.000
 4477.00    1.00598   1.03087   -1.000
 4478.00    1.01028   1.01923  311.242
 4479.00    1.00092   1.00291  316.456
 4480.00    0.98361   0.98733  329.375
 4481.00    0.96938   0.97930  343.141
 4482.00    0.96473   0.98312   -1.000
 4483.00    0.97814   0.99702   -1.000
 4484.00    0.99124   1.01418   -1.000
 4485.00    1.00393   1.02702   -1.000
 4486.00    1.01411   1.03071   -1.000
 4487.00    1.01048   1.02567   -1.000
 4488.00    0.99358   1.01640   -1.000
 4489.00    0.98070   1.00900   -1.000
 4490.00    0.97382   1.00696   -1.000
 4491.00    0.98190   1.00994   -1.000
 4492.00    0.99598   1.01446   -1.000
 4493.00    0.99567   1.01746   -1.000
 4494.00    0.98200   1.01862   -1.000
 4495.00    0.97579   1.01955   -1.000
 4496.00    0.97887   1.02183   -1.000
 4497.00    0.99164   1.02475   -1.000
 4498.00    1.00400   1.02663   -1.000
 4499.00    1.00605   1.02668   -1.000
 4500.00    0.99298   1.02669   -1.000
 4501.00    0.98701   1.02983   -1.000
 4502.00    0.99520   1.03770   -1.000
 4503.00    1.00979   1.04864   -1.000
 4504.00    1.02019   1.05823   -1.000
 4505.00    1.02516   1.06312   -1.000
 4506.00    1.01865   1.06260   -1.000
 4507.00    1.00916   1.05932   -1.000
 4508.00    1.00419   1.05647   -1.000
 4509.00    1.01013   1.05556   -1.000
 4510.00    1.01865   1.05542   -1.000
 4511.00    1.01866   1.05360   -1.000
 4512.00    1.01107   1.04885   -1.000
 4513.00    1.00712   1.04183   -1.000
 4514.00    1.00186   1.03464   -1.000
 4515.00    0.99775   1.02911   -1.000
 4516.00    1.00084   1.02567   -1.000
 4517.00    1.00017   1.02358   -1.000
 4518.00    0.99303   1.02197   -1.000
 4519.00    0.99367   1.02050   -1.000
 4520.00    0.99701   1.01901   -1.000
 4521.00    0.99114   1.01673   -1.000
 4522.00    0.98174   1.01302   -1.000
 4523.00    0.97859   1.00783   -1.000
 4524.00    0.98146   1.00128   -1.000
 4525.00    0.98177   0.99319   -1.000
 4526.00    0.97893   0.98344  337.910
 4527.00    0.96942   0.97321  348.357
 4528.00    0.95611   0.96521   -1.000
 4529.00    0.95508   0.96143  359.102
 4530.00    0.96121   0.96151  355.235
 4531.00    0.96534   0.96224  348.741
 4532.00    0.96426   0.96114  343.487
 4533.00    0.95286   0.95907  344.713
 4534.00    0.94118   0.96034   -1.000
 4535.00    0.94304   0.96901   -1.000
 4536.00    0.96075   0.98481   -1.000
 4537.00    0.98612   1.00313   -1.000
 4538.00    1.00672   1.01749   -1.000
 4539.00    1.01174   1.02451   -1.000
 4540.00    1.00866   1.02491   -1.000
 4541.00    1.00599   1.02233   -1.000
 4542.00    1.00436   1.01965   -1.000
 4543.00    0.99973   1.01737   -1.000
 4544.00    0.98746   1.01448   -1.000
 4545.00    0.98163   1.00993   -1.000
 4546.00    0.98486   1.00313  167.662
 4547.00    0.98259   0.99424   -1.000
 4548.00    0.92900   0.98480   -1.000
 4549.00    0.60014   0.97798   -1.000
 4550.00    0.06910   0.97615   -1.000
 4551.00    0.03394   0.97843   -1.000
 4552.00    0.30616   0.98115   -1.000
 4553.00    0.58518   0.98180   -1.000
 4554.00    0.40777   0.98159   -1.000
 4555.00    0.85854   0.98428   -1.000
 4556.00    0.98060   0.99224   -1.000
 4557.00    0.99117   1.00450   -1.000
 4558.00    1.00342   1.01784   -1.000
 4559.00    1.00552   1.02881   -1.000
 4560.00    1.00939   1.03506   -1.000
 4561.00    1.00738   1.03537   -1.000
 4562.00    0.99994   1.03014   -1.000
 4563.00    0.99171   1.02218   -1.000
 4564.00    0.98508   1.01587   -1.000
 4565.00    0.99313   1.01465   -1.000
 4566.00    1.00293   1.01888   -1.000
 4567.00    1.00899   1.02529   -1.000
 4568.00    1.01280   1.02956   -1.000
 4569.00    1.00693   1.02864   -1.000
 4570.00    0.99378   1.02325   -1.000
 4571.00    0.97458   1.01715   -1.000
 4572.00    0.97292   1.01475   -1.000
 4573.00    0.98972   1.01758   -1.000
 4574.00    1.00164   1.02335   -1.000
 4575.00    1.00713   1.02828   -1.000
 4576.00    1.00587   1.02941   -1.000
 4577.00    1.00230   1.02596   -1.000
 4578.00    0.99753   1.01806   -1.000
 4579.00    0.99274   1.00707   -1.000
 4580.00    0.98879   0.99500  326.829
 4581.00    0.98158   0.98463  331.660
 4582.00    0.97810   0.97796  329.502
 4583.00    0.97595   0.97619  325.188
 4584.00    0.97867   0.97893  323.669
 4585.00    0.98689   0.98500  325.039
 4586.00    0.99467   0.99249  325.624
 4587.00    1.00099   0.99970  319.858
 4588.00    1.00443   1.00517  311.639
 4589.00    1.00363   1.00795  306.503
 4590.00    0.99976   1.00791  307.451
 4591.00    0.99336   1.00608   -1.000
 4592.00    0.98949   1.00436   -1.000
 4593.00    0.98983   1.00447   -1.000
 4594.00    0.99581   1.00684   -1.000
 4595.00    1.00294   1.01076  319.182
 4596.00    1.00507   1.01479  317.064
 4597.00    1.00564   1.01765   -1.000
 4598.00    1.00388   1.01840   -1.000
 4599.00    1.00021   1.01697   -1.000
 4600.00    0.99432   1.01408   -1.000
 4601.00    0.98960   1.01127   -1.000
 4602.00    0.98733   1.00979   -1.000
 4603.00    0.98893   1.01029   -1.000
 4604.00    0.99666   1.01263   -1.000
 4605.00    1.00454   1.01655   -1.000
 4606.00    1.00611   1.02174   -1.000
 4607.00    1.00538   1.02770   -1.000
 4608.00    1.01092   1.03327   -1.000
 4609.00    1.01588   1.03704   -1.000
 4610.00    1.01809   1.03785   -1.000
 4611.00    1.01599   1.03614   -1.000
 4612.00    1.01168   1.03308   -1.000
 4613.00    1.00679   1.03013   -1.000
 4614.00    1.00833   1.02751   -1.000
 4615.00    1.00778   1.02473   -1.000
 4616.00    1.00906   1.02133   -1.000
 4617.00    1.00397   1.01773   -1.000
 4618.00    0.99971   1.01545   -1.000
 4619.00    1.00106   1.01604   -1.000
 4620.00    1.00557   1.02005   -1.000
 4621.00    1.01717   1.02628  300.163
 4622.00    1.02288   1.03229  296.335
 4623.00    1.02124   1.03604   -1.000
 4624.00    1.01646   1.03689   -1.000
 4625.00    1.01023   1.03529   -1.000
 4626.00    1.01044   1.03224   -1.000
 4627.00    1.01178   1.02854   -1.000
 4628.00    1.00852   1.02540   -1.000
 4629.00    1.00198   1.02392   -1.000
 4630.00    1.00537   1.02451   -1.000
 4631.00    1.00822   1.02608   -1.000
 4632.00    1.01028   1.02661   -1.000
 4633.00    1.00431   1.02494   -1.000
 4634.00    1.00213   1.02165   -1.000
 4635.00    1.00270   1.01850   -1.000
 4636.00    1.00361   1.01668   -1.000
 4637.00    1.00297   1.01679   -1.000
 4638.00    1.00095   1.01877   -1.000
 4639.00    1.00646   1.02264   -1.000
 4640.00    1.01187   1.02772   -1.000
 4641.00    1.01846   1.03262   -1.000
 4642.00    1.02214   1.03517   -1.000
 4643.00    1.01727   1.03359   -1.000
 4644.00    1.01423   1.02751   -1.000
 4645.00    1.00529   1.01837   -1.000
 4646.00    0.99492   1.00912   -1.000
 4647.00    0.98941   1.00327   -1.000
 4648.00    0.99227   1.00294  322.204
 4649.00    1.00345   1.00766  315.750
 4650.00    1.01020   1.01454  308.946
 4651.00    1.00842   1.01997   -1.000
 4652.00    1.00413   1.02184   -1.000
 4653.00    0.99913   1.01995   -1.000
 4654.00    0.99258   1.01625   -1.000
 4655.00    0.98727   1.01364   -1.000
 4656.00    0.98944   1.01518   -1.000
 4657.00    0.99452   1.02190   -1.000
 4658.00    1.00500   1.03224   -1.000
 4659.00    1.01958   1.04189   -1.000
 4660.00    1.02771   1.04704   -1.000
 4661.00    1.02876   1.04582   -1.000
 4662.00    1.02123   1.03918   -1.000
 4663.00    1.01128   1.02886   -1.000
 4664.00    1.00721   1.01636  304.857
 4665.00    1.00824   1.00246  306.217
 4666.00    0.99728   0.98898  313.199
 4667.00    0.97877   0.97888  327.066
 4668.00    0.97581   0.97549  337.811
 4669.00    0.98600   0.97972  335.129
 4670.00    0.99606   0.98984  323.499
 4671.00    1.00689   1.00197  310.812
 4672.00    1.01300   1.01297  304.047
 4673.00    1.01298   1.02124  302.993
 4674.00    1.01927   1.02680  303.202
 4675.00    1.01908   1.02972  302.068
 4676.00    1.02022   1.02927  297.815
 4677.00    1.02105   1.02494  294.565
 4678.00    1.01551   1.01750  297.394
 4679.00    1.00669   1.00939  304.007
 4680.00    1.00577   1.00324  309.775
 4681.00    1.00114   1.00049  314.399
 4682.00    1.00139   1.00115  315.841
 4683.00    1.00757   1.00405  310.678
 4684.00    1.01358   1.00770  303.432
 4685.00    1.01644   1.01085  300.708
 4686.00    1.01793   1.01300  301.792
 4687.00    1.02033   1.01426  302.193
 4688.00    1.01856   1.01482  303.650
 4689.00    1.01699   1.01492  303.576
 4690.00    1.01608   1.01469  304.065
 4691.00    1.01065   1.01477  306.049
 4692.00    1.01138   1.01572  305.690
 4693.00    1.01814   1.01759  301.648
 4694.00    1.02393   1.01952  296.630
 4695.00    1.02884   1.02010  290.493
 4696.00    1.02779   1.01810   -1.000
 4697.00    1.02292   1.01300   -1.000
 4698.00    1.01407   1.00564  299.985
 4699.00    1.01050   0.99723   -1.000
 4700.00    1.01140   0.98923   -1.000
 4701.00    1.00887   0.98257   -1.000
 4702.00    0.99843   0.97834   -1.000
 4703.00    0.98999   0.97730   -1.000
 4704.00    0.99598   0.97900   -1.000
 4705.00    1.00361   0.98132   -1.000
 4706.00    1.00010   0.98222   -1.000
 4707.00    0.99370   0.98141   -1.000
 4708.00    0.99059   0.98086   -1.000
 4709.00    0.99130   0.98274   -1.000
 4710.00    0.99960   0.98727   -1.000
 4711.00    1.01062   0.99295   -1.000
 4712.00    1.01597   0.99748   -1.000
 4713.00    1.01342   1.00000   -1.000
 4714.00    1.00810   1.00159  301.888
 4715.00    1.00855   1.00413  306.586
 4716.00    1.01407   1.00879  305.013
 4717.00    1.01854   1.01459  298.689
 4718.00    1.02251   1.01988  293.767
 4719.00    1.02183   1.02326  292.309
 4720.00    1.01815   1.02477  291.313
 4721.00    1.01935   1.02522  291.027
 4722.00    1.01937   1.02542  293.613
 4723.00    1.02041   1.02548  294.889
 4724.00    1.02411   1.02442  292.659
 4725.00    1.02435   1.02100  290.150
 4726.00    1.02056   1.01443  292.117
 4727.00    1.01600   1.00564   -1.000
 4728.00    1.00885   0.99674   -1.000
 4729.00    1.00702   0.99011   -1.000
 4730.00    1.00901   0.98691   -1.000
 4731.00    1.00958   0.98717   -1.000
 4732.00    1.00718   0.98981   -1.000
 4733.00    1.00727   0.99317   -1.000
 4734.00    1.01013   0.99568   -1.000
 4735.00    1.00871   0.99670   -1.000
 4736.00    1.00993   0.99684   -1.000
 4737.00    1.00418   0.99730  302.930
 4738.00    1.01216   0.99888   -1.000
 4739.00    1.01391   1.00142   -1.000
 4740.00    1.01274   1.00424  299.627
 4741.00    1.01258   1.00695  301.182
 4742.00    1.01592   1.00950  300.932
 4743.00    1.01913   1.01195  298.196
 4744.00    1.01855   1.01423  295.668
 4745.00    1.01703   1.01638  296.402
 4746.00    1.01799   1.01867  296.138
 4747.00    1.02075   1.02155  293.634
 4748.00    1.02211   1.02479  291.092
 4749.00    1.02212   1.02781  290.815
 4750.00    1.01864   1.02946  291.262
 4751.00    1.01750   1.02872  291.823
 4752.00    1.01652   1.02527  294.292
 4753.00    1.01531   1.01997  297.529
 4754.00    1.01120   1.01481  299.885
 4755.00    1.00809   1.01164  301.403
 4756.00    1.00497   1.01140  301.076
 4757.00    1.00550   1.01345  302.558
 4758.00    1.01226   1.01612  304.482
 4759.00    1.01316   1.01716  304.141
 4760.00    1.01243   1.01443  301.859
 4761.00    1.00716   1.00743  302.450
 4762.00    0.99457   0.99742  308.014
 4763.00    0.98493   0.98788  315.165
 4764.00    0.98820   0.98184  318.313
 4765.00    0.99611   0.98114   -1.000
 4766.00    1.00135   0.98547   -1.000
 4767.00    1.00301   0.99338   -1.000
 4768.00    1.00676   1.00243  309.591
 4769.00    1.01354   1.01030  302.952
 4770.00    1.01440   1.01527  299.811
 4771.00    1.01179   1.01778  300.948
 4772.00    1.01146   1.01940  303.627
 4773.00    1.01402   1.02196  305.098
 4774.00    1.01780   1.02575  300.653
 4775.00    1.01958   1.02945  294.923
 4776.00    1.01920   1.03143   -1.000
 4777.00    1.01971   1.03070   -1.000
 4778.00    1.01668   1.02787   -1.000
 4779.00    1.01076   1.02427   -1.000
 4780.00    1.00771   1.02119   -1.000
 4781.00    1.01208   1.01877  301.996
 4782.00    1.01156   1.01644  302.843
 4783.00    1.00429   1.01370  304.552
 4784.00    1.00133   1.01038  306.564
 4785.00    1.00206   1.00707  306.526
 4786.00    0.99838   1.00447  308.015
 4787.00    0.99942   1.00348  310.948
 4788.00    1.00273   1.00445  312.263
 4789.00    0.99885   1.00745  311.610
 4790.00    1.00349   1.01231  309.941
 4791.00    1.00760   1.01874   -1.000
 4792.00    1.01177   1.02632   -1.000
 4793.00    1.01642   1.03395   -1.000
 4794.00    1.02001   1.04010   -1.000
 4795.00    1.02296   1.04308   -1.000
 4796.00    1.02093   1.04203   -1.000
 4797.00    1.01191   1.03783   -1.000
 4798.00    1.00791   1.03250   -1.000
 4799.00    1.00508   1.02867   -1.000
 4800.00    1.00933   1.02760   -1.000
 4801.00    1.01318   1.02884   -1.000
 4802.00    1.01544   1.03033   -1.000
 4803.00    1.01289   1.03032   -1.000
 4804.00    1.00455   1.02827   -1.000
 4805.00    1.00042   1.02532   -1.000
 4806.00    1.00180   1.02311   -1.000
 4807.00    1.00572   1.02248   -1.000
 4808.00    1.00909   1.02337   -1.000
 4809.00    1.00751   1.02500   -1.000
 4810.00    1.00810   1.02664   -1.000
 4811.00    1.00838   1.02815   -1.000
 4812.00    1.01191   1.03003   -1.000
 4813.00    1.01614   1.03270   -1.000
 4814.00    1.01893   1.03619   -1.000
 4815.00    1.01887   1.03989   -1.000
 4816.00    1.01941   1.04302   -1.000
 4817.00    1.01971   1.04503   -1.000
 4818.00    1.02113   1.04556   -1.000
 4819.00    1.01942   1.04425   -1.000
 4820.00    1.01156   1.04028   -1.000
 4821.00    1.00935   1.03303   -1.000
 4822.00    1.00605   1.02335   -1.000
 4823.00    1.00136   1.01384   -1.000
 4824.00    0.99986   1.00801  303.693
 4825.00    0.99983   1.00747  301.918
 4826.00    1.00837   1.01069  296.476
 4827.00    1.01256   1.01469  293.001
 4828.00    1.00818   1.01662  294.913
 4829.00    1.00700   1.01592  298.211
 4830.00    1.00759   1.01321  299.625
 4831.00    1.00314   1.00974  299.979
 4832.00    1.00386   1.00694  302.492
 4833.00    1.00719   1.00560  301.890
 4834.00    1.01099   1.00576  296.953
 4835.00    1.00981   1.00654  293.578
 4836.00    1.00608   1.00648  292.911
 4837.00    1.00404   1.00458  293.632
 4838.00    1.00018   1.00050  295.554
 4839.00    0.99674   0.99515  299.962
 4840.00    0.98977   0.98993  304.458
 4841.00    0.98701   0.98622  304.239
 4842.00    0.99108   0.98457  303.401
 4843.00    0.99401   0.98452   -1.000
 4844.00    0.99631   0.98512   -1.000
 4845.00    0.99840   0.98511   -1.000
 4846.00    0.99645   0.98321   -1.000
 4847.00    0.98756   0.97901  291.731
 4848.00    0.97441   0.97363  297.738
 4849.00    0.96918   0.96835  301.296
 4850.00    0.96953   0.96354  300.298
 4851.00    0.97333   0.95743   -1.000
 4852.00    0.96892   0.94743   -1.000
 4853.00    0.95855   0.93197   -1.000
 4854.00    0.94218   0.91119   -1.000
 4855.00    0.92358   0.88721   -1.000
 4856.00    0.90954   0.86064   -1.000
 4857.00    0.89103   0.83021   -1.000
 4858.00    0.85804   0.79336   -1.000
 4859.00    0.79584   0.75096   -1.000
 4860.00    0.71184   0.71135  358.903
 4861.00    0.65881   0.68603   -1.000
 4862.00    0.68529   0.68494  407.534
 4863.00    0.77144   0.70775   -1.000
 4864.00    0.84359   0.74667   -1.000
 4865.00    0.88562   0.79035   -1.000
 4866.00    0.91376   0.82997   -1.000
 4867.00    0.93289   0.86086   -1.000
 4868.00    0.94404   0.88133   -1.000
 4869.00    0.94562   0.89205   -1.000
 4870.00    0.93700   0.89587   -1.000
 4871.00    0.92538   0.89720   -1.000
 4872.00    0.92904   0.90113   -1.000
 4873.00    0.94709   0.90954   -1.000
 4874.00    0.96289   0.92125   -1.000
 4875.00    0.96986   0.93310   -1.000
 4876.00    0.97234   0.94324   -1.000
 4877.00    0.96990   0.95222   -1.000
 4878.00    0.96516   0.96121  304.268
 4879.00    0.97428   0.96998  299.892
 4880.00    0.98624   0.97704   -1.000
 4881.00    0.99110   0.98041   -1.000
 4882.00    0.98355   0.98011  305.574
 4883.00    0.97972   0.97727  306.772
 4884.00    0.98356   0.97343   -1.000
 4885.00    0.98385   0.96980   -1.000
 4886.00    0.98533   0.96653   -1.000
 4887.00    0.98482   0.96328   -1.000
 4888.00    0.97965   0.95946   -1.000
 4889.00    0.96969   0.95520   -1.000
 4890.00    0.95583   0.95287  317.836
 4891.00    0.95345   0.95594  323.438
 4892.00    0.97099   0.96667  319.033
 4893.00    0.99142   0.98424  305.474
 4894.00    1.00847   1.00362  292.059
 4895.00    1.01428   1.02005  284.158
 4896.00    1.01191   1.03007   -1.000
 4897.00    1.01238   1.03332   -1.000
 4898.00    1.00477   1.03124   -1.000
 4899.00    0.99490   1.02632   -1.000
 4900.00    0.99228   1.02074   -1.000
 4901.00    0.99618   1.01607   -1.000
 4902.00    0.99424   1.01305   -1.000
 4903.00    0.99119   1.01215   -1.000
 4904.00    0.99528   1.01386   -1.000
 4905.00    1.00433   1.01748   -1.000
 4906.00    1.00956   1.02029  287.816
 4907.00    1.01161   1.01976  286.531
 4908.00    1.00820   1.01423  290.062
 4909.00    0.99814   1.00549  297.478
 4910.00    0.99176   0.99716  305.375
 4911.00    0.99294   0.99314  307.761
 4912.00    0.99734   0.99502  303.181
 4913.00    1.00304   1.00121  297.852
 4914.00    1.00845   1.00796  293.849
 4915.00    1.01234   1.01063  290.229
 4916.00    1.00968   1.00539  288.352
 4917.00    0.99377   0.99124  291.261
 4918.00    0.96977   0.97097  302.717
 4919.00    0.95047   0.95025  319.264
 4920.00    0.94329   0.93536  332.564
 4921.00    0.95009   0.92938   -1.000
 4922.00    0.96302   0.93201   -1.000
 4923.00    0.96702   0.94024   -1.000
 4924.00    0.96833   0.95198   -1.000
 4925.00    0.98047   0.96612   -1.000
 4926.00    0.99459   0.98136   -1.000
 4927.00    1.00319   0.99641  294.583
 4928.00    1.00712   1.00874  289.807
 4929.00    1.01183   1.01637  287.279
 4930.00    1.01228   1.01787  285.370
 4931.00    1.00774   1.01311  284.384
 4932.00    0.99533   1.00362  288.129
 4933.00    0.97919   0.99299   -1.000
 4934.00    0.96884   0.98442   -1.000
 4935.00    0.97765   0.97927  305.320
 4936.00    0.98983   0.97609   -1.000
 4937.00    0.98702   0.97305   -1.000
 4938.00    0.97337   0.97126  311.020
 4939.00    0.96736   0.97301  317.778
 4940.00    0.98157   0.98019  313.338
 4941.00    0.99810   0.99178  302.492
 4942.00    1.00476   1.00387  293.465
 4943.00    1.00550   1.01312  288.603
 4944.00    1.00726   1.01796  286.496
 4945.00    1.00668   1.01955   -1.000
 4946.00    1.00241   1.02010   -1.000
 4947.00    1.00233   1.02154   -1.000
 4948.00    1.00189   1.02411   -1.000
 4949.00    1.00527   1.02666   -1.000
 4950.00    1.01032   1.02778   -1.000
 4951.00    1.00862   1.02674   -1.000
 4952.00    1.00752   1.02358   -1.000
 4953.00    1.00889   1.01788  285.356
 4954.00    1.00542   1.00875  288.749
 4955.00    0.99283   0.99550  293.001
 4956.00    0.97038   0.97997  302.092
 4957.00    0.94508   0.96811   -1.000
 4958.00    0.94709   0.96512   -1.000
 4959.00    0.97426   0.97284  317.996
 4960.00    0.99717   0.98710   -1.000
 4961.00    1.00645   1.00137  291.668
 4962.00    1.01030   1.01082  290.198
 4963.00    1.01018   1.01357  291.809
 4964.00    1.00307   1.01086  294.347
 4965.00    0.99449   1.00506  298.302
 4966.00    0.99135   0.99868  304.363
 4967.00    0.99259   0.99368  307.643
 4968.00    0.99431   0.99111  307.455
 4969.00    0.99550   0.99150  306.314
 4970.00    0.99520   0.99459  303.849
 4971.00    0.99882   0.99969  300.564
 4972.00    1.00530   1.00556  297.280
 4973.00    1.00602   1.01099  293.828
 4974.00    1.00910   1.01452  291.320
 4975.00    1.00889   1.01535  290.670
 4976.00    1.00239   1.01330  292.950
 4977.00    0.99588   1.00839   -1.000
 4978.00    0.99431   1.00087  300.390
 4979.00    0.99074   0.99051  305.141
 4980.00    0.98125   0.97707  308.954
 4981.00    0.96740   0.96139  314.219
 4982.00    0.95299   0.94638  324.760
 4983.00    0.95174   0.93638   -1.000
 4984.00    0.95467   0.93499   -1.000
 4985.00    0.96656   0.94248   -1.000
 4986.00    0.97765   0.95533   -1.000
 4987.00    0.98825   0.96867   -1.000
 4988.00    0.98978   0.97788   -1.000
 4989.00    0.98513   0.98148  301.125
 4990.00    0.97834   0.98076  305.495
 4991.00    0.97280   0.97857  308.152
 4992.00    0.97694   0.97750  307.767
 4993.00    0.98534   0.97863  305.153
 4994.00    0.98843   0.98152  304.078
 4995.00    0.98951   0.98462  303.752
 4996.00    0.99265   0.98611  302.149
 4997.00    0.99503   0.98441   -1.000
 4998.00    0.98771   0.97877  303.397
 4999.00    0.97882   0.97024  307.841
 5000.00    0.97156   0.96113   -1.000
 5001.00    0.97232   0.95394   -1.000
 5002.00    0.97572   0.94964   -1.000
 5003.00    0.98029   0.94685   -1.000
 5004.00    0.97917   0.94389   -1.000
 5005.00    0.96217   0.94046   -1.000
 5006.00    0.94798   0.93889   -1.000
 5007.00    0.95628   0.94136   -1.000
 5008.00    0.97522   0.94714   -1.000
 5009.00    0.98797   0.95302   -1.000
 5010.00    0.98559   0.95437   -1.000
 5011.00    0.97184   0.94953   -1.000
 5012.00    0.95652   0.93999   -1.000
 5013.00    0.94558   0.92997   -1.000
 5014.00    0.94431   0.92290   -1.000
 5015.00    0.95239   0.91957   -1.000
 5016.00    0.96389   0.91898   -1.000
 5017.00    0.96363   0.91961   -1.000
 5018.00    0.95672   0.92175   -1.000
 5019.00    0.96108   0.92616   -1.000
 5020.00    0.97156   0.93232   -1.000
 5021.00    0.97765   0.93940   -1.000
 5022.00    0.97491   0.94608   -1.000
 5023.00    0.97669   0.95211   -1.000
 5024.00    0.98336   0.95758   -1.000
 5025.00    0.98376   0.96152   -1.000
 5026.00    0.97832   0.96372   -1.000
 5027.00    0.97992   0.96493   -1.000
 5028.00    0.98142   0.96623   -1.000
 5029.00    0.98343   0.96898   -1.000
 5030.00    0.98842   0.97351   -1.000
 5031.00    0.99009   0.97881   -1.000
 5032.00    0.99577   0.98291   -1.000
 5033.00    0.99829   0.98366   -1.000
 5034.00    0.99125   0.97958   -1.000
 5035.00    0.97961   0.97162  303.319
 5036.00    0.96966   0.96118  314.488
 5037.00    0.96991   0.94981   -1.000
 5038.00    0.96837   0.93770   -1.000
 5039.00    0.95606   0.92511   -1.000
 5040.00    0.94224   0.91549   -1.000
 5041.00    0.93226   0.91304   -1.000
 5042.00    0.94073   0.92060   -1.000
 5043.00    0.96542   0.93721   -1.000
 5044.00    0.98822   0.95706   -1.000
 5045.00    0.99456   0.97422   -1.000
 5046.00    0.99586   0.98379   -1.000
 5047.00    0.99256   0.98437  283.274
 5048.00    0.98466   0.97765  216.427
 5049.00    0.97290   0.96752   93.370
 5050.00    0.94101   0.95845   -1.000
 5051.00    0.75354   0.95396   -1.000
 5052.00    0.46620   0.95591   -1.000
 5053.00    0.21905   0.96341   -1.000
 5054.00    0.52006   0.97300   -1.000
 5055.00    0.96174   0.98226   -1.000
 5056.00    0.99264   0.98986  291.374
 5057.00    1.00340   0.99555  290.698
 5058.00    1.00395   1.00000  291.281
 5059.00    1.00285   1.00318  291.730
 5060.00    0.99752   1.00442  291.328
 5061.00    1.00002   1.00294  289.577
 5062.00    1.00395   0.99794  290.331
 5063.00    0.99270   0.98935  295.000
 5064.00    0.97817   0.97947  304.047
 5065.00    0.97231   0.97066  313.975
 5066.00    0.97772   0.96505   -1.000
 5067.00    0.98302   0.96288   -1.000
 5068.00    0.98634   0.96281   -1.000
 5069.00    0.98921   0.96355   -1.000
 5070.00    0.99080   0.96375   -1.000
 5071.00    0.99152   0.96294   -1.000
 5072.00    0.98723   0.96171   -1.000
 5073.00    0.98607   0.96102   -1.000
 5074.00    0.98909   0.96115   -1.000
 5075.00    0.99196   0.96132   -1.000
 5076.00    0.98959   0.95966   -1.000
 5077.00    0.98691   0.95470   -1.000
 5078.00    0.96965   0.94644   -1.000
 5079.00    0.95137   0.93738   -1.000
 5080.00    0.94896   0.93112   -1.000
 5081.00    0.95720   0.92949   -1.000
 5082.00    0.96460   0.93295   -1.000
 5083.00    0.97197   0.93989   -1.000
 5084.00    0.97931   0.94868   -1.000
 5085.00    0.98879   0.95777   -1.000
 5086.00    0.99730   0.96577   -1.000
 5087.00    1.00054   0.97239   -1.000
 5088.00    0.99972   0.97754   -1.000
 5089.00    0.99866   0.98163   -1.000
 5090.00    0.99573   0.98520   -1.000
 5091.00    0.99348   0.98846  296.407
 5092.00    0.99596   0.99103  294.615
 5093.00    0.99944   0.99168  291.240
 5094.00    1.00218   0.98878   -1.000
 5095.00    0.99881   0.98150   -1.000
 5096.00    0.99360   0.97070   -1.000
 5097.00    0.98684   0.95905   -1.000
 5098.00    0.97834   0.95018   -1.000
 5099.00    0.97515   0.94666   -1.000
 5100.00    0.97995   0.94906   -1.000
 5101.00    0.99359   0.95550   -1.000
 5102.00    0.99976   0.96225   -1.000
 5103.00    0.99693   0.96651   -1.000
 5104.00    0.99513   0.96662   -1.000
 5105.00    0.98852   0.96278   -1.000
 5106.00    0.97890   0.95672   -1.000
 5107.00    0.96581   0.95078   -1.000
 5108.00    0.96584   0.94712   -1.000
 5109.00    0.96686   0.94703   -1.000
 5110.00    0.96823   0.95070   -1.000
 5111.00    0.97452   0.95748   -1.000
 5112.00    0.98402   0.96550   -1.000
 5113.00    0.99361   0.97342   -1.000
 5114.00    0.99804   0.98024   -1.000
 5115.00    0.99693   0.98564   -1.000
 5116.00    1.00289   0.98963   -1.000
 5117.00    1.00700   0.99168   -1.000
 5118.00    1.00828   0.99131   -1.000
 5119.00    1.00445   0.98781   -1.000
 5120.00    0.99901   0.98130   -1.000
 5121.00    0.99258   0.97250   -1.000
 5122.00    0.98515   0.96269   -1.000
 5123.00    0.97011   0.95315   -1.000
 5124.00    0.96261   0.94542   -1.000
 5125.00    0.96777   0.94018   -1.000
 5126.00    0.97282   0.93732   -1.000
 5127.00    0.97208   0.93626   -1.000
 5128.00    0.97055   0.93657   -1.000
 5129.00    0.97036   0.93821   -1.000
 5130.00    0.97509   0.94126   -1.000
 5131.00    0.98098   0.94546   -1.000
 5132.00    0.98534   0.95007   -1.000
 5133.00    0.98635   0.95430   -1.000
 5134.00    0.98625   0.95708   -1.000
 5135.00    0.98748   0.95752   -1.000
 5136.00    0.98407   0.95496   -1.000
 5137.00    0.97395   0.94993   -1.000
 5138.00    0.95955   0.94368   -1.000
 5139.00    0.95297   0.93811   -1.000
 5140.00    0.95904   0.93459   -1.000
 5141.00    0.96252   0.93318   -1.000
 5142.00    0.96317   0.93360   -1.000
 5143.00    0.96640   0.93514   -1.000
 5144.00    0.97084   0.93694   -1.000
 5145.00    0.97776   0.93826   -1.000
 5146.00    0.98052   0.93859   -1.000
 5147.00    0.97936   0.93844   -1.000
 5148.00    0.98014   0.93847   -1.000
 5149.00    0.97986   0.93807   -1.000
 5150.00    0.97416   0.93685   -1.000
 5151.00    0.96562   0.93489   -1.000
 5152.00    0.96279   0.93278   -1.000
 5153.00    0.96784   0.93249   -1.000
 5154.00    0.97610   0.93561   -1.000
 5155.00    0.98383   0.94260   -1.000
 5156.00    0.99119   0.95198   -1.000
 5157.00    0.99672   0.96165   -1.000
 5158.00    0.99881   0.96932   -1.000
 5159.00    1.00078   0.97349   -1.000
 5160.00    0.99780   0.97365   -1.000
 5161.00    0.99655   0.96955   -1.000
 5162.00    0.98993   0.96062   -1.000
 5163.00    0.98513   0.94592   -1.000
 5164.00    0.97902   0.92409   -1.000
 5165.00    0.95498   0.89565   -1.000
 5166.00    0.91269   0.86551   -1.000
 5167.00    0.87695   0.83970   -1.000
 5168.00    0.87443   0.82435   -1.000
 5169.00    0.89744   0.81927   -1.000
 5170.00    0.91618   0.81903   -1.000
 5171.00    0.90824   0.82149   -1.000
 5172.00    0.88391   0.82667   -1.000
 5173.00    0.88737   0.83958   -1.000
 5174.00    0.93036   0.86232   -1.000
 5175.00    0.97038   0.89005   -1.000
 5176.00    0.99010   0.91732   -1.000
 5177.00    0.99892   0.93688   -1.000
 5178.00    1.00645   0.94492   -1.000
 5179.00    1.00405   0.94079   -1.000
 5180.00    0.99347   0.92442   -1.000
 5181.00    0.97481   0.89914   -1.000
 5182.00    0.93475   0.87103   -1.000
 5183.00    0.89001   0.85006   -1.000
 5184.00    0.88335   0.84400   -1.000
 5185.00    0.92324   0.85382   -1.000
 5186.00    0.96096   0.87453   -1.000
 5187.00    0.97183   0.89632   -1.000
 5188.00    0.96938   0.91315   -1.000
 5189.00    0.96614   0.92248   -1.000
 5190.00    0.96605   0.92435   -1.000
 5191.00    0.95572   0.92181   -1.000
 5192.00    0.94501   0.91830   -1.000
 5193.00    0.94463   0.91585   -1.000
 5194.00    0.95229   0.91608   -1.000
 5195.00    0.96154   0.91899   -1.000
 5196.00    0.96878   0.92413   -1.000
 5197.00    0.97574   0.93143   -1.000
 5198.00    0.97889   0.93974   -1.000
 5199.00    0.98621   0.94738   -1.000
 5200.00    0.98674   0.95216   -1.000
 5201.00    0.98485   0.95172   -1.000
 5202.00    0.97809   0.94521   -1.000
 5203.00    0.96308   0.93354   -1.000
 5204.00    0.95107   0.91934   -1.000
 5205.00    0.94173   0.90586   -1.000
 5206.00    0.94381   0.89602   -1.000
 5207.00    0.94812   0.89144   -1.000
 5208.00    0.94515   0.89270   -1.000
 5209.00    0.94868   0.89995   -1.000
 5210.00    0.96413   0.91216   -1.000
 5211.00    0.98065   0.92726   -1.000
 5212.00    0.99542   0.94148   -1.000
 5213.00    0.99613   0.95134   -1.000
 5214.00    0.98378   0.95497   -1.000
 5215.00    0.97341   0.95364   -1.000
 5216.00    0.96439   0.95163   -1.000
 5217.00    0.97126   0.95251   -1.000
 5218.00    0.98679   0.95797   -1.000
 5219.00    0.99674   0.96620   -1.000
 5220.00    1.00031   0.97400   -1.000
 5221.00    1.00268   0.97765   -1.000
 5222.00    1.00060   0.97444   -1.000
 5223.00    0.99175   0.96375   -1.000
 5224.00    0.97769   0.94646   -1.000
 5225.00    0.95260   0.92655   -1.000
 5226.00    0.92645   0.91082   -1.000
 5227.00    0.92452   0.90428   -1.000
 5228.00    0.94817   0.90847   -1.000
 5229.00    0.97121   0.91925   -1.000
 5230.00    0.98256   0.93035   -1.000
 5231.00    0.98486   0.93717   -1.000
 5232.00    0.97724   0.93829   -1.000
 5233.00    0.97171   0.93690   -1.000
 5234.00    0.97390   0.93743   -1.000
 5235.00    0.97877   0.94246   -1.000
 5236.00    0.99266   0.95141   -1.000
 5237.00    1.00427   0.96201   -1.000
 5238.00    1.00227   0.97127   -1.000
 5239.00    0.99961   0.97760   -1.000
 5240.00    0.99642   0.98116   -1.000
 5241.00    0.99929   0.98269   -1.000
 5242.00    1.00281   0.98332   -1.000
 5243.00    1.00272   0.98353   -1.000
 5244.00    1.00137   0.98250   -1.000
 5245.00    0.99684   0.97898   -1.000
 5246.00    0.99054   0.97298   -1.000
 5247.00    0.98490   0.96543   -1.000
 5248.00    0.98314   0.95819   -1.000
 5249.00    0.97422   0.95278   -1.000
 5250.00    0.97070   0.94996   -1.000
 5251.00    0.97366   0.94972   -1.000
 5252.00    0.97986   0.95123   -1.000
 5253.00    0.97902   0.95354   -1.000
 5254.00    0.97737   0.95669   -1.000
 5255.00    0.98246   0.96145   -1.000
 5256.00    0.99167   0.96743   -1.000
 5257.00    0.99995   0.97321   -1.000
 5258.00    1.00637   0.97592   -1.000
 5259.00    1.00279   0.97263   -1.000
 5260.00    0.98947   0.96193   -1.000
 5261.00    0.97302   0.94451   -1.000
 5262.00    0.95512   0.92361   -1.000
 5263.00    0.94247   0.90320   -1.000
 5264.00    0.93526   0.88686   -1.000
 5265.00    0.93323   0.87687   -1.000
 5266.00    0.93515   0.87225   -1.000
 5267.00    0.94606   0.87014   -1.000
 5268.00    0.93947   0.86886   -1.000
 5269.00    0.91429   0.86837   -1.000
 5270.00    0.91048   0.87179   -1.000
 5271.00    0.93429   0.88034   -1.000
 5272.00    0.95681   0.89180   -1.000
 5273.00    0.96605   0.90424   -1.000
 5274.00    0.97065   0.91544   -1.000
 5275.00    0.96995   0.92571   -1.000
 5276.00    0.97478   0.93644   -1.000
 5277.00    0.98747   0.94730   -1.000
 5278.00    1.00022   0.95629   -1.000
 5279.00    0.99974   0.96019   -1.000
 5280.00    0.99038   0.95830   -1.000
 5281.00    0.98277   0.95241   -1.000
 5282.00    0.97052   0.94606   -1.000
 5283.00    0.96168   0.94342   -1.000
 5284.00    0.97112   0.94724   -1.000
 5285.00    0.98816   0.95693   -1.000
 5286.00    1.00045   0.96959   -1.000
 5287.00    1.00125   0.98163   -1.000
 5288.00    1.00182   0.99062   -1.000
 5289.00    0.99282   0.99623  280.318
 5290.00    0.96774   0.99861   -1.000
 5291.00    0.99900   0.99847  278.359
 5292.00    1.00488   0.99649  278.072
 5293.00    1.00056   0.99201  279.956
 5294.00    0.99891   0.98453   -1.000
 5295.00    0.99297   0.97425   -1.000
 5296.00    0.98031   0.96226   -1.000
 5297.00    0.97055   0.95178   -1.000
 5298.00    0.97145   0.94573   -1.000
 5299.00    0.97884   0.94485   -1.000
 5300.00    0.98189   0.94874   -1.000
 5301.00    0.98241   0.95523   -1.000
 5302.00    0.98454   0.96293   -1.000
 5303.00    0.99148   0.97092   -1.000
 5304.00    1.00003   0.97745   -1.000
 5305.00    0.99746   0.98204   -1.000
 5306.00    0.99054   0.98469  278.616
 5307.00    0.99067   0.98609  281.535
 5308.00    0.99384   0.98791  283.520
 5309.00    0.99835   0.99042  281.261
 5310.00    0.99989   0.99294  278.357
 5311.00    1.00030   0.99409  276.866
 5312.00    0.99958   0.99244  277.404
 5313.00    0.99729   0.98769  279.018
 5314.00    0.99543   0.98054   -1.000
 5315.00    0.98774   0.97274   -1.000
 5316.00    0.97798   0.96703   -1.000
 5317.00    0.97875   0.96530   -1.000
 5318.00    0.98650   0.96753   -1.000
 5319.00    0.99225   0.97118   -1.000
 5320.00    0.99357   0.97303   -1.000
 5321.00    0.98838   0.97113   -1.000
 5322.00    0.98076   0.96455   -1.000
 5323.00    0.97478   0.95450   -1.000
 5324.00    0.97025   0.94245   -1.000
 5325.00    0.96689   0.92958   -1.000
 5326.00    0.96050   0.91645   -1.000
 5327.00    0.93683   0.90484   -1.000
 5328.00    0.91700   0.89928   -1.000
 5329.00    0.92964   0.90192   -1.000
 5330.00    0.96271   0.91257   -1.000
 5331.00    0.98162   0.92745   -1.000
 5332.00    0.98501   0.94170   -1.000
 5333.00    0.98384   0.95295   -1.000
 5334.00    0.98428   0.95992   -1.000
 5335.00    0.98506   0.96262   -1.000
 5336.00    0.98394   0.96203   -1.000
 5337.00    0.97876   0.95867   -1.000
 5338.00    0.97629   0.95312   -1.000
 5339.00    0.96922   0.94689   -1.000
 5340.00    0.95783   0.94264   -1.000
 5341.00    0.96115   0.94214   -1.000
 5342.00    0.97407   0.94568   -1.000
 5343.00    0.98304   0.95077   -1.000
 5344.00    0.98391   0.95465   -1.000
 5345.00    0.98253   0.95597   -1.000
 5346.00    0.98024   0.95470   -1.000
 5347.00    0.97945   0.95266   -1.000
 5348.00    0.97370   0.95166   -1.000
 5349.00    0.97096   0.95303   -1.000
 5350.00    0.97971   0.95711   -1.000
 5351.00    0.99092   0.96319   -1.000
 5352.00    0.99438   0.96993   -1.000
 5353.00    0.99026   0.97650   -1.000
 5354.00    0.99176   0.98273  280.066
 5355.00    0.99860   0.98811   -1.000
 5356.00    1.00151   0.99232  274.103
 5357.00    1.00153   0.99476  272.370
 5358.00    0.99943   0.99485  272.796
 5359.00    1.00036   0.99229  273.270
 5360.00    0.99717   0.98680   -1.000
 5361.00    0.98875   0.97893   -1.000
 5362.00    0.98310   0.97007   -1.000
 5363.00    0.97540   0.96169   -1.000
 5364.00    0.97691   0.95510   -1.000
 5365.00    0.98017   0.95054   -1.000
 5366.00    0.97667   0.94718   -1.000
 5367.00    0.97295   0.94327   -1.000
 5368.00    0.97346   0.93768   -1.000
 5369.00    0.96317   0.93058   -1.000
 5370.00    0.95251   0.92424   -1.000
 5371.00    0.94549   0.92225   -1.000
 5372.00    0.95890   0.92680   -1.000
 5373.00    0.98125   0.93772   -1.000
 5374.00    0.99329   0.95140   -1.000
 5375.00    0.99960   0.96407   -1.000
 5376.00    0.99932   0.97278   -1.000
 5377.00    0.99637   0.97638   -1.000
 5378.00    0.99533   0.97561   -1.000
 5379.00    0.99047   0.97202   -1.000
 5380.00    0.98403   0.96734   -1.000
 5381.00    0.98354   0.96303   -1.000
 5382.00    0.97879   0.96034   -1.000
 5383.00    0.98050   0.96019   -1.000
 5384.00    0.98224   0.96270   -1.000
 5385.00    0.98689   0.96683   -1.000
 5386.00    0.99229   0.97056   -1.000
 5387.00    0.99216   0.97227   -1.000
 5388.00    0.98780   0.97104   -1.000
 5389.00    0.98618   0.96695   -1.000
 5390.00    0.98402   0.96115   -1.000
 5391.00    0.98129   0.95479   -1.000
 5392.00    0.97870   0.94860   -1.000
 5393.00    0.97349   0.94312   -1.000
 5394.00    0.97163   0.93776   -1.000
 5395.00    0.97128   0.93219   -1.000
 5396.00    0.96265   0.92747   -1.000
 5397.00    0.95624   0.92500   -1.000
 5398.00    0.96432   0.92635   -1.000
 5399.00    0.97483   0.93075   -1.000
 5400.00    0.97902   0.93555   -1.000
 5401.00    0.97949   0.93803   -1.000
 5402.00    0.97477   0.93585   -1.000
 5403.00    0.96722   0.92881   -1.000
 5404.00    0.95517   0.91978   -1.000
 5405.00    0.94371   0.91247   -1.000
 5406.00    0.94702   0.90908   -1.000
 5407.00    0.96015   0.91007   -1.000
 5408.00    0.96549   0.91326   -1.000
 5409.00    0.96219   0.91735   -1.000
 5410.00    0.96114   0.92231   -1.000
 5411.00    0.96500   0.92796   -1.000
 5412.00    0.97397   0.93423   -1.000
 5413.00    0.98024   0.94021   -1.000
 5414.00    0.97663   0.94547   -1.000
 5415.00    0.97221   0.95043   -1.000
 5416.00    0.97670   0.95484   -1.000
 5417.00    0.98283   0.95855   -1.000
 5418.00    0.98214   0.96109   -1.000
 5419.00    0.98275   0.96183   -1.000
 5420.00    0.97743   0.96093   -1.000
 5421.00    0.97765   0.95850   -1.000
 5422.00    0.97885   0.95505   -1.000
 5423.00    0.96901   0.95186   -1.000
 5424.00    0.96317   0.94990   -1.000
 5425.00    0.96717   0.94995   -1.000
 5426.00    0.97489   0.95072   -1.000
 5427.00    0.97848   0.94946   -1.000
 5428.00    0.96471   0.94574   -1.000
 5429.00    0.94990   0.94032   -1.000
 5430.00    0.95337   0.93535   -1.000
 5431.00    0.96576   0.93221   -1.000
 5432.00    0.96901   0.93028   -1.000
 5433.00    0.95783   0.92965   -1.000
 5434.00    0.95016   0.93077   -1.000
 5435.00    0.95565   0.93472   -1.000
 5436.00    0.96839   0.94240   -1.000
 5437.00    0.97591   0.95271   -1.000
 5438.00    0.98080   0.96360   -1.000
 5439.00    0.98487   0.97246   -1.000
 5440.00    0.98869   0.97806   -1.000
 5441.00    0.99033   0.97959   -1.000
 5442.00    0.98809   0.97661   -1.000
 5443.00    0.98375   0.96930   -1.000
 5444.00    0.97223   0.95836   -1.000
 5445.00    0.95839   0.94651   -1.000
 5446.00    0.94403   0.93742  300.781
 5447.00    0.94156   0.93432  309.528
 5448.00    0.96233   0.93807   -1.000
 5449.00    0.98196   0.94602   -1.000
 5450.00    0.98554   0.95456   -1.000
 5451.00    0.98518   0.95984   -1.000
 5452.00    0.98537   0.95965   -1.000
 5453.00    0.97768   0.95442   -1.000
 5454.00    0.96051   0.94703   -1.000
 5455.00    0.94324   0.94140  304.648
 5456.00    0.94386   0.94101  310.214
 5457.00    0.96435   0.94566   -1.000
 5458.00    0.97752   0.95268   -1.000
 5459.00    0.98701   0.95845   -1.000
 5460.00    0.98025   0.96032   -1.000
 5461.00    0.97355   0.95801   -1.000
 5462.00    0.97042   0.95361   -1.000
 5463.00    0.96689   0.95016   -1.000
 5464.00    0.96705   0.94958   -1.000
 5465.00    0.97618   0.95198   -1.000
 5466.00    0.97682   0.95602   -1.000
 5467.00    0.98145   0.96030   -1.000
 5468.00    0.98222   0.96354   -1.000
 5469.00    0.98189   0.96482   -1.000
 5470.00    0.97998   0.96397   -1.000
 5471.00    0.97913   0.96107   -1.000
 5472.00    0.97543   0.95607   -1.000
 5473.00    0.96709   0.94923   -1.000
 5474.00    0.96481   0.94100   -1.000
 5475.00    0.95680   0.93266   -1.000
 5476.00    0.94543   0.92661   -1.000
 5477.00    0.94503   0.92469   -1.000
 5478.00    0.95711   0.92730   -1.000
 5479.00    0.97020   0.93272   -1.000
 5480.00    0.97228   0.93848   -1.000
 5481.00    0.96792   0.94378   -1.000
 5482.00    0.96725   0.94832   -1.000
 5483.00    0.97006   0.95256   -1.000
 5484.00    0.97463   0.95643   -1.000
 5485.00    0.97830   0.95899   -1.000
 5486.00    0.97610   0.95970   -1.000
 5487.00    0.97078   0.95889   -1.000
 5488.00    0.97006   0.95776   -1.000
 5489.00    0.97346   0.95732   -1.000
 5490.00    0.97406   0.95784   -1.000
 5491.00    0.97342   0.95906   -1.000
 5492.00    0.97469   0.96020   -1.000
 5493.00    0.97321   0.96072   -1.000
 5494.00    0.97362   0.96032   -1.000
 5495.00    0.97080   0.95881   -1.000
 5496.00    0.96420   0.95662  291.188
 5497.00    0.95512   0.95434  293.549
 5498.00    0.95744   0.95233  295.343
 5499.00    0.96715   0.95050   -1.000
 5500.00    0.96286   0.94816   -1.000
 5501.00    0.95661   0.94551   -1.000
 5502.00    0.95691   0.94338   -1.000
 5503.00    0.96586   0.94155   -1.000
 5504.00    0.97086   0.93985   -1.000
 5505.00    0.96441   0.93817   -1.000
 5506.00    0.95514   0.93682   -1.000
 5507.00    0.95212   0.93670   -1.000
 5508.00    0.95826   0.93767   -1.000
 5509.00    0.96971   0.93895   -1.000
 5510.00    0.96816   0.93941   -1.000
 5511.00    0.96311   0.93842   -1.000
 5512.00    0.96185   0.93665   -1.000
 5513.00    0.95750   0.93572   -1.000
 5514.00    0.95839   0.93709   -1.000
 5515.00    0.96715   0.94106   -1.000
 5516.00    0.97472   0.94704   -1.000
 5517.00    0.97432   0.95375   -1.000
 5518.00    0.97419   0.95990   -1.000
 5519.00    0.97640   0.96439   -1.000
 5520.00    0.97612   0.96687  283.778
 5521.00    0.97696   0.96726   -1.000
 5522.00    0.97623   0.96565   -1.000
 5523.00    0.97187   0.96182   -1.000
 5524.00    0.96979   0.95544   -1.000
 5525.00    0.96625   0.94687   -1.000
 5526.00    0.95703   0.93746   -1.000
 5527.00    0.94415   0.92984   -1.000
 5528.00    0.94026   0.92643   -1.000
 5529.00    0.94976   0.92840   -1.000
 5530.00    0.95959   0.93424   -1.000
 5531.00    0.96724   0.94079   -1.000
 5532.00    0.96853   0.94556   -1.000
 5533.00    0.96404   0.94752   -1.000
 5534.00    0.96049   0.94760   -1.000
 5535.00    0.95800   0.94764   -1.000
 5536.00    0.96509   0.94901   -1.000
 5537.00    0.97132   0.95166   -1.000
 5538.00    0.96880   0.95496   -1.000
 5539.00    0.97060   0.95818   -1.000
 5540.00    0.97335   0.96044   -1.000
 5541.00    0.97265   0.96098   -1.000
 5542.00    0.97126   0.95998   -1.000
 5543.00    0.96749   0.95828  287.496
 5544.00    0.96738   0.95699   -1.000
 5545.00    0.96929   0.95692   -1.000
 5546.00    0.97430   0.95829   -1.000
 5547.00    0.97725   0.96094   -1.000
 5548.00    0.97894   0.96416   -1.000
 5549.00    0.97950   0.96684   -1.000
 5550.00    0.97434   0.96831  281.875
 5551.00    0.97207   0.96832  281.524
 5552.00    0.97542   0.96697  283.301
 5553.00    0.97293   0.96499  285.912
 5554.00    0.96710   0.96334  289.177
 5555.00    0.96898   0.96263  290.250
 5556.00    0.96969   0.96279  289.615
 5557.00    0.97172   0.96341  288.682
 5558.00    0.97258   0.96392  288.249
 5559.00    0.97054   0.96364  287.898
 5560.00    0.97096   0.96212  287.644
 5561.00    0.97136   0.95939   -1.000
 5562.00    0.96567   0.95595   -1.000
 5563.00    0.96227   0.95252   -1.000
 5564.00    0.95981   0.94955   -1.000
 5565.00    0.96026   0.94725   -1.000
 5566.00    0.96118   0.94548   -1.000
 5567.00    0.96067   0.94394   -1.000
 5568.00    0.95716   0.94236   -1.000
 5569.00    0.94837   0.94074  295.239
 5570.00    0.94853   0.93914   -1.000
 5571.00    0.95151   0.93776   -1.000
 5572.00    0.94811   0.93704   -1.000
 5573.00    0.95048   0.93756   -1.000
 5574.00    0.95498   0.93931   -1.000
 5575.00    0.95558   0.94176   -1.000
 5576.00    0.95242   0.94478  289.440
 5577.00    0.94927   0.94804  284.960
 5578.00    0.95831   0.95097  280.663
 5579.00    0.97083   0.95309   -1.000
 5580.00    0.97279   0.95417   -1.000
 5581.00    0.96637   0.95414   -1.000
 5582.00    0.96111   0.95277  294.883
 5583.00    0.96338   0.94955   -1.000
 5584.00    0.96357   0.94380   -1.000
 5585.00    0.94987   0.93501   -1.000
 5586.00    0.93694   0.92430   -1.000
 5587.00    0.92838   0.91441   -1.000
 5588.00    0.92637   0.90778   -1.000
 5589.00    0.92818   0.90604   -1.000
 5590.00    0.93613   0.90883   -1.000
 5591.00    0.94638   0.91431   -1.000
 5592.00    0.95133   0.92002   -1.000
 5593.00    0.94768   0.92479   -1.000
 5594.00    0.94569   0.92836   -1.000
 5595.00    0.94823   0.93084   -1.000
 5596.00    0.95126   0.93195   -1.000
 5597.00    0.94923   0.93123   -1.000
 5598.00    0.94540   0.92910   -1.000
 5599.00    0.94392   0.92627   -1.000
 5600.00    0.94692   0.92329   -1.000
 5601.00    0.94289   0.92167   -1.000
 5602.00    0.93495   0.92334   -1.000
 5603.00    0.93650   0.92899  308.850
 5604.00    0.95249   0.93802   -1.000
 5605.00    0.96524   0.94864   -1.000
 5606.00    0.96943   0.95867   -1.000
 5607.00    0.97051   0.96658  284.946
 5608.00    0.96859   0.97163  284.669
 5609.00    0.96794   0.97393  285.204
 5610.00    0.96592   0.97372  285.759
 5611.00    0.96624   0.97076  285.341
 5612.00    0.96569   0.96443  284.482
 5613.00    0.95906   0.95500  286.307
 5614.00    0.94652   0.94438  292.944
 5615.00    0.93438   0.93566  303.501
 5616.00    0.93187   0.93180  309.659
 5617.00    0.94673   0.93301   -1.000
 5618.00    0.96287   0.93779   -1.000
 5619.00    0.96401   0.94382   -1.000
 5620.00    0.96446   0.94882   -1.000
 5621.00    0.96772   0.95121   -1.000
 5622.00    0.96521   0.95070   -1.000
 5623.00    0.95848   0.94819   -1.000
 5624.00    0.95198   0.94565  299.540
 5625.00    0.95094   0.94483  304.706
 5626.00    0.95742   0.94664   -1.000
 5627.00    0.96425   0.95078   -1.000
 5628.00    0.96656   0.95604   -1.000
 5629.00    0.97017   0.96103  289.562
 5630.00    0.97096   0.96444  287.619
 5631.00    0.96983   0.96554  286.942
 5632.00    0.96781   0.96442  285.784
 5633.00    0.96656   0.96174  286.350
 5634.00    0.96676   0.95812  288.823
 5635.00    0.96307   0.95435  290.840
 5636.00    0.96485   0.95098   -1.000
 5637.00    0.95831   0.94834   -1.000
 5638.00    0.95408   0.94651  296.748
 5639.00    0.95375   0.94531  296.522
 5640.00    0.95719   0.94459   -1.000
 5641.00    0.96020   0.94458   -1.000
 5642.00    0.95990   0.94533   -1.000
 5643.00    0.96114   0.94664   -1.000
 5644.00    0.96448   0.94834   -1.000
 5645.00    0.96105   0.95015   -1.000
 5646.00    0.96213   0.95157   -1.000
 5647.00    0.96335   0.95231   -1.000
 5648.00    0.96243   0.95240   -1.000
 5649.00    0.96271   0.95206   -1.000
 5650.00    0.96524   0.95157   -1.000
 5651.00    0.96501   0.95078   -1.000
 5652.00    0.96157   0.94931   -1.000
 5653.00    0.96157   0.94658   -1.000
 5654.00    0.95985   0.94215   -1.000
 5655.00    0.95500   0.93590   -1.000
 5656.00    0.94518   0.92839   -1.000
 5657.00    0.93824   0.92117   -1.000
 5658.00    0.93189   0.91633   -1.000
 5659.00    0.93698   0.91493   -1.000
 5660.00    0.94375   0.91655   -1.000
 5661.00    0.94778   0.92023   -1.000
 5662.00    0.94952   0.92493   -1.000
 5663.00    0.94867   0.92996   -1.000
 5664.00    0.95329   0.93460   -1.000
 5665.00    0.95734   0.93807   -1.000
 5666.00    0.95801   0.94013   -1.000
 5667.00    0.95707   0.94119   -1.000
 5668.00    0.95542   0.94196   -1.000
 5669.00    0.95800   0.94321   -1.000
 5670.00    0.96100   0.94534   -1.000
 5671.00    0.96165   0.94823   -1.000
 5672.00    0.96311   0.95122   -1.000
 5673.00    0.96437   0.95373   -1.000
 5674.00    0.96514   0.95533   -1.000
 5675.00    0.96090   0.95611  286.235
 5676.00    0.96107   0.95615  287.207
 5677.00    0.96355   0.95539  286.059
 5678.00    0.96360   0.95356   -1.000
 5679.00    0.96080   0.95042   -1.000
 5680.00    0.95680   0.94595   -1.000
 5681.00    0.95556   0.94066   -1.000
 5682.00    0.95294   0.93553   -1.000
 5683.00    0.94764   0.93157   -1.000
 5684.00    0.94648   0.92932   -1.000
 5685.00    0.94971   0.92842   -1.000
 5686.00    0.94979   0.92821   -1.000
 5687.00    0.95115   0.92852   -1.000
 5688.00    0.94914   0.92967   -1.000
 5689.00    0.95284   0.93209   -1.000
 5690.00    0.95303   0.93573   -1.000
 5691.00    0.95878   0.94005   -1.000
 5692.00    0.96336   0.94430   -1.000
 5693.00    0.95807   0.94779   -1.000
 5694.00    0.95865   0.95006  286.482
 5695.00    0.95784   0.95087  286.931
 5696.00    0.95784   0.95024  287.139
 5697.00    0.96203   0.94818   -1.000
 5698.00    0.95780   0.94503   -1.000
 5699.00    0.95437   0.94131   -1.000
 5700.00    0.95060   0.93778   -1.000
 5701.00    0.94727   0.93508   -1.000
 5702.00    0.94549   0.93341   -1.000
 5703.00    0.95101   0.93234   -1.000
 5704.00    0.95330   0.93085   -1.000
 5705.00    0.95236   0.92813   -1.000
 5706.00    0.94508   0.92386   -1.000
 5707.00    0.94130   0.91837   -1.000
 5708.00    0.93872   0.91279   -1.000
 5709.00    0.92873   0.90882   -1.000
 5710.00    0.92642   0.90787   -1.000
 5711.00    0.93049   0.91054   -1.000
 5712.00    0.93825   0.91645   -1.000
 5713.00    0.94803   0.92420   -1.000
 5714.00    0.95365   0.93203   -1.000
 5715.00    0.95538   0.93865   -1.000
 5716.00    0.95616   0.94383   -1.000
 5717.00    0.95865   0.94778   -1.000
 5718.00    0.95764   0.95104  288.518
 5719.00    0.95728   0.95400  287.018
 5720.00    0.95849   0.95675  285.114
 5721.00    0.95874   0.95905  283.882
 5722.00    0.95893   0.96057  283.289
 5723.00    0.96253   0.96101  282.879
 5724.00    0.96283   0.96023  282.574
 5725.00    0.96142   0.95833  283.438
 5726.00    0.95775   0.95590  286.086
 5727.00    0.95539   0.95366  289.163
 5728.00    0.95742   0.95215  291.253
 5729.00    0.95730   0.95142  289.137
 5730.00    0.95573   0.95127  287.500
 5731.00    0.95672   0.95165  288.668
 5732.00    0.95869   0.95260  290.143
 5733.00    0.96033   0.95411  288.633
 5734.00    0.96018   0.95588  285.625
 5735.00    0.95945   0.95749  284.037
 5736.00    0.95845   0.95865  284.571
 5737.00    0.95778   0.95919  284.894
 5738.00    0.95786   0.95921  285.832
 5739.00    0.95673   0.95883  285.938
 5740.00    0.95875   0.95818  286.640
 5741.00    0.95599   0.95744  287.028
 5742.00    0.95469   0.95690  287.693
 5743.00    0.95739   0.95667  286.813
 5744.00    0.95880   0.95659  286.595
 5745.00    0.95422   0.95633  284.199
 5746.00    0.95422   0.95579  282.855
 5747.00    0.95268   0.95508  284.867
 5748.00    0.95100   0.95426  287.821
 5749.00    0.95377   0.95303  288.577
 5750.00    0.95285   0.95085  286.518
 5751.00    0.95256   0.94772  285.868
 5752.00    0.94692   0.94437  288.592
 5753.00    0.94088   0.94209  292.238
 5754.00    0.94202   0.94201  294.994
 5755.00    0.94527   0.94429  294.438
 5756.00    0.95196   0.94805  290.160
 5757.00    0.95636   0.95171  284.608
 5758.00    0.95508   0.95388  281.628
 5759.00    0.95597   0.95384  283.109
 5760.00    0.95455   0.95189  286.572
 5761.00    0.94903   0.94925  290.385
 5762.00    0.94549   0.94762  294.341
 5763.00    0.94825   0.94811  295.348
 5764.00    0.95100   0.95076  291.506
 5765.00    0.95104   0.95454  286.091
 5766.00    0.95614   0.95813  282.905
 5767.00    0.95958   0.96058  282.371
 5768.00    0.95832   0.96145  282.120
 5769.00    0.95723   0.96084  281.621
 5770.00    0.95781   0.95913  282.365
 5771.00    0.95590   0.95680  283.342
 5772.00    0.95400   0.95433  285.019
 5773.00    0.95144   0.95218  286.789
 5774.00    0.94811   0.95061  287.340
 5775.00    0.94929   0.94960  287.648
 5776.00    0.94686   0.94859  286.899
 5777.00    0.95031   0.94667  285.365
 5778.00    0.95260   0.94324  285.296
 5779.00    0.94254   0.93852  286.384
 5780.00    0.93833   0.93347  291.057
 5781.00    0.94068   0.92926   -1.000
 5782.00    0.94079   0.92675   -1.000
 5783.00    0.94789   0.92622   -1.000
 5784.00    0.95033   0.92739   -1.000
 5785.00    0.94682   0.92990   -1.000
 5786.00    0.94877   0.93329   -1.000
 5787.00    0.95080   0.93674   -1.000
 5788.00    0.94494   0.93949  289.243
 5789.00    0.94606   0.94119  287.289
 5790.00    0.94565   0.94219  287.938
 5791.00    0.94407   0.94317  289.322
 5792.00    0.94933   0.94462  288.611
 5793.00    0.95050   0.94665  285.986
 5794.00    0.95067   0.94887  284.124
 5795.00    0.95150   0.95063  282.441
 5796.00    0.95390   0.95155  282.473
 5797.00    0.95006   0.95197  284.407
 5798.00    0.95082   0.95248  286.185
 5799.00    0.95171   0.95336  284.364
 5800.00    0.95509   0.95448  280.472
 5801.00    0.95590   0.95537  276.636
 5802.00    0.95519   0.95551  276.450
 5803.00    0.95311   0.95471  279.128
 5804.00    0.95235   0.95336  281.234
 5805.00    0.95222   0.95218  283.555
 5806.00    0.94937   0.95169  284.651
 5807.00    0.95018   0.95202  283.754
 5808.00    0.95275   0.95301  282.657
 5809.00    0.95221   0.95436  281.856
 5810.00    0.95647   0.95559  281.948
 5811.00    0.95766   0.95622  281.620
 5812.00    0.95865   0.95604  280.453
 5813.00    0.96096   0.95511  279.686
 5814.00    0.95807   0.95375  280.437
 5815.00    0.95847   0.95262  283.001
 5816.00    0.95784   0.95243  284.108
 5817.00    0.95611   0.95342  282.301
 5818.00    0.95647   0.95523  280.332
 5819.00    0.95815   0.95727  278.862
 5820.00    0.95978   0.95907  277.499
 5821.00    0.95922   0.96040  276.643
 5822.00    0.95993   0.96125  277.274
 5823.00    0.95816   0.96173  278.305
 5824.00    0.96129   0.96198  277.590
 5825.00    0.95979   0.96217  277.226
 5826.00    0.95774   0.96240  276.683
 5827.00    0.96152   0.96264  276.462
 5828.00    0.96330   0.96278  276.580
 5829.00    0.95895   0.96276  277.203
 5830.00    0.95634   0.96249  276.481
 5831.00    0.95671   0.96192  276.672
 5832.00    0.95994   0.96107  276.205
 5833.00    0.95692   0.96013  276.914
 5834.00    0.95308   0.95941  278.942
 5835.00    0.94740   0.95920  279.164
 5836.00    0.95330   0.95949  278.073
 5837.00    0.96127   0.96008  277.607
 5838.00    0.96026   0.96071  278.704
 5839.00    0.95893   0.96122  279.270
 5840.00    0.95695   0.96147  278.171
 5841.00    0.95617   0.96130  275.973
 5842.00    0.95658   0.96064  274.644
 5843.00    0.95736   0.95947  274.903
 5844.00    0.95656   0.95780  275.918
 5845.00    0.95319   0.95583  277.000
 5846.00    0.95552   0.95393  278.975
 5847.00    0.95464   0.95239  280.274
 5848.00    0.95532   0.95106  281.679
 5849.00    0.95606   0.94946  281.110
 5850.00    0.95227   0.94710  281.717
 5851.00    0.94761   0.94373  283.476
 5852.00    0.94026   0.93955  285.254
 5853.00    0.93729   0.93495  288.238
 5854.00    0.94064   0.93024   -1.000
 5855.00    0.93882   0.92545   -1.000
 5856.00    0.93741   0.92109   -1.000
 5857.00    0.93650   0.91828   -1.000
 5858.00    0.93764   0.91784   -1.000
 5859.00    0.93906   0.91987   -1.000
 5860.00    0.94335   0.92370   -1.000
 5861.00    0.94779   0.92829   -1.000
 5862.00    0.94892   0.93270   -1.000
 5863.00    0.95031   0.93605   -1.000
 5864.00    0.95183   0.93788   -1.000
 5865.00    0.95211   0.93849   -1.000
 5866.00    0.95012   0.93859   -1.000
 5867.00    0.94797   0.93908  288.443
 5868.00    0.94771   0.94047  287.898
 5869.00    0.94891   0.94257  284.848
 5870.00    0.95237   0.94469  282.541
 5871.00    0.95513   0.94606  281.459
 5872.00    0.95556   0.94622  281.552
 5873.00    0.95380   0.94524  282.408
 5874.00    0.95450   0.94350   -1.000
 5875.00    0.95643   0.94154   -1.000
 5876.00    0.95127   0.93967   -1.000
 5877.00    0.94952   0.93790   -1.000
 5878.00    0.95137   0.93609   -1.000
 5879.00    0.95154   0.93405   -1.000
 5880.00    0.95024   0.93163   -1.000
 5881.00    0.95067   0.92864   -1.000
 5882.00    0.94492   0.92496   -1.000
 5883.00    0.94347   0.92032   -1.000
 5884.00    0.94303   0.91408   -1.000
 5885.00    0.94197   0.90465   -1.000
 5886.00    0.93519   0.89016   -1.000
 5887.00    0.92253   0.87028   -1.000
 5888.00    0.89115   0.84771   -1.000
 5889.00    0.84955   0.82818   -1.000
 5890.00    0.83033   0.81620   -1.000
 5891.00    0.85504   0.81234   -1.000
 5892.00    0.89075   0.81374   -1.000
 5893.00    0.90408   0.81620   -1.000
 5894.00    0.89807   0.81767   -1.000
 5895.00    0.87433   0.81924   -1.000
 5896.00    0.86083   0.82394   -1.000
 5897.00    0.88059   0.83359   -1.000
 5898.00    0.91108   0.84769   -1.000
 5899.00    0.93006   0.86432   -1.000
 5900.00    0.93577   0.88087   -1.000
 5901.00    0.93498   0.89513   -1.000
 5902.00    0.93735   0.90602   -1.000
 5903.00    0.93970   0.91357   -1.000
 5904.00    0.94033   0.91855   -1.000
 5905.00    0.94084   0.92182   -1.000
 5906.00    0.94321   0.92411   -1.000
 5907.00    0.94394   0.92583   -1.000
 5908.00    0.94268   0.92712   -1.000
 5909.00    0.94555   0.92780   -1.000
 5910.00    0.94538   0.92760   -1.000
 5911.00    0.94264   0.92615   -1.000
 5912.00    0.94026   0.92355   -1.000
 5913.00    0.93709   0.92045   -1.000
 5914.00    0.93468   0.91777   -1.000
 5915.00    0.93317   0.91629   -1.000
 5916.00    0.93102   0.91640   -1.000
 5917.00    0.93524   0.91797   -1.000
 5918.00    0.94215   0.92034   -1.000
 5919.00    0.93972   0.92276   -1.000
 5920.00    0.93592   0.92468   -1.000
 5921.00    0.93397   0.92601  291.464
 5922.00    0.93381   0.92693  291.766
 5923.00    0.93697   0.92774   -1.000
 5924.00    0.93744   0.92851  290.638
 5925.00    0.93986   0.92897   -1.000
 5926.00    0.94294   0.92862   -1.000
 5927.00    0.93980   0.92724   -1.000
 5928.00    0.93745   0.92521   -1.000
 5929.00    0.93649   0.92331   -1.000
 5930.00    0.93694   0.92233   -1.000
 5931.00    0.93618   0.92236   -1.000
 5932.00    0.93525   0.92304   -1.000
 5933.00    0.93567   0.92407   -1.000
 5934.00    0.93186   0.92527  292.100
 5935.00    0.93540   0.92657  294.033
 5936.00    0.93996   0.92780   -1.000
 5937.00    0.94321   0.92856   -1.000
 5938.00    0.93935   0.92854   -1.000
 5939.00    0.94122   0.92765   -1.000
 5940.00    0.94182   0.92630   -1.000
 5941.00    0.93433   0.92502   -1.000
 5942.00    0.93002   0.92425  294.643
 5943.00    0.93043   0.92404  294.214
 5944.00    0.93278   0.92408  292.284
 5945.00    0.93379   0.92387   -1.000
 5946.00    0.93312   0.92315   -1.000
 5947.00    0.92789   0.92212  290.650
 5948.00    0.92955   0.92118  293.498
 5949.00    0.93297   0.92065   -1.000
 5950.00    0.92994   0.92040   -1.000
 5951.00    0.92331   0.92020  295.143
 5952.00    0.92622   0.92007  294.151
 5953.00    0.92812   0.91988  295.181
 5954.00    0.93250   0.91953   -1.000
 5955.00    0.93161   0.91922   -1.000
 5956.00    0.92555   0.91928  294.328
 5957.00    0.92243   0.92010  295.712
 5958.00    0.92815   0.92183  295.979
 5959.00    0.93372   0.92417   -1.000
 5960.00    0.93152   0.92665  290.909
 5961.00    0.93242   0.92869  288.252
 5962.00    0.93605   0.92985  287.341
 5963.00    0.93603   0.92998  287.107
 5964.00    0.93178   0.92934  287.914
 5965.00    0.93366   0.92843  289.635
 5966.00    0.93112   0.92777  290.484
 5967.00    0.93184   0.92768  291.579
 5968.00    0.92916   0.92827  290.630
 5969.00    0.93083   0.92933  288.219
 5970.00    0.93152   0.93040  287.783
 5971.00    0.93342   0.93096  287.753
 5972.00    0.93105   0.93051  287.025
 5973.00    0.93187   0.92885  286.776
 5974.00    0.93145   0.92623  288.616
 5975.00    0.92630   0.92330  290.978
 5976.00    0.92588   0.92098  293.174
 5977.00    0.92156   0.91988  295.249
 5978.00    0.92521   0.92009  296.460
 5979.00    0.93053   0.92101   -1.000
 5980.00    0.92969   0.92168  292.115
 5981.00    0.92876   0.92126  291.229
 5982.00    0.92711   0.91965  292.160
 5983.00    0.92067   0.91751  294.770
 5984.00    0.91964   0.91582  297.354
 5985.00    0.92078   0.91531  298.652
 5986.00    0.92321   0.91608  297.242
 5987.00    0.92782   0.91776   -1.000
 5988.00    0.92916   0.91965   -1.000
 5989.00    0.92843   0.92131  291.449
 5990.00    0.92427   0.92263  289.944
 5991.00    0.92626   0.92392  290.686
 5992.00    0.93008   0.92526  291.343
 5993.00    0.92680   0.92632  289.601
 5994.00    0.92658   0.92680  287.080
 5995.00    0.92617   0.92647  286.524
 5996.00    0.92321   0.92550  288.886
 5997.00    0.92442   0.92428  290.835
 5998.00    0.92729   0.92314  292.014
 5999.00    0.92832   0.92220  292.545
 6000.00    0.92732   0.92134  291.872
 6001.00    0.92890   0.92040  292.296
 6002.00    0.92386   0.91935  294.233
 6003.00    0.92165   0.91820  295.058
 6004.00    0.92374   0.91678  294.828
 6005.00    0.92362   0.91491  293.938
 6006.00    0.91937   0.91289  294.296
 6007.00    0.91232   0.91132  296.675
 6008.00    0.91152   0.91090  299.757
 6009.00    0.91615   0.91170  299.280
 6010.00    0.92071   0.91306  295.438
 6011.00    0.92219   0.91437  292.492
 6012.00    0.91779   0.91508  293.050
 6013.00    0.91760   0.91513  295.543
 6014.00    0.91839   0.91471  296.953
 6015.00    0.91829   0.91402  295.076
 6016.00    0.92030   0.91316  295.310
 6017.00    0.91989   0.91208  296.748
 6018.00    0.92060   0.91062   -1.000
 6019.00    0.91845   0.90895   -1.000
 6020.00    0.91278   0.90759  297.439
 6021.00    0.90992   0.90686  299.434
 6022.00    0.90946   0.90701  297.850
 6023.00    0.91238   0.90830  295.776
 6024.00    0.91359   0.91063  295.337
 6025.00    0.91503   0.91360  294.959
 6026.00    0.91954   0.91689  292.990
 6027.00    0.91924   0.92021  292.282
 6028.00    0.91911   0.92323  290.258
 6029.00    0.92254   0.92577  289.108
 6030.00    0.92540   0.92778  288.805
 6031.00    0.92125   0.92930  288.931
 6032.00    0.91830   0.93045   -1.000
 6033.00    0.91943   0.93132   -1.000
 6034.00    0.91752   0.93185   -1.000
 6035.00    0.91908   0.93198   -1.000
 6036.00    0.92219   0.93160  286.915
 6037.00    0.91986   0.93063  286.308
 6038.00    0.91751   0.92911  286.752
 6039.00    0.91517   0.92731   -1.000
 6040.00    0.91488   0.92561  288.967
 6041.00    0.91945   0.92445  289.966
 6042.00    0.91844   0.92414  289.120
 6043.00    0.91687   0.92473  288.803
 6044.00    0.91570   0.92594  287.153
 6045.00    0.91828   0.92757  284.779
 6046.00    0.91733   0.92929   -1.000
 6047.00    0.91779   0.93077   -1.000
 6048.00    0.92051   0.93178  284.752
 6049.00    0.91919   0.93223   -1.000
 6050.00    0.91793   0.93204   -1.000
 6051.00    0.91654   0.93108   -1.000
 6052.00    0.91409   0.92936   -1.000
 6053.00    0.91585   0.92709  287.618
 6054.00    0.91659   0.92478  288.874
 6055.00    0.91406   0.92305  289.702
 6056.00    0.91385   0.92235  291.425
 6057.00    0.91509   0.92265  292.191
 6058.00    0.91702   0.92356  291.540
 6059.00    0.91839   0.92436  289.880
 6060.00    0.91648   0.92432  288.418
 6061.00    0.91445   0.92291  288.986
 6062.00    0.91260   0.92011  289.643
 6063.00    0.90789   0.91654  294.255
 6064.00    0.90225   0.91355  300.153
 6065.00    0.89943   0.91227   -1.000
 6066.00    0.89905   0.91309   -1.000
 6067.00    0.89973   0.91584   88.407
 6068.00    0.89567   0.91961   -1.000
 6069.00    0.80546   0.92342   -1.000
 6070.00    0.55531   0.92661   -1.000
 6071.00    0.53866   0.92890   -1.000
 6072.00    0.85634   0.93026   -1.000
 6073.00    0.88241   0.93071   -1.000
 6074.00    0.86522   0.93022   -1.000
 6075.00    0.86130   0.92878   -1.000
 6076.00    0.81594   0.92646   -1.000
 6077.00    0.89883   0.92372   -1.000
 6078.00    0.90551   0.92111   -1.000
 6079.00    0.90895   0.91885  293.021
 6080.00    0.91216   0.91699  294.741
 6081.00    0.91163   0.91548  294.728
 6082.00    0.90429   0.91423  295.037
 6083.00    0.90277   0.91334  295.949
 6084.00    0.90211   0.91305  295.819
 6085.00    0.90323   0.91347  295.597
 6086.00    0.90424   0.91433  295.273
 6087.00    0.90568   0.91524  294.354
 6088.00    0.90763   0.91582  293.137
 6089.00    0.90583   0.91597  293.913
 6090.00    0.90664   0.91590  295.808
 6091.00    0.90462   0.91596   -1.000
 6092.00    0.91076   0.91647  296.694
 6093.00    0.90551   0.91753   -1.000
 6094.00    0.90209   0.91898   -1.000
 6095.00    0.90824   0.92047   -1.000
 6096.00    0.90776   0.92145   -1.000
 6097.00    0.90629   0.92126   -1.000
 6098.00    0.90471   0.91917   -1.000
 6099.00    0.90091   0.91481   -1.000
 6100.00    0.89932   0.90862  291.461
 6101.00    0.89214   0.90216  295.321
 6102.00    0.88397   0.89757   -1.000
 6103.00    0.88373   0.89618   -1.000
 6104.00    0.89188   0.89817  304.600
 6105.00    0.90114   0.90264  298.500
 6106.00    0.90036   0.90809  294.160
 6107.00    0.89941   0.91328   -1.000
 6108.00    0.89724   0.91738   -1.000
 6109.00    0.89851   0.92018   -1.000
 6110.00    0.90321   0.92186   -1.000
 6111.00    0.90270   0.92276   -1.000
 6112.00    0.90251   0.92320   -1.000
 6113.00    0.90267   0.92337   -1.000
 6114.00    0.90191   0.92330   -1.000
 6115.00    0.89933   0.92286   -1.000
 6116.00    0.89837   0.92174   -1.000
 6117.00    0.89659   0.91942   -1.000
 6118.00    0.89558   0.91541   -1.000
 6119.00    0.89248   0.90963   -1.000
 6120.00    0.88459   0.90287   -1.000
 6121.00    0.88013   0.89670   -1.000
 6122.00    0.88054   0.89272   -1.000
 6123.00    0.87966   0.89186   -1.000
 6124.00    0.88661   0.89383  301.780
 6125.00    0.89536   0.89754  298.058
 6126.00    0.89683   0.90158  298.297
 6127.00    0.89613   0.90525  300.174
 6128.00    0.89639   0.90857   -1.000
 6129.00    0.89648   0.91163   -1.000
 6130.00    0.89781   0.91435   -1.000
 6131.00    0.89720   0.91609   -1.000
 6132.00    0.89637   0.91558   -1.000
 6133.00    0.89254   0.91178   -1.000
 6134.00    0.88746   0.90460   -1.000
 6135.00    0.87862   0.89548   -1.000
 6136.00    0.86398   0.88688   -1.000
 6137.00    0.85709   0.88069   -1.000
 6138.00    0.86669   0.87776   -1.000
 6139.00    0.87877   0.87820  312.254
 6140.00    0.87899   0.88139  303.407
 6141.00    0.87239   0.88649   -1.000
 6142.00    0.87261   0.89250   -1.000
 6143.00    0.88508   0.89830   -1.000
 6144.00    0.89478   0.90288  298.417
 6145.00    0.89488   0.90557  294.828
 6146.00    0.89495   0.90633   -1.000
 6147.00    0.89601   0.90570  296.156
 6148.00    0.89031   0.90455   -1.000
 6149.00    0.88732   0.90362   -1.000
 6150.00    0.88995   0.90331   -1.000
 6151.00    0.89001   0.90345   -1.000
 6152.00    0.88931   0.90350   -1.000
 6153.00    0.88857   0.90302   -1.000
 6154.00    0.88837   0.90184   -1.000
 6155.00    0.88769   0.89991   -1.000
 6156.00    0.88939   0.89710  302.465
 6157.00    0.88735   0.89295  302.577
 6158.00    0.88355   0.88678  303.954
 6159.00    0.88213   0.87840  307.359
 6160.00    0.87143   0.86875  313.456
 6161.00    0.85939   0.85991  323.299
 6162.00    0.85527   0.85402  332.600
 6163.00    0.85960   0.85222  335.239
 6164.00    0.86949   0.85416   -1.000
 6165.00    0.87508   0.85805   -1.000
 6166.00    0.87472   0.86177   -1.000
 6167.00    0.87368   0.86413   -1.000
 6168.00    0.86853   0.86550  315.589
 6169.00    0.86562   0.86695  320.008
 6170.00    0.86649   0.86953  323.112
 6171.00    0.87257   0.87362  320.241
 6172.00    0.87695   0.87875  313.728
 6173.00    0.87947   0.88400  309.552
 6174.00    0.88317   0.88857  310.249
 6175.00    0.88301   0.89214  310.425
 6176.00    0.87931   0.89476   -1.000
 6177.00    0.87730   0.89669   -1.000
 6178.00    0.88148   0.89827   -1.000
 6179.00    0.88291   0.89977   -1.000
 6180.00    0.88519   0.90128   -1.000
 6181.00    0.88450   0.90265   -1.000
 6182.00    0.88568   0.90357   -1.000
 6183.00    0.88757   0.90371   -1.000
 6184.00    0.88397   0.90282   -1.000
 6185.00    0.88397   0.90085   -1.000
 6186.00    0.88007   0.89786   -1.000
 6187.00    0.87863   0.89397   -1.000
 6188.00    0.87346   0.88936   -1.000
 6189.00    0.87071   0.88473   -1.000
 6190.00    0.86583   0.88126   -1.000
 6191.00    0.86060   0.87991   -1.000
 6192.00    0.86136   0.88107   -1.000
 6193.00    0.87311   0.88441   -1.000
 6194.00    0.88015   0.88885  312.288
 6195.00    0.88126   0.89309   -1.000
 6196.00    0.88149   0.89612   -1.000
 6197.00    0.87824   0.89754   -1.000
 6198.00    0.87807   0.89771   -1.000
 6199.00    0.87662   0.89744   -1.000
 6200.00    0.87412   0.89756   -1.000
 6201.00    0.87426   0.89861   -1.000
 6202.00    0.87772   0.90062   -1.000
 6203.00    0.87813   0.90319   -1.000
 6204.00    0.87722   0.90576   -1.000
 6205.00    0.87858   0.90786   -1.000
 6206.00    0.87891   0.90915   -1.000
 6207.00    0.87882   0.90941   -1.000
 6208.00    0.87772   0.90847   -1.000
 6209.00    0.87947   0.90614   -1.000
 6210.00    0.88086   0.90242   -1.000
 6211.00    0.87583   0.89764   -1.000
 6212.00    0.87114   0.89248   -1.000
 6213.00    0.86662   0.88776   -1.000
 6214.00    0.86587   0.88407   -1.000
 6215.00    0.87146   0.88157  324.075
 6216.00    0.87473   0.88004  324.729
 6217.00    0.87218   0.87923  320.003
 6218.00    0.86568   0.87903   -1.000
 6219.00    0.85918   0.87956   -1.000
 6220.00    0.86223   0.88081   -1.000
 6221.00    0.86756   0.88263   -1.000
 6222.00    0.87147   0.88463   -1.000
 6223.00    0.87459   0.88628   -1.000
 6224.00    0.87483   0.88706   -1.000
 6225.00    0.87352   0.88652   -1.000
 6226.00    0.87382   0.88434   -1.000
 6227.00    0.87640   0.88047  316.290
 6228.00    0.86744   0.87550  318.254
 6229.00    0.85587   0.87055   -1.000
 6230.00    0.85215   0.86701   -1.000
 6231.00    0.85204   0.86588   -1.000
 6232.00    0.85887   0.86727  330.417
 6233.00    0.86361   0.87032  325.441
 6234.00    0.86610   0.87364  319.173
 6235.00    0.87034   0.87594  314.079
 6236.00    0.87134   0.87666  312.932
 6237.00    0.86785   0.87592  315.293
 6238.00    0.86390   0.87430   -1.000
 6239.00    0.86217   0.87232   -1.000
 6240.00    0.86224   0.87013  325.228
 6241.00    0.86467   0.86761  326.391
 6242.00    0.86601   0.86467  326.177
 6243.00    0.86135   0.86154  328.806
 6244.00    0.85480   0.85894  330.911
 6245.00    0.85169   0.85780  330.513
 6246.00    0.85102   0.85868  328.279
 6247.00    0.85466   0.86132  324.944
 6248.00    0.85680   0.86458  320.736
 6249.00    0.85743   0.86698  317.465
 6250.00    0.85793   0.86742  317.366
 6251.00    0.85295   0.86573   -1.000
 6252.00    0.84579   0.86261   -1.000
 6253.00    0.84074   0.85920   -1.000
 6254.00    0.84153   0.85645   -1.000
 6255.00    0.84177   0.85488   -1.000
 6256.00    0.84611   0.85462  333.320
 6257.00    0.85188   0.85564  336.611
 6258.00    0.84995   0.85787  339.566
 6259.00    0.84967   0.86121   -1.000
 6260.00    0.85273   0.86534   -1.000
 6261.00    0.85738   0.86969   -1.000
 6262.00    0.85932   0.87367   -1.000
 6263.00    0.86010   0.87690   -1.000
 6264.00    0.85885   0.87931   -1.000
 6265.00    0.85239   0.88097   -1.000
 6266.00    0.85358   0.88194   -1.000
 6267.00    0.85718   0.88226   -1.000
 6268.00    0.85807   0.88198   -1.000
 6269.00    0.85633   0.88124   -1.000
 6270.00    0.85526   0.88013   -1.000
 6271.00    0.85490   0.87854   -1.000
 6272.00    0.85914   0.87613   -1.000
 6273.00    0.85882   0.87256   -1.000
 6274.00    0.85364   0.86771   -1.000
 6275.00    0.84904   0.86198   -1.000
 6276.00    0.83763   0.85616   -1.000
 6277.00    0.82632   0.85124   -1.000
 6278.00    0.81014   0.84818   -1.000
 6279.00    0.79923   0.84753   -1.000
 6280.00    0.80196   0.84940   -1.000
 6281.00    0.80785   0.85338   -1.000
 6282.00    0.81402   0.85868   -1.000
 6283.00    0.82476   0.86434   -1.000
 6284.00    0.82822   0.86951   -1.000
 6285.00    0.83314   0.87361   -1.000
 6286.00    0.83631   0.87627   -1.000
 6287.00    0.84289   0.87744   -1.000
 6288.00    0.84463   0.87734   -1.000
 6289.00    0.84362   0.87636   -1.000
 6290.00    0.84156   0.87499   -1.000
 6291.00    0.84220   0.87362   -1.000
 6292.00    0.84218   0.87237   -1.000
 6293.00    0.84320   0.87106   -1.000
 6294.00    0.84390   0.86940   -1.000
 6295.00    0.84321   0.86725   -1.000
 6296.00    0.83941   0.86469   -1.000
 6297.00    0.83647   0.86195   -1.000
 6298.00    0.83487   0.85938   -1.000
 6299.00    0.82989   0.85741   -1.000
 6300.00    0.82569   0.85661   -1.000
 6301.00    0.82791   0.85739   -1.000
 6302.00    0.83322   0.85987   -1.000
 6303.00    0.83963   0.86378   -1.000
 6304.00    0.84461   0.86837   -1.000
 6305.00    0.85050   0.87274   -1.000
 6306.00    0.85017   0.87616   -1.000
 6307.00    0.84890   0.87833   -1.000
 6308.00    0.85065   0.87927   -1.000
 6309.00    0.84719   0.87921   -1.000
 6310.00    0.84683   0.87832   -1.000
 6311.00    0.84665   0.87670   -1.000
 6312.00    0.84657   0.87443   -1.000
 6313.00    0.84400   0.87164   -1.000
 6314.00    0.84261   0.86862   -1.000
 6315.00    0.83798   0.86583   -1.000
 6316.00    0.83816   0.86387   -1.000
 6317.00    0.83981   0.86328   -1.000
 6318.00    0.83830   0.86426   -1.000
 6319.00    0.83994   0.86666   -1.000
 6320.00    0.84336   0.87012   -1.000
 6321.00    0.84579   0.87409   -1.000
 6322.00    0.84812   0.87804   -1.000
 6323.00    0.84994   0.88154   -1.000
 6324.00    0.85383   0.88431   -1.000
 6325.00    0.85704   0.88621   -1.000
 6326.00    0.85705   0.88724   -1.000
 6327.00    0.85936   0.88759   -1.000
 6328.00    0.85911   0.88748   -1.000
 6329.00    0.85392   0.88708   -1.000
 6330.00    0.85500   0.88628   -1.000
 6331.00    0.85731   0.88478   -1.000
 6332.00    0.85925   0.88230   -1.000
 6333.00    0.85627   0.87893   -1.000
 6334.00    0.85030   0.87528   -1.000
 6335.00    0.84411   0.87223   -1.000
 6336.00    0.84333   0.87066   -1.000
 6337.00    0.84995   0.87100   -1.000
 6338.00    0.84350   0.87301   -1.000
 6339.00    0.77884   0.87586   -1.000
 6340.00    0.83137   0.87855   -1.000
 6341.00    0.86619   0.88032   -1.000
 6342.00    0.86601   0.88084   -1.000
 6343.00    0.86524   0.88032   -1.000
 6344.00    0.86239   0.87945   -1.000
 6345.00    0.86365   0.87906   -1.000
 6346.00    0.86571   0.87975   -1.000
 6347.00    0.86311   0.88164   -1.000
 6348.00    0.86723   0.88434   -1.000
 6349.00    0.86571   0.88709   -1.000
 6350.00    0.86610   0.88907   -1.000
 6351.00    0.86982   0.88977   -1.000
 6352.00    0.86571   0.88914   -1.000
 6353.00    0.86612   0.88751   -1.000
 6354.00    0.86350   0.88532   -1.000
 6355.00    0.85861   0.88295   -1.000
 6356.00    0.85789   0.88066   -1.000
 6357.00    0.85874   0.87854   -1.000
 6358.00    0.85946   0.87658   -1.000
 6359.00    0.86109   0.87481   -1.000
 6360.00    0.86159   0.87332   -1.000
 6361.00    0.85988   0.87225   -1.000
 6362.00    0.86067   0.87177   -1.000
 6363.00    0.86161   0.87200  315.648
 6364.00    0.86321   0.87291  314.535
 6365.00    0.86415   0.87425  312.433
 6366.00    0.86377   0.87560   -1.000
 6367.00    0.86475   0.87663   -1.000
 6368.00    0.86688   0.87724  306.810
 6369.00    0.86454   0.87767   -1.000
 6370.00    0.86446   0.87827   -1.000
 6371.00    0.86435   0.87929   -1.000
 6372.00    0.86546   0.88068   -1.000
 6373.00    0.86586   0.88208   -1.000
 6374.00    0.86886   0.88299   -1.000
 6375.00    0.87142   0.88312   -1.000
 6376.00    0.87100   0.88248   -1.000
 6377.00    0.86958   0.88129   -1.000
 6378.00    0.86415   0.87989   -1.000
 6379.00    0.86050   0.87855   -1.000
 6380.00    0.86275   0.87748   -1.000
 6381.00    0.86214   0.87680   -1.000
 6382.00    0.86030   0.87663   -1.000
 6383.00    0.85867   0.87702   -1.000
 6384.00    0.85884   0.87786   -1.000
 6385.00    0.85563   0.87895   -1.000
 6386.00    0.85330   0.87995   -1.000
 6387.00    0.85222   0.88047   -1.000
 6388.00    0.85096   0.88011   -1.000
 6389.00    0.85120   0.87867   -1.000
 6390.00    0.84543   0.87626   -1.000
 6391.00    0.84194   0.87341   -1.000
 6392.00    0.83254   0.87091   -1.000
 6393.00    0.82672   0.86944   -1.000
 6394.00    0.82821   0.86913   -1.000
 6395.00    0.83497   0.86948   -1.000
 6396.00    0.83155   0.86964   -1.000
 6397.00    0.82554   0.86909   -1.000
 6398.00    0.81655   0.86799   -1.000
 6399.00    0.80895   0.86712   -1.000
 6400.00    0.80488   0.86732   -1.000
 6401.00    0.80697   0.86892   -1.000
 6402.00    0.81008   0.87141   -1.000
 6403.00    0.81404   0.87380   -1.000
 6404.00    0.81363   0.87517   -1.000
 6405.00    0.80995   0.87514   -1.000
 6406.00    0.80382   0.87399   -1.000
 6407.00    0.79585   0.87232   -1.000
 6408.00    0.79319   0.87078   -1.000
 6409.00    0.78989   0.86977   -1.000
 6410.00    0.78577   0.86939   -1.000
 6411.00    0.78205   0.86956   -1.000
 6412.00    0.77564   0.87012   -1.000
 6413.00    0.77197   0.87090   -1.000
 6414.00    0.76970   0.87163   -1.000
 6415.00    0.77032   0.87200   -1.000
 6416.00    0.76926   0.87177   -1.000
 6417.00    0.76149   0.87087   -1.000
 6418.00    0.75234   0.86956   -1.000
 6419.00    0.74457   0.86850   -1.000
 6420.00    0.73524   0.86840   -1.000
 6421.00    0.73015   0.86980   -1.000
 6422.00    0.73207   0.87269   -1.000
 6423.00    0.73611   0.87648   -1.000
 6424.00    0.73206   0.88020   -1.000
 6425.00    0.72513   0.88286   -1.000
 6426.00    0.71872   0.88372   -1.000
 6427.00    0.70889   0.88252   -1.000
 6428.00    0.70108   0.87963   -1.000
