###################################################################
## OUTPUT of StarlightChains_v04.for    [Cid@UFSC - 01/Apr/2007] ##
###################################################################

## Some input info
NGC6528_b_1.cxt                          [arq_obs]
Base.BC03.N                              [arq_base]
NGC6528_b_1.msk                          [arq_masks]
StCv04.C99.config                        [arq_config]
   45                                    [N_base]
    0                                    [N_YAV_components = # of components with extra extinction!]
    0                                    [i_FitPowerLaw (1/0 = Yes/No)]
-9.99                                    [alpha_PowerLaw]
CCM                                      [red_law_option]
 1.458241                                [q_norm = A(l_norm)/A(V)]

## (Re)Sampling Parameters
 3359.00                                 [l_ini (A)]
 6428.00                                 [l_fin (A)]
    1.00                                 [dl    (A)]     (OBS: dl_cushion =    50.00 A)

## Normalization info
 4020.00                                 [l_norm (A) - for base]
 4010.00                                 [llow_norm (A) - window for f_obs]
 4060.00                                 [lupp_norm (A) - window for f_obs]
2.920007E-15                             [fobs_norm (in input units)]

## S/N
 4730.00                                 [llow_SN (A) - window for S/N]
 4780.00                                 [lupp_SN (A) - window for S/N]
  27.543                                 [S/N in S/N window]
  15.038                                 [S/N in norm. window]
 201.971                                 [S/N_err in S/N window]
 110.275                                 [S/N_err in norm. window]
  1.0000                                 [fscale_chi2]

## etc...
  2147483604                             [idum_orig]
  3069                                   [NOl_eff]
   822                                   [Nl_eff]
  2247    NSIGMA                         [Ntot_cliped & clip_method]
  2029160                                [Nglobal_steps]
   7                                     [N_chains]
  10                                     [NEX0s_base = N_base in EX0s-fits]
 0   0   1      129   2.0   2.622E+02    [Clip-Bug, RC-Crash & Burn-In warning-flags, n_censored_weights, wei_nsig_threshold & wei_limit]
    25     25.165     25.165      0.000  [idt_all, wdt_TotTime, wdt_UsrTime & wdt_SysTime (sec)]

## Synthesis Results - Best model ##

 2.47874E+00                             [chi2/Nl_eff]
     1.67896                             [adev (%)]

    96.24998                             [sum-of-x (%)]
 2.40618E-14                             [Flux_tot (units of input spectrum!)]
 1.66853E-09                             [Mini_tot (???)]
 8.43283E-10                             [Mcor_tot (???)]

 -32.24                                  [v0_min  (km/s)]
  81.69                                  [vd_min  (km/s)]
 1.5987                                  [AV_min  (mag)]
 0.0000                                  [YAV_min (mag)]

# j     x_j(%)      Mini_j(%)     Mcor_j(%)     age_j(yr)     Z_j      (L/M)_j    YAV?  Mstars   component_j        a/Fe...       SSP_chi2r SSP_adev(%)   SSP_AV   SSP_x(%)
  1      0.0000     0.0000E+00    0.0000E+00    1.000000E+06  0.00400  1.114E-02    0   1.0000   age020_m42            0.0000     6.6347E+03    59.4014   4.0000   119.5065
  2      5.5394     2.0377E-03    4.0314E-03    3.160000E+06  0.00400  4.073E-02    0   0.9999   age045_m42            0.0000     1.6011E+03    29.5426   4.0000   116.1747
  3      0.0000     0.0000E+00    0.0000E+00    5.010000E+06  0.00400  2.534E-02    0   0.9488   age055_m42            0.0000     3.1666E+03    42.8234   4.0000   119.4417
  4      5.8048     6.8428E-03    1.1998E-02    1.000000E+07  0.00400  1.271E-02    0   0.8862   age070_m42            0.0000     6.4711E+02    21.5423   4.0000    99.7307
  5      4.0045     1.1834E-02    1.9139E-02    2.512000E+07  0.00400  5.070E-03    0   0.8174   age090_m42            0.0000     4.9807E+02    18.2713   4.0000    97.0897
  6      0.0000     0.0000E+00    0.0000E+00    4.000000E+07  0.00400  3.505E-03    0   0.7851   age104_m42            0.0000     3.6145E+02    14.0994   3.8588    94.3830
  7      0.0000     0.0000E+00    0.0000E+00    1.015200E+08  0.00400  2.268E-03    0   0.7207   age116_m42            0.0000     4.6456E+02    14.6068   4.0000    99.9969
  8      0.0000     0.0000E+00    0.0000E+00    2.861200E+08  0.00400  1.079E-03    0   0.6613   age125_m42            0.0000     4.4267E+02    14.3520   3.5514   100.2927
  9      0.0000     0.0000E+00    0.0000E+00    6.405400E+08  0.00400  5.077E-04    0   0.6197   age132_m42            0.0000     4.5446E+02    14.7417   3.1793   104.6275
 10      0.0000     0.0000E+00    0.0000E+00    9.047900E+08  0.00400  3.535E-04    0   0.6024   age135_m42            0.0000     3.5169E+02    12.6417   2.9343   104.1232
 11      0.0000     0.0000E+00    0.0000E+00    1.434000E+09  0.00400  1.910E-04    0   0.5716   age139_m42            0.0000     1.8475E+02     9.0436   2.4397   102.0566
 12      0.0000     0.0000E+00    0.0000E+00    2.500000E+09  0.00400  9.818E-05    0   0.5463   age150_m42            0.0000     8.4018E+01     5.5788   2.1655    97.6598
 13      1.4347     4.5563E-01    4.7131E-01    5.000000E+09  0.00400  4.718E-05    0   0.5228   age161_m42            0.0000     4.4674E+01     3.9502   1.9851    94.9044
 14     10.8132     7.3475E+00    7.2398E+00    1.100000E+10  0.00400  2.205E-05    0   0.4980   age185_m42            0.0000     2.2275E+01     3.4099   1.7525    92.1586
 15      6.4912     5.1650E+00    5.0351E+00    1.300000E+10  0.00400  1.883E-05    0   0.4927   age193_m42            0.0000     2.1248E+01     3.4435   1.7362    91.9897
 16      0.0000     0.0000E+00    0.0000E+00    1.000000E+06  0.02000  1.989E-02    0   1.0000   age020_m62            0.0000     6.3358E+03    58.1620   4.0000   120.0337
 17      0.0000     0.0000E+00    0.0000E+00    3.160000E+06  0.02000  3.772E-02    0   0.9858   age045_m62            0.0000     5.3753E+03    54.7954   4.0000   121.0570
 18      2.4791     1.1511E-03    2.1276E-03    5.010000E+06  0.02000  3.227E-02    0   0.9342   age055_m62            0.0000     2.5292E+03    38.1590   4.0000   119.7091
 19      0.0000     0.0000E+00    0.0000E+00    1.000000E+07  0.02000  1.011E-02    0   0.8751   age070_m62            0.0000     8.3391E+02    24.8512   4.0000    95.5091
 20      0.0000     0.0000E+00    0.0000E+00    2.512000E+07  0.02000  4.206E-03    0   0.8099   age090_m62            0.0000     6.4829E+02    22.1808   4.0000    94.8692
 21      0.0000     0.0000E+00    0.0000E+00    4.000000E+07  0.02000  3.373E-03    0   0.7799   age104_m62            0.0000     4.1164E+02    15.0474   4.0000    98.6412
 22      0.0000     0.0000E+00    0.0000E+00    1.015200E+08  0.02000  1.878E-03    0   0.7221   age116_m62            0.0000     4.5077E+02    13.9001   4.0000   101.0305
 23      0.0000     0.0000E+00    0.0000E+00    2.861200E+08  0.02000  8.869E-04    0   0.6700   age125_m62            0.0000     5.6452E+02    16.7348   3.5816   104.7395
 24      0.0000     0.0000E+00    0.0000E+00    6.405400E+08  0.02000  3.657E-04    0   0.6322   age132_m62            0.0000     3.8362E+02    13.3497   2.9535   106.3205
 25      0.0000     0.0000E+00    0.0000E+00    9.047900E+08  0.02000  2.312E-04    0   0.6152   age135_m62            0.0000     2.4788E+02    10.4612   2.5794   105.4897
 26      0.0000     0.0000E+00    0.0000E+00    1.434000E+09  0.02000  1.168E-04    0   0.5865   age139_m62            0.0000     9.1249E+01     6.1028   2.1523   100.5284
 27      0.0000     0.0000E+00    0.0000E+00    2.500000E+09  0.02000  5.505E-05    0   0.5610   age150_m62            0.0000     3.6168E+01     4.4229   1.7983    97.5930
 28      0.0000     0.0000E+00    0.0000E+00    5.000000E+09  0.02000  2.596E-05    0   0.5353   age161_m62            0.0000     4.0490E+01     5.7053   1.5137    96.3742
 29     15.2694     1.9571E+01    1.9760E+01    1.100000E+10  0.02000  1.169E-05    0   0.5103   age185_m62            0.0000     9.1019E+01     8.3096   1.2031    96.2688
 30     42.2923     6.5386E+01    6.5295E+01    1.300000E+10  0.02000  9.691E-06    0   0.5047   age193_m62            0.0000     1.0334E+02     8.7583   1.1656    96.2221
 31      0.0000     0.0000E+00    0.0000E+00    1.000000E+06  0.05000  2.651E-02    0   0.9998   age020_m72            0.0000     6.3565E+03    57.9396   4.0000   121.5338
 32      0.0000     0.0000E+00    0.0000E+00    3.160000E+06  0.05000  4.817E-02    0   0.9577   age045_m72            0.0000     4.4791E+03    49.8551   4.0000   123.1324
 33      0.0000     0.0000E+00    0.0000E+00    5.010000E+06  0.05000  3.101E-02    0   0.9147   age055_m72            0.0000     2.5199E+03    39.8805   4.0000   117.8603
 34      0.0000     0.0000E+00    0.0000E+00    1.000000E+07  0.05000  8.954E-03    0   0.8524   age070_m72            0.0000     3.6499E+03    45.9413   4.0000   122.2296
 35      0.0000     0.0000E+00    0.0000E+00    2.512000E+07  0.05000  4.207E-03    0   0.7902   age090_m72            0.0000     1.7344E+03    32.1745   4.0000   117.8356
 36      0.0000     0.0000E+00    0.0000E+00    4.000000E+07  0.05000  3.198E-03    0   0.7618   age104_m72            0.0000     6.6028E+02    16.4359   4.0000   110.8386
 37      0.0000     0.0000E+00    0.0000E+00    1.015200E+08  0.05000  1.716E-03    0   0.7092   age116_m72            0.0000     5.0763E+02    14.6227   4.0000   105.0301
 38      0.0000     0.0000E+00    0.0000E+00    2.861200E+08  0.05000  7.047E-04    0   0.6618   age125_m72            0.0000     5.1110E+02    15.8668   3.4190   104.1395
 39      0.0000     0.0000E+00    0.0000E+00    6.405400E+08  0.05000  2.633E-04    0   0.6253   age132_m72            0.0000     2.7786E+02    11.2900   2.6127   104.8946
 40      0.0000     0.0000E+00    0.0000E+00    9.047900E+08  0.05000  1.484E-04    0   0.6088   age135_m72            0.0000     1.1850E+02     7.4488   2.1382   100.0194
 41      0.0000     0.0000E+00    0.0000E+00    1.434000E+09  0.05000  7.827E-05    0   0.5847   age139_m72            0.0000     5.5893E+01     5.8769   1.7717    96.3817
 42      0.0000     0.0000E+00    0.0000E+00    2.500000E+09  0.05000  3.759E-05    0   0.5583   age150_m72            0.0000     5.2301E+01     6.4433   1.4626    95.4891
 43      2.1213     2.0532E+00    2.1613E+00    5.000000E+09  0.05000  1.548E-05    0   0.5320   age161_m72            0.0000     1.2433E+02     8.8927   1.1054    93.6538
 44      0.0000     0.0000E+00    0.0000E+00    1.100000E+10  0.05000  6.532E-06    0   0.5070   age185_m72            0.0000     2.5927E+02    12.4390   0.8226    90.8458
 45      0.0000     0.0000E+00    0.0000E+00    1.300000E+10  0.05000  5.316E-06    0   0.5018   age193_m72            0.0000     3.2271E+02    13.8253   0.7436    89.8535


## Synthesis Results - Average & Chains ##

# j      x_j: min, <> & last-chain-values for 1 ...  7 chains
  1      0.0000      0.0356      0.0000      0.0189      0.0000      0.0174      0.0000      0.0000      0.0000
  2      5.5394      5.0213      5.0740      5.2860      5.0740      5.2883      5.0250      5.1388      5.0516
  3      0.0000      0.5181      0.5612      0.5011      0.5101      0.5103      0.5441      0.5028      0.5520
  4      5.8048      5.4560      5.4749      5.6703      5.5399      5.5495      5.5191      5.4196      5.4014
  5      4.0045      4.0559      4.0045      3.9991      4.0594      4.1617      4.0600      4.0372      3.9915
  6      0.0000      0.0178      0.0000      0.0000      0.0000      0.0061      0.0427      0.0701      0.0091
  7      0.0000      0.0241      0.0352      0.0000      0.0000      0.0000      0.0000      0.0000      0.0000
  8      0.0000      0.0287      0.0000      0.0000      0.0000      0.0000      0.0140      0.0000      0.0005
  9      0.0000      0.0171      0.0000      0.0592      0.0062      0.0000      0.1446      0.0000      0.0000
 10      0.0000      0.0487      0.0000      0.0000      0.0000      0.0176      0.0128      0.2036      0.0000
 11      0.0000      0.0597      0.0182      0.0000      0.0000      0.1628      0.1649      0.0000      0.0000
 12      0.0000      0.1330      0.2096      0.2377      0.2963      0.0065      0.1569      0.1762      0.0358
 13      1.4347      0.9101      1.6531      1.0794      0.8566      0.9872      1.1887      1.5056      1.1388
 14     10.8132      8.9270      9.5231      9.3270      9.8105      8.4858      9.3799      9.1125      9.7145
 15      6.4912      7.8425      7.0091      7.6247      7.4858      8.3820      7.6803      7.7459      7.8310
 16      0.0000      0.0296      0.0000      0.0000      0.0000      0.0000      0.1220      0.0648      0.0000
 17      0.0000      0.0096      0.0060      0.0000      0.0000      0.0000      0.0000      0.0000      0.0330
 18      2.4791      2.3490      2.4116      2.3301      2.4065      2.3562      2.3126      2.3682      2.3137
 19      0.0000      0.0518      0.1167      0.0000      0.0265      0.0000      0.0000      0.0000      0.1433
 20      0.0000      0.0191      0.0000      0.0436      0.0000      0.0016      0.0000      0.0000      0.0000
 21      0.0000      0.0234      0.0000      0.0267      0.0978      0.0000      0.0000      0.0000      0.0213
 22      0.0000      0.0188      0.0000      0.0000      0.0000      0.0000      0.0000      0.0000      0.0000
 23      0.0000      0.0112      0.0000      0.1120      0.0000      0.0000      0.0000      0.0000      0.0000
 24      0.0000      0.0159      0.0000      0.0000      0.0000      0.0468      0.0000      0.0000      0.0025
 25      0.0000      0.0311      0.0000      0.0000      0.0000      0.0000      0.0000      0.0000      0.0202
 26      0.0000      0.0962      0.0570      0.0000      0.2067      0.0000      0.0000      0.0000      0.2163
 27      0.0000      0.1285      0.0000      0.0000      0.0150      0.0198      0.0000      0.0080      0.0000
 28      0.0000      0.2619      0.1656      0.0000      0.1434      0.1091      0.3643      0.1304      0.5581
 29     15.2694     15.4988     15.6503     15.4691     15.6800     15.3836     15.0504     15.0400     15.3642
 30     42.2923     42.8085     42.6463     43.0865     42.4102     43.2552     42.9738     43.0473     42.0067
 31      0.0000      0.0160      0.0000      0.0000      0.0132      0.0000      0.0000      0.0000      0.0000
 32      0.0000      0.0181      0.0060      0.0000      0.0423      0.0000      0.0000      0.0000      0.0000
 33      0.0000      0.0161      0.0000      0.0000      0.0000      0.0000      0.0000      0.0295      0.0000
 34      0.0000      0.0187      0.0373      0.0000      0.0000      0.0000      0.0028      0.0000      0.0917
 35      0.0000      0.0223      0.0000      0.0000      0.0000      0.0000      0.0000      0.0000      0.0000
 36      0.0000      0.0175      0.0000      0.0000      0.0000      0.0000      0.0000      0.0376      0.0000
 37      0.0000      0.0137      0.0000      0.0000      0.0148      0.0000      0.0000      0.0000      0.0006
 38      0.0000      0.0150      0.0000      0.0000      0.0000      0.0000      0.0000      0.0000      0.0000
 39      0.0000      0.0226      0.1677      0.0000      0.2208      0.0876      0.0000      0.0000      0.0000
 40      0.0000      0.0482      0.0000      0.0220      0.0000      0.0252      0.0000      0.0000      0.0785
 41      0.0000      0.1302      0.0000      0.0346      0.0056      0.0473      0.0000      0.0000      0.1486
 42      0.0000      0.2381      0.1459      0.0579      0.0115      0.0000      0.2266      0.2031      0.0000
 43      2.1213      0.5591      0.4511      0.5380      0.6559      0.8617      0.6331      0.5763      0.7295
 44      0.0000      0.3004      0.4588      0.3548      0.2553      0.1507      0.2755      0.4810      0.1907
 45      0.0000      0.4308      0.4202      0.4145      0.4442      0.3972      0.3736      0.3733      0.5832

# j      m_j: min, <> & last-chain-values for 1 ...  7 chains
  1  0.0000E+00  9.3340E-05  0.0000E+00  4.9327E-05  0.0000E+00  4.5564E-05  0.0000E+00  0.0000E+00  0.0000E+00
  2  4.0314E-03  3.6039E-03  3.6417E-03  3.7829E-03  3.6505E-03  3.7850E-03  3.6143E-03  3.6841E-03  3.6413E-03
  3  0.0000E+00  5.6711E-04  6.1434E-04  5.4699E-04  5.5973E-04  5.5706E-04  5.9694E-04  5.4974E-04  6.0688E-04
  4  1.1998E-02  1.1122E-02  1.1160E-02  1.1525E-02  1.1320E-02  1.1281E-02  1.1275E-02  1.1035E-02  1.1058E-02
  5  1.9139E-02  1.9117E-02  1.8875E-02  1.8795E-02  1.9180E-02  1.9562E-02  1.9178E-02  1.9008E-02  1.8895E-02
  6  0.0000E+00  1.1630E-04  0.0000E+00  0.0000E+00  0.0000E+00  4.0033E-05  2.8006E-04  4.5865E-04  5.9817E-05
  7  0.0000E+00  2.2375E-04  3.2673E-04  0.0000E+00  0.0000E+00  0.0000E+00  0.0000E+00  0.0000E+00  0.0000E+00
  8  0.0000E+00  5.1377E-04  0.0000E+00  0.0000E+00  0.0000E+00  0.0000E+00  2.5111E-04  0.0000E+00  8.2392E-06
  9  0.0000E+00  6.0970E-04  0.0000E+00  2.1063E-03  2.2078E-04  0.0000E+00  5.1712E-03  0.0000E+00  0.0000E+00
 10  0.0000E+00  2.4267E-03  0.0000E+00  0.0000E+00  0.0000E+00  8.7671E-04  6.4090E-04  1.0132E-02  0.0000E+00
 11  0.0000E+00  5.2252E-03  1.5963E-03  0.0000E+00  0.0000E+00  1.4201E-02  1.4457E-02  0.0000E+00  0.0000E+00
 12  0.0000E+00  2.1637E-02  3.4092E-02  3.8556E-02  4.8314E-02  1.0525E-03  2.5583E-02  2.8632E-02  5.8422E-03
 13  4.7131E-01  2.9484E-01  5.3555E-01  3.4866E-01  2.7817E-01  3.1891E-01  3.8591E-01  4.8720E-01  3.7051E-01
 14  7.2398E+00  5.8943E+00  6.2880E+00  6.1407E+00  6.4935E+00  5.5876E+00  6.2068E+00  6.0101E+00  6.4421E+00
 15  5.0351E+00  5.9992E+00  5.3618E+00  5.8158E+00  5.7403E+00  6.3942E+00  5.8879E+00  5.9187E+00  6.0164E+00
 16  0.0000E+00  4.3495E-05  0.0000E+00  0.0000E+00  0.0000E+00  0.0000E+00  1.7968E-04  9.5088E-05  0.0000E+00
 17  0.0000E+00  7.3424E-06  4.5647E-06  0.0000E+00  0.0000E+00  0.0000E+00  0.0000E+00  0.0000E+00  2.5361E-05
 18  2.1276E-03  1.9881E-03  2.0411E-03  1.9664E-03  2.0417E-03  1.9887E-03  1.9615E-03  2.0021E-03  1.9666E-03
 19  0.0000E+00  1.3097E-04  2.9540E-04  0.0000E+00  6.7326E-05  0.0000E+00  0.0000E+00  0.0000E+00  3.6427E-04
 20  0.0000E+00  1.0780E-04  0.0000E+00  2.4478E-04  0.0000E+00  8.9231E-06  0.0000E+00  0.0000E+00  0.0000E+00
 21  0.0000E+00  1.5789E-04  0.0000E+00  1.7997E-04  6.6278E-04  0.0000E+00  0.0000E+00  0.0000E+00  1.4436E-04
 22  0.0000E+00  2.1183E-04  0.0000E+00  0.0000E+00  0.0000E+00  0.0000E+00  0.0000E+00  0.0000E+00  0.0000E+00
 23  0.0000E+00  2.4733E-04  0.0000E+00  2.4658E-03  0.0000E+00  0.0000E+00  0.0000E+00  0.0000E+00  0.0000E+00
 24  0.0000E+00  8.0157E-04  0.0000E+00  0.0000E+00  0.0000E+00  2.3572E-03  0.0000E+00  0.0000E+00  1.2704E-04
 25  0.0000E+00  2.4178E-03  0.0000E+00  0.0000E+00  0.0000E+00  0.0000E+00  0.0000E+00  0.0000E+00  1.5815E-03
 26  0.0000E+00  1.4123E-02  8.3622E-03  0.0000E+00  3.0416E-02  0.0000E+00  0.0000E+00  0.0000E+00  3.1889E-02
 27  0.0000E+00  3.8292E-02  0.0000E+00  0.0000E+00  4.4840E-03  5.8889E-03  0.0000E+00  2.3883E-03  0.0000E+00
 28  0.0000E+00  1.5789E-01  9.9827E-02  0.0000E+00  8.6676E-02  6.5598E-02  2.2006E-01  7.8509E-02  3.3793E-01
 29  1.9760E+01  1.9779E+01  1.9973E+01  1.9685E+01  2.0060E+01  1.9578E+01  1.9249E+01  1.9173E+01  1.9693E+01
 30  6.5295E+01  6.5178E+01  6.4932E+01  6.5412E+01  6.4729E+01  6.5677E+01  6.5571E+01  6.5469E+01  6.4235E+01
 31  0.0000E+00  1.7603E-05  0.0000E+00  0.0000E+00  1.4642E-05  0.0000E+00  0.0000E+00  0.0000E+00  0.0000E+00
 32  0.0000E+00  1.0515E-05  3.4958E-06  0.0000E+00  2.4626E-05  0.0000E+00  0.0000E+00  0.0000E+00  0.0000E+00
 33  0.0000E+00  1.3859E-05  0.0000E+00  0.0000E+00  0.0000E+00  0.0000E+00  0.0000E+00  2.5425E-05  0.0000E+00
 34  0.0000E+00  5.2104E-05  1.0381E-04  0.0000E+00  0.0000E+00  0.0000E+00  7.9007E-06  0.0000E+00  2.5622E-04
 35  0.0000E+00  1.2223E-04  0.0000E+00  0.0000E+00  0.0000E+00  0.0000E+00  0.0000E+00  0.0000E+00  0.0000E+00
 36  0.0000E+00  1.2189E-04  0.0000E+00  0.0000E+00  0.0000E+00  0.0000E+00  0.0000E+00  2.6170E-04  0.0000E+00
 37  0.0000E+00  1.6587E-04  0.0000E+00  0.0000E+00  1.7930E-04  0.0000E+00  0.0000E+00  0.0000E+00  7.0261E-06
 38  0.0000E+00  4.1185E-04  0.0000E+00  0.0000E+00  0.0000E+00  0.0000E+00  0.0000E+00  0.0000E+00  0.0000E+00
 39  0.0000E+00  1.5718E-03  1.1645E-02  0.0000E+00  1.5370E-02  6.0673E-03  0.0000E+00  0.0000E+00  0.0000E+00
 40  0.0000E+00  5.7763E-03  0.0000E+00  2.6349E-03  0.0000E+00  3.0150E-03  0.0000E+00  0.0000E+00  9.4559E-03
 41  0.0000E+00  2.8426E-02  0.0000E+00  7.5348E-03  1.2365E-03  1.0297E-02  0.0000E+00  0.0000E+00  3.2605E-02
 42  0.0000E+00  1.0339E-01  6.3363E-02  2.5066E-02  4.9892E-03  0.0000E+00  9.8623E-02  8.8081E-02  0.0000E+00
 43  2.1613E+00  5.6177E-01  4.5326E-01  5.3898E-01  6.6057E-01  8.6343E-01  6.3742E-01  5.7840E-01  7.3609E-01
 44  0.0000E+00  6.8170E-01  1.0411E+00  8.0286E-01  5.8081E-01  3.4097E-01  6.2656E-01  1.0902E+00  4.3455E-01
 45  0.0000E+00  1.1889E+00  1.1596E+00  1.1405E+00  1.2287E+00  1.0931E+00  1.0334E+00  1.0291E+00  1.6163E+00

# AV, chi2 & Mass for <> & i_chain = 1 ...  7 solutions
AV       1.5987      1.5955      1.5960      1.5968      1.5986      1.5952      1.5971      1.5952      1.5971
chi2 2.4787E+00  2.4977E+00  2.4921E+00  2.4897E+00  2.4913E+00  2.4929E+00  2.4903E+00  2.4892E+00  2.4916E+00
Mass 8.4328E-10  8.5135E-10  8.5190E-10  8.5529E-10  8.5282E-10  8.5345E-10  8.5137E-10  8.5202E-10  8.4952E-10
 -32.08                                  [v0_min (km/s) before EX0s...]
  81.95                                  [vd_min (km/s) before EX0s...]


## Synthetic spectrum (Best Model) ##l_obs f_obs f_syn wei
 3070    [Nl_obs]
 3359.00    0.23337   0.34289   -1.000
 3360.00    0.21837   0.32970   -1.000
 3361.00    0.24356   0.33946   -1.000
 3362.00    0.23956   0.36614   -1.000
 3363.00    0.23084   0.39452   -1.000
 3364.00    0.25042   0.40968   -1.000
 3365.00    0.27942   0.40523   -1.000
 3366.00    0.28410   0.38640   -1.000
 3367.00    0.27359   0.36433   -1.000
 3368.00    0.28991   0.34726   -1.000
 3369.00    0.28567   0.33830   -1.000
 3370.00    0.25771   0.33537   -1.000
 3371.00    0.25819   0.33762   -1.000
 3372.00    0.23897   0.34799   -1.000
 3373.00    0.24753   0.36829   -1.000
 3374.00    0.29404   0.39483   -1.000
 3375.00    0.29805   0.41853   -1.000
 3376.00    0.32900   0.42787   -1.000
 3377.00    0.31456   0.41829   -1.000
 3378.00    0.30032   0.39775   -1.000
 3379.00    0.29737   0.38000   -1.000
 3380.00    0.29424   0.37523   -1.000
 3381.00    0.30490   0.38439   -1.000
 3382.00    0.28439   0.39964   -1.000
 3383.00    0.27996   0.41385   -1.000
 3384.00    0.30399   0.42454   -1.000
 3385.00    0.31186   0.43161   -1.000
 3386.00    0.31179   0.43402   -1.000
 3387.00    0.30967   0.43298   -1.000
 3388.00    0.32856   0.43060   -1.000
 3389.00    0.35873   0.42643   -1.000
 3390.00    0.35335   0.41743   -1.000
 3391.00    0.34900   0.40440   -1.000
 3392.00    0.33566   0.39515   -1.000
 3393.00    0.31376   0.39729   -1.000
 3394.00    0.33522   0.41144   -1.000
 3395.00    0.33797   0.43126   -1.000
 3396.00    0.36227   0.44967   32.113
 3397.00    0.38269   0.46452   30.910
 3398.00    0.39716   0.47367   30.522
 3399.00    0.41046   0.47547   30.823
 3400.00    0.39901   0.47046   32.194
 3401.00    0.38993   0.45996   32.508
 3402.00    0.37780   0.44701   33.086
 3403.00    0.38746   0.43576   33.690
 3404.00    0.38664   0.42697   34.232
 3405.00    0.39997   0.41927   34.386
 3406.00    0.38835   0.41250   34.944
 3407.00    0.41083   0.40925   35.120
 3408.00    0.39318   0.41178   34.878
 3409.00    0.39011   0.41815   33.813
 3410.00    0.39481   0.42168   33.594
 3411.00    0.39772   0.41547   35.081
 3412.00    0.40469   0.40117   35.693
 3413.00    0.39231   0.38761   35.582
 3414.00    0.38724   0.38416   34.664
 3415.00    0.41341   0.39445   33.156
 3416.00    0.38986   0.41399   31.580
 3417.00    0.37944   0.43639   30.012
 3418.00    0.39227   0.45605   29.915
 3419.00    0.43447   0.46885   29.714
 3420.00    0.43502   0.47011   29.921
 3421.00    0.41261   0.45993   30.812
 3422.00    0.42448   0.44576   31.465
 3423.00    0.43906   0.43704   30.534
 3424.00    0.43753   0.43547   29.747
 3425.00    0.42272   0.43868   30.307
 3426.00    0.40628   0.44556   -1.000
 3427.00    0.43439   0.45751   -1.000
 3428.00    0.46855   0.47327  262.234
 3429.00    0.45652   0.48332   -1.000
 3430.00    0.46242   0.47854   -1.000
 3431.00    0.42555   0.46246   29.721
 3432.00    0.43743   0.44643   30.337
 3433.00    0.43546   0.44076  262.234
 3434.00    0.41541   0.44420   -1.000
 3435.00    0.39752   0.44688   29.554
 3436.00    0.41353   0.44116   30.969
 3437.00    0.42415   0.42437   32.863
 3438.00    0.41542   0.39817   35.454
 3439.00    0.39753   0.36806   36.818
 3440.00    0.36676   0.34277   36.855
 3441.00    0.35230   0.32992   36.647
 3442.00    0.33824   0.33234   35.152
 3443.00    0.33681   0.34459   33.218
 3444.00    0.37316   0.36029   31.404
 3445.00    0.39330   0.37728   31.417
 3446.00    0.37939   0.39668   -1.000
 3447.00    0.40564   0.41842   -1.000
 3448.00    0.45490   0.43935   -1.000
 3449.00    0.47329   0.45177   -1.000
 3450.00    0.46086   0.45039   -1.000
 3451.00    0.45353   0.43982   -1.000
 3452.00    0.43094   0.43124  262.234
 3453.00    0.44459   0.43161   -1.000
 3454.00    0.46330   0.43822   -1.000
 3455.00    0.46176   0.44082   -1.000
 3456.00    0.42525   0.43286  205.321
 3457.00    0.43568   0.41609   29.618
 3458.00    0.43166   0.39773   29.995
 3459.00    0.42753   0.38506   31.076
 3460.00    0.43251   0.38148   -1.000
 3461.00    0.42596   0.38974   -1.000
 3462.00    0.41029   0.40672  262.234
 3463.00    0.42658   0.42166  262.234
 3464.00    0.45103   0.42634   -1.000
 3465.00    0.46883   0.42553   -1.000
 3466.00    0.45024   0.42773   -1.000
 3467.00    0.43358   0.43714  251.780
 3468.00    0.46198   0.45019   -1.000
 3469.00    0.47961   0.45911   -1.000
 3470.00    0.48296   0.45818   -1.000
 3471.00    0.46732   0.44508   -1.000
 3472.00    0.47113   0.42276   -1.000
 3473.00    0.43081   0.39733   29.906
 3474.00    0.42313   0.37681   30.942
 3475.00    0.41919   0.36880   31.862
 3476.00    0.42322   0.37722   -1.000
 3477.00    0.42374   0.39659   -1.000
 3478.00    0.41528   0.41736  253.713
 3479.00    0.45796   0.43150   -1.000
 3480.00    0.46999   0.43599   -1.000
 3481.00    0.46026   0.43167   -1.000
 3482.00    0.42696   0.42318  259.029
 3483.00    0.42789   0.41829  253.022
 3484.00    0.46979   0.42354   -1.000
 3485.00    0.47486   0.43753   -1.000
 3486.00    0.47944   0.44957   -1.000
 3487.00    0.46927   0.44831   -1.000
 3488.00    0.47499   0.43131   -1.000
 3489.00    0.47059   0.40873   -1.000
 3490.00    0.42385   0.39385   -1.000
 3491.00    0.41867   0.39305   -1.000
 3492.00    0.44282   0.40218   -1.000
 3493.00    0.45146   0.41171   -1.000
 3494.00    0.44149   0.41432   -1.000
 3495.00    0.42504   0.41037   -1.000
 3496.00    0.40460   0.40942  262.234
 3497.00    0.39744   0.42053   -1.000
 3498.00    0.40779   0.44224   -1.000
 3499.00    0.44503   0.46279   -1.000
 3500.00    0.48110   0.47532  230.794
 3501.00    0.48513   0.48395  229.708
 3502.00    0.50481   0.49053   -1.000
 3503.00    0.53826   0.49158   -1.000
 3504.00    0.52135   0.48519   -1.000
 3505.00    0.51833   0.47536   -1.000
 3506.00    0.52133   0.46811   -1.000
 3507.00    0.50649   0.46380   -1.000
 3508.00    0.49388   0.45743   -1.000
 3509.00    0.47540   0.44683   -1.000
 3510.00    0.46918   0.43435   -1.000
 3511.00    0.46737   0.42160   -1.000
 3512.00    0.48167   0.40996   -1.000
 3513.00    0.46451   0.40359   -1.000
 3514.00    0.44693   0.41046   -1.000
 3515.00    0.45019   0.43347   -1.000
 3516.00    0.44400   0.46303   -1.000
 3517.00    0.46759   0.48368   -1.000
 3518.00    0.49488   0.48580  251.325
 3519.00    0.49414   0.46995   -1.000
 3520.00    0.48424   0.44494   -1.000
 3521.00    0.45440   0.41934   -1.000
 3522.00    0.44244   0.39755   29.674
 3523.00    0.45054   0.37945   30.644
 3524.00    0.42311   0.36922   32.932
 3525.00    0.39017   0.37323   -1.000
 3526.00    0.38795   0.39300  262.234
 3527.00    0.40223   0.42242   -1.000
 3528.00    0.43608   0.45026   -1.000
 3529.00    0.46903   0.46602  251.189
 3530.00    0.49082   0.46857   -1.000
 3531.00    0.47284   0.46563  249.374
 3532.00    0.46897   0.46730  245.069
 3533.00    0.47055   0.47563  239.965
 3534.00    0.50124   0.48574   -1.000
 3535.00    0.51216   0.49215   -1.000
 3536.00    0.50876   0.49551   -1.000
 3537.00    0.49708   0.50043  232.546
 3538.00    0.52070   0.50591   -1.000
 3539.00    0.51607   0.50629  239.158
 3540.00    0.51336   0.50070   -1.000
 3541.00    0.51640   0.49566   -1.000
 3542.00    0.51629   0.49824   -1.000
 3543.00    0.51261   0.50631  235.472
 3544.00    0.50199   0.51211  240.030
 3545.00    0.49293   0.51136   -1.000
 3546.00    0.47369   0.50614   -1.000
 3547.00    0.47618   0.50217   -1.000
 3548.00    0.49770   0.50149  243.958
 3549.00    0.49344   0.50124  247.819
 3550.00    0.48490   0.49713  255.592
 3551.00    0.47224   0.48710   -1.000
 3552.00    0.46453   0.47411  262.234
 3553.00    0.44822   0.46471   -1.000
 3554.00    0.45960   0.46337  257.906
 3555.00    0.46028   0.46710  259.460
 3556.00    0.45718   0.46932  262.234
 3557.00    0.45625   0.46752  262.234
 3558.00    0.45128   0.46520   -1.000
 3559.00    0.44491   0.46852   -1.000
 3560.00    0.43029   0.47821   -1.000
 3561.00    0.45968   0.48685   -1.000
 3562.00    0.46843   0.48303  146.361
 3563.00    0.47374   0.46001   30.017
 3564.00    0.43438   0.42587   31.080
 3565.00    0.42616   0.39831   30.725
 3566.00    0.38522   0.38752   30.688
 3567.00    0.38723   0.38485   31.700
 3568.00    0.40525   0.37892   32.097
 3569.00    0.39629   0.37006   31.022
 3570.00    0.38459   0.36757   33.099
 3571.00    0.38110   0.37736  262.234
 3572.00    0.37819   0.39440   -1.000
 3573.00    0.42849   0.40946   -1.000
 3574.00    0.45195   0.41894   -1.000
 3575.00    0.43220   0.42153   -1.000
 3576.00    0.42690   0.41601  147.811
 3577.00    0.42522   0.40078   31.160
 3578.00    0.41214   0.37717   33.574
 3579.00    0.39704   0.35109   35.217
 3580.00    0.36424   0.33216   35.418
 3581.00    0.35172   0.32554   35.651
 3582.00    0.34751   0.32846   36.596
 3583.00    0.33608   0.33176   37.728
 3584.00    0.34914   0.33024   37.943
 3585.00    0.34654   0.32727   35.982
 3586.00    0.34473   0.33046   34.084
 3587.00    0.35854   0.34437   32.250
 3588.00    0.38055   0.36831   33.333
 3589.00    0.38544   0.39791   -1.000
 3590.00    0.39268   0.42483   -1.000
 3591.00    0.41540   0.44220   -1.000
 3592.00    0.45554   0.44929  258.100
 3593.00    0.48016   0.45464   -1.000
 3594.00    0.46869   0.46625  237.651
 3595.00    0.45463   0.48442   -1.000
 3596.00    0.48504   0.50287   -1.000
 3597.00    0.48836   0.51712   -1.000
 3598.00    0.50329   0.52744   -1.000
 3599.00    0.52441   0.53058  237.311
 3600.00    0.52625   0.52091  250.445
 3601.00    0.52931   0.49845   -1.000
 3602.00    0.51302   0.47083   -1.000
 3603.00    0.49115   0.44747   -1.000
 3604.00    0.45710   0.43403   -1.000
 3605.00    0.43998   0.42746   -1.000
 3606.00    0.46152   0.42016   -1.000
 3607.00    0.44362   0.40879   -1.000
 3608.00    0.41608   0.39936   -1.000
 3609.00    0.41810   0.40156   -1.000
 3610.00    0.42550   0.41702  260.139
 3611.00    0.45633   0.43754   -1.000
 3612.00    0.49548   0.45485   -1.000
 3613.00    0.48514   0.46933   -1.000
 3614.00    0.47843   0.47976  244.436
 3615.00    0.48798   0.47845  262.234
 3616.00    0.49047   0.45792   -1.000
 3617.00    0.46930   0.42482   33.628
 3618.00    0.44062   0.40051   -1.000
 3619.00    0.42504   0.40339   -1.000
 3620.00    0.43374   0.42955  236.932
 3621.00    0.45381   0.46412  231.753
 3622.00    0.47684   0.49344   -1.000
 3623.00    0.50729   0.51657  219.346
 3624.00    0.52470   0.54002   -1.000
 3625.00    0.55448   0.56604  208.965
 3626.00    0.56106   0.58610   -1.000
 3627.00    0.58331   0.58763  229.239
 3628.00    0.57626   0.56219   -1.000
 3629.00    0.56207   0.51499   -1.000
 3630.00    0.51995   0.46586   -1.000
 3631.00    0.47042   0.43736   -1.000
 3632.00    0.44034   0.43494  257.730
 3633.00    0.44907   0.45069  251.248
 3634.00    0.44900   0.47078   -1.000
 3635.00    0.47224   0.48876   -1.000
 3636.00    0.51635   0.50611  220.061
 3637.00    0.53627   0.52716  213.805
 3638.00    0.56281   0.54910  214.509
 3639.00    0.56193   0.56390  220.298
 3640.00    0.58702   0.56497   -1.000
 3641.00    0.58043   0.55164   -1.000
 3642.00    0.54461   0.53027   -1.000
 3643.00    0.50458   0.50803  250.739
 3644.00    0.48808   0.48777  254.687
 3645.00    0.48634   0.46910   -1.000
 3646.00    0.47434   0.45250   -1.000
 3647.00    0.45979   0.44306   -1.000
 3648.00    0.46844   0.44775   -1.000
 3649.00    0.46627   0.46770  228.037
 3650.00    0.49480   0.49883  219.129
 3651.00    0.52636   0.53194  214.178
 3652.00    0.54084   0.55879   -1.000
 3653.00    0.56519   0.57501  210.635
 3654.00    0.57128   0.58535   -1.000
 3655.00    0.57662   0.59579   -1.000
 3656.00    0.60000   0.60899  202.884
 3657.00    0.61000   0.62189  203.131
 3658.00    0.60702   0.62963   -1.000
 3659.00    0.62398   0.63075  205.777
 3660.00    0.62336   0.62456  208.205
 3661.00    0.60522   0.61237  211.484
 3662.00    0.58906   0.59844  212.345
 3663.00    0.58264   0.58867  210.143
 3664.00    0.58612   0.58477  211.054
 3665.00    0.58433   0.58383  215.248
 3666.00    0.58919   0.57976  218.077
 3667.00    0.58705   0.57001   -1.000
 3668.00    0.58720   0.55985   -1.000
 3669.00    0.57577   0.55869   -1.000
 3670.00    0.56339   0.57040  208.284
 3671.00    0.57335   0.58752   -1.000
 3672.00    0.59478   0.59994  207.783
 3673.00    0.61276   0.60303  209.300
 3674.00    0.61190   0.59641   -1.000
 3675.00    0.61563   0.58082   -1.000
 3676.00    0.59656   0.55816   -1.000
 3677.00    0.56998   0.53294   -1.000
 3678.00    0.54536   0.51217   -1.000
 3679.00    0.51758   0.50346   -1.000
 3680.00    0.52802   0.50944   -1.000
 3681.00    0.54242   0.52468   -1.000
 3682.00    0.54676   0.53831  225.558
 3683.00    0.55291   0.54071   -1.000
 3684.00    0.53049   0.52693  243.634
 3685.00    0.51506   0.50269   -1.000
 3686.00    0.50939   0.48301   -1.000
 3687.00    0.50427   0.48356   -1.000
 3688.00    0.51349   0.50712  207.836
 3689.00    0.53636   0.54457  203.119
 3690.00    0.57889   0.57864  205.556
 3691.00    0.62280   0.59523   -1.000
 3692.00    0.61383   0.59206   -1.000
 3693.00    0.61172   0.58025   -1.000
 3694.00    0.60368   0.57146   -1.000
 3695.00    0.58363   0.57081  206.287
 3696.00    0.57839   0.58053  199.718
 3697.00    0.60522   0.59918  195.135
 3698.00    0.62411   0.62049  193.765
 3699.00    0.63253   0.63394  198.574
 3700.00    0.64894   0.63122   -1.000
 3701.00    0.64155   0.60689   -1.000
 3702.00    0.62781   0.56297   -1.000
 3703.00    0.58555   0.51066   -1.000
 3704.00    0.54212   0.46723   -1.000
 3705.00    0.50932   0.44303   -1.000
 3706.00    0.48015   0.43939   -1.000
 3707.00    0.49047   0.44801   -1.000
 3708.00    0.49292   0.46452   -1.000
 3709.00    0.51418   0.48929   -1.000
 3710.00    0.54706   0.52234   -1.000
 3711.00    0.59267   0.55941   -1.000
 3712.00    0.63607   0.59427   -1.000
 3713.00    0.64961   0.61780   -1.000
 3714.00    0.66132   0.62370   -1.000
 3715.00    0.65914   0.61080   -1.000
 3716.00    0.63189   0.57986   -1.000
 3717.00    0.60990   0.53227   -1.000
 3718.00    0.54925   0.47430   -1.000
 3719.00    0.48749   0.41961   36.554
 3720.00    0.42964   0.38643   -1.000
 3721.00    0.41561   0.38754   -1.000
 3722.00    0.43929   0.41893   -1.000
 3723.00    0.47061   0.46573  213.810
 3724.00    0.53016   0.50764   -1.000
 3725.00    0.56076   0.52900   -1.000
 3726.00    0.56836   0.53067   -1.000
 3727.00    0.53741   0.52723  220.904
 3728.00    0.51678   0.52707  224.891
 3729.00    0.52932   0.52304  238.113
 3730.00    0.55109   0.50318   -1.000
 3731.00    0.52984   0.46312   30.163
 3732.00    0.47457   0.41121   33.321
 3733.00    0.42955   0.36405   33.912
 3734.00    0.39572   0.33447   31.850
 3735.00    0.37641   0.33200   36.174
 3736.00    0.39470   0.35695   -1.000
 3737.00    0.43291   0.40282   -1.000
 3738.00    0.46440   0.45693  220.480
 3739.00    0.50418   0.50376  221.474
 3740.00    0.53256   0.52732  231.502
 3741.00    0.54354   0.52332   -1.000
 3742.00    0.53220   0.49783   -1.000
 3743.00    0.51175   0.46412   -1.000
 3744.00    0.48555   0.43298   -1.000
 3745.00    0.45026   0.40876   30.305
 3746.00    0.42001   0.38693   31.929
 3747.00    0.40932   0.36676   39.851
 3748.00    0.39976   0.35624   -1.000
 3749.00    0.38595   0.36719   -1.000
 3750.00    0.41578   0.40378  224.221
 3751.00    0.47038   0.45639  208.564
 3752.00    0.51446   0.51031  199.194
 3753.00    0.55826   0.55455  198.650
 3754.00    0.59985   0.57740   -1.000
 3755.00    0.60001   0.56890   -1.000
 3756.00    0.57344   0.53388   -1.000
 3757.00    0.54148   0.49223   -1.000
 3758.00    0.50689   0.46664   -1.000
 3759.00    0.48749   0.46567   -1.000
 3760.00    0.49511   0.47838   -1.000
 3761.00    0.51755   0.49020   -1.000
 3762.00    0.52909   0.49444   -1.000
 3763.00    0.52212   0.49372   -1.000
 3764.00    0.52518   0.49059   -1.000
 3765.00    0.53523   0.48560   -1.000
 3766.00    0.52804   0.48177   -1.000
 3767.00    0.52740   0.48287   -1.000
 3768.00    0.53217   0.48858   -1.000
 3769.00    0.56327   0.49774   -1.000
 3770.00    0.57867   0.51199   -1.000
 3771.00    0.58379   0.53238   -1.000
 3772.00    0.60928   0.55454   -1.000
 3773.00    0.63306   0.57183   -1.000
 3774.00    0.62980   0.58158   -1.000
 3775.00    0.62257   0.58813   -1.000
 3776.00    0.61374   0.59615   -1.000
 3777.00    0.62551   0.60748   -1.000
 3778.00    0.62246   0.62158  188.662
 3779.00    0.62515   0.63589  187.472
 3780.00    0.62258   0.64788   -1.000
 3781.00    0.65050   0.65549  187.767
 3782.00    0.67723   0.65695   -1.000
 3783.00    0.67100   0.64803   -1.000
 3784.00    0.64708   0.62457   -1.000
 3785.00    0.61291   0.58942   -1.000
 3786.00    0.58238   0.55283   -1.000
 3787.00    0.53896   0.52519   -1.000
 3788.00    0.53887   0.51278   -1.000
 3789.00    0.54399   0.51479   -1.000
 3790.00    0.52712   0.52264  230.587
 3791.00    0.53257   0.52505  239.248
 3792.00    0.54261   0.51561   -1.000
 3793.00    0.52212   0.49630   -1.000
 3794.00    0.50284   0.47419   -1.000
 3795.00    0.49588   0.45198   -1.000
 3796.00    0.47914   0.43027   -1.000
 3797.00    0.45474   0.41444   -1.000
 3798.00    0.44708   0.41686   -1.000
 3799.00    0.46544   0.44422   -1.000
 3800.00    0.49746   0.48881  212.220
 3801.00    0.50950   0.53484   -1.000
 3802.00    0.54054   0.57065   -1.000
 3803.00    0.57739   0.58889  212.955
 3804.00    0.58384   0.58940  220.204
 3805.00    0.56948   0.57820  221.796
 3806.00    0.54522   0.56797   -1.000
 3807.00    0.53414   0.56948   -1.000
 3808.00    0.54801   0.58299   -1.000
 3809.00    0.56782   0.59675   -1.000
 3810.00    0.57449   0.59711   -1.000
 3811.00    0.57061   0.57816  239.749
 3812.00    0.54534   0.54454  253.263
 3813.00    0.51147   0.50830  260.518
 3814.00    0.47741   0.48118  254.227
 3815.00    0.44798   0.47028   -1.000
 3816.00    0.45261   0.47030   -1.000
 3817.00    0.46702   0.46783  262.234
 3818.00    0.47683   0.45429   -1.000
 3819.00    0.44957   0.43624   -1.000
 3820.00    0.42006   0.42769  262.234
 3821.00    0.42615   0.43169  262.234
 3822.00    0.43063   0.43624   91.111
 3823.00    0.42893   0.42803   31.088
 3824.00    0.41444   0.40940   31.498
 3825.00    0.39603   0.39289   31.145
 3826.00    0.38491   0.38602   30.634
 3827.00    0.38062   0.38867   30.367
 3828.00    0.38261   0.39505   31.029
 3829.00    0.39987   0.39769   32.749
 3830.00    0.40720   0.39112   34.979
 3831.00    0.39342   0.37550   35.532
 3832.00    0.37316   0.35661   34.590
 3833.00    0.35963   0.34254   33.352
 3834.00    0.36218   0.33820   33.023
 3835.00    0.37893   0.34168   33.784
 3836.00    0.37549   0.34719   34.209
 3837.00    0.37573   0.35110   33.184
 3838.00    0.37650   0.35707   41.817
 3839.00    0.37813   0.37258  262.234
 3840.00    0.38170   0.40184   -1.000
 3841.00    0.41543   0.44125   -1.000
 3842.00    0.45482   0.48042   -1.000
 3843.00    0.47229   0.51048   -1.000
 3844.00    0.48828   0.52767   -1.000
 3845.00    0.50182   0.53591   -1.000
 3846.00    0.49646   0.53851   -1.000
 3847.00    0.48283   0.53503   -1.000
 3848.00    0.47679   0.52639   -1.000
 3849.00    0.46777   0.51924   -1.000
 3850.00    0.47097   0.51995   -1.000
 3851.00    0.48451   0.52670   -1.000
 3852.00    0.48041   0.53030   -1.000
 3853.00    0.47169   0.52447   -1.000
 3854.00    0.47309   0.51019   -1.000
 3855.00    0.45250   0.49270   -1.000
 3856.00    0.44562   0.47445   29.780
 3857.00    0.45045   0.45604   30.936
 3858.00    0.44969   0.44260   40.546
 3859.00    0.43021   0.44374   -1.000
 3860.00    0.40886   0.46343   -1.000
 3861.00    0.42562   0.49432   -1.000
 3862.00    0.48187   0.52089   -1.000
 3863.00    0.51349   0.53283   -1.000
 3864.00    0.51662   0.53181   -1.000
 3865.00    0.51561   0.52666  251.557
 3866.00    0.50795   0.52269   -1.000
 3867.00    0.48689   0.51843   -1.000
 3868.00    0.47229   0.50934   82.260
 3869.00    0.46228   0.49381   39.998
 3870.00    0.44703   0.47730   -1.000
 3871.00    0.43754   0.47086   -1.000
 3872.00    0.43984   0.48145   -1.000
 3873.00    0.46298   0.50606   -1.000
 3874.00    0.51057   0.52998   -1.000
 3875.00    0.53620   0.53726  260.627
 3876.00    0.53022   0.52395  262.234
 3877.00    0.50449   0.50340  262.234
 3878.00    0.47757   0.49041  262.234
 3879.00    0.48236   0.48778  262.234
 3880.00    0.48990   0.49078  262.234
 3881.00    0.48222   0.49544  244.825
 3882.00    0.48602   0.50103   -1.000
 3883.00    0.50032   0.50297  243.253
 3884.00    0.51348   0.49191   -1.000
 3885.00    0.51199   0.46691   -1.000
 3886.00    0.48666   0.44052   -1.000
 3887.00    0.49200   0.42837   -1.000
 3888.00    0.51149   0.43989   -1.000
 3889.00    0.53541   0.47376   -1.000
 3890.00    0.58371   0.51931   -1.000
 3891.00    0.62629   0.56118   -1.000
 3892.00    0.62950   0.58686   -1.000
 3893.00    0.62528   0.59438   -1.000
 3894.00    0.61195   0.59395   -1.000
 3895.00    0.60725   0.59556  193.026
 3896.00    0.62214   0.60021   -1.000
 3897.00    0.63303   0.60301   -1.000
 3898.00    0.64218   0.60192   -1.000
 3899.00    0.63920   0.60115   -1.000
 3900.00    0.63472   0.60332   -1.000
 3901.00    0.64637   0.60388   -1.000
 3902.00    0.65627   0.59772   -1.000
 3903.00    0.63086   0.58595   -1.000
 3904.00    0.60740   0.57618   -1.000
 3905.00    0.59213   0.57818  196.298
 3906.00    0.60199   0.59593  185.768
 3907.00    0.64880   0.62538   -1.000
 3908.00    0.68717   0.65579   -1.000
 3909.00    0.71004   0.67840   -1.000
 3910.00    0.72477   0.69151   -1.000
 3911.00    0.73289   0.69778   -1.000
 3912.00    0.73741   0.69808   -1.000
 3913.00    0.71901   0.69274   -1.000
 3914.00    0.70309   0.68313   -1.000
 3915.00    0.70979   0.67104   -1.000
 3916.00    0.69412   0.65646   -1.000
 3917.00    0.67409   0.63739   -1.000
 3918.00    0.65696   0.61274   -1.000
 3919.00    0.64206   0.58658   -1.000
 3920.00    0.62150   0.56671   -1.000
 3921.00    0.59338   0.55859   -1.000
 3922.00    0.58808   0.56109   -1.000
 3923.00    0.59560   0.56487   -1.000
 3924.00    0.59154   0.55927   -1.000
 3925.00    0.58228   0.53888   -1.000
 3926.00    0.55964   0.50512   34.364
 3927.00    0.51403   0.46462   40.274
 3928.00    0.44817   0.42340   47.280
 3929.00    0.37292   0.38519   55.782
 3930.00    0.31662   0.34989   63.909
 3931.00    0.28749   0.31837   66.850
 3932.00    0.28312   0.29505   61.776
 3933.00    0.28297   0.28679   52.605
 3934.00    0.28393   0.29879   43.358
 3935.00    0.30688   0.32891   35.907
 3936.00    0.34906   0.37025   45.223
 3937.00    0.39255   0.41574   -1.000
 3938.00    0.43583   0.45929   -1.000
 3939.00    0.48775   0.49435  252.499
 3940.00    0.53353   0.51739   -1.000
 3941.00    0.55454   0.52768   -1.000
 3942.00    0.54190   0.53122  230.242
 3943.00    0.52012   0.53817   -1.000
 3944.00    0.54162   0.55581  202.937
 3945.00    0.58826   0.58108  201.121
 3946.00    0.62883   0.60519   -1.000
 3947.00    0.64299   0.62435   -1.000
 3948.00    0.65600   0.64118  186.695
 3949.00    0.68689   0.65730   -1.000
 3950.00    0.72794   0.66884   -1.000
 3951.00    0.74262   0.67369   -1.000
 3952.00    0.72557   0.67717   -1.000
 3953.00    0.72102   0.68165   -1.000
 3954.00    0.73956   0.68257   -1.000
 3955.00    0.74481   0.67670   -1.000
 3956.00    0.71883   0.66739   -1.000
 3957.00    0.68975   0.65834   -1.000
 3958.00    0.69516   0.64346   -1.000
 3959.00    0.69735   0.61203   -1.000
 3960.00    0.62973   0.56528   -1.000
 3961.00    0.54799   0.51755   74.367
 3962.00    0.49462   0.47952   32.452
 3963.00    0.45387   0.45035   38.711
 3964.00    0.41933   0.41852   47.684
 3965.00    0.37773   0.37679   56.481
 3966.00    0.32798   0.33002   58.666
 3967.00    0.29923   0.29121   51.958
 3968.00    0.28977   0.27374   42.720
 3969.00    0.29654   0.28289   35.341
 3970.00    0.33027   0.31627   45.620
 3971.00    0.38326   0.36594   -1.000
 3972.00    0.43702   0.42332   -1.000
 3973.00    0.48963   0.48179  210.685
 3974.00    0.54441   0.53820  195.729
 3975.00    0.60313   0.59018  184.715
 3976.00    0.64993   0.63791  174.932
 3977.00    0.68972   0.68164  168.155
 3978.00    0.74278   0.71899   -1.000
 3979.00    0.78302   0.74516   -1.000
 3980.00    0.79605   0.75590   -1.000
 3981.00    0.79453   0.75529   -1.000
 3982.00    0.79354   0.75257   -1.000
 3983.00    0.80728   0.75629   -1.000
 3984.00    0.81128   0.76816   -1.000
 3985.00    0.81795   0.78507   -1.000
 3986.00    0.83543   0.80326   -1.000
 3987.00    0.85302   0.81814   -1.000
 3988.00    0.88257   0.82652   -1.000
 3989.00    0.88598   0.83071   -1.000
 3990.00    0.87078   0.83618   -1.000
 3991.00    0.87520   0.84495   -1.000
 3992.00    0.89768   0.85271   -1.000
 3993.00    0.90238   0.85259   -1.000
 3994.00    0.90766   0.84239   -1.000
 3995.00    0.89600   0.82775   -1.000
 3996.00    0.86211   0.81880   -1.000
 3997.00    0.84226   0.82414  148.701
 3998.00    0.85116   0.84353  144.701
 3999.00    0.89950   0.86909   -1.000
 4000.00    0.94863   0.89073   -1.000
 4001.00    0.95790   0.90040   -1.000
 4002.00    0.96483   0.89126   -1.000
 4003.00    0.96137   0.86284   -1.000
 4004.00    0.92522   0.82792   -1.000
 4005.00    0.87618   0.80883   -1.000
 4006.00    0.85855   0.81829   -1.000
 4007.00    0.87351   0.84862   -1.000
 4008.00    0.91760   0.88105   -1.000
 4009.00    0.95266   0.90281   -1.000
 4010.00    0.96754   0.91447   -1.000
 4011.00    0.97906   0.92111   -1.000
 4012.00    0.99861   0.92665   -1.000
 4013.00    1.00000   0.93240   -1.000
 4014.00    1.01008   0.93680   -1.000
 4015.00    1.01447   0.93794   -1.000
 4016.00    1.00350   0.93774   -1.000
 4017.00    1.00202   0.94070   -1.000
 4018.00    1.01262   0.94759   -1.000
 4019.00    1.01526   0.95372   -1.000
 4020.00    1.01870   0.95440   -1.000
 4021.00    1.01343   0.94860   -1.000
 4022.00    1.00623   0.93936   -1.000
 4023.00    1.00950   0.93094   -1.000
 4024.00    0.99659   0.92921   -1.000
 4025.00    1.00644   0.93869   -1.000
 4026.00    1.04132   0.95493   -1.000
 4027.00    1.05905   0.96207   -1.000
 4028.00    1.04219   0.94403   -1.000
 4029.00    1.00188   0.90041   -1.000
 4030.00    0.93595   0.84849   -1.000
 4031.00    0.86851   0.80970   -1.000
 4032.00    0.83022   0.79498   -1.000
 4033.00    0.82634   0.80756  141.114
 4034.00    0.85238   0.84494  134.954
 4035.00    0.91309   0.89813  131.929
 4036.00    0.98883   0.95114   -1.000
 4037.00    1.04398   0.98732   -1.000
 4038.00    1.07064   0.99745   -1.000
 4039.00    1.06285   0.98851   -1.000
 4040.00    1.04056   0.97252   -1.000
 4041.00    1.01919   0.95008   -1.000
 4042.00    1.00791   0.90952   -1.000
 4043.00    0.97475   0.84786   -1.000
 4044.00    0.88112   0.78654   -1.000
 4045.00    0.78322   0.76113  146.240
 4046.00    0.78371   0.78915  139.383
 4047.00    0.85675   0.85252  136.446
 4048.00    0.94243   0.91759   -1.000
 4049.00    1.00601   0.96255   -1.000
 4050.00    1.04003   0.98042   -1.000
 4051.00    1.03264   0.97616   -1.000
 4052.00    1.00807   0.95862   -1.000
 4053.00    0.97675   0.93694   -1.000
 4054.00    0.94713   0.91680   -1.000
 4055.00    0.93276   0.89967   -1.000
 4056.00    0.91893   0.88730   -1.000
 4057.00    0.89985   0.88556  141.442
 4058.00    0.89889   0.89670  140.824
 4059.00    0.93826   0.90881   -1.000
 4060.00    0.96243   0.90190   -1.000
 4061.00    0.95757   0.86836   -1.000
 4062.00    0.90746   0.82469   -1.000
 4063.00    0.83811   0.79782   -1.000
 4064.00    0.82455   0.79969   -1.000
 4065.00    0.86532   0.82417   -1.000
 4066.00    0.91879   0.85745   -1.000
 4067.00    0.95008   0.88647   -1.000
 4068.00    0.97327   0.90046   -1.000
 4069.00    0.97414   0.89251   -1.000
 4070.00    0.94029   0.86946   -1.000
 4071.00    0.90665   0.85313   -1.000
 4072.00    0.90872   0.85778   -1.000
 4073.00    0.93529   0.87159   -1.000
 4074.00    0.94884   0.87122   -1.000
 4075.00    0.92971   0.84910   -1.000
 4076.00    0.88691   0.82468   -1.000
 4077.00    0.85923   0.82436   -1.000
 4078.00    0.87166   0.85679  139.061
 4079.00    0.91160   0.90818  137.712
 4080.00    0.97423   0.95259  141.195
 4081.00    1.01918   0.97165   -1.000
 4082.00    1.01356   0.96503   -1.000
 4083.00    0.99329   0.95019   -1.000
 4084.00    0.98012   0.94733   -1.000
 4085.00    0.99759   0.96527   -1.000
 4086.00    1.03439   0.99721   -1.000
 4087.00    1.07575   1.02750   -1.000
 4088.00    1.11050   1.04307   -1.000
 4089.00    1.11423   1.03959   -1.000
 4090.00    1.08276   1.02438   -1.000
 4091.00    1.05531   1.00784   -1.000
 4092.00    1.05227   0.99325   -1.000
 4093.00    1.04446   0.97471   -1.000
 4094.00    1.01900   0.94760   -1.000
 4095.00    0.97574   0.91495   -1.000
 4096.00    0.93344   0.88419   -1.000
 4097.00    0.90932   0.85653   -1.000
 4098.00    0.90009   0.82438   -1.000
 4099.00    0.87497   0.78391   -1.000
 4100.00    0.82530   0.74629   -1.000
 4101.00    0.78479   0.73255   -1.000
 4102.00    0.79056   0.75452   -1.000
 4103.00    0.83950   0.80465   -1.000
 4104.00    0.90354   0.86237   -1.000
 4105.00    0.94806   0.91011   -1.000
 4106.00    0.97595   0.93927   -1.000
 4107.00    0.97986   0.95037   -1.000
 4108.00    0.97435   0.94810   -1.000
 4109.00    0.96401   0.94077   -1.000
 4110.00    0.94699   0.93774  143.750
 4111.00    0.94594   0.94458  141.409
 4112.00    0.97272   0.96066  139.595
 4113.00    0.99756   0.98087  139.164
 4114.00    1.01066   0.99745  140.915
 4115.00    1.02376   1.00276  144.770
 4116.00    1.03040   0.99382   -1.000
 4117.00    1.01735   0.97596   -1.000
 4118.00    0.99595   0.95964   -1.000
 4119.00    0.97949   0.95287   -1.000
 4120.00    0.97293   0.95576  145.192
 4121.00    0.98132   0.96292  143.121
 4122.00    0.98623   0.97111  141.487
 4123.00    1.00008   0.98006  142.131
 4124.00    1.02373   0.98746   -1.000
 4125.00    1.03229   0.98800   -1.000
 4126.00    1.01336   0.97946   -1.000
 4127.00    0.97750   0.96569  149.125
 4128.00    0.96012   0.95042  152.318
 4129.00    0.96184   0.93166   -1.000
 4130.00    0.95785   0.90724   -1.000
 4131.00    0.91778   0.88340   -1.000
 4132.00    0.87485   0.87371  151.131
 4133.00    0.88246   0.88859  144.691
 4134.00    0.91670   0.92392  141.131
 4135.00    0.95141   0.96540  138.930
 4136.00    0.98643   1.00030  137.508
 4137.00    1.01646   1.02257  138.543
 4138.00    1.03126   1.03053  143.494
 4139.00    1.03439   1.02030  153.260
 4140.00    1.02116   0.98639   -1.000
 4141.00    0.98027   0.93403   -1.000
 4142.00    0.90022   0.88502  157.556
 4143.00    0.83113   0.86478   -1.000
 4144.00    0.83480   0.88098   -1.000
 4145.00    0.88312   0.91802   -1.000
 4146.00    0.93236   0.95044  150.123
 4147.00    0.96470   0.96338  153.285
 4148.00    0.96989   0.96057  153.716
 4149.00    0.95064   0.95332  152.644
 4150.00    0.93180   0.94818  152.855
 4151.00    0.93041   0.94376  154.856
 4152.00    0.92079   0.93708  154.349
 4153.00    0.90274   0.92900   -1.000
 4154.00    0.92330   0.92483  151.876
 4155.00    1.05924   0.93022   -1.000
 4156.00    1.11920   0.94660   -1.000
 4157.00    0.89281   0.97088   -1.000
 4158.00    0.77539   0.99772   -1.000
 4159.00    0.92954   1.02133   -1.000
 4160.00    1.01392   1.03920   -1.000
 4161.00    1.01618   1.05187   -1.000
 4162.00    1.03023   1.05789   -1.000
 4163.00    1.02980   1.05415   -1.000
 4164.00    1.01144   1.03928   -1.000
 4165.00    0.98815   1.01789   -1.000
 4166.00    0.96077   0.99985   -1.000
 4167.00    0.94502   0.99255   -1.000
 4168.00    0.95668   0.99180   -1.000
 4169.00    0.97449   0.98489  163.094
 4170.00    0.97067   0.96237  168.489
 4171.00    0.93664   0.93021  165.536
 4172.00    0.88133   0.90586   -1.000
 4173.00    0.85807   0.90155   -1.000
 4174.00    0.87819   0.91467   -1.000
 4175.00    0.89807   0.93245   -1.000
 4176.00    0.91127   0.94656   -1.000
 4177.00    0.91317   0.95815   -1.000
 4178.00    0.91574   0.96875   -1.000
 4179.00    0.93196   0.97504   -1.000
 4180.00    0.93801   0.97539   -1.000
 4181.00    0.94103   0.97584   -1.000
 4182.00    0.94643   0.98471   -1.000
 4183.00    0.96650   0.99941   -1.000
 4184.00    0.99184   1.00644  152.929
 4185.00    0.99203   0.99782  154.449
 4186.00    0.96344   0.98071  151.879
 4187.00    0.94053   0.97109   -1.000
 4188.00    0.94772   0.97688   -1.000
 4189.00    0.96508   0.99258   -1.000
 4190.00    0.97947   1.00989   -1.000
 4191.00    0.98624   1.02465   -1.000
 4192.00    1.01341   1.03298   -1.000
 4193.00    1.03972   1.02692  156.767
 4194.00    1.01603   1.00163  160.686
 4195.00    0.96107   0.96410  162.221
 4196.00    0.91248   0.92895  161.440
 4197.00    0.88484   0.90574   -1.000
 4198.00    0.88147   0.89619  157.689
 4199.00    0.90365   0.89659  157.012
 4200.00    0.92224   0.90357  155.230
 4201.00    0.92643   0.91648  153.425
 4202.00    0.92586   0.93801  151.385
 4203.00    0.94214   0.96889   -1.000
 4204.00    0.98762   1.00438  144.644
 4205.00    1.02515   1.03695  142.916
 4206.00    1.03771   1.06086   -1.000
 4207.00    1.04408   1.07322   -1.000
 4208.00    1.06499   1.07482  142.396
 4209.00    1.06305   1.07182  142.310
 4210.00    1.04245   1.07017   -1.000
 4211.00    1.03825   1.06752   -1.000
 4212.00    1.03769   1.05413  156.589
 4213.00    1.02232   1.02673  155.812
 4214.00    0.97551   0.99998   -1.000
 4215.00    0.93387   0.99639   -1.000
 4216.00    0.95288   1.02483   -1.000
 4217.00    1.03939   1.07223   -1.000
 4218.00    1.12732   1.11475  132.324
 4219.00    1.16331   1.13610   -1.000
 4220.00    1.17717   1.12875   -1.000
 4221.00    1.16743   1.09119   -1.000
 4222.00    1.11258   1.02406   -1.000
 4223.00    1.02856   0.93422   -1.000
 4224.00    0.92170   0.84097   -1.000
 4225.00    0.80307   0.77584   -1.000
 4226.00    0.72438   0.76662   -1.000
 4227.00    0.74485   0.82076   -1.000
 4228.00    0.85768   0.91297   -1.000
 4229.00    0.98272   1.00007  138.556
 4230.00    1.06155   1.05038  142.068
 4231.00    1.09523   1.06122   -1.000
 4232.00    1.09762   1.04611   -1.000
 4233.00    1.07009   1.02264   -1.000
 4234.00    1.04511   1.00371   -1.000
 4235.00    1.03121   0.99541   -1.000
 4236.00    1.00645   0.99878  145.470
 4237.00    1.00127   1.01349  143.036
 4238.00    1.02386   1.03674  140.698
 4239.00    1.04806   1.06371  139.508
 4240.00    1.07603   1.09082  137.961
 4241.00    1.10738   1.11715  135.243
 4242.00    1.12287   1.14270  134.644
 4243.00    1.14232   1.16463   -1.000
 4244.00    1.17933   1.17283  144.683
 4245.00    1.19580   1.15687   -1.000
 4246.00    1.15427   1.11756   -1.000
 4247.00    1.09944   1.06836   -1.000
 4248.00    1.06091   1.02708   -1.000
 4249.00    1.02373   1.00659  145.259
 4250.00    0.99272   1.00682  143.812
 4251.00    0.99249   1.01588   -1.000
 4252.00    1.03489   1.01931  147.322
 4253.00    1.04791   1.01619   -1.000
 4254.00    1.01973   1.02038  139.825
 4255.00    1.02393   1.04002  142.286
 4256.00    1.07395   1.05996  149.248
 4257.00    1.10783   1.05616   -1.000
 4258.00    1.07597   1.02678   -1.000
 4259.00    1.00630   0.99819  145.586
 4260.00    0.96382   1.00128   -1.000
 4261.00    0.98924   1.04516   -1.000
 4262.00    1.06853   1.11056   -1.000
 4263.00    1.16011   1.16759  132.545
 4264.00    1.20917   1.19697  136.004
 4265.00    1.21300   1.19678  140.388
 4266.00    1.19609   1.17145   -1.000
 4267.00    1.15799   1.12477   -1.000
 4268.00    1.10704   1.06140   -1.000
 4269.00    1.04265   0.99045   -1.000
 4270.00    0.96208   0.92689   -1.000
 4271.00    0.88985   0.88769  162.799
 4272.00    0.85933   0.88070   -1.000
 4273.00    0.86389   0.90410   -1.000
 4274.00    0.88904   0.95107   -1.000
 4275.00    0.93591   1.01298   -1.000
 4276.00    1.01831   1.07518   -1.000
 4277.00    1.10420   1.11767  146.089
 4278.00    1.14536   1.12792  148.522
 4279.00    1.13541   1.11446   -1.000
 4280.00    1.10106   1.09792  145.662
 4281.00    1.08533   1.09169  146.147
 4282.00    1.08899   1.09213  149.478
 4283.00    1.09002   1.08880  153.613
 4284.00    1.07575   1.07744  156.525
 4285.00    1.05595   1.05995  160.827
 4286.00    1.03941   1.03660  168.194
 4287.00    1.01118   1.00456  172.137
 4288.00    0.97443   0.96782  167.081
 4289.00    0.93182   0.94282  157.143
 4290.00    0.91298   0.94680   -1.000
 4291.00    0.94663   0.97733   -1.000
 4292.00    1.00340   1.01214  152.889
 4293.00    1.04831   1.03004  155.997
 4294.00    1.05866   1.02591   -1.000
 4295.00    1.03092   1.00322   -1.000
 4296.00    0.98899   0.96411   -1.000
 4297.00    0.95304   0.91171   -1.000
 4298.00    0.89632   0.85759   -1.000
 4299.00    0.81446   0.81873  188.206
 4300.00    0.77390   0.80527   -1.000
 4301.00    0.79580   0.81197  182.924
 4302.00    0.81945   0.82579  182.442
 4303.00    0.83269   0.83538  186.465
 4304.00    0.84873   0.83280   -1.000
 4305.00    0.84025   0.81363   -1.000
 4306.00    0.80323   0.78351   -1.000
 4307.00    0.76087   0.75981  193.909
 4308.00    0.73087   0.76045   -1.000
 4309.00    0.74394   0.79164   -1.000
 4310.00    0.80239   0.84619   -1.000
 4311.00    0.86833   0.91280   -1.000
 4312.00    0.93760   0.98615   -1.000
 4313.00    1.00599   1.06826   -1.000
 4314.00    1.07617   1.15858   -1.000
 4315.00    1.17615   1.24692   -1.000
 4316.00    1.28547   1.31524   -1.000
 4317.00    1.35205   1.34780  127.424
 4318.00    1.37151   1.34508   -1.000
 4319.00    1.35057   1.31739   -1.000
 4320.00    1.30213   1.27075   -1.000
 4321.00    1.25311   1.20326   -1.000
 4322.00    1.19148   1.11672   -1.000
 4323.00    1.08499   1.02897   -1.000
 4324.00    0.96339   0.97439  148.453
 4325.00    0.89927   0.98194   -1.000
 4326.00    0.92747   1.05182   -1.000
 4327.00    1.05519   1.15149   -1.000
 4328.00    1.19862   1.23737   -1.000
 4329.00    1.26522   1.28558  127.901
 4330.00    1.27382   1.30473   -1.000
 4331.00    1.27894   1.31545   -1.000
 4332.00    1.29960   1.32776   -1.000
 4333.00    1.32368   1.33397  132.472
 4334.00    1.33975   1.31735   -1.000
 4335.00    1.32691   1.26446   -1.000
 4336.00    1.25801   1.17635   -1.000
 4337.00    1.14243   1.07378   -1.000
 4338.00    1.03252   0.99076   -1.000
 4339.00    0.96735   0.95581  156.847
 4340.00    0.95962   0.97591   -1.000
 4341.00    1.00372   1.03749   -1.000
 4342.00    1.08888   1.11407   -1.000
 4343.00    1.17998   1.18189  131.981
 4344.00    1.23798   1.23290  130.293
 4345.00    1.27506   1.27218  128.465
 4346.00    1.29041   1.30455  127.824
 4347.00    1.30061   1.32701   -1.000
 4348.00    1.32441   1.32666  141.412
 4349.00    1.33069   1.29237   -1.000
 4350.00    1.28620   1.23428   -1.000
 4351.00    1.18763   1.18446  137.251
 4352.00    1.11970   1.17153   -1.000
 4353.00    1.14601   1.19825   -1.000
 4354.00    1.19747   1.24330   -1.000
 4355.00    1.24341   1.28227   -1.000
 4356.00    1.28690   1.30264  132.024
 4357.00    1.29976   1.30641  131.025
 4358.00    1.28491   1.30521  127.462
 4359.00    1.26671   1.31291   -1.000
 4360.00    1.28350   1.33455   -1.000
 4361.00    1.33414   1.36335   -1.000
 4362.00    1.36518   1.38954   -1.000
 4363.00    1.38309   1.40708   -1.000
 4364.00    1.40240   1.41083  129.388
 4365.00    1.41076   1.39485  132.110
 4366.00    1.38287   1.36200  131.756
 4367.00    1.32590   1.32743  130.689
 4368.00    1.28878   1.30474  130.328
 4369.00    1.27143   1.29351   -1.000
 4370.00    1.26751   1.28305  134.977
 4371.00    1.28287   1.26252  140.547
 4372.00    1.28948   1.22966   -1.000
 4373.00    1.24537   1.19454   -1.000
 4374.00    1.17803   1.17612  132.144
 4375.00    1.16167   1.18889   -1.000
 4376.00    1.19753   1.22687   -1.000
 4377.00    1.26083   1.26483  129.723
 4378.00    1.31591   1.27628   -1.000
 4379.00    1.32393   1.24710   -1.000
 4380.00    1.27991   1.17581   -1.000
 4381.00    1.21229   1.07678   -1.000
 4382.00    1.09561   0.98379   -1.000
 4383.00    0.94992   0.93761  145.393
 4384.00    0.89157   0.95875   -1.000
 4385.00    0.97311   1.02959   -1.000
 4386.00    1.10958   1.10643  137.102
 4387.00    1.19448   1.15544   -1.000
 4388.00    1.21020   1.17451   -1.000
 4389.00    1.19332   1.18150  133.366
 4390.00    1.18367   1.19177  132.838
 4391.00    1.19947   1.20786  135.160
 4392.00    1.22571   1.22391  135.980
 4393.00    1.25283   1.23760  131.638
 4394.00    1.24965   1.25608  126.887
 4395.00    1.26419   1.28556   -1.000
 4396.00    1.32151   1.31684  130.542
 4397.00    1.37529   1.33035   -1.000
 4398.00    1.37821   1.31793   -1.000
 4399.00    1.32519   1.29086   -1.000
 4400.00    1.26591   1.26327  135.038
 4401.00    1.24898   1.23408  142.034
 4402.00    1.24641   1.19290   -1.000
 4403.00    1.18269   1.14187   -1.000
 4404.00    1.08527   1.10385   -1.000
 4405.00    1.05639   1.10038   -1.000
 4406.00    1.10764   1.13086   -1.000
 4407.00    1.15358   1.18092   -1.000
 4408.00    1.18989   1.24105   -1.000
 4409.00    1.25086   1.30613   -1.000
 4410.00    1.32701   1.36226   -1.000
 4411.00    1.38301   1.38609  129.107
 4412.00    1.40559   1.36553   -1.000
 4413.00    1.36866   1.31456   -1.000
 4414.00    1.27216   1.26524  132.431
 4415.00    1.20270   1.24899   -1.000
 4416.00    1.20857   1.27795   -1.000
 4417.00    1.26895   1.33566   -1.000
 4418.00    1.34210   1.38984   -1.000
 4419.00    1.39513   1.41462  127.414
 4420.00    1.39061   1.40510  127.695
 4421.00    1.33055   1.37635   -1.000
 4422.00    1.27742   1.35093   -1.000
 4423.00    1.26108   1.34178   -1.000
 4424.00    1.25741   1.34596   -1.000
 4425.00    1.26734   1.35401   -1.000
 4426.00    1.27996   1.36130   -1.000
 4427.00    1.27829   1.36688   -1.000
 4428.00    1.30106   1.36843   -1.000
 4429.00    1.32491   1.36517   -1.000
 4430.00    1.30811   1.35947   -1.000
 4431.00    1.30514   1.35075   -1.000
 4432.00    1.32102   1.33250  137.421
 4433.00    1.29623   1.30439  134.071
 4434.00    1.23425   1.28462   -1.000
 4435.00    1.21013   1.29757   -1.000
 4436.00    1.25206   1.34736   -1.000
 4437.00    1.32813   1.40907   -1.000
 4438.00    1.41820   1.44742   -1.000
 4439.00    1.45578   1.44393  131.958
 4440.00    1.42059   1.40702  134.085
 4441.00    1.36298   1.36551  130.683
 4442.00    1.30156   1.35026   -1.000
 4443.00    1.30339   1.37392   -1.000
 4444.00    1.36833   1.42243   -1.000
 4445.00    1.43041   1.46898   -1.000
 4446.00    1.47034   1.49652   -1.000
 4447.00    1.47658   1.50530   -1.000
 4448.00    1.47391   1.50366   -1.000
 4449.00    1.48500   1.49595  123.660
 4450.00    1.48187   1.48026  127.061
 4451.00    1.45177   1.45216  132.671
 4452.00    1.42224   1.40856  136.558
 4453.00    1.37568   1.35467  135.791
 4454.00    1.30998   1.30712  133.292
 4455.00    1.26178   1.28189   -1.000
 4456.00    1.26312   1.27868  133.145
 4457.00    1.29280   1.28404  134.333
 4458.00    1.28964   1.28615  135.619
 4459.00    1.27290   1.28512  134.147
 4460.00    1.25935   1.29064   -1.000
 4461.00    1.24166   1.31177   -1.000
 4462.00    1.25916   1.34827   -1.000
 4463.00    1.32001   1.38874   -1.000
 4464.00    1.38362   1.41837   -1.000
 4465.00    1.40867   1.42985   -1.000
 4466.00    1.41952   1.42665  129.370
 4467.00    1.42486   1.41793  128.319
 4468.00    1.41622   1.41347  124.896
 4469.00    1.39233   1.42242   -1.000
 4470.00    1.39838   1.44959   -1.000
 4471.00    1.44070   1.48980   -1.000
 4472.00    1.50627   1.53082   -1.000
 4473.00    1.55082   1.56328  114.711
 4474.00    1.55096   1.58611   -1.000
 4475.00    1.57246   1.60283   -1.000
 4476.00    1.61403   1.61072  117.712
 4477.00    1.63770   1.59829   -1.000
 4478.00    1.61826   1.55822   -1.000
 4479.00    1.54561   1.50165   -1.000
 4480.00    1.45331   1.45659  122.741
 4481.00    1.39531   1.44923   -1.000
 4482.00    1.40681   1.48440   -1.000
 4483.00    1.47947   1.54326   -1.000
 4484.00    1.55605   1.59694   -1.000
 4485.00    1.61381   1.62206  120.082
 4486.00    1.63767   1.60945   -1.000
 4487.00    1.60750   1.56921   -1.000
 4488.00    1.53237   1.52665  120.503
 4489.00    1.47468   1.50569   -1.000
 4490.00    1.45877   1.51051   -1.000
 4491.00    1.48974   1.52391   -1.000
 4492.00    1.51374   1.52419  125.059
 4493.00    1.48445   1.50668   -1.000
 4494.00    1.43200   1.48803   -1.000
 4495.00    1.40877   1.48893   -1.000
 4496.00    1.42043   1.51474   -1.000
 4497.00    1.46747   1.55205   -1.000
 4498.00    1.51131   1.58263   -1.000
 4499.00    1.53755   1.59881   -1.000
 4500.00    1.55787   1.60790   -1.000
 4501.00    1.56980   1.62364   -1.000
 4502.00    1.61065   1.65265   -1.000
 4503.00    1.67558   1.68831  110.936
 4504.00    1.72425   1.71574  112.408
 4505.00    1.74091   1.72375  112.763
 4506.00    1.71666   1.71489  112.149
 4507.00    1.68173   1.70207  111.323
 4508.00    1.66493   1.69553   -1.000
 4509.00    1.67169   1.69450   -1.000
 4510.00    1.69163   1.69009  115.798
 4511.00    1.67771   1.67479  116.901
 4512.00    1.62445   1.65011   -1.000
 4513.00    1.58022   1.62511   -1.000
 4514.00    1.55312   1.60847   -1.000
 4515.00    1.55376   1.60231   -1.000
 4516.00    1.57612   1.60293   -1.000
 4517.00    1.57907   1.60747   -1.000
 4518.00    1.57129   1.61763   -1.000
 4519.00    1.59457   1.63370   -1.000
 4520.00    1.64607   1.64812  119.036
 4521.00    1.66408   1.64949  120.440
 4522.00    1.64002   1.63233  122.157
 4523.00    1.59994   1.60005  125.455
 4524.00    1.56035   1.55832  129.132
 4525.00    1.50655   1.50978  131.262
 4526.00    1.44145   1.45830  130.962
 4527.00    1.38881   1.41429   -1.000
 4528.00    1.36413   1.39055   -1.000
 4529.00    1.35750   1.39263   -1.000
 4530.00    1.37784   1.41337   -1.000
 4531.00    1.41119   1.43690   -1.000
 4532.00    1.45426   1.44974  132.148
 4533.00    1.45944   1.45155  126.009
 4534.00    1.41629   1.45681   -1.000
 4535.00    1.39232   1.48294   -1.000
 4536.00    1.46817   1.53253   -1.000
 4537.00    1.58808   1.58743  116.738
 4538.00    1.64391   1.62308  117.447
 4539.00    1.62095   1.62990  116.727
 4540.00    1.57232   1.61953   -1.000
 4541.00    1.55949   1.61018   -1.000
 4542.00    1.60317   1.60879   66.881
 4543.00    1.44626   1.60914   -1.000
 4544.00    0.59118   1.60378   -1.000
 4545.00    0.05857   1.59273   -1.000
 4546.00    0.14890   1.58010   -1.000
 4547.00    0.81132   1.56777   -1.000
 4548.00    0.64923   1.55716   -1.000
 4549.00    0.99612   1.55298   -1.000
 4550.00    1.46684   1.55809   -1.000
 4551.00    1.56303   1.56624  124.463
 4552.00    1.54402   1.56754   -1.000
 4553.00    1.52578   1.56199   -1.000
 4554.00    1.51961   1.56236   -1.000
 4555.00    1.53998   1.58235   -1.000
 4556.00    1.59716   1.62331   -1.000
 4557.00    1.66389   1.67199  112.163
 4558.00    1.69919   1.71144  112.165
 4559.00    1.73292   1.73304  114.107
 4560.00    1.73878   1.73685  116.962
 4561.00    1.71842   1.72477  119.210
 4562.00    1.68468   1.69874  118.740
 4563.00    1.64019   1.66603   -1.000
 4564.00    1.59885   1.64172   -1.000
 4565.00    1.58150   1.64044   -1.000
 4566.00    1.62188   1.66379   -1.000
 4567.00    1.68606   1.69632  114.544
 4568.00    1.71505   1.71644  117.567
 4569.00    1.71298   1.71336  117.717
 4570.00    1.67051   1.69473   -1.000
 4571.00    1.62053   1.67941   -1.000
 4572.00    1.62829   1.68210   -1.000
 4573.00    1.67455   1.70123   -1.000
 4574.00    1.70919   1.72201  113.345
 4575.00    1.72840   1.73079  114.968
 4576.00    1.73177   1.72304  118.072
 4577.00    1.68658   1.69961  120.824
 4578.00    1.63512   1.66424   -1.000
 4579.00    1.59625   1.62651   -1.000
 4580.00    1.54851   1.60003   -1.000
 4581.00    1.54968   1.59254   -1.000
 4582.00    1.58579   1.59924  119.382
 4583.00    1.60746   1.60844  118.321
 4584.00    1.60405   1.61395  115.523
 4585.00    1.58535   1.62124   -1.000
 4586.00    1.60050   1.63984   -1.000
 4587.00    1.64483   1.67002   -1.000
 4588.00    1.69582   1.69969  115.474
 4589.00    1.73579   1.71390  117.542
 4590.00    1.72365   1.70646  118.126
 4591.00    1.66698   1.68374  117.356
 4592.00    1.63263   1.65868   -1.000
 4593.00    1.62359   1.64111  115.943
 4594.00    1.60317   1.63328   -1.000
 4595.00    1.59434   1.63313   -1.000
 4596.00    1.59940   1.63855   -1.000
 4597.00    1.61200   1.64719   -1.000
 4598.00    1.64488   1.65506  117.713
 4599.00    1.66086   1.65876  116.823
 4600.00    1.63633   1.65865   -1.000
 4601.00    1.62665   1.65789   -1.000
 4602.00    1.63832   1.65868  115.261
 4603.00    1.65305   1.66148  114.244
 4604.00    1.65477   1.66835  112.199
 4605.00    1.64058   1.68455   -1.000
 4606.00    1.66247   1.71433   -1.000
 4607.00    1.73852   1.75444  108.366
 4608.00    1.80553   1.79243  109.656
 4609.00    1.83763   1.81331  110.960
 4610.00    1.82399   1.81123  111.794
 4611.00    1.78590   1.79450  111.524
 4612.00    1.75482   1.77808  110.609
 4613.00    1.75448   1.77237  110.036
 4614.00    1.75887   1.77824  110.514
 4615.00    1.77177   1.78954  111.337
 4616.00    1.78625   1.79924  111.443
 4617.00    1.79517   1.80411  110.576
 4618.00    1.79689   1.80546  108.953
 4619.00    1.78684   1.80718  108.529
 4620.00    1.81216   1.81198  108.761
 4621.00    1.82961   1.81809  108.993
 4622.00    1.82258   1.82075  109.822
 4623.00    1.81141   1.81763  110.268
 4624.00    1.81616   1.81071  110.270
 4625.00    1.79452   1.80332  110.812
 4626.00    1.76768   1.79806   -1.000
 4627.00    1.78232   1.79650  110.774
 4628.00    1.79476   1.79887  109.633
 4629.00    1.79897   1.80419  109.730
 4630.00    1.79055   1.80980  111.125
 4631.00    1.79743   1.81044  112.457
 4632.00    1.79549   1.80134  112.637
 4633.00    1.76520   1.78394  113.315
 4634.00    1.74514   1.76475  114.713
 4635.00    1.74565   1.74740  115.419
 4636.00    1.72435   1.73028  115.375
 4637.00    1.69211   1.71277  113.779
 4638.00    1.66806   1.69963   -1.000
 4639.00    1.65130   1.69745   -1.000
 4640.00    1.66354   1.70801   -1.000
 4641.00    1.70761   1.72438  111.138
 4642.00    1.74827   1.73320  114.079
 4643.00    1.74659   1.72309  117.275
 4644.00    1.71350   1.69294  118.347
 4645.00    1.65684   1.65297  116.738
 4646.00    1.59158   1.62006   -1.000
 4647.00    1.55920   1.61034   -1.000
 4648.00    1.57465   1.62961   -1.000
 4649.00    1.64137   1.66919   -1.000
 4650.00    1.71586   1.71206  112.650
 4651.00    1.76101   1.74301  115.038
 4652.00    1.76818   1.75448  116.657
 4653.00    1.75185   1.74779  116.105
 4654.00    1.72247   1.73366  112.899
 4655.00    1.68683   1.72884   -1.000
 4656.00    1.67810   1.74667   -1.000
 4657.00    1.72440   1.78758   -1.000
 4658.00    1.80899   1.83700   -1.000
 4659.00    1.88049   1.87308  108.784
 4660.00    1.90351   1.88018  111.057
 4661.00    1.84651   1.85757  111.687
 4662.00    1.78333   1.81604   -1.000
 4663.00    1.75710   1.76706  117.497
 4664.00    1.71956   1.71518  122.483
 4665.00    1.67570   1.66117  123.572
 4666.00    1.59229   1.61222  120.443
 4667.00    1.50264   1.58500   -1.000
 4668.00    1.49218   1.59370   -1.000
 4669.00    1.55888   1.63554   -1.000
 4670.00    1.66519   1.69031   -1.000
 4671.00    1.73255   1.73522  110.931
 4672.00    1.77062   1.76062  109.729
 4673.00    1.75523   1.77259  108.095
 4674.00    1.74892   1.78205   -1.000
 4675.00    1.76798   1.79183   -1.000
 4676.00    1.80291   1.79449  112.530
 4677.00    1.81460   1.78190   -1.000
 4678.00    1.76873   1.75554  115.706
 4679.00    1.71937   1.72610  114.719
 4680.00    1.68358   1.70576   -1.000
 4681.00    1.66661   1.70173   -1.000
 4682.00    1.68313   1.71369   -1.000
 4683.00    1.74425   1.73405  110.498
 4684.00    1.77970   1.75213  111.021
 4685.00    1.77994   1.76100  111.148
 4686.00    1.76663   1.76087  111.149
 4687.00    1.76049   1.75633  111.812
 4688.00    1.74331   1.75188  112.158
 4689.00    1.73574   1.74930  111.091
 4690.00    1.74403   1.74872  109.473
 4691.00    1.74168   1.75133  107.161
 4692.00    1.74019   1.75971  105.606
 4693.00    1.76424   1.77435  105.812
 4694.00    1.80058   1.79063  108.451
 4695.00    1.83388   1.79979   -1.000
 4696.00    1.83423   1.79341   -1.000
 4697.00    1.78704   1.76970  112.857
 4698.00    1.73209   1.73654  113.374
 4699.00    1.69578   1.70568  115.214
 4700.00    1.67455   1.68395  116.076
 4701.00    1.67188   1.67243  114.320
 4702.00    1.66401   1.67159  112.517
 4703.00    1.65692   1.68179   -1.000
 4704.00    1.67620   1.69789  115.759
 4705.00    1.71583   1.70899  117.090
 4706.00    1.71955   1.70827  116.750
 4707.00    1.68469   1.70094  113.740
 4708.00    1.67003   1.69955   -1.000
 4709.00    1.69352   1.71169  109.138
 4710.00    1.75051   1.73326  109.856
 4711.00    1.79011   1.75282   -1.000
 4712.00    1.77663   1.76156  112.163
 4713.00    1.75077   1.76151  110.262
 4714.00    1.73140   1.76492   -1.000
 4715.00    1.73261   1.78343   -1.000
 4716.00    1.79021   1.81732   -1.000
 4717.00    1.86610   1.85639  106.434
 4718.00    1.88665   1.88915  107.141
 4719.00    1.89883   1.90955  107.944
 4720.00    1.92055   1.91699  107.528
 4721.00    1.89573   1.91534  106.426
 4722.00    1.87887   1.91151   -1.000
 4723.00    1.85152   1.90924   -1.000
 4724.00    1.87680   1.90253   -1.000
 4725.00    1.90001   1.87960  115.365
 4726.00    1.85068   1.83566  115.383
 4727.00    1.76422   1.78117  114.282
 4728.00    1.69704   1.73667   -1.000
 4729.00    1.67364   1.71812   -1.000
 4730.00    1.68241   1.72699   -1.000
 4731.00    1.71792   1.75312   -1.000
 4732.00    1.74682   1.78297   -1.000
 4733.00    1.78070   1.80616   -1.000
 4734.00    1.81146   1.81860  110.947
 4735.00    1.83106   1.82333  109.725
 4736.00    1.82038   1.82737  109.539
 4737.00    1.82239   1.83616  110.110
 4738.00    1.83613   1.84934  110.333
 4739.00    1.86589   1.86143  109.590
 4740.00    1.85400   1.86832  108.425
 4741.00    1.83211   1.87211   -1.000
 4742.00    1.82946   1.87722   -1.000
 4743.00    1.85762   1.88518   -1.000
 4744.00    1.87200   1.89578   -1.000
 4745.00    1.87534   1.90920   -1.000
 4746.00    1.88991   1.92492   -1.000
 4747.00    1.89297   1.94053   -1.000
 4748.00    1.90543   1.95269   -1.000
 4749.00    1.92121   1.95848   -1.000
 4750.00    1.91353   1.95533   -1.000
 4751.00    1.88705   1.94179   -1.000
 4752.00    1.85933   1.92000   -1.000
 4753.00    1.82744   1.89644   -1.000
 4754.00    1.80877   1.87903   -1.000
 4755.00    1.80569   1.87269   -1.000
 4756.00    1.80793   1.87733   -1.000
 4757.00    1.80937   1.88950   -1.000
 4758.00    1.79987   1.90353   -1.000
 4759.00    1.81060   1.91110   -1.000
 4760.00    1.83898   1.90384   -1.000
 4761.00    1.82373   1.87912   -1.000
 4762.00    1.78182   1.84339   -1.000
 4763.00    1.74172   1.80798   -1.000
 4764.00    1.70260   1.78151   -1.000
 4765.00    1.68186   1.76823   -1.000
 4766.00    1.68491   1.77308   -1.000
 4767.00    1.73178   1.80010   -1.000
 4768.00    1.80137   1.84275   -1.000
 4769.00    1.86316   1.88306  111.788
 4770.00    1.86372   1.90612   -1.000
 4771.00    1.83708   1.91335   -1.000
 4772.00    1.82298   1.91958   -1.000
 4773.00    1.85731   1.93670   -1.000
 4774.00    1.92032   1.96297   -1.000
 4775.00    1.93738   1.98803   -1.000
 4776.00    1.91775   2.00375   -1.000
 4777.00    1.91745   2.00864   -1.000
 4778.00    1.92133   2.00388   -1.000
 4779.00    1.90650   1.99063   -1.000
 4780.00    1.87896   1.97089   -1.000
 4781.00    1.87571   1.94718   -1.000
 4782.00    1.86546   1.92248   -1.000
 4783.00    1.82295   1.90172   -1.000
 4784.00    1.82767   1.88910   -1.000
 4785.00    1.81378   1.88362   -1.000
 4786.00    1.80564   1.88150   -1.000
 4787.00    1.80783   1.88127   -1.000
 4788.00    1.80557   1.88414   -1.000
 4789.00    1.80564   1.89231   -1.000
 4790.00    1.81291   1.90928   -1.000
 4791.00    1.83548   1.93885   -1.000
 4792.00    1.87902   1.98071   -1.000
 4793.00    1.94290   2.02729   -1.000
 4794.00    1.97466   2.06562   -1.000
 4795.00    1.99722   2.08268   -1.000
 4796.00    1.99443   2.07274   -1.000
 4797.00    1.94408   2.04215   -1.000
 4798.00    1.88211   2.00687   -1.000
 4799.00    1.84280   1.98433   -1.000
 4800.00    1.84978   1.98507   -1.000
 4801.00    1.91133   2.00643   -1.000
 4802.00    1.97077   2.03255   -1.000
 4803.00    1.96989   2.04455   -1.000
 4804.00    1.94442   2.03451   -1.000
 4805.00    1.92657   2.00990   -1.000
 4806.00    1.90476   1.98494   -1.000
 4807.00    1.88555   1.97059   -1.000
 4808.00    1.88296   1.97089   -1.000
 4809.00    1.88124   1.98349   -1.000
 4810.00    1.89394   2.00106   -1.000
 4811.00    1.91967   2.01569   -1.000
 4812.00    1.93144   2.02462   -1.000
 4813.00    1.93984   2.03156   -1.000
 4814.00    1.95313   2.04179   -1.000
 4815.00    1.96365   2.05753   -1.000
 4816.00    1.98589   2.07719   -1.000
 4817.00    1.99522   2.09688   -1.000
 4818.00    2.00716   2.11180   -1.000
 4819.00    2.02528   2.11642   -1.000
 4820.00    2.01386   2.10517   -1.000
 4821.00    1.98010   2.07616   -1.000
 4822.00    1.93114   2.03587   -1.000
 4823.00    1.87916   1.99982   -1.000
 4824.00    1.85800   1.98433   -1.000
 4825.00    1.90166   1.99297   -1.000
 4826.00    1.96559   2.01176   -1.000
 4827.00    1.95467   2.02299   -1.000
 4828.00    1.92234   2.02103   -1.000
 4829.00    1.92036   2.01061   -1.000
 4830.00    1.91873   1.99688   -1.000
 4831.00    1.88910   1.98390   -1.000
 4832.00    1.86888   1.97873   -1.000
 4833.00    1.87462   1.98761   -1.000
 4834.00    1.93062   2.00778   -1.000
 4835.00    1.97465   2.02808   -1.000
 4836.00    1.96546   2.03704   -1.000
 4837.00    1.94894   2.03037   -1.000
 4838.00    1.91820   2.01134   -1.000
 4839.00    1.88408   1.98828   -1.000
 4840.00    1.86800   1.97060   -1.000
 4841.00    1.87638   1.96333   -1.000
 4842.00    1.87816   1.96652   -1.000
 4843.00    1.87915   1.97950   -1.000
 4844.00    1.91901   2.00133   -1.000
 4845.00    1.96257   2.02542   -1.000
 4846.00    1.97655   2.03953   -1.000
 4847.00    1.94473   2.03704   -1.000
 4848.00    1.92321   2.02531   -1.000
 4849.00    1.91166   2.01835   -1.000
 4850.00    1.93831   2.02083   -1.000
 4851.00    1.94169   2.02342   -1.000
 4852.00    1.92175   2.01217   -1.000
 4853.00    1.90960   1.98051   -1.000
 4854.00    1.87738   1.93530   -1.000
 4855.00    1.79947   1.89233   -1.000
 4856.00    1.77355   1.86132   -1.000
 4857.00    1.80381   1.83163   -1.000
 4858.00    1.78869   1.77914  150.136
 4859.00    1.69793   1.69402  142.186
 4860.00    1.54499   1.60179   -1.000
 4861.00    1.44343   1.54971   -1.000
 4862.00    1.47459   1.56624   -1.000
 4863.00    1.59517   1.64009   -1.000
 4864.00    1.70590   1.73460   -1.000
 4865.00    1.78254   1.81874   -1.000
 4866.00    1.82804   1.87867   -1.000
 4867.00    1.83082   1.91117   -1.000
 4868.00    1.83025   1.91454   -1.000
 4869.00    1.81851   1.88901   -1.000
 4870.00    1.74670   1.84427   -1.000
 4871.00    1.66552   1.80438   -1.000
 4872.00    1.66577   1.79639   -1.000
 4873.00    1.72927   1.82824   -1.000
 4874.00    1.77454   1.88085   -1.000
 4875.00    1.79782   1.93013   -1.000
 4876.00    1.82962   1.96786   -1.000
 4877.00    1.85481   1.99888   -1.000
 4878.00    1.87985   2.02682   -1.000
 4879.00    1.90667   2.04679   -1.000
 4880.00    1.90636   2.05118   -1.000
 4881.00    1.88123   2.03928   -1.000
 4882.00    1.85927   2.01892   -1.000
 4883.00    1.87947   1.99654   -1.000
 4884.00    1.86943   1.97088   -1.000
 4885.00    1.80826   1.94188   -1.000
 4886.00    1.78091   1.91655   -1.000
 4887.00    1.79505   1.89897   -1.000
 4888.00    1.79852   1.88256   -1.000
 4889.00    1.77768   1.86048   -1.000
 4890.00    1.72579   1.84218   -1.000
 4891.00    1.71711   1.85261   -1.000
 4892.00    1.80320   1.91042   -1.000
 4893.00    1.95093   2.00640   -1.000
 4894.00    2.05173   2.10749   -1.000
 4895.00    2.08056   2.18049   -1.000
 4896.00    2.10705   2.21397   -1.000
 4897.00    2.10648   2.21460   -1.000
 4898.00    2.09052   2.19485   -1.000
 4899.00    2.04661   2.16662   -1.000
 4900.00    1.99717   2.13923   -1.000
 4901.00    1.99621   2.11745   -1.000
 4902.00    1.97582   2.10277   -1.000
 4903.00    1.96355   2.09898   -1.000
 4904.00    1.99670   2.11121   -1.000
 4905.00    2.04541   2.13514   -1.000
 4906.00    2.07154   2.15163   -1.000
 4907.00    2.05506   2.14061   -1.000
 4908.00    2.00447   2.10123   -1.000
 4909.00    1.93739   2.05279   -1.000
 4910.00    1.89786   2.02052   -1.000
 4911.00    1.90614   2.01982   -1.000
 4912.00    1.96643   2.04865   -1.000
 4913.00    2.01143   2.09127   -1.000
 4914.00    2.06059   2.12749   -1.000
 4915.00    2.09240   2.13807   -1.000
 4916.00    2.05918   2.10595   -1.000
 4917.00    1.99889   2.02557  122.684
 4918.00    1.85638   1.91585   -1.000
 4919.00    1.72708   1.81809   -1.000
 4920.00    1.66943   1.77162   -1.000
 4921.00    1.72456   1.78881   -1.000
 4922.00    1.82383   1.84804   -1.000
 4923.00    1.88889   1.91539   -1.000
 4924.00    1.91615   1.97234   -1.000
 4925.00    1.94620   2.02348   -1.000
 4926.00    1.98817   2.07799   -1.000
 4927.00    2.06195   2.13456   -1.000
 4928.00    2.12061   2.18410   -1.000
 4929.00    2.13977   2.21659   -1.000
 4930.00    2.13757   2.22372   -1.000
 4931.00    2.12659   2.20216   -1.000
 4932.00    2.09037   2.15957   -1.000
 4933.00    2.02340   2.11403   -1.000
 4934.00    1.98049   2.08148   -1.000
 4935.00    1.99535   2.06082   -1.000
 4936.00    2.00023   2.03634   -1.000
 4937.00    1.93239   2.00030   -1.000
 4938.00    1.85611   1.96966   -1.000
 4939.00    1.85065   1.97287   -1.000
 4940.00    1.96298   2.02000   -1.000
 4941.00    2.06806   2.09206  104.975
 4942.00    2.11198   2.15868   -1.000
 4943.00    2.13187   2.20010   -1.000
 4944.00    2.15322   2.21574   -1.000
 4945.00    2.14772   2.21700   -1.000
 4946.00    2.13452   2.21824   -1.000
 4947.00    2.14630   2.22847   -1.000
 4948.00    2.16723   2.24649   -1.000
 4949.00    2.19224   2.26383   -1.000
 4950.00    2.20692   2.27277   -1.000
 4951.00    2.20328   2.27019   -1.000
 4952.00    2.18098   2.25453   -1.000
 4953.00    2.13923   2.22244   -1.000
 4954.00    2.09744   2.16692   -1.000
 4955.00    2.04440   2.08456   -1.000
 4956.00    1.94221   1.99120   -1.000
 4957.00    1.81322   1.92642   -1.000
 4958.00    1.80450   1.92823   -1.000
 4959.00    1.94642   1.99473   -1.000
 4960.00    2.07360   2.08409  107.512
 4961.00    2.12267   2.15142   -1.000
 4962.00    2.12373   2.17696   -1.000
 4963.00    2.11665   2.16592   -1.000
 4964.00    2.06997   2.13221   -1.000
 4965.00    1.99877   2.09175   -1.000
 4966.00    1.95029   2.06007   -1.000
 4967.00    1.96910   2.04664   -1.000
 4968.00    1.98190   2.05200   -1.000
 4969.00    1.99489   2.07219   -1.000
 4970.00    2.01991   2.10272   -1.000
 4971.00    2.05568   2.13855   -1.000
 4972.00    2.08236   2.17285   -1.000
 4973.00    2.11881   2.19752   -1.000
 4974.00    2.14201   2.20681   -1.000
 4975.00    2.13043   2.19908   -1.000
 4976.00    2.09456   2.17597   -1.000
 4977.00    2.05069   2.14165   -1.000
 4978.00    2.01048   2.10161   -1.000
 4979.00    1.97252   2.05774   -1.000
 4980.00    1.94657   2.00659   -1.000
 4981.00    1.89322   1.94663   -1.000
 4982.00    1.80349   1.88963   -1.000
 4983.00    1.77669   1.85891   -1.000
 4984.00    1.82815   1.87180   -1.000
 4985.00    1.89379   1.92464   -1.000
 4986.00    1.95392   1.99614   -1.000
 4987.00    2.02565   2.05944   -1.000
 4988.00    2.07254   2.09644  112.829
 4989.00    2.04795   2.10490   -1.000
 4990.00    2.02112   2.09858   -1.000
 4991.00    2.02981   2.09378   -1.000
 4992.00    2.06483   2.09715   -1.000
 4993.00    2.05046   2.10603   -1.000
 4994.00    2.02726   2.11617   -1.000
 4995.00    2.04267   2.12519   -1.000
 4996.00    2.06268   2.12795   -1.000
 4997.00    2.05228   2.11499   -1.000
 4998.00    2.01349   2.08174   -1.000
 4999.00    1.97146   2.03624   -1.000
 5000.00    1.94440   1.99431   -1.000
 5001.00    1.93917   1.96825   -1.000
 5002.00    1.93455   1.95642   -1.000
 5003.00    1.92083   1.94580   -1.000
 5004.00    1.90364   1.92589  116.648
 5005.00    1.87935   1.90262   -1.000
 5006.00    1.85797   1.89622   -1.000
 5007.00    1.87877   1.92136   -1.000
 5008.00    1.94939   1.96843  116.700
 5009.00    2.01044   2.00736  121.092
 5010.00    2.00696   2.01256  123.938
 5011.00    1.95500   1.97945   -1.000
 5012.00    1.86931   1.92590   -1.000
 5013.00    1.80024   1.87920   -1.000
 5014.00    1.77600   1.85921   -1.000
 5015.00    1.80658   1.86695   -1.000
 5016.00    1.87450   1.88846  116.280
 5017.00    1.90858   1.91071  115.326
 5018.00    1.90511   1.92984   -1.000
 5019.00    1.91903   1.94705   -1.000
 5020.00    1.95380   1.96073  115.430
 5021.00    1.93578   1.96954   -1.000
 5022.00    1.89488   1.97976   -1.000
 5023.00    1.93744   1.99914   -1.000
 5024.00    2.00430   2.02522  114.531
 5025.00    2.01568   2.04510   -1.000
 5026.00    1.97978   2.04988   -1.000
 5027.00    1.94674   2.04719   -1.000
 5028.00    1.95507   2.05466   -1.000
 5029.00    2.01911   2.08249   -1.000
 5030.00    2.05819   2.12649   -1.000
 5031.00    2.09342   2.17238   -1.000
 5032.00    2.15023   2.20367   -1.000
 5033.00    2.18511   2.20641  116.662
 5034.00    2.15847   2.17636  117.058
 5035.00    2.05530   2.12492   -1.000
 5036.00    1.97107   2.07102   -1.000
 5037.00    1.95395   2.02267   -1.000
 5038.00    1.94919   1.97195  128.282
 5039.00    1.86254   1.91359   -1.000
 5040.00    1.74219   1.86463   -1.000
 5041.00    1.72157   1.85825   -1.000
 5042.00    1.82081   1.91399   -1.000
 5043.00    1.97001   2.01657   -1.000
 5044.00    2.11605   2.12579  106.652
 5045.00    1.23144   2.20134   -1.000
 5046.00    0.13739   2.22366   -1.000
 5047.00    0.03276   2.19561   -1.000
 5048.00    0.61346   2.13780   -1.000
 5049.00    1.64284   2.07903   -1.000
 5050.00    1.92903   2.04403   -1.000
 5051.00    1.96379   2.04243   -1.000
 5052.00    2.03462   2.07024   -1.000
 5053.00    2.08139   2.11614   -1.000
 5054.00    2.12698   2.16509   -1.000
 5055.00    2.14944   2.20457   -1.000
 5056.00    2.18318   2.23206   -1.000
 5057.00    2.18377   2.25244   -1.000
 5058.00    2.19567   2.27150   -1.000
 5059.00    2.21228   2.29122   -1.000
 5060.00    2.22170   2.30615   -1.000
 5061.00    2.25912   2.30508   -1.000
 5062.00    2.24790   2.27714   -1.000
 5063.00    2.16678   2.22238   -1.000
 5064.00    2.05170   2.15810   -1.000
 5065.00    1.98553   2.10848   -1.000
 5066.00    2.01175   2.08673   -1.000
 5067.00    2.04657   2.08910   -1.000
 5068.00    2.03149   2.10403   -1.000
 5069.00    2.06139   2.12118   -1.000
 5070.00    2.10201   2.13294   -1.000
 5071.00    2.10249   2.13484   -1.000
 5072.00    2.07292   2.13043   -1.000
 5073.00    2.07872   2.12915   -1.000
 5074.00    2.11408   2.13537  111.588
 5075.00    2.11885   2.14192  115.620
 5076.00    2.10155   2.13613   -1.000
 5077.00    2.09537   2.10789  122.420
 5078.00    2.05035   2.05725  119.676
 5079.00    1.93120   2.00026   -1.000
 5080.00    1.87789   1.96268   -1.000
 5081.00    1.92768   1.96037   -1.000
 5082.00    1.98068   1.98730  111.438
 5083.00    2.01147   2.02854  110.692
 5084.00    2.03353   2.07305   -1.000
 5085.00    2.07946   2.11554   -1.000
 5086.00    2.11694   2.15170   -1.000
 5087.00    2.11920   2.17876   -1.000
 5088.00    2.12743   2.19800   -1.000
 5089.00    2.13817   2.21425   -1.000
 5090.00    2.16680   2.23243   -1.000
 5091.00    2.19862   2.25465   -1.000
 5092.00    2.22389   2.27650   -1.000
 5093.00    2.25556   2.28623   -1.000
 5094.00    2.24272   2.27114   -1.000
 5095.00    2.18255   2.22772   -1.000
 5096.00    2.10818   2.16592   -1.000
 5097.00    2.04275   2.10429   -1.000
 5098.00    1.96398   2.06348   -1.000
 5099.00    1.95089   2.05822   -1.000
 5100.00    2.00801   2.08832   -1.000
 5101.00    2.08884   2.13424   -1.000
 5102.00    2.14427   2.17020   -1.000
 5103.00    2.10888   2.18056   -1.000
 5104.00    2.07246   2.16799   -1.000
 5105.00    2.08178   2.14295   -1.000
 5106.00    2.06736   2.11410   -1.000
 5107.00    2.00889   2.08805   -1.000
 5108.00    2.00176   2.07173   -1.000
 5109.00    2.00948   2.07184   -1.000
 5110.00    2.02414   2.09150   -1.000
 5111.00    2.09023   2.12633   -1.000
 5112.00    2.14256   2.16696   -1.000
 5113.00    2.16547   2.20464   -1.000
 5114.00    2.19668   2.23755   -1.000
 5115.00    2.21874   2.26711   -1.000
 5116.00    2.23244   2.29197   -1.000
 5117.00    2.24570   2.30690   -1.000
 5118.00    2.26357   2.30563   -1.000
 5119.00    2.25927   2.28479  114.591
 5120.00    2.19309   2.24547   -1.000
 5121.00    2.12671   2.19284   -1.000
 5122.00    2.07952   2.13522   -1.000
 5123.00    1.99469   2.08399   -1.000
 5124.00    1.96259   2.05027   -1.000
 5125.00    1.98306   2.03858   -1.000
 5126.00    1.99361   2.04288   -1.000
 5127.00    1.99688   2.05305   -1.000
 5128.00    2.00368   2.06508   -1.000
 5129.00    2.02544   2.08217   -1.000
 5130.00    2.05014   2.10727   -1.000
 5131.00    2.09085   2.13803   -1.000
 5132.00    2.14371   2.16824   -1.000
 5133.00    2.16866   2.19283  111.820
 5134.00    2.17953   2.20824   -1.000
 5135.00    2.19205   2.20854  116.267
 5136.00    2.17841   2.18837  116.297
 5137.00    2.11435   2.15131   -1.000
 5138.00    2.04557   2.11377   -1.000
 5139.00    2.02413   2.09177   -1.000
 5140.00    2.05597   2.08625   -1.000
 5141.00    2.06960   2.08820  115.262
 5142.00    2.03119   2.09120   -1.000
 5143.00    2.02233   2.09527   -1.000
 5144.00    2.06153   2.09914   -1.000
 5145.00    2.06203   2.09679   -1.000
 5146.00    2.02922   2.08746   -1.000
 5147.00    2.03301   2.08082   -1.000
 5148.00    2.05202   2.08349   -1.000
 5149.00    2.04548   2.09029   -1.000
 5150.00    2.04240   2.09067   -1.000
 5151.00    2.02781   2.08221   -1.000
 5152.00    1.99410   2.07381   -1.000
 5153.00    1.97630   2.07738   -1.000
 5154.00    2.01762   2.10102   -1.000
 5155.00    2.08973   2.14456   -1.000
 5156.00    2.15533   2.19825   -1.000
 5157.00    2.23190   2.24700  107.445
 5158.00    2.26131   2.27923  108.109
 5159.00    2.24826   2.29063   -1.000
 5160.00    2.27182   2.28109  111.242
 5161.00    2.24928   2.25041  115.894
 5162.00    2.18561   2.19708  125.916
 5163.00    2.12884   2.11840  139.033
 5164.00    2.04528   2.01180   -1.000
 5165.00    1.89443   1.88047  143.470
 5166.00    1.67448   1.74642   -1.000
 5167.00    1.50429   1.65032   -1.000
 5168.00    1.51024   1.61883   -1.000
 5169.00    1.63105   1.63079  152.546
 5170.00    1.69688   1.63732   -1.000
 5171.00    1.60243   1.61511  128.809
 5172.00    1.44679   1.59764   -1.000
 5173.00    1.47130   1.63802   -1.000
 5174.00    1.68706   1.74931   -1.000
 5175.00    1.92064   1.89336  113.526
 5176.00    2.04401   2.01381   -1.000
 5177.00    2.09018   2.08326  119.365
 5178.00    2.11798   2.09995  128.593
 5179.00    2.08162   2.06524  143.639
 5180.00    1.99518   1.97687   -1.000
 5181.00    1.83492   1.84428  144.516
 5182.00    1.61377   1.70651   -1.000
 5183.00    1.43579   1.62672   -1.000
 5184.00    1.46470   1.64955   -1.000
 5185.00    1.70493   1.76784   -1.000
 5186.00    1.96519   1.92350   -1.000
 5187.00    2.11944   2.05569   -1.000
 5188.00    2.17198   2.13282   -1.000
 5189.00    2.19850   2.15436   -1.000
 5190.00    2.20789   2.13223   -1.000
 5191.00    2.10614   2.08630  118.217
 5192.00    1.98730   2.04472   -1.000
 5193.00    1.98571   2.03146   -1.000
 5194.00    2.04599   2.04950  112.414
 5195.00    2.08491   2.08635  110.601
 5196.00    2.14032   2.13299  109.810
 5197.00    2.19738   2.18379  109.823
 5198.00    2.24743   2.23100  110.853
 5199.00    2.27527   2.26421  112.975
 5200.00    2.29290   2.27379  115.672
 5201.00    2.26567   2.25453  119.376
 5202.00    2.21891   2.20531  122.786
 5203.00    2.17078   2.13108   -1.000
 5204.00    2.06933   2.04438  123.744
 5205.00    1.96788   1.96573  124.282
 5206.00    1.91388   1.91303  122.125
 5207.00    1.90460   1.89490  117.929
 5208.00    1.88864   1.91175   -1.000
 5209.00    1.91737   1.96327   -1.000
 5210.00    2.02883   2.04522  107.056
 5211.00    2.15827   2.14090  108.559
 5212.00    2.28165   2.22217   -1.000
 5213.00    2.34188   2.26585   -1.000
 5214.00    2.31561   2.26771   -1.000
 5215.00    2.26012   2.24834  108.556
 5216.00    2.21519   2.23818   -1.000
 5217.00    2.23555   2.25728  106.287
 5218.00    2.32430   2.30186  106.044
 5219.00    2.39726   2.35113   -1.000
 5220.00    2.41288   2.38309   -1.000
 5221.00    2.40644   2.38314  115.947
 5222.00    2.37322   2.34468   -1.000
 5223.00    2.28806   2.26955  123.875
 5224.00    2.17360   2.17175  120.466
 5225.00    2.05580   2.07904   -1.000
 5226.00    1.98400   2.02690   -1.000
 5227.00    2.00126   2.04013   -1.000
 5228.00    2.12398   2.11137  107.933
 5229.00    2.27316   2.20170   -1.000
 5230.00    2.35136   2.26527   -1.000
 5231.00    2.35951   2.28013   -1.000
 5232.00    2.27288   2.26214  108.647
 5233.00    2.22382   2.24571  106.188
 5234.00    2.24487   2.25889  105.187
 5235.00    2.28685   2.30527  105.199
 5236.00    2.38180   2.36629  105.505
 5237.00    2.46332   2.41935   -1.000
 5238.00    2.46700   2.45038  104.670
 5239.00    2.45295   2.45987  104.841
 5240.00    2.45389   2.45754  104.604
 5241.00    2.45890   2.45358  104.680
 5242.00    2.47281   2.45342  107.059
 5243.00    2.47310   2.45432  110.408
 5244.00    2.46804   2.44549  112.671
 5245.00    2.45115   2.41607   -1.000
 5246.00    2.36530   2.36786  113.075
 5247.00    2.28710   2.31694   -1.000
 5248.00    2.26171   2.28048  112.957
 5249.00    2.26309   2.26452  111.376
 5250.00    2.26336   2.26569  110.430
 5251.00    2.27621   2.27845  110.425
 5252.00    2.30429   2.29628  109.366
 5253.00    2.32725   2.31316  106.648
 5254.00    2.31479   2.33228  103.968
 5255.00    2.32085   2.36456   -1.000
 5256.00    2.39486   2.41456  104.685
 5257.00    2.50001   2.46783   -1.000
 5258.00    2.55423   2.49631   -1.000
 5259.00    2.52699   2.48005   -1.000
 5260.00    2.47691   2.41520   -1.000
 5261.00    2.37863   2.31361   -1.000
 5262.00    2.22743   2.19645   -1.000
 5263.00    2.09160   2.08877  121.380
 5264.00    2.01503   2.01015  119.792
 5265.00    1.97890   1.96870  122.983
 5266.00    1.98572   1.95439   -1.000
 5267.00    2.05032   1.94536   -1.000
 5268.00    2.01977   1.92708   -1.000
 5269.00    1.88110   1.91359   -1.000
 5270.00    1.87876   1.93778   -1.000
 5271.00    2.05939   2.01284   -1.000
 5272.00    2.22853   2.11348   -1.000
 5273.00    2.30501   2.19789   -1.000
 5274.00    2.30495   2.25475   -1.000
 5275.00    2.30598   2.30488  103.295
 5276.00    2.36662   2.36435  104.318
 5277.00    2.46929   2.42705   -1.000
 5278.00    2.55296   2.46828   -1.000
 5279.00    2.54445   2.46880   -1.000
 5280.00    2.48731   2.43116   -1.000
 5281.00    2.43382   2.37710   -1.000
 5282.00    2.35281   2.33639  105.512
 5283.00    2.30169   2.33392   -1.000
 5284.00    2.27800   2.37905   -1.000
 5285.00    2.45781   2.45641  102.625
 5286.00    2.61464   2.53553   -1.000
 5287.00    2.63680   2.58999   -1.000
 5288.00    2.64148   2.61755  101.826
 5289.00    2.63885   2.62989  102.527
 5290.00    2.65760   2.63532  103.576
 5291.00    2.66855   2.63343   -1.000
 5292.00    2.62702   2.61929  108.296
 5293.00    2.60890   2.58950  112.378
 5294.00    2.60591   2.54020   -1.000
 5295.00    2.52631   2.46953   -1.000
 5296.00    2.40328   2.38821  110.603
 5297.00    2.27605   2.32326   -1.000
 5298.00    2.24380   2.29940   -1.000
 5299.00    2.32366   2.32087  106.474
 5300.00    2.40783   2.36878   -1.000
 5301.00    2.45551   2.42471  102.030
 5302.00    2.50370   2.48366  102.050
 5303.00    2.58169   2.54501   -1.000
 5304.00    2.67440   2.60006   -1.000
 5305.00    2.72430   2.63510   -1.000
 5306.00    2.69107   2.64689   -1.000
 5307.00    2.66777   2.64861  101.370
 5308.00    2.69950   2.65442   -1.000
 5309.00    2.74230   2.66721   -1.000
 5310.00    2.74382   2.67776   -1.000
 5311.00    2.72006   2.67594   -1.000
 5312.00    2.69599   2.66076   -1.000
 5313.00    2.69350   2.63712   -1.000
 5314.00    2.67462   2.61076   -1.000
 5315.00    2.65853   2.58698   -1.000
 5316.00    2.62511   2.57055   -1.000
 5317.00    2.60360   2.56510   -1.000
 5318.00    2.60554   2.56869   -1.000
 5319.00    2.62407   2.57227   -1.000
 5320.00    2.64121   2.56580   -1.000
 5321.00    2.60502   2.54279   -1.000
 5322.00    2.56230   2.50200   -1.000
 5323.00    2.51935   2.44666   -1.000
 5324.00    2.46180   2.38142   -1.000
 5325.00    2.43614   2.30634   -1.000
 5326.00    2.39476   2.22292   -1.000
 5327.00    2.21998   2.14918   -1.000
 5328.00    2.07826   2.12237   -1.000
 5329.00    2.14527   2.16676   -1.000
 5330.00    2.33163   2.26848   -1.000
 5331.00    2.49134   2.38064   -1.000
 5332.00    2.52843   2.46917   -1.000
 5333.00    2.56797   2.52988   -1.000
 5334.00    2.64569   2.57241   -1.000
 5335.00    2.69728   2.59937   -1.000
 5336.00    2.68657   2.60230   -1.000
 5337.00    2.65150   2.57504   -1.000
 5338.00    2.61264   2.52286   -1.000
 5339.00    2.52713   2.46351   -1.000
 5340.00    2.44341   2.42347  105.187
 5341.00    2.43333   2.42210  105.421
 5342.00    2.50306   2.45539   -1.000
 5343.00    2.59677   2.49600   -1.000
 5344.00    2.63401   2.51962   -1.000
 5345.00    2.60255   2.51954   -1.000
 5346.00    2.56554   2.50435   -1.000
 5347.00    2.55541   2.48695   -1.000
 5348.00    2.53914   2.47961   -1.000
 5349.00    2.52771   2.49214   -1.000
 5350.00    2.58184   2.52863   -1.000
 5351.00    2.65440   2.58112   -1.000
 5352.00    2.70959   2.63585   -1.000
 5353.00    2.75182   2.68346   -1.000
 5354.00    2.77418   2.72215   -1.000
 5355.00    2.81885   2.75310   -1.000
 5356.00    2.85439   2.77346   -1.000
 5357.00    2.84619   2.77992   -1.000
 5358.00    2.82156   2.77237   -1.000
 5359.00    2.79660   2.75213   -1.000
 5360.00    2.77929   2.72114   -1.000
 5361.00    2.72033   2.68358   -1.000
 5362.00    2.68888   2.64525   -1.000
 5363.00    2.66130   2.61019   -1.000
 5364.00    2.65413   2.58050   -1.000
 5365.00    2.62372   2.55699   -1.000
 5366.00    2.61028   2.53586   -1.000
 5367.00    2.59722   2.50817   -1.000
 5368.00    2.54579   2.46326   -1.000
 5369.00    2.46751   2.40357   -1.000
 5370.00    2.36868   2.35452  103.848
 5371.00    2.33481   2.34810  101.806
 5372.00    2.44675   2.39924   -1.000
 5373.00    2.61182   2.48958   -1.000
 5374.00    2.73702   2.58056   -1.000
 5375.00    2.78226   2.64317   -1.000
 5376.00    2.77515   2.67201   -1.000
 5377.00    2.74362   2.68032   -1.000
 5378.00    2.73637   2.68033   -1.000
 5379.00    2.75287   2.67443   -1.000
 5380.00    2.74679   2.66026   -1.000
 5381.00    2.72207   2.63987   -1.000
 5382.00    2.71322   2.62289   -1.000
 5383.00    2.69737   2.61861   -1.000
 5384.00    2.69749   2.62889   -1.000
 5385.00    2.74550   2.64513   -1.000
 5386.00    2.76960   2.65334   -1.000
 5387.00    2.74232   2.64252   -1.000
 5388.00    2.68925   2.61202   -1.000
 5389.00    2.63081   2.57156   -1.000
 5390.00    2.58953   2.53351   -1.000
 5391.00    2.56617   2.50678   -1.000
 5392.00    2.55820   2.49119   -1.000
 5393.00    2.57146   2.47895   -1.000
 5394.00    2.56381   2.46056   -1.000
 5395.00    2.52230   2.43337   -1.000
 5396.00    2.45479   2.40782   -1.000
 5397.00    2.42187   2.40267  105.711
 5398.00    2.49783   2.42876   -1.000
 5399.00    2.57884   2.47616   -1.000
 5400.00    2.61411   2.51905   -1.000
 5401.00    2.62256   2.53309   -1.000
 5402.00    2.62434   2.50706   -1.000
 5403.00    2.54852   2.44577   -1.000
 5404.00    2.42682   2.37273   -1.000
 5405.00    2.35352   2.32033   -1.000
 5406.00    2.35015   2.31162   -1.000
 5407.00    2.42450   2.33856   -1.000
 5408.00    2.48430   2.37488   -1.000
 5409.00    2.46493   2.40833   -1.000
 5410.00    2.48208   2.44449   -1.000
 5411.00    2.54704   2.49438   -1.000
 5412.00    2.63991   2.55174   -1.000
 5413.00    2.71711   2.60014   -1.000
 5414.00    2.71184   2.63538   -1.000
 5415.00    2.70866   2.66293   -1.000
 5416.00    2.72465   2.68735   -1.000
 5417.00    2.77936   2.70347   -1.000
 5418.00    2.79498   2.70344   -1.000
 5419.00    2.75851   2.68950   -1.000
 5420.00    2.71558   2.67058   -1.000
 5421.00    2.72079   2.65290   -1.000
 5422.00    2.74058   2.63879   -1.000
 5423.00    2.70355   2.63094   -1.000
 5424.00    2.65322   2.63585  104.963
 5425.00    2.68046   2.65457  108.173
 5426.00    2.75397   2.66916   -1.000
 5427.00    2.78043   2.65574   -1.000
 5428.00    2.68967   2.60830   -1.000
 5429.00    2.56781   2.54939  109.143
 5430.00    2.53397   2.51078  110.753
 5431.00    2.58122   2.49814   -1.000
 5432.00    2.61627   2.49474   -1.000
 5433.00    2.57907   2.48565   -1.000
 5434.00    2.53239   2.47832   -1.000
 5435.00    2.52682   2.49501  103.260
 5436.00    2.58651   2.54590   -1.000
 5437.00    2.67343   2.62222   -1.000
 5438.00    2.75847   2.70250   -1.000
 5439.00    2.83946   2.76731   -1.000
 5440.00    2.87122   2.80734   -1.000
 5441.00    2.88831   2.82112   -1.000
 5442.00    2.87251   2.80768   -1.000
 5443.00    2.84003   2.76242   -1.000
 5444.00    2.75001   2.68670   -1.000
 5445.00    2.61192   2.59867  107.602
 5446.00    2.48889   2.53081   -1.000
 5447.00    2.48340   2.51381   -1.000
 5448.00    2.57499   2.54847  104.817
 5449.00    2.69985   2.60849   -1.000
 5450.00    2.77172   2.65601   -1.000
 5451.00    2.78890   2.66698   -1.000
 5452.00    2.74883   2.63976   -1.000
 5453.00    2.68781   2.58587   -1.000
 5454.00    2.60061   2.52893   -1.000
 5455.00    2.52653   2.50001  104.661
 5456.00    2.56636   2.51944   -1.000
 5457.00    2.67623   2.57883   -1.000
 5458.00    2.77360   2.64382   -1.000
 5459.00    2.81502   2.67642   -1.000
 5460.00    2.78008   2.66767   -1.000
 5461.00    2.70615   2.63351   -1.000
 5462.00    2.63896   2.60045   -1.000
 5463.00    2.63345   2.58841   -1.000
 5464.00    2.69026   2.60185   -1.000
 5465.00    2.75790   2.63060   -1.000
 5466.00    2.76434   2.65950   -1.000
 5467.00    2.76901   2.67851   -1.000
 5468.00    2.78991   2.68397   -1.000
 5469.00    2.76315   2.67665   -1.000
 5470.00    2.71775   2.66041   -1.000
 5471.00    2.69709   2.63949   -1.000
 5472.00    2.68884   2.61433   -1.000
 5473.00    2.66831   2.58177   -1.000
 5474.00    2.64193   2.54000   -1.000
 5475.00    2.58958   2.49793   -1.000
 5476.00    2.51891   2.47423   -1.000
 5477.00    2.50811   2.48143  109.398
 5478.00    2.59263   2.51457   -1.000
 5479.00    2.67360   2.54770   -1.000
 5480.00    2.67442   2.56361   -1.000
 5481.00    2.61633   2.57028   -1.000
 5482.00    2.58115   2.58764  105.252
 5483.00    2.62278   2.62535  106.557
 5484.00    2.70578   2.66705   -1.000
 5485.00    2.77487   2.68951   -1.000
 5486.00    2.77280   2.68469   -1.000
 5487.00    2.71539   2.66446   -1.000
 5488.00    2.69732   2.65039   -1.000
 5489.00    2.71458   2.65279   -1.000
 5490.00    2.74222   2.66822   -1.000
 5491.00    2.77391   2.68332   -1.000
 5492.00    2.79019   2.69089   -1.000
 5493.00    2.77116   2.69126   -1.000
 5494.00    2.75643   2.68748   -1.000
 5495.00    2.76427   2.68245   -1.000
 5496.00    2.76078   2.67793   -1.000
 5497.00    2.74997   2.67696   -1.000
 5498.00    2.77475   2.68078   -1.000
 5499.00    2.80637   2.68203   -1.000
 5500.00    2.80925   2.67155   -1.000
 5501.00    2.75987   2.65061   -1.000
 5502.00    2.70995   2.62844   -1.000
 5503.00    2.69221   2.61399   -1.000
 5504.00    2.70649   2.60525   -1.000
 5505.00    2.67724   2.59772   -1.000
 5506.00    2.65407   2.59676   -1.000
 5507.00    2.67789   2.60849   -1.000
 5508.00    2.73132   2.62848   -1.000
 5509.00    2.75651   2.64041   -1.000
 5510.00    2.74732   2.62881   -1.000
 5511.00    2.70591   2.59740   -1.000
 5512.00    2.64322   2.56446   -1.000
 5513.00    2.61377   2.54844   -1.000
 5514.00    2.63814   2.55837   -1.000
 5515.00    2.68853   2.59062   -1.000
 5516.00    2.74653   2.63722   -1.000
 5517.00    2.79863   2.68880   -1.000
 5518.00    2.84452   2.73558   -1.000
 5519.00    2.88404   2.76914   -1.000
 5520.00    2.88985   2.78565   -1.000
 5521.00    2.87931   2.78847   -1.000
 5522.00    2.88310   2.78421   -1.000
 5523.00    2.88569   2.77231   -1.000
 5524.00    2.86768   2.74689   -1.000
 5525.00    2.82681   2.70306   -1.000
 5526.00    2.76062   2.64767   -1.000
 5527.00    2.67500   2.60151   -1.000
 5528.00    2.61667   2.58580  106.028
 5529.00    2.64518   2.60988   -1.000
 5530.00    2.74274   2.65681   -1.000
 5531.00    2.80454   2.70001   -1.000
 5532.00    2.81821   2.72137   -1.000
 5533.00    2.80725   2.72205   -1.000
 5534.00    2.79750   2.71426   -1.000
 5535.00    2.78511   2.70915   -1.000
 5536.00    2.78468   2.71279   -1.000
 5537.00    2.80876   2.72664   -1.000
 5538.00    2.83792   2.74813   -1.000
 5539.00    2.87474   2.77151   -1.000
 5540.00    2.92115   2.78984   -1.000
 5541.00    2.95342   2.79590   -1.000
 5542.00    2.91785   2.78871   -1.000
 5543.00    2.84578   2.77520   -1.000
 5544.00    2.83489   2.76602   -1.000
 5545.00    2.86446   2.76777   -1.000
 5546.00    2.87552   2.78196   -1.000
 5547.00    2.89461   2.80572   -1.000
 5548.00    2.93849   2.83344   -1.000
 5549.00    2.97297   2.85540   -1.000
 5550.00    2.98957   2.86319   -1.000
 5551.00    2.99874   2.85467   -1.000
 5552.00    2.97361   2.83439   -1.000
 5553.00    2.92942   2.81104   -1.000
 5554.00    2.89808   2.79413   -1.000
 5555.00    2.90806   2.78741   -1.000
 5556.00    2.92863   2.78824   -1.000
 5557.00    2.93124   2.79155   -1.000
 5558.00    2.93768   2.79322   -1.000
 5559.00    2.93847   2.79123   -1.000
 5560.00    2.92532   2.78307   -1.000
 5561.00    2.90599   2.76802   -1.000
 5562.00    2.87837   2.74969   -1.000
 5563.00    2.84548   2.73381   -1.000
 5564.00    2.82795   2.72176   -1.000
 5565.00    2.82671   2.71197   -1.000
 5566.00    2.81912   2.70341   -1.000
 5567.00    2.81277   2.69798   -1.000
 5568.00    2.82169   2.69780   -1.000
 5569.00    2.84813   2.70160   -1.000
 5570.00    2.91538   2.70581   -1.000
 5571.00    3.09198   2.70771   -1.000
 5572.00    3.33602   2.70926   -1.000
 5573.00    3.52866   2.71603   -1.000
 5574.00    3.48767   2.73116   -1.000
 5575.00    3.25173   2.75290   -1.000
 5576.00    3.16828   2.77298   -1.000
 5577.00    3.06391   2.78782   -1.000
 5578.00    2.97549   2.79993   -1.000
 5579.00    2.95337   2.80850   -1.000
 5580.00    2.95232   2.80999   -1.000
 5581.00    2.94898   2.80352   -1.000
 5582.00    2.92617   2.78759   -1.000
 5583.00    2.90057   2.75993   -1.000
 5584.00    2.88069   2.71589   -1.000
 5585.00    2.81570   2.65362   -1.000
 5586.00    2.71305   2.58522   -1.000
 5587.00    2.63232   2.53165   -1.000
 5588.00    2.60940   2.51131   -1.000
 5589.00    2.64276   2.52687   -1.000
 5590.00    2.70454   2.56360   -1.000
 5591.00    2.74944   2.60489   -1.000
 5592.00    2.75459   2.63932   -1.000
 5593.00    2.75457   2.66875   -1.000
 5594.00    2.78733   2.69785   -1.000
 5595.00    2.84074   2.72467   -1.000
 5596.00    2.88059   2.73823   -1.000
 5597.00    2.86937   2.72767   -1.000
 5598.00    2.80833   2.69578   -1.000
 5599.00    2.76127   2.65584   -1.000
 5600.00    2.73685   2.62441   -1.000
 5601.00    2.70784   2.61365   -1.000
 5602.00    2.69556   2.63177   -1.000
 5603.00    2.75018   2.68081   -1.000
 5604.00    2.86006   2.75110   -1.000
 5605.00    2.95155   2.82148   -1.000
 5606.00    3.00238   2.87393   -1.000
 5607.00    3.02623   2.90298   -1.000
 5608.00    3.03085   2.91449   -1.000
 5609.00    3.03605   2.91846   -1.000
 5610.00    3.05604   2.91824   -1.000
 5611.00    3.06586   2.90686   -1.000
 5612.00    3.04085   2.87028   -1.000
 5613.00    2.97164   2.80378   -1.000
 5614.00    2.84772   2.72310   -1.000
 5615.00    2.74451   2.66039   -1.000
 5616.00    2.74417   2.64180   -1.000
 5617.00    2.81332   2.66491   -1.000
 5618.00    2.85570   2.70860   -1.000
 5619.00    2.88285   2.74755   -1.000
 5620.00    2.89664   2.77251   -1.000
 5621.00    2.91853   2.77957   -1.000
 5622.00    2.91089   2.76463   -1.000
 5623.00    2.85813   2.73213   -1.000
 5624.00    2.78060   2.70236   -1.000
 5625.00    2.75507   2.69494   -1.000
 5626.00    2.81007   2.71957   -1.000
 5627.00    2.88382   2.76482   -1.000
 5628.00    2.95012   2.81318   -1.000
 5629.00    2.99107   2.85210   -1.000
 5630.00    3.01892   2.87501   -1.000
 5631.00    3.04208   2.87988   -1.000
 5632.00    3.04435   2.86928   -1.000
 5633.00    3.00095   2.84784   -1.000
 5634.00    2.95347   2.82123   -1.000
 5635.00    2.93922   2.79468   -1.000
 5636.00    2.90680   2.77401   -1.000
 5637.00    2.88058   2.76228   -1.000
 5638.00    2.87360   2.75834   -1.000
 5639.00    2.87706   2.75691   -1.000
 5640.00    2.87200   2.75423   -1.000
 5641.00    2.86477   2.75174   -1.000
 5642.00    2.86941   2.75450   -1.000
 5643.00    2.88834   2.76611   -1.000
 5644.00    2.91184   2.78260   -1.000
 5645.00    2.93796   2.79858   -1.000
 5646.00    2.94690   2.81027   -1.000
 5647.00    2.95217   2.81582   -1.000
 5648.00    2.94888   2.81695   -1.000
 5649.00    2.93438   2.81905   -1.000
 5650.00    2.93966   2.82581   -1.000
 5651.00    2.97844   2.83460   -1.000
 5652.00    3.01417   2.83804   -1.000
 5653.00    2.99763   2.82884   -1.000
 5654.00    2.94883   2.80685   -1.000
 5655.00    2.91635   2.77531   -1.000
 5656.00    2.88544   2.73582   -1.000
 5657.00    2.81025   2.69456   -1.000
 5658.00    2.74260   2.66520   -1.000
 5659.00    2.75481   2.65859   -1.000
 5660.00    2.81203   2.67556   -1.000
 5661.00    2.84202   2.70287   -1.000
 5662.00    2.85196   2.73019   -1.000
 5663.00    2.88666   2.75871   -1.000
 5664.00    2.94115   2.78684   -1.000
 5665.00    2.95359   2.80588   -1.000
 5666.00    2.93815   2.81151   -1.000
 5667.00    2.92174   2.80768   -1.000
 5668.00    2.90147   2.80509   -1.000
 5669.00    2.90858   2.81260   -1.000
 5670.00    2.94580   2.83192   -1.000
 5671.00    2.98281   2.86009   -1.000
 5672.00    3.03519   2.89080   -1.000
 5673.00    3.07239   2.91587   -1.000
 5674.00    3.08114   2.93004   -1.000
 5675.00    3.08632   2.93521   -1.000
 5676.00    3.08961   2.93436   -1.000
 5677.00    3.10054   2.92902   -1.000
 5678.00    3.10218   2.91676   -1.000
 5679.00    3.05794   2.89523   -1.000
 5680.00    3.01488   2.86666   -1.000
 5681.00    2.99049   2.83667   -1.000
 5682.00    2.95521   2.81299   -1.000
 5683.00    2.93175   2.80146   -1.000
 5684.00    2.96067   2.80124   -1.000
 5685.00    2.97722   2.80302   -1.000
 5686.00    2.93382   2.80056   -1.000
 5687.00    2.88356   2.79903   -1.000
 5688.00    2.88590   2.80798   -1.000
 5689.00    2.93886   2.83241   -1.000
 5690.00    3.00793   2.86747   -1.000
 5691.00    3.06529   2.90215   -1.000
 5692.00    3.08928   2.92693   -1.000
 5693.00    3.08549   2.93816   -1.000
 5694.00    3.07534   2.93711   -1.000
 5695.00    3.05997   2.92687   -1.000
 5696.00    3.02965   2.90897   -1.000
 5697.00    3.00365   2.88403   -1.000
 5698.00    2.97076   2.85421   -1.000
 5699.00    2.91287   2.82436   -1.000
 5700.00    2.86867   2.80124   -1.000
 5701.00    2.84500   2.79022   -1.000
 5702.00    2.84036   2.79237   -1.000
 5703.00    2.88912   2.80122   -1.000
 5704.00    2.94053   2.80168   -1.000
 5705.00    2.92573   2.78451   -1.000
 5706.00    2.86584   2.75100   -1.000
 5707.00    2.79838   2.71164   -1.000
 5708.00    2.74662   2.68058   -1.000
 5709.00    2.73759   2.66638   -1.000
 5710.00    2.75758   2.67442   -1.000
 5711.00    2.79094   2.70628   -1.000
 5712.00    2.85886   2.75591   -1.000
 5713.00    2.94803   2.81321   -1.000
 5714.00    3.00967   2.86549   -1.000
 5715.00    3.02588   2.90422   -1.000
 5716.00    3.05383   2.93095   -1.000
 5717.00    3.08816   2.95070   -1.000
 5718.00    3.11241   2.96888   -1.000
 5719.00    3.13890   2.98867   -1.000
 5720.00    3.14506   3.00998   -1.000
 5721.00    3.15746   3.02922   -1.000
 5722.00    3.18419   3.04175   -1.000
 5723.00    3.19842   3.04256   -1.000
 5724.00    3.18989   3.02982   -1.000
 5725.00    3.15356   3.00685   -1.000
 5726.00    3.10454   2.98398   -1.000
 5727.00    3.07503   2.97082   -1.000
 5728.00    3.08792   2.96938   -1.000
 5729.00    3.11759   2.97265   -1.000
 5730.00    3.11849   2.97316   -1.000
 5731.00    3.09835   2.97443   -1.000
 5732.00    3.10164   2.98347   -1.000
 5733.00    3.13349   3.00112   -1.000
 5734.00    3.16333   3.01924   -1.000
 5735.00    3.17532   3.02705   -1.000
 5736.00    3.15626   3.02446   -1.000
 5737.00    3.12543   3.01753   -1.000
 5738.00    3.10354   3.01221   -1.000
 5739.00    3.09557   3.01037   -1.000
 5740.00    3.09791   3.00905   -1.000
 5741.00    3.09768   3.00881   -1.000
 5742.00    3.09855   3.01218   -1.000
 5743.00    3.10057   3.02101   -1.000
 5744.00    3.13241   3.03181   -1.000
 5745.00    3.16970   3.03530   -1.000
 5746.00    3.16196   3.02801   -1.000
 5747.00    3.12654   3.01521   -1.000
 5748.00    3.10801   3.00662   -1.000
 5749.00    3.14154   3.00466   -1.000
 5750.00    3.17474   2.99717   -1.000
 5751.00    3.13380   2.97608   -1.000
 5752.00    3.06006   2.94585   -1.000
 5753.00    3.00478   2.92648   -1.000
 5754.00    2.99620   2.93576   -1.000
 5755.00    3.06490   2.97090   -1.000
 5756.00    3.16081   3.01459   -1.000
 5757.00    3.20271   3.04111   -1.000
 5758.00    3.18845   3.03864   -1.000
 5759.00    3.15205   3.00910   -1.000
 5760.00    3.08901   2.96790   -1.000
 5761.00    3.02638   2.93583   -1.000
 5762.00    3.00385   2.93116   -1.000
 5763.00    3.04275   2.95820   -1.000
 5764.00    3.12306   3.00589   -1.000
 5765.00    3.19776   3.05434   -1.000
 5766.00    3.21402   3.08683   -1.000
 5767.00    3.19776   3.10110   -1.000
 5768.00    3.18970   3.10074   -1.000
 5769.00    3.17621   3.09173   -1.000
 5770.00    3.16140   3.07794   -1.000
 5771.00    3.12467   3.06230   -1.000
 5772.00    3.07809   3.04753   -1.000
 5773.00    3.03734   3.03691  104.463
 5774.00    2.98820   3.03412   -1.000
 5775.00    2.91598   3.03701   -1.000
 5776.00    2.86975   3.03850   -1.000
 5777.00    2.89887   3.02656   -1.000
 5778.00    2.95950   2.99214  110.137
 5779.00    2.97049   2.93820   -1.000
 5780.00    2.94270   2.87769   -1.000
 5781.00    2.90400   2.82912   -1.000
 5782.00    2.88061   2.80166   -1.000
 5783.00    2.87398   2.79627   -1.000
 5784.00    2.86659   2.80758   -1.000
 5785.00    2.88504   2.83351   -1.000
 5786.00    2.95221   2.87317   -1.000
 5787.00    3.04558   2.91778   -1.000
 5788.00    3.11863   2.95381   -1.000
 5789.00    3.13408   2.97512   -1.000
 5790.00    3.09487   2.98602   -1.000
 5791.00    3.05583   2.99934   -1.000
 5792.00    3.06828   3.02236   -1.000
 5793.00    3.10911   3.05218   -1.000
 5794.00    3.16735   3.07582   -1.000
 5795.00    3.22250   3.08320   -1.000
 5796.00    3.21081   3.07718   -1.000
 5797.00    3.17123   3.07093   -1.000
 5798.00    3.17186   3.08029   -1.000
 5799.00    3.22830   3.10622   -1.000
 5800.00    3.30206   3.13654   -1.000
 5801.00    3.32612   3.15299   -1.000
 5802.00    3.29634   3.14697   -1.000
 5803.00    3.24288   3.12449   -1.000
 5804.00    3.18415   3.09825   -1.000
 5805.00    3.14979   3.08160   -1.000
 5806.00    3.15046   3.07883   -1.000
 5807.00    3.16831   3.08726   -1.000
 5808.00    3.19540   3.10079   -1.000
 5809.00    3.23241   3.11444   -1.000
 5810.00    3.26824   3.12388   -1.000
 5811.00    3.29000   3.12536   -1.000
 5812.00    3.29190   3.11562   -1.000
 5813.00    3.24926   3.09611   -1.000
 5814.00    3.19838   3.07315   -1.000
 5815.00    3.18058   3.05893   -1.000
 5816.00    3.18295   3.06304   -1.000
 5817.00    3.21876   3.08779   -1.000
 5818.00    3.27259   3.12098   -1.000
 5819.00    3.30762   3.14863   -1.000
 5820.00    3.32915   3.16097   -1.000
 5821.00    3.32586   3.16042   -1.000
 5822.00    3.30713   3.15500   -1.000
 5823.00    3.31536   3.15151   -1.000
 5824.00    3.32557   3.15326   -1.000
 5825.00    3.31465   3.15810   -1.000
 5826.00    3.30700   3.16443   -1.000
 5827.00    3.31154   3.17078   -1.000
 5828.00    3.32736   3.17626   -1.000
 5829.00    3.33570   3.17987   -1.000
 5830.00    3.33145   3.17958   -1.000
 5831.00    3.32681   3.17425   -1.000
 5832.00    3.31258   3.16462   -1.000
 5833.00    3.28702   3.15306   -1.000
 5834.00    3.27245   3.14361   -1.000
 5835.00    3.27630   3.13866   -1.000
 5836.00    3.28461   3.13877   -1.000
 5837.00    3.28258   3.14311   -1.000
 5838.00    3.26240   3.15171   -1.000
 5839.00    3.25708   3.16619   -1.000
 5840.00    3.28255   3.18328   -1.000
 5841.00    3.31973   3.19659   -1.000
 5842.00    3.34236   3.19946   -1.000
 5843.00    3.34450   3.18929   -1.000
 5844.00    3.33049   3.16869   -1.000
 5845.00    3.30074   3.14336   -1.000
 5846.00    3.25726   3.12002   -1.000
 5847.00    3.22988   3.10378   -1.000
 5848.00    3.23808   3.09464   -1.000
 5849.00    3.26402   3.08712   -1.000
 5850.00    3.26697   3.07465   -1.000
 5851.00    3.22632   3.05495   -1.000
 5852.00    3.17298   3.03263   -1.000
 5853.00    3.13894   3.01207   -1.000
 5854.00    3.13943   2.99190   -1.000
 5855.00    3.14035   2.96800   -1.000
 5856.00    3.10744   2.94126   -1.000
 5857.00    3.06992   2.92346   -1.000
 5858.00    3.07259   2.92771   -1.000
 5859.00    3.13011   2.95387   -1.000
 5860.00    3.18682   2.99023   -1.000
 5861.00    3.19505   3.01970   -1.000
 5862.00    3.19177   3.03729   -1.000
 5863.00    3.18915   3.04361   -1.000
 5864.00    3.17824   3.04264   -1.000
 5865.00    3.16869   3.03851   -1.000
 5866.00    3.16842   3.03775   -1.000
 5867.00    3.18924   3.04710   -1.000
 5868.00    3.23014   3.06833   -1.000
 5869.00    3.26921   3.09252   -1.000
 5870.00    3.28373   3.10952   -1.000
 5871.00    3.29297   3.11526   -1.000
 5872.00    3.29473   3.11243   -1.000
 5873.00    3.29247   3.10696   -1.000
 5874.00    3.29892   3.10065   -1.000
 5875.00    3.28261   3.09124   -1.000
 5876.00    3.25221   3.07530   -1.000
 5877.00    3.21812   3.05287   -1.000
 5878.00    3.17772   3.02926   -1.000
 5879.00    3.14339   3.01015   -1.000
 5880.00    3.10606   2.99979   -1.000
 5881.00    3.05932   2.99552   -1.000
 5882.00    2.94547   2.99224   -1.000
 5883.00    2.72192   2.98228   -1.000
 5884.00    2.45131   2.95694   -1.000
 5885.00    2.22651   2.90184   -1.000
 5886.00    2.13535   2.79782   -1.000
 5887.00    2.16458   2.63892   -1.000
 5888.00    2.13276   2.45501   -1.000
 5889.00    1.98459   2.30229   -1.000
 5890.00    1.86449   2.23735   -1.000
 5891.00    1.86016   2.26125   -1.000
 5892.00    1.97967   2.33049   -1.000
 5893.00    2.18112   2.37892   -1.000
 5894.00    2.32633   2.38777   -1.000
 5895.00    2.35989   2.38768   -1.000
 5896.00    2.41830   2.42172  109.605
 5897.00    2.59376   2.51376   -1.000
 5898.00    2.81939   2.63842   -1.000
 5899.00    2.98380   2.76193   -1.000
 5900.00    3.08260   2.86014   -1.000
 5901.00    3.14376   2.92832   -1.000
 5902.00    3.16433   2.96955   -1.000
 5903.00    3.15842   2.99139   -1.000
 5904.00    3.15180   3.00180   -1.000
 5905.00    3.14485   3.00853   -1.000
 5906.00    3.15356   3.01706   -1.000
 5907.00    3.17830   3.02958   -1.000
 5908.00    3.19402   3.04393   -1.000
 5909.00    3.20671   3.05533   -1.000
 5910.00    3.22242   3.05864   -1.000
 5911.00    3.22582   3.04867   -1.000
 5912.00    3.19338   3.02450   -1.000
 5913.00    3.14002   2.99382   -1.000
 5914.00    3.10970   2.96947   -1.000
 5915.00    3.09988   2.96280   -1.000
 5916.00    3.10948   2.97657   -1.000
 5917.00    3.15256   3.00215   -1.000
 5918.00    3.20502   3.02991   -1.000
 5919.00    3.23028   3.04995   -1.000
 5920.00    3.21819   3.05967   -1.000
 5921.00    3.19506   3.06185   -1.000
 5922.00    3.18408   3.06356   -1.000
 5923.00    3.20019   3.06968   -1.000
 5924.00    3.24121   3.08017   -1.000
 5925.00    3.27176   3.08831   -1.000
 5926.00    3.26861   3.08625   -1.000
 5927.00    3.24656   3.07296   -1.000
 5928.00    3.20333   3.05375   -1.000
 5929.00    3.16660   3.04133   -1.000
 5930.00    3.18173   3.04065   -1.000
 5931.00    3.22583   3.04928   -1.000
 5932.00    3.24796   3.05736   -1.000
 5933.00    3.23922   3.05987   -1.000
 5934.00    3.20218   3.06262   -1.000
 5935.00    3.18755   3.07141   -1.000
 5936.00    3.21230   3.08718   -1.000
 5937.00    3.24379   3.10099   -1.000
 5938.00    3.27500   3.10343   -1.000
 5939.00    3.26758   3.09365   -1.000
 5940.00    3.23079   3.07705   -1.000
 5941.00    3.20531   3.06484   -1.000
 5942.00    3.19571   3.06447   -1.000
 5943.00    3.22160   3.07671   -1.000
 5944.00    3.27165   3.09208   -1.000
 5945.00    3.28661   3.10044   -1.000
 5946.00    3.27385   3.09594   -1.000
 5947.00    3.25215   3.08243   -1.000
 5948.00    3.22859   3.06927   -1.000
 5949.00    3.21344   3.06244   -1.000
 5950.00    3.21232   3.06198   -1.000
 5951.00    3.21656   3.06120   -1.000
 5952.00    3.20573   3.05907   -1.000
 5953.00    3.18198   3.05731   -1.000
 5954.00    3.17917   3.05666   -1.000
 5955.00    3.20895   3.05610   -1.000
 5956.00    3.21930   3.05562   -1.000
 5957.00    3.20050   3.06081   -1.000
 5958.00    3.21741   3.07757   -1.000
 5959.00    3.26056   3.10334   -1.000
 5960.00    3.28984   3.12991   -1.000
 5961.00    3.31455   3.14830   -1.000
 5962.00    3.32368   3.15378   -1.000
 5963.00    3.31658   3.14861   -1.000
 5964.00    3.28175   3.13867   -1.000
 5965.00    3.24325   3.13239   -1.000
 5966.00    3.25587   3.13466   -1.000
 5967.00    3.30348   3.14630   -1.000
 5968.00    3.33205   3.16269   -1.000
 5969.00    3.33644   3.17848   -1.000
 5970.00    3.34053   3.18976   -1.000
 5971.00    3.34279   3.19321   -1.000
 5972.00    3.33688   3.18605   -1.000
 5973.00    3.32335   3.16735   -1.000
 5974.00    3.29284   3.13918   -1.000
 5975.00    3.24714   3.10915   -1.000
 5976.00    3.21632   3.08646   -1.000
 5977.00    3.21004   3.08003   -1.000
 5978.00    3.22572   3.08859   -1.000
 5979.00    3.25998   3.10463   -1.000
 5980.00    3.27943   3.11318   -1.000
 5981.00    3.28339   3.10561   -1.000
 5982.00    3.27111   3.08221   -1.000
 5983.00    3.20703   3.05742   -1.000
 5984.00    3.15063   3.04664   -1.000
 5985.00    3.15892   3.05589   -1.000
 5986.00    3.20278   3.08013   -1.000
 5987.00    3.25089   3.10669   -1.000
 5988.00    3.28239   3.12847   -1.000
 5989.00    3.30383   3.14362   -1.000
 5990.00    3.30702   3.15496   -1.000
 5991.00    3.28442   3.16723   -1.000
 5992.00    3.28769   3.18189   -1.000
 5993.00    3.32830   3.19401   -1.000
 5994.00    3.34565   3.19483   -1.000
 5995.00    3.32233   3.18096   -1.000
 5996.00    3.28235   3.15766   -1.000
 5997.00    3.23875   3.13818   -1.000
 5998.00    3.22607   3.12934   -1.000
 5999.00    3.24029   3.13139   -1.000
 6000.00    3.27497   3.13608   -1.000
 6001.00    3.28440   3.13715   -1.000
 6002.00    3.24579   3.13490   -1.000
 6003.00    3.20889   3.12983   -1.000
 6004.00    3.19652   3.12116   -1.000
 6005.00    3.18413   3.10600   -1.000
 6006.00    3.15288   3.08621   -1.000
 6007.00    3.12987   3.07431   -1.000
 6008.00    3.14561   3.07896   -1.000
 6009.00    3.20775   3.09731   -1.000
 6010.00    3.27221   3.11597   -1.000
 6011.00    3.29529   3.12112   -1.000
 6012.00    3.27376   3.11460   -1.000
 6013.00    3.24447   3.10479   -1.000
 6014.00    3.23491   3.09861   -1.000
 6015.00    3.23418   3.09660   -1.000
 6016.00    3.22850   3.09516   -1.000
 6017.00    3.21340   3.09173   -1.000
 6018.00    3.20462   3.08587   -1.000
 6019.00    3.20110   3.07924   -1.000
 6020.00    3.19328   3.07576   -1.000
 6021.00    3.19939   3.08178   -1.000
 6022.00    3.22556   3.09720   -1.000
 6023.00    3.24339   3.11996   -1.000
 6024.00    3.26434   3.14553   -1.000
 6025.00    3.30330   3.17076   -1.000
 6026.00    3.34556   3.19426   -1.000
 6027.00    3.36848   3.21556   -1.000
 6028.00    3.37810   3.23438   -1.000
 6029.00    3.38290   3.25065   -1.000
 6030.00    3.37322   3.26447   -1.000
 6031.00    3.36751   3.27833   -1.000
 6032.00    3.36969   3.29475   -1.000
 6033.00    3.36848   3.31214   -1.000
 6034.00    3.37548   3.32585   -1.000
 6035.00    3.39001   3.33057   -1.000
 6036.00    3.40119   3.32349   -1.000
 6037.00    3.39948   3.30904   -1.000
 6038.00    3.38413   3.29225   -1.000
 6039.00    3.36752   3.28052   -1.000
 6040.00    3.35289   3.27756   -1.000
 6041.00    3.34541   3.28467   -1.000
 6042.00    3.36379   3.29861   -1.000
 6043.00    3.38560   3.31347   -1.000
 6044.00    3.40845   3.32628   -1.000
 6045.00    3.43591   3.33437   -1.000
 6046.00    3.43904   3.34025   -1.000
 6047.00    3.42982   3.34368   -1.000
 6048.00    3.43729   3.34540   -1.000
 6049.00    3.45557   3.34350   -1.000
 6050.00    3.46240   3.33598   -1.000
 6051.00    3.45446   3.32101   -1.000
 6052.00    3.42907   3.29964   -1.000
 6053.00    3.39628   3.27550   -1.000
 6054.00    3.37551   3.25425   -1.000
 6055.00    3.36185   3.24169   -1.000
 6056.00    3.35115   3.24080   -1.000
 6057.00    3.34982   3.25123   -1.000
 6058.00    3.38080   3.26603   -1.000
 6059.00    3.40900   3.27662   -1.000
 6060.00    3.41517   3.27544   -1.000
 6061.00    3.44493   3.25992   -1.000
 6062.00    3.14206   3.23439   -1.000
 6063.00    2.19191   3.20895   -1.000
 6064.00    1.70098   3.19749   -1.000
 6065.00    2.48510   3.20881   -1.000
 6066.00    3.16283   3.24182   -1.000
 6067.00    3.29908   3.28430  102.113
 6068.00    2.88385   3.32299   -1.000
 6069.00    1.71677   3.35036   -1.000
 6070.00    2.34420   3.36675   -1.000
 6071.00    3.38171   3.37460  105.098
 6072.00    3.50786   3.37527   -1.000
 6073.00    3.50038   3.36875   -1.000
 6074.00    3.49140   3.35415   -1.000
 6075.00    3.46624   3.33209   -1.000
 6076.00    3.43556   3.30444   -1.000
 6077.00    3.40194   3.27665   -1.000
 6078.00    3.36646   3.25242   -1.000
 6079.00    3.33935   3.23446   -1.000
 6080.00    3.33857   3.22154   -1.000
 6081.00    3.33610   3.21387   -1.000
 6082.00    3.31368   3.21138   -1.000
 6083.00    3.31888   3.21499   -1.000
 6084.00    3.33095   3.22341   -1.000
 6085.00    3.33489   3.23354   -1.000
 6086.00    3.32800   3.24189   -1.000
 6087.00    3.33303   3.24357   -1.000
 6088.00    3.33666   3.23664   -1.000
 6089.00    3.31065   3.22485   -1.000
 6090.00    3.28896   3.21533   -1.000
 6091.00    3.27715   3.21613   -1.000
 6092.00    3.28671   3.22865   -1.000
 6093.00    3.32949   3.24927   -1.000
 6094.00    3.36920   3.27069   -1.000
 6095.00    3.39652   3.28745   -1.000
 6096.00    3.40458   3.29782   -1.000
 6097.00    3.40418   3.29998   -1.000
 6098.00    3.40011   3.28944   -1.000
 6099.00    3.38358   3.26040   -1.000
 6100.00    3.34543   3.21266   -1.000
 6101.00    3.27363   3.16453   -1.000
 6102.00    3.19356   3.13556   -1.000
 6103.00    3.17281   3.14269   -1.000
 6104.00    3.23501   3.17708   -1.000
 6105.00    3.31500   3.22241   -1.000
 6106.00    3.36035   3.26070   -1.000
 6107.00    3.36443   3.28781   -1.000
 6108.00    3.35822   3.30411   -1.000
 6109.00    3.36359   3.31351   -1.000
 6110.00    3.37056   3.31948   -1.000
 6111.00    3.35614   3.32564   -1.000
 6112.00    3.37921   3.33416   -1.000
 6113.00    3.43327   3.34087   -1.000
 6114.00    3.44062   3.34206   -1.000
 6115.00    3.40774   3.33470   -1.000
 6116.00    3.38183   3.31911   -1.000
 6117.00    3.38206   3.29427   -1.000
 6118.00    3.36052   3.25781   -1.000
 6119.00    3.30135   3.21184   -1.000
 6120.00    3.24212   3.16761   -1.000
 6121.00    3.19724   3.14137   -1.000
 6122.00    3.19431   3.14436   -1.000
 6123.00    3.24783   3.17065   -1.000
 6124.00    3.31234   3.20530   -1.000
 6125.00    3.34006   3.23179   -1.000
 6126.00    3.33383   3.24737   -1.000
 6127.00    3.31756   3.25976   -1.000
 6128.00    3.31831   3.27663   -1.000
 6129.00    3.34840   3.30077   -1.000
 6130.00    3.39513   3.32278   -1.000
 6131.00    3.42240   3.32980   -1.000
 6132.00    3.40866   3.30682   -1.000
 6133.00    3.35322   3.25109   -1.000
 6134.00    3.26763   3.17111   -1.000
 6135.00    3.16716   3.09677   -1.000
 6136.00    3.06265   3.05546  110.326
 6137.00    3.03786   3.06558   -1.000
 6138.00    3.13176   3.11311  110.438
 6139.00    3.26648   3.17281   -1.000
 6140.00    3.33820   3.22313   -1.000
 6141.00    3.33091   3.26005   -1.000
 6142.00    3.33144   3.29079   -1.000
 6143.00    3.36302   3.31691   -1.000
 6144.00    3.39508   3.33398   -1.000
 6145.00    3.40426   3.33600   -1.000
 6146.00    3.38185   3.32272   -1.000
 6147.00    3.34083   3.30080   -1.000
 6148.00    3.30348   3.27840   -1.000
 6149.00    3.26903   3.26451  109.206
 6150.00    3.26237   3.26009  109.880
 6151.00    3.28806   3.26239   -1.000
 6152.00    3.33175   3.26240   -1.000
 6153.00    3.31782   3.25579   -1.000
 6154.00    3.27238   3.24287   -1.000
 6155.00    3.23894   3.22594  114.050
 6156.00    3.22312   3.20403   -1.000
 6157.00    3.21076   3.16766   -1.000
 6158.00    3.18213   3.10860   -1.000
 6159.00    3.11282   3.02740   -1.000
 6160.00    3.00130   2.94161   -1.000
 6161.00    2.86547   2.87957  116.045
 6162.00    2.80213   2.86140   -1.000
 6163.00    2.84474   2.89040   -1.000
 6164.00    2.95167   2.94348  116.647
 6165.00    3.02835   2.99525   -1.000
 6166.00    3.05076   3.02243   -1.000
 6167.00    3.04193   3.02483  115.579
 6168.00    3.01465   3.01517  113.766
 6169.00    2.98930   3.01575   -1.000
 6170.00    2.99201   3.03705   -1.000
 6171.00    3.03853   3.07461   -1.000
 6172.00    3.11221   3.11398  113.192
 6173.00    3.14712   3.14320  112.912
 6174.00    3.14466   3.16103  112.409
 6175.00    3.15428   3.17202  111.956
 6176.00    3.15624   3.18226  111.594
 6177.00    3.17678   3.19501  111.113
 6178.00    3.20572   3.21029  110.769
 6179.00    3.22298   3.22650  110.881
 6180.00    3.24121   3.24119  111.251
 6181.00    3.24241   3.25113  112.027
 6182.00    3.24361   3.25242  113.199
 6183.00    3.24368   3.24105  114.397
 6184.00    3.23432   3.21850  115.503
 6185.00    3.21135   3.18757   -1.000
 6186.00    3.16285   3.15394  117.759
 6187.00    3.11485   3.11963  118.726
 6188.00    3.07219   3.08624  117.844
 6189.00    3.04431   3.05774  115.200
 6190.00    3.01184   3.04303   -1.000
 6191.00    2.99530   3.05160   -1.000
 6192.00    3.03364   3.08512   -1.000
 6193.00    3.11399   3.13173  112.426
 6194.00    3.18377   3.17584  113.641
 6195.00    3.21577   3.20312  114.674
 6196.00    3.20492   3.21070  114.782
 6197.00    3.15372   3.20187   -1.000
 6198.00    3.07736   3.19006   -1.000
 6199.00    3.02875   3.18637   -1.000
 6200.00    3.04614   3.19846   -1.000
 6201.00    3.11649   3.22236   -1.000
 6202.00    3.20344   3.24882   -1.000
 6203.00    3.26134   3.27111  111.980
 6204.00    3.27566   3.28599  112.080
 6205.00    3.27760   3.29500  112.448
 6206.00    3.28566   3.29804  113.390
 6207.00    3.28740   3.29426  114.325
 6208.00    3.27419   3.28109  115.391
 6209.00    3.24720   3.25638  117.032
 6210.00    3.21629   3.21864  118.365
 6211.00    3.18104   3.17095  118.837
 6212.00    3.11906   3.11971  117.640
 6213.00    3.06216   3.07726  116.809
 6214.00    3.03308   3.05218  117.440
 6215.00    3.02082   3.04664   -1.000
 6216.00    3.02984   3.05255  116.491
 6217.00    3.06888   3.05917  116.878
 6218.00    3.08993   3.06275   -1.000
 6219.00    3.07014   3.06517  122.851
 6220.00    3.06593   3.07310  116.980
 6221.00    3.08614   3.08691  115.629
 6222.00    3.11135   3.10316  115.799
 6223.00    3.13088   3.11722  116.319
 6224.00    3.14004   3.12600  117.740
 6225.00    3.14801   3.12624  119.660
 6226.00    3.15279   3.11355   -1.000
 6227.00    3.15053   3.08416   -1.000
 6228.00    3.11174   3.04310   -1.000
 6229.00    3.03745   3.00357   -1.000
 6230.00    2.96444   2.98412  115.440
 6231.00    2.93610   2.99606   -1.000
 6232.00    2.98673   3.03690   -1.000
 6233.00    3.07572   3.09054  116.322
 6234.00    3.17056   3.13589   -1.000
 6235.00    3.22837   3.15841   -1.000
 6236.00    3.21324   3.15350   -1.000
 6237.00    3.16892   3.12975   -1.000
 6238.00    3.11777   3.09805  120.124
 6239.00    3.06426   3.06867  120.966
 6240.00    3.02692   3.04460  121.055
 6241.00    3.01039   3.02600  120.392
 6242.00    2.99884   3.01276  119.263
 6243.00    2.99852   3.00767  117.795
 6244.00    3.00710   3.01529  116.505
 6245.00    3.04395   3.03782  116.179
 6246.00    3.09026   3.07135  117.055
 6247.00    3.13413   3.10581   -1.000
 6248.00    3.15673   3.12829   -1.000
 6249.00    3.14747   3.12826  121.622
 6250.00    3.12898   3.10600   -1.000
 6251.00    3.09068   3.07019  122.055
 6252.00    3.03142   3.03355  122.930
 6253.00    2.97765   3.00434   -1.000
 6254.00    2.94644   2.98300   -1.000
 6255.00    2.94099   2.96719   -1.000
 6256.00    2.92338   2.95878   -1.000
 6257.00    2.90370   2.96347   -1.000
 6258.00    2.91884   2.98862   -1.000
 6259.00    2.96534   3.03138   -1.000
 6260.00    3.03527   3.08381   -1.000
 6261.00    3.11495   3.13132  117.555
 6262.00    3.15043   3.16493  117.268
 6263.00    3.15245   3.18120   -1.000
 6264.00    3.12966   3.18585   -1.000
 6265.00    3.10800   3.18651   -1.000
 6266.00    3.11377   3.18788   -1.000
 6267.00    3.12434   3.19057   -1.000
 6268.00    3.14260   3.19316   -1.000
 6269.00    3.14217   3.19716   -1.000
 6270.00    3.12414   3.20373   -1.000
 6271.00    3.10365   3.21071   -1.000
 6272.00    3.05149   3.21244   -1.000
 6273.00    2.99553   3.20384   -1.000
 6274.00    2.96506   3.18408   -1.000
 6275.00    2.93636   3.15630   -1.000
 6276.00    2.90983   3.12662   -1.000
 6277.00    2.87112   3.09975   -1.000
 6278.00    2.82106   3.08110   -1.000
 6279.00    2.76249   3.07505   -1.000
 6280.00    2.75246   3.08562   -1.000
 6281.00    2.82012   3.11210   -1.000
 6282.00    2.93238   3.14974   -1.000
 6283.00    3.02367   3.18947   -1.000
 6284.00    3.07993   3.22546   -1.000
 6285.00    3.14032   3.25435   -1.000
 6286.00    3.18843   3.27511   -1.000
 6287.00    3.22249   3.28563   -1.000
 6288.00    3.26585   3.28347  118.222
 6289.00    3.27729   3.26944  118.352
 6290.00    3.25061   3.24926  118.548
 6291.00    3.21543   3.22963  119.346
 6292.00    3.19942   3.21462  120.177
 6293.00    3.21205   3.20141  120.461
 6294.00    3.22224   3.18612   -1.000
 6295.00    3.18410   3.16765  119.873
 6296.00    3.15512   3.14987  119.335
 6297.00    3.14391   3.13768  120.079
 6298.00    3.13877   3.13150  121.432
 6299.00    3.13702   3.12794  120.840
 6300.00    3.12871   3.12647  119.019
 6301.00    3.09689   3.12998   -1.000
 6302.00    3.08109   3.14472   -1.000
 6303.00    3.09568   3.17014   -1.000
 6304.00    3.13647   3.20343   -1.000
 6305.00    3.18178   3.23782   -1.000
 6306.00    3.21238   3.26816   -1.000
 6307.00    3.27282   3.28798  116.697
 6308.00    3.30641   3.29443  117.164
 6309.00    3.29393   3.28712  117.338
 6310.00    3.26379   3.27120  118.252
 6311.00    3.21527   3.25144   -1.000
 6312.00    3.20264   3.22970  118.801
 6313.00    3.18621   3.20712  118.683
 6314.00    3.15534   3.18346  118.803
 6315.00    3.13256   3.16235  118.474
 6316.00    3.15165   3.14820  117.188
 6317.00    3.14224   3.14710  115.974
 6318.00    3.14789   3.16107  115.423
 6319.00    3.18700   3.18907  115.041
 6320.00    3.23704   3.22376  114.455
 6321.00    3.26247   3.25759  114.047
 6322.00    3.28723   3.28760  113.943
 6323.00    3.29954   3.31235  113.457
 6324.00    3.31818   3.33140  113.443
 6325.00    3.34762   3.34394  113.544
 6326.00    3.36337   3.35099  113.621
 6327.00    3.35208   3.35497  113.286
 6328.00    3.33927   3.35790  113.052
 6329.00    3.35140   3.36123  113.286
 6330.00    3.36508   3.36313  113.584
 6331.00    3.36056   3.35950  115.862
 6332.00    3.22984   3.34428   -1.000
 6333.00    3.25126   3.31513   -1.000
 6334.00    3.29825   3.28073  114.567
 6335.00    3.26057   3.25392  113.315
 6336.00    3.23386   3.24676  112.651
 6337.00    3.28562   3.26001   -1.000
 6338.00    3.33354   3.28498   -1.000
 6339.00    3.35364   3.30834   -1.000
 6340.00    3.35653   3.32050   -1.000
 6341.00    3.35892   3.31766   -1.000
 6342.00    3.32922   3.30654   -1.000
 6343.00    3.31279   3.29888  111.697
 6344.00    3.31251   3.30363  111.213
 6345.00    3.33080   3.32348  111.177
 6346.00    3.35451   3.35183  110.981
 6347.00    3.39263   3.38100  111.025
 6348.00    3.42803   3.40443   -1.000
 6349.00    3.44591   3.41793   -1.000
 6350.00    3.44583   3.41941   -1.000
 6351.00    3.44067   3.40813   -1.000
 6352.00    3.42255   3.38623   -1.000
 6353.00    3.38862   3.35824   -1.000
 6354.00    3.34811   3.32916   -1.000
 6355.00    3.31041   3.30112  116.463
 6356.00    3.29728   3.27288   -1.000
 6357.00    3.27259   3.24266   -1.000
 6358.00    3.24110   3.21237   -1.000
 6359.00    3.21006   3.18669   -1.000
 6360.00    3.19912   3.17081   -1.000
 6361.00    3.20301   3.16827   -1.000
 6362.00    3.21037   3.18151   -1.000
 6363.00    3.24007   3.20966   -1.000
 6364.00    3.27241   3.24860  111.686
 6365.00    3.32275   3.29176   -1.000
 6366.00    3.36433   3.33232   -1.000
 6367.00    3.40012   3.36567   -1.000
 6368.00    3.44587   3.39022   -1.000
 6369.00    3.45504   3.40775   -1.000
 6370.00    3.44054   3.42301  110.937
 6371.00    3.45374   3.43764  111.150
 6372.00    3.47566   3.45083   -1.000
 6373.00    3.47383   3.45897  112.092
 6374.00    3.45927   3.45972  112.835
 6375.00    3.45943   3.45298  113.317
 6376.00    3.47414   3.44040   -1.000
 6377.00    3.46698   3.42457   -1.000
 6378.00    3.42690   3.41012  113.639
 6379.00    3.41367   3.40110  113.367
 6380.00    3.41335   3.39883  113.777
 6381.00    3.40796   3.40211  114.090
 6382.00    3.40958   3.40860  114.037
 6383.00    3.40676   3.41674  114.318
 6384.00    3.41076   3.42621  114.691
 6385.00    3.42066   3.43639  115.564
 6386.00    3.43308   3.44555  116.488
 6387.00    3.44374   3.45004  117.765
 6388.00    3.43648   3.44598  119.515
 6389.00    3.41615   3.43026  120.651
 6390.00    3.38490   3.40311  120.456
 6391.00    3.33869   3.37090  118.823
 6392.00    3.28222   3.34743   -1.000
 6393.00    3.21192   3.34272   -1.000
 6394.00    3.19865   3.35819   -1.000
 6395.00    3.25679   3.37901   -1.000
 6396.00    3.29714   3.38804   -1.000
 6397.00    3.28799   3.37686   -1.000
 6398.00    3.24039   3.35479   -1.000
 6399.00    3.18059   3.34189   -1.000
 6400.00    3.15594   3.35234   -1.000
 6401.00    3.18550   3.38666   -1.000
 6402.00    3.23516   3.42667   -1.000
 6403.00    3.25992   3.45448   -1.000
 6404.00    3.25814   3.46054   -1.000
 6405.00    3.23194   3.44830   -1.000
 6406.00    3.17973   3.42845   -1.000
 6407.00    3.11240   3.41186   -1.000
 6408.00    3.07219   3.40251   -1.000
 6409.00    3.06723   3.39779   -1.000
 6410.00    3.05708   3.39466   -1.000
 6411.00    3.01799   3.39386   -1.000
 6412.00    3.00487   3.39817   -1.000
 6413.00    3.02189   3.40899   -1.000
 6414.00    3.00725   3.42117   -1.000
 6415.00    2.99603   3.42850   -1.000
 6416.00    3.00008   3.42472   -1.000
 6417.00    2.97088   3.40837   -1.000
 6418.00    2.93080   3.38528   -1.000
 6419.00    2.87597   3.36787   -1.000
 6420.00    2.80364   3.36766   -1.000
 6421.00    2.78819   3.38815   -1.000
 6422.00    2.82078   3.42315   -1.000
 6423.00    2.84828   3.45985   -1.000
 6424.00    2.84363   3.48858   -1.000
 6425.00    2.82358   3.50398   -1.000
 6426.00    2.79627   3.50243   -1.000
 6427.00    0.55594   3.48330   -1.000
 6428.00    0.00000   3.45072   -2.000
