###################################################################
## OUTPUT of StarlightChains_v04.for    [Cid@UFSC - 01/Apr/2007] ##
###################################################################

## Some input info
NGC6528_c_1.cxt                          [arq_obs]
Base.BC03.N                              [arq_base]
NGC6528_c_1.msk                          [arq_masks]
StCv04.C99.config                        [arq_config]
   45                                    [N_base]
    0                                    [N_YAV_components = # of components with extra extinction!]
    0                                    [i_FitPowerLaw (1/0 = Yes/No)]
-9.99                                    [alpha_PowerLaw]
CCM                                      [red_law_option]
 1.458241                                [q_norm = A(l_norm)/A(V)]

## (Re)Sampling Parameters
 3359.00                                 [l_ini (A)]
 6428.00                                 [l_fin (A)]
    1.00                                 [dl    (A)]     (OBS: dl_cushion =    50.00 A)

## Normalization info
 4020.00                                 [l_norm (A) - for base]
 4010.00                                 [llow_norm (A) - window for f_obs]
 4060.00                                 [lupp_norm (A) - window for f_obs]
3.081180E-15                             [fobs_norm (in input units)]

## S/N
 4730.00                                 [llow_SN (A) - window for S/N]
 4780.00                                 [lupp_SN (A) - window for S/N]
  26.871                                 [S/N in S/N window]
  13.196                                 [S/N in norm. window]
 236.951                                 [S/N_err in S/N window]
 116.363                                 [S/N_err in norm. window]
  1.0000                                 [fscale_chi2]

## etc...
  2147483602                             [idum_orig]
  3069                                   [NOl_eff]
  1270                                   [Nl_eff]
  1799    NSIGMA                         [Ntot_cliped & clip_method]
  2186240                                [Nglobal_steps]
   7                                     [N_chains]
  13                                     [NEX0s_base = N_base in EX0s-fits]
 0   0   1       80   2.0   2.880E+02    [Clip-Bug, RC-Crash & Burn-In warning-flags, n_censored_weights, wei_nsig_threshold & wei_limit]
    26     25.677     25.661      0.016  [idt_all, wdt_TotTime, wdt_UsrTime & wdt_SysTime (sec)]

## Synthesis Results - Best model ##

 2.36893E+00                             [chi2/Nl_eff]
     2.41870                             [adev (%)]

   100.24535                             [sum-of-x (%)]
 3.48532E-14                             [Flux_tot (units of input spectrum!)]
 2.46786E-09                             [Mini_tot (???)]
 1.24845E-09                             [Mcor_tot (???)]

 -33.22                                  [v0_min  (km/s)]
 101.46                                  [vd_min  (km/s)]
 1.8043                                  [AV_min  (mag)]
 0.0000                                  [YAV_min (mag)]

# j     x_j(%)      Mini_j(%)     Mcor_j(%)     age_j(yr)     Z_j      (L/M)_j    YAV?  Mstars   component_j        a/Fe...       SSP_chi2r SSP_adev(%)   SSP_AV   SSP_x(%)
  1      4.8532     6.1376E-03    1.2132E-02    1.000000E+06  0.00400  1.114E-02    0   1.0000   age020_m42            0.0000     2.8132E+03    52.5791   4.0000   106.8396
  2      3.2306     1.1174E-03    2.2087E-03    3.160000E+06  0.00400  4.073E-02    0   0.9999   age045_m42            0.0000     8.8127E+02    29.1442   4.0000   115.3998
  3      2.1093     1.1727E-03    2.1995E-03    5.010000E+06  0.00400  2.534E-02    0   0.9488   age055_m42            0.0000     1.5686E+03    39.6826   4.0000   113.3702
  4      5.4559     6.0475E-03    1.0594E-02    1.000000E+07  0.00400  1.271E-02    0   0.8862   age070_m42            0.0000     6.2641E+02    20.4504   4.0000   107.9891
  5      0.0000     0.0000E+00    0.0000E+00    2.512000E+07  0.00400  5.070E-03    0   0.8174   age090_m42            0.0000     4.9198E+02    17.1362   4.0000   107.4743
  6      0.0000     0.0000E+00    0.0000E+00    4.000000E+07  0.00400  3.505E-03    0   0.7851   age104_m42            0.0000     2.7506E+02    11.3139   4.0000   103.9978
  7      0.0000     0.0000E+00    0.0000E+00    1.015200E+08  0.00400  2.268E-03    0   0.7207   age116_m42            0.0000     4.1122E+02    13.9214   4.0000   111.0699
  8      0.0000     0.0000E+00    0.0000E+00    2.861200E+08  0.00400  1.079E-03    0   0.6613   age125_m42            0.0000     3.7623E+02    12.2066   3.7332   107.3811
  9      0.0000     0.0000E+00    0.0000E+00    6.405400E+08  0.00400  5.077E-04    0   0.6197   age132_m42            0.0000     3.8004E+02    12.4153   3.3733   111.7795
 10      0.0000     0.0000E+00    0.0000E+00    9.047900E+08  0.00400  3.535E-04    0   0.6024   age135_m42            0.0000     2.9022E+02    10.9370   3.1361   111.0276
 11      0.0000     0.0000E+00    0.0000E+00    1.434000E+09  0.00400  1.910E-04    0   0.5716   age139_m42            0.0000     1.5459E+02     8.5170   2.6209   108.9107
 12      0.0000     0.0000E+00    0.0000E+00    2.500000E+09  0.00400  9.818E-05    0   0.5463   age150_m42            0.0000     6.6182E+01     6.1087   2.3355   104.2777
 13      0.0000     0.0000E+00    0.0000E+00    5.000000E+09  0.00400  4.718E-05    0   0.5228   age161_m42            0.0000     3.3788E+01     4.7959   2.1751   100.8940
 14     16.6827     1.0659E+01    1.0493E+01    1.100000E+10  0.00400  2.205E-05    0   0.4980   age185_m42            0.0000     1.6584E+01     4.4020   1.9120    98.2758
 15      4.7244     3.5347E+00    3.4426E+00    1.300000E+10  0.00400  1.883E-05    0   0.4927   age193_m42            0.0000     1.5527E+01     4.3481   1.8979    98.0482
 16      1.0891     7.7145E-04    1.5249E-03    1.000000E+06  0.02000  1.989E-02    0   1.0000   age020_m62            0.0000     2.7407E+03    51.6352   4.0000   107.8015
 17      0.0000     0.0000E+00    0.0000E+00    3.160000E+06  0.02000  3.772E-02    0   0.9858   age045_m62            0.0000     2.4339E+03    48.8223   4.0000   110.2293
 18      0.0000     0.0000E+00    0.0000E+00    5.010000E+06  0.02000  3.227E-02    0   0.9342   age055_m62            0.0000     1.2985E+03    36.0938   4.0000   115.5008
 19      0.0000     0.0000E+00    0.0000E+00    1.000000E+07  0.02000  1.011E-02    0   0.8751   age070_m62            0.0000     8.1588E+02    21.2505   4.0000   105.8993
 20      0.0000     0.0000E+00    0.0000E+00    2.512000E+07  0.02000  4.206E-03    0   0.8099   age090_m62            0.0000     6.3890E+02    19.5080   4.0000   105.1383
 21      0.0000     0.0000E+00    0.0000E+00    4.000000E+07  0.02000  3.373E-03    0   0.7799   age104_m62            0.0000     4.0528E+02    14.4905   4.0000   109.8501
 22      0.0000     0.0000E+00    0.0000E+00    1.015200E+08  0.02000  1.878E-03    0   0.7221   age116_m62            0.0000     4.1074E+02    13.0422   4.0000   112.9138
 23      0.0000     0.0000E+00    0.0000E+00    2.861200E+08  0.02000  8.869E-04    0   0.6700   age125_m62            0.0000     4.8951E+02    13.6432   3.7583   112.1530
 24      0.0000     0.0000E+00    0.0000E+00    6.405400E+08  0.02000  3.657E-04    0   0.6322   age132_m62            0.0000     3.2369E+02    11.8336   3.0539   115.2879
 25      0.0000     0.0000E+00    0.0000E+00    9.047900E+08  0.02000  2.312E-04    0   0.6152   age135_m62            0.0000     2.0592E+02     9.7933   2.6895   113.9987
 26      0.0000     0.0000E+00    0.0000E+00    1.434000E+09  0.02000  1.168E-04    0   0.5865   age139_m62            0.0000     7.9221E+01     6.6113   2.2720   108.1780
 27      0.0000     0.0000E+00    0.0000E+00    2.500000E+09  0.02000  5.505E-05    0   0.5610   age150_m62            0.0000     3.1604E+01     5.4412   1.8974   105.0311
 28      0.0000     0.0000E+00    0.0000E+00    5.000000E+09  0.02000  2.596E-05    0   0.5353   age161_m62            0.0000     2.8359E+01     6.5757   1.5625   104.2894
 29     27.2520     3.2843E+01    3.3130E+01    1.100000E+10  0.02000  1.169E-05    0   0.5103   age185_m62            0.0000     5.8808E+01     8.7004   1.2017   104.8729
 30     28.7449     4.1788E+01    4.1690E+01    1.300000E+10  0.02000  9.691E-06    0   0.5047   age193_m62            0.0000     6.6982E+01     9.0196   1.1588   104.9219
 31      0.3386     1.7992E-04    3.5559E-04    1.000000E+06  0.05000  2.651E-02    0   0.9998   age020_m72            0.0000     2.6898E+03    51.5485   4.0000   109.1573
 32      0.0000     0.0000E+00    0.0000E+00    3.160000E+06  0.05000  4.817E-02    0   0.9577   age045_m72            0.0000     2.0101E+03    45.3141   4.0000   113.7809
 33      0.0000     0.0000E+00    0.0000E+00    5.010000E+06  0.05000  3.101E-02    0   0.9147   age055_m72            0.0000     1.4132E+03    37.0453   4.0000   113.9782
 34      0.0000     0.0000E+00    0.0000E+00    1.000000E+07  0.05000  8.954E-03    0   0.8524   age070_m72            0.0000     1.7507E+03    42.2527   4.0000   114.6397
 35      0.0000     0.0000E+00    0.0000E+00    2.512000E+07  0.05000  4.207E-03    0   0.7902   age090_m72            0.0000     9.7659E+02    31.3170   4.0000   116.3920
 36      0.0000     0.0000E+00    0.0000E+00    4.000000E+07  0.05000  3.198E-03    0   0.7618   age104_m72            0.0000     5.0735E+02    18.4557   4.0000   116.2986
 37      0.0000     0.0000E+00    0.0000E+00    1.015200E+08  0.05000  1.716E-03    0   0.7092   age116_m72            0.0000     4.6662E+02    14.8647   4.0000   114.8401
 38      0.0000     0.0000E+00    0.0000E+00    2.861200E+08  0.05000  7.047E-04    0   0.6618   age125_m72            0.0000     4.5031E+02    13.0882   3.5492   112.2579
 39      0.0000     0.0000E+00    0.0000E+00    6.405400E+08  0.05000  2.633E-04    0   0.6253   age132_m72            0.0000     2.3995E+02    10.3170   2.6963   113.8932
 40      0.0000     0.0000E+00    0.0000E+00    9.047900E+08  0.05000  1.484E-04    0   0.6088   age135_m72            0.0000     9.9624E+01     7.8459   2.2011   108.7239
 41      0.0000     0.0000E+00    0.0000E+00    1.434000E+09  0.05000  7.827E-05    0   0.5847   age139_m72            0.0000     4.1363E+01     6.8628   1.7997   104.9991
 42      0.0000     0.0000E+00    0.0000E+00    2.500000E+09  0.05000  3.759E-05    0   0.5583   age150_m72            0.0000     3.3609E+01     7.2164   1.4795   103.8921
 43      1.6344     1.4875E+00    1.5643E+00    5.000000E+09  0.05000  1.548E-05    0   0.5320   age161_m72            0.0000     6.9695E+01     8.6745   1.0962   102.3617
 44      2.5807     5.5660E+00    5.5783E+00    1.100000E+10  0.05000  6.532E-06    0   0.5070   age185_m72            0.0000     1.4854E+02    11.7934   0.7134   101.1779
 45      1.5496     4.1066E+00    4.0734E+00    1.300000E+10  0.05000  5.316E-06    0   0.5018   age193_m72            0.0000     1.8582E+02    13.0402   0.5917   100.9298


## Synthesis Results - Average & Chains ##

# j      x_j: min, <> & last-chain-values for 1 ...  7 chains
  1      4.8532      4.3961      4.2452      4.3997      4.5753      4.3885      4.5621      4.5534      4.4829
  2      3.2306      1.9525      2.0364      1.9558      2.0628      2.1255      2.2349      2.0193      2.2671
  3      2.1093      1.9090      1.9009      1.9352      2.0534      1.8674      1.8296      2.1320      2.0198
  4      5.4559      4.5729      4.7997      4.6711      4.6134      4.6845      4.6038      4.4652      4.6183
  5      0.0000      0.0651      0.2278      0.0342      0.1810      0.2284      0.1538      0.0898      0.0000
  6      0.0000      0.0925      0.0000      0.0817      0.0488      0.1510      0.0746      0.0000      0.1542
  7      0.0000      0.0411      0.0000      0.0000      0.0000      0.1118      0.2011      0.0000      0.0000
  8      0.0000      0.0310      0.0000      0.0000      0.0000      0.0000      0.3405      0.0000      0.0140
  9      0.0000      0.0504      0.0000      0.1337      0.2932      0.0008      0.0000      0.0000      0.0122
 10      0.0000      0.0505      0.0291      0.0000      0.0361      0.1459      0.0000      0.1675      0.1550
 11      0.0000      0.0791      0.0094      0.0000      0.0002      0.0000      0.1555      0.0535      0.0524
 12      0.0000      0.1154      0.1009      0.0000      0.0412      0.0000      0.0000      0.0000      0.0000
 13      0.0000      0.2156      0.0000      0.2390      0.0000      0.1639      0.3150      0.0311      0.0000
 14     16.6827     16.1129     15.2548     16.2147     15.4776     16.3582     16.7412     15.9744     15.8184
 15      4.7244      5.5260      6.8766      5.7665      6.1691      5.8206      4.8198      6.0129      5.5825
 16      1.0891      1.8001      1.7245      1.8424      1.6536      1.6956      1.7966      1.7604      1.8451
 17      0.0000      0.0980      0.0527      0.0000      0.0000      0.0000      0.0000      0.0000      0.0000
 18      0.0000      0.1259      0.5558      0.3051      0.0449      0.0962      0.0000      0.0710      0.0940
 19      0.0000      0.0541      0.0000      0.1668      0.0000      0.0062      0.0000      0.0000      0.0000
 20      0.0000      0.0181      0.0687      0.0000      0.0000      0.0000      0.0000      0.0000      0.0000
 21      0.0000      0.0423      0.0000      0.0000      0.0000      0.0000      0.0000      0.0000      0.0000
 22      0.0000      0.0385      0.0000      0.0897      0.0000      0.0000      0.0000      0.0000      0.0000
 23      0.0000      0.0401      0.1012      0.0718      0.2484      0.0212      0.0000      0.0000      0.3807
 24      0.0000      0.0501      0.2008      0.0000      0.0000      0.0000      0.0000      0.1341      0.0000
 25      0.0000      0.0646      0.0000      0.0000      0.0171      0.0263      0.0000      0.0000      0.0000
 26      0.0000      0.0720      0.0000      0.0463      0.0000      0.0000      0.0806      0.1012      0.0000
 27      0.0000      0.1789      0.0000      0.0000      0.0000      0.4869      0.0000      0.0000      0.1306
 28      0.0000      0.2675      0.5516      0.4622      0.0456      0.1080      0.1723      0.3325      0.1314
 29     27.2520     27.5547     27.9342     26.7301     27.3452     27.4111     27.2140     27.0867     28.1674
 30     28.7449     28.6940     27.9605     28.8457     29.0892     28.7355     29.0982     28.9423     28.6061
 31      0.3386      0.8664      0.6038      0.8080      0.8265      0.8758      0.8360      0.9084      0.8379
 32      0.0000      0.0185      0.0967      0.0000      0.0000      0.0000      0.0000      0.0000      0.0000
 33      0.0000      0.0384      0.1176      0.0000      0.0010      0.1022      0.0000      0.0000      0.0000
 34      0.0000      0.0283      0.0000      0.0000      0.0333      0.0000      0.1272      0.0000      0.0000
 35      0.0000      0.0239      0.0000      0.0000      0.1985      0.0000      0.0000      0.0000      0.0663
 36      0.0000      0.0314      0.0000      0.0000      0.0000      0.0000      0.0000      0.1687      0.0000
 37      0.0000      0.0442      0.0000      0.1630      0.0000      0.0000      0.0000      0.3163      0.0000
 38      0.0000      0.0310      0.0000      0.0000      0.1127      0.0776      0.0000      0.0000      0.0959
 39      0.0000      0.0328      0.0000      0.0000      0.0000      0.0121      0.0000      0.0000      0.0000
 40      0.0000      0.0978      0.0000      0.0000      0.1894      0.0000      0.0000      0.0000      0.0000
 41      0.0000      0.1833      0.0000      0.3794      0.0000      0.0000      0.0000      0.0000      0.0237
 42      0.0000      0.1515      0.3228      0.1044      0.0311      0.0000      0.0000      0.0989      0.0000
 43      1.6344      1.1295      0.7855      0.9672      1.3440      1.1590      1.0585      1.3473      0.7204
 44      2.5807      1.9359      2.2744      2.0036      2.2449      1.8747      2.3393      1.8651      2.5527
 45      1.5496      1.3481      1.4469      1.7865      1.3328      1.5081      1.4752      1.6266      1.4499

# j      m_j: min, <> & last-chain-values for 1 ...  7 chains
  1  1.2132E-02  1.1152E-02  1.0709E-02  1.1089E-02  1.1504E-02  1.1087E-02  1.1458E-02  1.1470E-02  1.1214E-02
  2  2.2087E-03  1.3545E-03  1.4049E-03  1.3480E-03  1.4185E-03  1.4686E-03  1.5351E-03  1.3911E-03  1.5509E-03
  3  2.1995E-03  2.0199E-03  2.0002E-03  2.0344E-03  2.1536E-03  1.9679E-03  1.9168E-03  2.2402E-03  2.1074E-03
  4  1.0594E-02  9.0104E-03  9.4049E-03  9.1442E-03  9.0101E-03  9.1928E-03  8.9815E-03  8.7369E-03  8.9734E-03
  5  0.0000E+00  2.9676E-04  1.0321E-03  1.5488E-04  8.1745E-04  1.0363E-03  6.9358E-04  4.0650E-04  0.0000E+00
  6  0.0000E+00  5.8566E-04  0.0000E+00  5.1361E-04  3.0623E-04  9.5188E-04  4.6732E-04  0.0000E+00  9.6232E-04
  7  0.0000E+00  3.6878E-04  0.0000E+00  0.0000E+00  0.0000E+00  1.0002E-03  1.7882E-03  0.0000E+00  0.0000E+00
  8  0.0000E+00  5.3730E-04  0.0000E+00  0.0000E+00  0.0000E+00  0.0000E+00  5.8383E-03  0.0000E+00  2.3856E-04
  9  0.0000E+00  1.7396E-03  0.0000E+00  4.5827E-03  1.0023E-02  2.6570E-05  0.0000E+00  0.0000E+00  4.1401E-04
 10  0.0000E+00  2.4298E-03  1.3950E-03  0.0000E+00  1.7222E-03  6.9975E-03  0.0000E+00  8.0102E-03  7.3596E-03
 11  0.0000E+00  6.6873E-03  7.8676E-04  0.0000E+00  1.4268E-05  0.0000E+00  1.3020E-02  4.4959E-03  4.3707E-03
 12  0.0000E+00  1.8144E-02  1.5772E-02  0.0000E+00  6.4156E-03  0.0000E+00  0.0000E+00  0.0000E+00  0.0000E+00
 13  0.0000E+00  6.7515E-02  0.0000E+00  7.4358E-02  0.0000E+00  5.1113E-02  9.7672E-02  9.6774E-03  0.0000E+00
 14  1.0493E+01  1.0284E+01  9.6822E+00  1.0282E+01  9.7914E+00  1.0398E+01  1.0579E+01  1.0125E+01  9.9556E+00
 15  3.4426E+00  4.0860E+00  5.0565E+00  4.2363E+00  4.5214E+00  4.2864E+00  3.5286E+00  4.4152E+00  4.0705E+00
 16  1.5249E-03  2.5575E-03  2.4366E-03  2.6007E-03  2.3287E-03  2.3993E-03  2.5274E-03  2.4837E-03  2.5850E-03
 17  0.0000E+00  7.2373E-05  3.8675E-05  0.0000E+00  0.0000E+00  0.0000E+00  0.0000E+00  0.0000E+00  0.0000E+00
 18  0.0000E+00  1.0296E-04  4.5217E-04  2.4795E-04  3.6439E-05  7.8371E-05  0.0000E+00  5.7720E-05  7.5858E-05
 19  0.0000E+00  1.3237E-04  0.0000E+00  4.0528E-04  0.0000E+00  1.5071E-05  0.0000E+00  0.0000E+00  0.0000E+00
 20  0.0000E+00  9.8753E-05  3.7197E-04  0.0000E+00  0.0000E+00  0.0000E+00  0.0000E+00  0.0000E+00  0.0000E+00
 21  0.0000E+00  2.7630E-04  0.0000E+00  0.0000E+00  0.0000E+00  0.0000E+00  0.0000E+00  0.0000E+00  0.0000E+00
 22  0.0000E+00  4.1859E-04  0.0000E+00  9.6790E-04  0.0000E+00  0.0000E+00  0.0000E+00  0.0000E+00  0.0000E+00
 23  0.0000E+00  8.5571E-04  2.1476E-03  1.5226E-03  5.2559E-03  4.5046E-04  0.0000E+00  0.0000E+00  8.0150E-03
 24  0.0000E+00  2.4456E-03  9.7570E-03  0.0000E+00  0.0000E+00  0.0000E+00  0.0000E+00  6.5046E-03  0.0000E+00
 25  0.0000E+00  4.8564E-03  0.0000E+00  0.0000E+00  1.2768E-03  1.9705E-03  0.0000E+00  0.0000E+00  0.0000E+00
 26  0.0000E+00  1.0222E-02  0.0000E+00  6.5318E-03  0.0000E+00  0.0000E+00  1.1328E-02  1.4266E-02  0.0000E+00
 27  0.0000E+00  5.1518E-02  0.0000E+00  0.0000E+00  0.0000E+00  1.3966E-01  0.0000E+00  0.0000E+00  3.7089E-02
 28  0.0000E+00  1.5587E-01  3.1964E-01  2.6760E-01  2.6344E-02  6.2667E-02  9.9393E-02  1.9242E-01  7.5496E-02
 29  3.3130E+01  3.3991E+01  3.4268E+01  3.2761E+01  3.3436E+01  3.3677E+01  3.3239E+01  3.3182E+01  3.4264E+01
 30  4.1690E+01  4.2230E+01  4.0922E+01  4.2178E+01  4.2434E+01  4.2119E+01  4.2401E+01  4.2299E+01  4.1515E+01
 31  3.5559E-04  9.2336E-04  6.3992E-04  8.5558E-04  8.7313E-04  9.2959E-04  8.8222E-04  9.6146E-04  8.8063E-04
 32  0.0000E+00  1.0395E-05  5.4016E-05  0.0000E+00  0.0000E+00  0.0000E+00  0.0000E+00  0.0000E+00  0.0000E+00
 33  0.0000E+00  3.1997E-05  9.7517E-05  0.0000E+00  8.2096E-07  8.4860E-05  0.0000E+00  0.0000E+00  0.0000E+00
 34  0.0000E+00  7.6201E-05  0.0000E+00  0.0000E+00  8.8702E-05  0.0000E+00  3.3881E-04  0.0000E+00  0.0000E+00
 35  0.0000E+00  1.2691E-04  0.0000E+00  0.0000E+00  1.0442E-03  0.0000E+00  0.0000E+00  0.0000E+00  3.4693E-04
 36  0.0000E+00  2.1137E-04  0.0000E+00  0.0000E+00  0.0000E+00  0.0000E+00  0.0000E+00  1.1278E-03  0.0000E+00
 37  0.0000E+00  5.1586E-04  0.0000E+00  1.8915E-03  0.0000E+00  0.0000E+00  0.0000E+00  3.6679E-03  0.0000E+00
 38  0.0000E+00  8.2374E-04  0.0000E+00  0.0000E+00  2.9655E-03  2.0506E-03  0.0000E+00  0.0000E+00  2.5088E-03
 39  0.0000E+00  2.1993E-03  0.0000E+00  0.0000E+00  0.0000E+00  8.0713E-04  0.0000E+00  0.0000E+00  0.0000E+00
 40  0.0000E+00  1.1338E-02  0.0000E+00  0.0000E+00  2.1764E-02  0.0000E+00  0.0000E+00  0.0000E+00  0.0000E+00
 41  0.0000E+00  3.8698E-02  0.0000E+00  7.9577E-02  0.0000E+00  0.0000E+00  0.0000E+00  0.0000E+00  4.9236E-03
 42  0.0000E+00  6.3570E-02  1.3475E-01  4.3529E-02  1.2939E-02  0.0000E+00  0.0000E+00  4.1203E-02  0.0000E+00
 43  1.5643E+00  1.0970E+00  7.5866E-01  9.3321E-01  1.2938E+00  1.1211E+00  1.0179E+00  1.2993E+00  6.8990E-01
 44  5.5783E+00  4.2462E+00  4.9610E+00  4.3663E+00  4.8807E+00  4.0953E+00  5.0804E+00  4.0624E+00  5.5213E+00
 45  4.0734E+00  3.5961E+00  3.8381E+00  4.7346E+00  3.5241E+00  4.0065E+00  3.8962E+00  4.3089E+00  3.8140E+00

# AV, chi2 & Mass for <> & i_chain = 1 ...  7 solutions
AV       1.8043      1.8106      1.8082      1.8096      1.8078      1.8088      1.8083      1.8089      1.8070
chi2 2.3689E+00  2.3862E+00  2.3816E+00  2.3813E+00  2.3816E+00  2.3826E+00  2.3795E+00  2.3836E+00  2.3801E+00
Mass 1.2485E-09  1.2408E-09  1.2437E-09  1.2472E-09  1.2470E-09  1.2427E-09  1.2492E-09  1.2465E-09  1.2521E-09
 -33.45                                  [v0_min (km/s) before EX0s...]
 101.12                                  [vd_min (km/s) before EX0s...]


## Synthetic spectrum (Best Model) ##l_obs f_obs f_syn wei
 3070    [Nl_obs]
 3359.00    0.26439   0.37420   -1.000
 3360.00    0.26493   0.36184   -1.000
 3361.00    0.26729   0.37037   -1.000
 3362.00    0.25188   0.39390   -1.000
 3363.00    0.24632   0.41927   -1.000
 3364.00    0.25785   0.43325   -1.000
 3365.00    0.28534   0.43008   -1.000
 3366.00    0.29042   0.41365   -1.000
 3367.00    0.30203   0.39315   -1.000
 3368.00    0.29677   0.37647   -1.000
 3369.00    0.28025   0.36670   -1.000
 3370.00    0.31250   0.36337   -1.000
 3371.00    0.29362   0.36633   -1.000
 3372.00    0.27237   0.37745   -1.000
 3373.00    0.26250   0.39740   -1.000
 3374.00    0.29858   0.42230   -1.000
 3375.00    0.33067   0.44361   -1.000
 3376.00    0.32575   0.45204   -1.000
 3377.00    0.31183   0.44435   -1.000
 3378.00    0.32652   0.42695   -1.000
 3379.00    0.32267   0.41148   -1.000
 3380.00    0.30482   0.40684   -1.000
 3381.00    0.31177   0.41406   -1.000
 3382.00    0.29574   0.42762   -1.000
 3383.00    0.29520   0.44126   -1.000
 3384.00    0.30803   0.45212   -1.000
 3385.00    0.32886   0.45935   -1.000
 3386.00    0.34197   0.46258   -1.000
 3387.00    0.36076   0.46236   -1.000
 3388.00    0.35169   0.45986   -1.000
 3389.00    0.36255   0.45470   -1.000
 3390.00    0.36728   0.44562   -1.000
 3391.00    0.35162   0.43432   -1.000
 3392.00    0.34571   0.42695   -1.000
 3393.00    0.33428   0.42951   -1.000
 3394.00    0.34380   0.44255   -1.000
 3395.00    0.34495   0.46098   -1.000
 3396.00    0.38390   0.47907   -1.000
 3397.00    0.40739   0.49346   32.579
 3398.00    0.42872   0.50208   32.233
 3399.00    0.42835   0.50366   32.645
 3400.00    0.41565   0.49856   33.999
 3401.00    0.40541   0.48850   34.354
 3402.00    0.40278   0.47641   34.967
 3403.00    0.40689   0.46537   35.599
 3404.00    0.41028   0.45640   36.135
 3405.00    0.43452   0.44880   36.335
 3406.00    0.40644   0.44267   36.889
 3407.00    0.43344   0.43986   37.037
 3408.00    0.42335   0.44177   36.702
 3409.00    0.40435   0.44647   35.657
 3410.00    0.38319   0.44832   35.581
 3411.00    0.39995   0.44245   37.074
 3412.00    0.44024   0.43009   37.655
 3413.00    0.43776   0.41858   37.461
 3414.00    0.43555   0.41590   36.434
 3415.00    0.43765   0.42510   34.835
 3416.00    0.42947   0.44321   33.169
 3417.00    0.42329   0.46441   31.660
 3418.00    0.43326   0.48333   31.547
 3419.00    0.44891   0.49535   31.372
 3420.00    0.46991   0.49707   31.653
 3421.00    0.49215   0.48902   32.575
 3422.00    0.45688   0.47734   33.113
 3423.00    0.43456   0.46909   32.144
 3424.00    0.45547   0.46696   31.375
 3425.00    0.45470   0.46986   34.773
 3426.00    0.46471   0.47705  288.032
 3427.00    0.48249   0.48884  288.032
 3428.00    0.48310   0.50264   -1.000
 3429.00    0.50613   0.51073  288.032
 3430.00    0.48081   0.50667   -1.000
 3431.00    0.45984   0.49282   31.342
 3432.00    0.47236   0.47878   34.827
 3433.00    0.43623   0.47262   -1.000
 3434.00    0.43198   0.47388   -1.000
 3435.00    0.44092   0.47501   31.311
 3436.00    0.44904   0.46866   32.843
 3437.00    0.43905   0.45193   34.903
 3438.00    0.42502   0.42645   37.537
 3439.00    0.41695   0.39777   38.855
 3440.00    0.39356   0.37377   38.875
 3441.00    0.38398   0.36142   38.528
 3442.00    0.39158   0.36270   36.905
 3443.00    0.39500   0.37380   34.872
 3444.00    0.42071   0.38928   33.034
 3445.00    0.43533   0.40674   36.084
 3446.00    0.43527   0.42632   -1.000
 3447.00    0.44095   0.44761  288.032
 3448.00    0.45659   0.46700  288.032
 3449.00    0.48074   0.47838  288.032
 3450.00    0.47827   0.47818  288.032
 3451.00    0.46497   0.47025  288.032
 3452.00    0.48063   0.46327   -1.000
 3453.00    0.50518   0.46302   -1.000
 3454.00    0.48122   0.46721   -1.000
 3455.00    0.49313   0.46818   -1.000
 3456.00    0.47023   0.46039  140.136
 3457.00    0.46336   0.44498   31.290
 3458.00    0.46058   0.42807   31.632
 3459.00    0.45757   0.41611   35.745
 3460.00    0.46390   0.41341   -1.000
 3461.00    0.43703   0.42148   -1.000
 3462.00    0.44051   0.43664  284.147
 3463.00    0.46287   0.45013   -1.000
 3464.00    0.47213   0.45600   -1.000
 3465.00    0.48828   0.45700   -1.000
 3466.00    0.49044   0.46008   -1.000
 3467.00    0.48813   0.46872   -1.000
 3468.00    0.49988   0.48013   -1.000
 3469.00    0.50363   0.48780   -1.000
 3470.00    0.50698   0.48610   -1.000
 3471.00    0.50598   0.47330   -1.000
 3472.00    0.50282   0.45206   -1.000
 3473.00    0.48581   0.42823   31.660
 3474.00    0.45767   0.40914   32.583
 3475.00    0.43771   0.40171   36.662
 3476.00    0.45599   0.40857   -1.000
 3477.00    0.45409   0.42562   -1.000
 3478.00    0.46439   0.44468   -1.000
 3479.00    0.51395   0.45853   -1.000
 3480.00    0.52763   0.46370   -1.000
 3481.00    0.49989   0.46082   -1.000
 3482.00    0.46488   0.45430   -1.000
 3483.00    0.47077   0.45100   -1.000
 3484.00    0.49832   0.45603   -1.000
 3485.00    0.50084   0.46768   -1.000
 3486.00    0.49690   0.47720   -1.000
 3487.00    0.48347   0.47542  277.867
 3488.00    0.50346   0.46076   -1.000
 3489.00    0.52100   0.44111   -1.000
 3490.00    0.49059   0.42750   -1.000
 3491.00    0.47307   0.42560   -1.000
 3492.00    0.49834   0.43247   -1.000
 3493.00    0.49276   0.44032   -1.000
 3494.00    0.48307   0.44304   -1.000
 3495.00    0.47770   0.44132   -1.000
 3496.00    0.45358   0.44256   -1.000
 3497.00    0.45696   0.45368  260.193
 3498.00    0.47703   0.47317  249.136
 3499.00    0.50858   0.49251   -1.000
 3500.00    0.53104   0.50606   -1.000
 3501.00    0.53210   0.51490   -1.000
 3502.00    0.55215   0.52052   -1.000
 3503.00    0.55990   0.52117   -1.000
 3504.00    0.53969   0.51578   -1.000
 3505.00    0.54431   0.50732   -1.000
 3506.00    0.53612   0.50001   -1.000
 3507.00    0.53982   0.49429   -1.000
 3508.00    0.52156   0.48712   -1.000
 3509.00    0.51327   0.47680   -1.000
 3510.00    0.51732   0.46452   -1.000
 3511.00    0.51481   0.45205   -1.000
 3512.00    0.51438   0.44141   -1.000
 3513.00    0.47784   0.43699   -1.000
 3514.00    0.45726   0.44470   -1.000
 3515.00    0.46846   0.46569  250.162
 3516.00    0.49024   0.49183  248.349
 3517.00    0.51628   0.51030  256.472
 3518.00    0.52137   0.51239  266.188
 3519.00    0.54509   0.49830   -1.000
 3520.00    0.52596   0.47491   -1.000
 3521.00    0.50534   0.44995   -1.000
 3522.00    0.50097   0.42772   31.411
 3523.00    0.46659   0.41022   32.315
 3524.00    0.45654   0.40124   38.053
 3525.00    0.43864   0.40562   -1.000
 3526.00    0.42938   0.42431  275.504
 3527.00    0.44291   0.45167  262.564
 3528.00    0.46349   0.47757   -1.000
 3529.00    0.52321   0.49347   -1.000
 3530.00    0.53561   0.49814   -1.000
 3531.00    0.51307   0.49777   -1.000
 3532.00    0.49997   0.49995  258.091
 3533.00    0.50382   0.50705  252.856
 3534.00    0.52619   0.51583  249.945
 3535.00    0.53787   0.52245   -1.000
 3536.00    0.54647   0.52704   -1.000
 3537.00    0.53561   0.53194  245.580
 3538.00    0.54987   0.53639   -1.000
 3539.00    0.53862   0.53691  252.550
 3540.00    0.54131   0.53306  253.979
 3541.00    0.51007   0.52963   -1.000
 3542.00    0.50675   0.53140   -1.000
 3543.00    0.51765   0.53734   -1.000
 3544.00    0.52581   0.54204   -1.000
 3545.00    0.53175   0.54181  258.746
 3546.00    0.52028   0.53792   -1.000
 3547.00    0.52666   0.53433  258.578
 3548.00    0.52600   0.53280  257.748
 3549.00    0.51612   0.53132   -1.000
 3550.00    0.51394   0.52654   -1.000
 3551.00    0.51294   0.51717  277.570
 3552.00    0.51013   0.50584  280.665
 3553.00    0.50498   0.49763  277.217
 3554.00    0.49634   0.49565  272.266
 3555.00    0.48109   0.49781   -1.000
 3556.00    0.46228   0.49947   -1.000
 3557.00    0.45786   0.49858   -1.000
 3558.00    0.47083   0.49779   -1.000
 3559.00    0.46825   0.50133   -1.000
 3560.00    0.46308   0.50934   -1.000
 3561.00    0.46363   0.51535   -1.000
 3562.00    0.48050   0.50985   -1.000
 3563.00    0.50523   0.48843   31.789
 3564.00    0.48329   0.45808   32.759
 3565.00    0.45916   0.43266   32.404
 3566.00    0.43020   0.41954   32.481
 3567.00    0.42760   0.41382   33.504
 3568.00    0.44134   0.40760   33.768
 3569.00    0.42447   0.40067   32.596
 3570.00    0.40481   0.39957   38.400
 3571.00    0.40170   0.40848  288.032
 3572.00    0.40637   0.42373   -1.000
 3573.00    0.43139   0.43817  288.032
 3574.00    0.46895   0.44734   -1.000
 3575.00    0.46143   0.44949   -1.000
 3576.00    0.45493   0.44338  112.161
 3577.00    0.45304   0.42815   33.107
 3578.00    0.42616   0.40549   35.596
 3579.00    0.41745   0.38125   37.181
 3580.00    0.40460   0.36318   37.387
 3581.00    0.38632   0.35568   37.705
 3582.00    0.37857   0.35637   38.730
 3583.00    0.37922   0.35852   39.860
 3584.00    0.38321   0.35793   39.841
 3585.00    0.36666   0.35688   37.775
 3586.00    0.37315   0.36129   35.801
 3587.00    0.38059   0.37526   33.728
 3588.00    0.39049   0.39861   38.721
 3589.00    0.41774   0.42685  286.972
 3590.00    0.44027   0.45286   -1.000
 3591.00    0.46647   0.47066  277.127
 3592.00    0.49253   0.48022   -1.000
 3593.00    0.51017   0.48782   -1.000
 3594.00    0.49332   0.49982  250.088
 3595.00    0.47783   0.51679   -1.000
 3596.00    0.49770   0.53440   -1.000
 3597.00    0.53938   0.54890  234.787
 3598.00    0.54222   0.55858   -1.000
 3599.00    0.55621   0.56039  251.659
 3600.00    0.56153   0.55050  265.329
 3601.00    0.55156   0.52938   -1.000
 3602.00    0.53659   0.50340   -1.000
 3603.00    0.50931   0.48089   -1.000
 3604.00    0.48683   0.46642   -1.000
 3605.00    0.47204   0.45790   -1.000
 3606.00    0.47407   0.44972   -1.000
 3607.00    0.47772   0.43973   -1.000
 3608.00    0.46950   0.43260   -1.000
 3609.00    0.45111   0.43520   -1.000
 3610.00    0.46780   0.44874   -1.000
 3611.00    0.48972   0.46737   -1.000
 3612.00    0.50371   0.48502   -1.000
 3613.00    0.50838   0.49951  254.481
 3614.00    0.51708   0.50827  259.899
 3615.00    0.50093   0.50505  283.424
 3616.00    0.50169   0.48564  100.422
 3617.00    0.49105   0.45705   39.174
 3618.00    0.47044   0.43683   -1.000
 3619.00    0.46139   0.43882   -1.000
 3620.00    0.48348   0.46181   -1.000
 3621.00    0.52054   0.49375   -1.000
 3622.00    0.52823   0.52356  239.798
 3623.00    0.54164   0.54891  230.523
 3624.00    0.56791   0.57345  222.333
 3625.00    0.59368   0.59779  220.881
 3626.00    0.59020   0.61487   -1.000
 3627.00    0.59839   0.61400   -1.000
 3628.00    0.61034   0.58914   -1.000
 3629.00    0.58764   0.54601   -1.000
 3630.00    0.56076   0.50185   -1.000
 3631.00    0.52740   0.47440   -1.000
 3632.00    0.49488   0.46997   -1.000
 3633.00    0.50368   0.48238   -1.000
 3634.00    0.51774   0.50105   -1.000
 3635.00    0.51987   0.51963  241.656
 3636.00    0.53956   0.53840  231.470
 3637.00    0.55581   0.55926  225.593
 3638.00    0.56721   0.57976   -1.000
 3639.00    0.55719   0.59341   -1.000
 3640.00    0.58841   0.59452  242.264
 3641.00    0.60591   0.58256   -1.000
 3642.00    0.57507   0.56238   -1.000
 3643.00    0.55337   0.54005   -1.000
 3644.00    0.54713   0.51904   -1.000
 3645.00    0.53559   0.50018   -1.000
 3646.00    0.52611   0.48484   -1.000
 3647.00    0.49408   0.47739   -1.000
 3648.00    0.49586   0.48276   -1.000
 3649.00    0.50529   0.50210  239.653
 3650.00    0.52591   0.53127  230.692
 3651.00    0.55495   0.56261  225.709
 3652.00    0.58541   0.58863  223.214
 3653.00    0.59912   0.60631  222.015
 3654.00    0.61860   0.61846  219.483
 3655.00    0.63276   0.62990  216.823
 3656.00    0.63904   0.64271  214.112
 3657.00    0.64060   0.65476   -1.000
 3658.00    0.64623   0.66246   -1.000
 3659.00    0.65859   0.66361  217.351
 3660.00    0.65537   0.65767  220.050
 3661.00    0.64691   0.64622  223.311
 3662.00    0.63191   0.63345  223.800
 3663.00    0.62817   0.62397  221.762
 3664.00    0.62261   0.61933  223.148
 3665.00    0.60848   0.61681  227.355
 3666.00    0.62414   0.61186  230.645
 3667.00    0.62102   0.60307   -1.000
 3668.00    0.61278   0.59497   -1.000
 3669.00    0.60243   0.59475  223.141
 3670.00    0.59834   0.60480  219.715
 3671.00    0.61760   0.61967  219.190
 3672.00    0.63455   0.63121  219.300
 3673.00    0.64061   0.63440  221.496
 3674.00    0.64006   0.62797  228.507
 3675.00    0.65054   0.61258   -1.000
 3676.00    0.62396   0.59059   -1.000
 3677.00    0.61640   0.56668   -1.000
 3678.00    0.59489   0.54754   -1.000
 3679.00    0.56489   0.53938   -1.000
 3680.00    0.55764   0.54400   -1.000
 3681.00    0.56890   0.55655  232.056
 3682.00    0.59259   0.56777   -1.000
 3683.00    0.59693   0.56879   -1.000
 3684.00    0.56890   0.55617   -1.000
 3685.00    0.56911   0.53542   -1.000
 3686.00    0.56353   0.51947   -1.000
 3687.00    0.54210   0.52057   -1.000
 3688.00    0.54612   0.54189  218.686
 3689.00    0.56912   0.57542  214.498
 3690.00    0.59940   0.60660  217.469
 3691.00    0.63004   0.62297  222.747
 3692.00    0.65061   0.62237   -1.000
 3693.00    0.64957   0.61296   -1.000
 3694.00    0.62508   0.60517   -1.000
 3695.00    0.62016   0.60541   -1.000
 3696.00    0.62836   0.61548  210.232
 3697.00    0.64157   0.63306  205.649
 3698.00    0.64737   0.65158  204.840
 3699.00    0.65433   0.66219  210.428
 3700.00    0.66753   0.65718  223.054
 3701.00    0.66232   0.63264   -1.000
 3702.00    0.63709   0.59125   -1.000
 3703.00    0.60342   0.54325   -1.000
 3704.00    0.57617   0.50217   -1.000
 3705.00    0.53944   0.47755   -1.000
 3706.00    0.51516   0.47071   -1.000
 3707.00    0.52738   0.47730   -1.000
 3708.00    0.52386   0.49392   -1.000
 3709.00    0.52718   0.51994  227.182
 3710.00    0.55568   0.55389  214.823
 3711.00    0.58610   0.59127  206.045
 3712.00    0.62542   0.62477  202.346
 3713.00    0.65739   0.64630  203.528
 3714.00    0.68118   0.65030   -1.000
 3715.00    0.68254   0.63533   -1.000
 3716.00    0.65125   0.60234   -1.000
 3717.00    0.61202   0.55444   -1.000
 3718.00    0.56764   0.49903   -1.000
 3719.00    0.51107   0.44930   42.996
 3720.00    0.45122   0.42088   -1.000
 3721.00    0.43394   0.42290   -1.000
 3722.00    0.46964   0.45180   -1.000
 3723.00    0.50606   0.49335  225.796
 3724.00    0.55272   0.52980   -1.000
 3725.00    0.58864   0.54935   -1.000
 3726.00    0.60202   0.55315   -1.000
 3727.00    0.59741   0.55105   -1.000
 3728.00    0.57816   0.54870   -1.000
 3729.00    0.57450   0.54156   -1.000
 3730.00    0.57948   0.52098   -1.000
 3731.00    0.55287   0.48392   32.168
 3732.00    0.50943   0.43738   35.280
 3733.00    0.46522   0.39437   35.604
 3734.00    0.42089   0.36746   33.283
 3735.00    0.39445   0.36473   42.585
 3736.00    0.41479   0.38726   -1.000
 3737.00    0.44917   0.42901   -1.000
 3738.00    0.47087   0.47832  232.544
 3739.00    0.50407   0.52022   -1.000
 3740.00    0.54633   0.54176  245.716
 3741.00    0.56140   0.53838   -1.000
 3742.00    0.55819   0.51544   -1.000
 3743.00    0.54085   0.48395   -1.000
 3744.00    0.52111   0.45396   -1.000
 3745.00    0.48431   0.42922   32.168
 3746.00    0.45652   0.40829   33.724
 3747.00    0.45807   0.39172   -1.000
 3748.00    0.45179   0.38621   -1.000
 3749.00    0.42282   0.40032   -1.000
 3750.00    0.43495   0.43596  234.813
 3751.00    0.49719   0.48519  218.933
 3752.00    0.55057   0.53564  209.801
 3753.00    0.56460   0.57561  210.743
 3754.00    0.58604   0.59418  227.741
 3755.00    0.61115   0.58501   -1.000
 3756.00    0.60565   0.55348   -1.000
 3757.00    0.57394   0.51676   -1.000
 3758.00    0.53897   0.49325   -1.000
 3759.00    0.52014   0.48971   -1.000
 3760.00    0.51885   0.49885   -1.000
 3761.00    0.53821   0.50903   -1.000
 3762.00    0.54165   0.51406   -1.000
 3763.00    0.53204   0.51425   -1.000
 3764.00    0.53723   0.51159   -1.000
 3765.00    0.54576   0.50800   -1.000
 3766.00    0.56138   0.50635   -1.000
 3767.00    0.54736   0.50920   -1.000
 3768.00    0.55430   0.51676   -1.000
 3769.00    0.57900   0.52831   -1.000
 3770.00    0.59100   0.54410   -1.000
 3771.00    0.59575   0.56355   -1.000
 3772.00    0.61259   0.58315   -1.000
 3773.00    0.61593   0.59825   -1.000
 3774.00    0.63054   0.60747   -1.000
 3775.00    0.63935   0.61368   -1.000
 3776.00    0.62028   0.62074  208.873
 3777.00    0.62557   0.63073  202.504
 3778.00    0.64315   0.64333  198.952
 3779.00    0.65212   0.65653  197.704
 3780.00    0.65845   0.66785  196.949
 3781.00    0.66710   0.67506  198.578
 3782.00    0.67626   0.67545  205.251
 3783.00    0.68739   0.66515   -1.000
 3784.00    0.66890   0.64178   -1.000
 3785.00    0.64505   0.60857   -1.000
 3786.00    0.60614   0.57410   -1.000
 3787.00    0.56871   0.54766   -1.000
 3788.00    0.55645   0.53481   -1.000
 3789.00    0.55020   0.53457   -1.000
 3790.00    0.54065   0.53969  244.199
 3791.00    0.55015   0.54088  253.272
 3792.00    0.55189   0.53271   -1.000
 3793.00    0.53047   0.51640   -1.000
 3794.00    0.50278   0.49658  286.217
 3795.00    0.49971   0.47631   -1.000
 3796.00    0.50377   0.45764   -1.000
 3797.00    0.49829   0.44629   -1.000
 3798.00    0.48414   0.45116   -1.000
 3799.00    0.48231   0.47643  231.706
 3800.00    0.49919   0.51603   -1.000
 3801.00    0.52138   0.55775   -1.000
 3802.00    0.55349   0.59032   -1.000
 3803.00    0.57887   0.60721   -1.000
 3804.00    0.58469   0.60802   -1.000
 3805.00    0.57271   0.59897   -1.000
 3806.00    0.55576   0.59079   -1.000
 3807.00    0.55400   0.59209   -1.000
 3808.00    0.55614   0.60243   -1.000
 3809.00    0.56972   0.61233   -1.000
 3810.00    0.59666   0.61069   -1.000
 3811.00    0.59680   0.59259  254.401
 3812.00    0.56361   0.56199  268.386
 3813.00    0.53013   0.52871  274.386
 3814.00    0.48607   0.50313   -1.000
 3815.00    0.46189   0.49033   -1.000
 3816.00    0.46329   0.48624   -1.000
 3817.00    0.46797   0.48097   -1.000
 3818.00    0.47617   0.46878  288.032
 3819.00    0.46756   0.45435   -1.000
 3820.00    0.44560   0.44673  279.466
 3821.00    0.44421   0.44755  288.032
 3822.00    0.45367   0.44824   76.552
 3823.00    0.45318   0.44025   32.871
 3824.00    0.43305   0.42483   33.206
 3825.00    0.41257   0.41050   32.812
 3826.00    0.40323   0.40395   32.273
 3827.00    0.39562   0.40560   32.084
 3828.00    0.40598   0.41063   32.886
 3829.00    0.42523   0.41248   34.818
 3830.00    0.43237   0.40673   37.014
 3831.00    0.42451   0.39370   37.415
 3832.00    0.41083   0.37846   36.349
 3833.00    0.39999   0.36751   35.118
 3834.00    0.38651   0.36432   34.922
 3835.00    0.39530   0.36714   35.732
 3836.00    0.41304   0.37137   36.030
 3837.00    0.41663   0.37487   34.809
 3838.00    0.42391   0.38097   49.839
 3839.00    0.42426   0.39599   -1.000
 3840.00    0.41910   0.42328  267.997
 3841.00    0.45035   0.45959  255.696
 3842.00    0.48355   0.49656  252.906
 3843.00    0.49564   0.52592   -1.000
 3844.00    0.50472   0.54431   -1.000
 3845.00    0.51190   0.55339   -1.000
 3846.00    0.50845   0.55564   -1.000
 3847.00    0.51151   0.55212   -1.000
 3848.00    0.50644   0.54510   -1.000
 3849.00    0.50854   0.53969   -1.000
 3850.00    0.50424   0.53994   -1.000
 3851.00    0.50005   0.54412   -1.000
 3852.00    0.50925   0.54579   -1.000
 3853.00    0.51866   0.53995   -1.000
 3854.00    0.49980   0.52685   -1.000
 3855.00    0.47382   0.50964   69.495
 3856.00    0.47807   0.49071   31.614
 3857.00    0.49572   0.47258   32.565
 3858.00    0.48730   0.46099   48.445
 3859.00    0.47167   0.46333  275.304
 3860.00    0.46799   0.48198   -1.000
 3861.00    0.47781   0.51004   -1.000
 3862.00    0.51697   0.53501   -1.000
 3863.00    0.54085   0.54807  255.043
 3864.00    0.53879   0.54962   -1.000
 3865.00    0.52949   0.54579   -1.000
 3866.00    0.51623   0.54106   -1.000
 3867.00    0.50448   0.53500   -1.000
 3868.00    0.50476   0.52473   69.682
 3869.00    0.50428   0.51003   47.940
 3870.00    0.49568   0.49622  288.032
 3871.00    0.48332   0.49192  264.250
 3872.00    0.48174   0.50225   -1.000
 3873.00    0.49228   0.52347   -1.000
 3874.00    0.52569   0.54331   -1.000
 3875.00    0.56185   0.54929   -1.000
 3876.00    0.56452   0.53934   -1.000
 3877.00    0.53994   0.52293   -1.000
 3878.00    0.51283   0.51107  288.032
 3879.00    0.50253   0.50756  288.032
 3880.00    0.50114   0.50999  278.316
 3881.00    0.49969   0.51527   -1.000
 3882.00    0.50270   0.52075   -1.000
 3883.00    0.52302   0.52117  258.035
 3884.00    0.54722   0.51062   -1.000
 3885.00    0.53753   0.49000   -1.000
 3886.00    0.51473   0.46935   -1.000
 3887.00    0.52078   0.46168   -1.000
 3888.00    0.54129   0.47481   -1.000
 3889.00    0.55600   0.50729   -1.000
 3890.00    0.58815   0.54926   -1.000
 3891.00    0.64045   0.58710   -1.000
 3892.00    0.67195   0.61057   -1.000
 3893.00    0.66499   0.61896   -1.000
 3894.00    0.64962   0.61989   -1.000
 3895.00    0.64692   0.62101   -1.000
 3896.00    0.65472   0.62387   -1.000
 3897.00    0.66969   0.62576   -1.000
 3898.00    0.66499   0.62566   -1.000
 3899.00    0.64873   0.62565   -1.000
 3900.00    0.65360   0.62639   -1.000
 3901.00    0.65941   0.62496   -1.000
 3902.00    0.67491   0.61840   -1.000
 3903.00    0.67017   0.60828   -1.000
 3904.00    0.63678   0.60120   -1.000
 3905.00    0.60946   0.60463  205.675
 3906.00    0.61475   0.62176  195.575
 3907.00    0.65128   0.64872  192.273
 3908.00    0.68340   0.67696  190.538
 3909.00    0.71000   0.69931  189.007
 3910.00    0.72796   0.71370  189.314
 3911.00    0.73827   0.72109   -1.000
 3912.00    0.75114   0.72231   -1.000
 3913.00    0.75190   0.71781   -1.000
 3914.00    0.74218   0.70863   -1.000
 3915.00    0.72207   0.69596   -1.000
 3916.00    0.71037   0.67986   -1.000
 3917.00    0.69936   0.65922   -1.000
 3918.00    0.68523   0.63432   -1.000
 3919.00    0.65929   0.60909   -1.000
 3920.00    0.63125   0.58983   -1.000
 3921.00    0.60556   0.58098   -1.000
 3922.00    0.59431   0.58078   -1.000
 3923.00    0.59943   0.58144   -1.000
 3924.00    0.60484   0.57392   -1.000
 3925.00    0.60017   0.55309   -1.000
 3926.00    0.58327   0.51995   36.832
 3927.00    0.52929   0.47967   43.155
 3928.00    0.46080   0.43810   50.720
 3929.00    0.39729   0.39866   59.773
 3930.00    0.33546   0.36246   68.023
 3931.00    0.31123   0.33111   70.223
 3932.00    0.31541   0.30893   64.242
 3933.00    0.31952   0.30227   54.434
 3934.00    0.32236   0.31479   44.834
 3935.00    0.33140   0.34437   37.223
 3936.00    0.36331   0.38496   54.550
 3937.00    0.41003   0.42990   -1.000
 3938.00    0.46299   0.47256  272.996
 3939.00    0.51373   0.50741   -1.000
 3940.00    0.55262   0.53087   -1.000
 3941.00    0.57006   0.54333   -1.000
 3942.00    0.56038   0.55028   -1.000
 3943.00    0.54639   0.56014  222.061
 3944.00    0.55618   0.57803   -1.000
 3945.00    0.59303   0.60182  212.069
 3946.00    0.64681   0.62563   -1.000
 3947.00    0.68086   0.64635   -1.000
 3948.00    0.69660   0.66473   -1.000
 3949.00    0.72059   0.68092   -1.000
 3950.00    0.74475   0.69247   -1.000
 3951.00    0.74958   0.69903   -1.000
 3952.00    0.73681   0.70340   -1.000
 3953.00    0.73992   0.70671   -1.000
 3954.00    0.76014   0.70657   -1.000
 3955.00    0.75050   0.70127   -1.000
 3956.00    0.72303   0.69263   -1.000
 3957.00    0.71464   0.68151   -1.000
 3958.00    0.71370   0.66274   -1.000
 3959.00    0.69740   0.63009   -1.000
 3960.00    0.64798   0.58591   -1.000
 3961.00    0.57615   0.54008   64.448
 3962.00    0.51531   0.50116   34.794
 3963.00    0.47439   0.46830   41.705
 3964.00    0.44368   0.43386   51.327
 3965.00    0.41128   0.39296   60.185
 3966.00    0.36985   0.34949   61.423
 3967.00    0.33838   0.31485   53.736
 3968.00    0.32381   0.30037   44.173
 3969.00    0.33583   0.31112   36.616
 3970.00    0.37100   0.34447   55.273
 3971.00    0.41772   0.39331   -1.000
 3972.00    0.46988   0.44972   -1.000
 3973.00    0.53151   0.50800   -1.000
 3974.00    0.59987   0.56439   -1.000
 3975.00    0.65831   0.61710   -1.000
 3976.00    0.68793   0.66575   -1.000
 3977.00    0.71364   0.70965  177.238
 3978.00    0.76109   0.74647  176.780
 3979.00    0.80169   0.77185   -1.000
 3980.00    0.82136   0.78389   -1.000
 3981.00    0.82056   0.78590   -1.000
 3982.00    0.81189   0.78560   -1.000
 3983.00    0.81740   0.78989   -1.000
 3984.00    0.82334   0.80093   -1.000
 3985.00    0.82399   0.81688  165.542
 3986.00    0.83452   0.83414  165.015
 3987.00    0.85525   0.84865  164.874
 3988.00    0.87708   0.85821  162.459
 3989.00    0.88532   0.86450  158.548
 3990.00    0.88760   0.87116  157.410
 3991.00    0.90589   0.87930   -1.000
 3992.00    0.93123   0.88540   -1.000
 3993.00    0.94252   0.88451   -1.000
 3994.00    0.93566   0.87555   -1.000
 3995.00    0.90652   0.86346   -1.000
 3996.00    0.88131   0.85700   -1.000
 3997.00    0.88217   0.86272  156.363
 3998.00    0.89410   0.88058  152.446
 3999.00    0.92159   0.90400  150.175
 4000.00    0.95386   0.92420   -1.000
 4001.00    0.96912   0.93257   -1.000
 4002.00    0.98137   0.92329   -1.000
 4003.00    0.97951   0.89757   -1.000
 4004.00    0.93672   0.86789   -1.000
 4005.00    0.89061   0.85205   -1.000
 4006.00    0.86979   0.85975  152.320
 4007.00    0.89238   0.88565  150.552
 4008.00    0.94615   0.91526   -1.000
 4009.00    0.97507   0.93808   -1.000
 4010.00    0.97241   0.95220  150.745
 4011.00    0.97423   0.96074  150.603
 4012.00    0.98687   0.96717  148.935
 4013.00    1.00000   0.97274   -1.000
 4014.00    1.01819   0.97651   -1.000
 4015.00    1.02620   0.97778   -1.000
 4016.00    1.02441   0.97845   -1.000
 4017.00    1.01388   0.98155   -1.000
 4018.00    1.01451   0.98711   -1.000
 4019.00    1.03459   0.99197   -1.000
 4020.00    1.04002   0.99243   -1.000
 4021.00    1.02334   0.98785   -1.000
 4022.00    1.00775   0.98042   -1.000
 4023.00    0.99746   0.97420   -1.000
 4024.00    0.99735   0.97422  142.819
 4025.00    1.01471   0.98303   -1.000
 4026.00    1.04051   0.99538   -1.000
 4027.00    1.05968   0.99788   -1.000
 4028.00    1.05676   0.97854   -1.000
 4029.00    1.01427   0.93760   -1.000
 4030.00    0.94547   0.88967   -1.000
 4031.00    0.88274   0.85239   -1.000
 4032.00    0.85460   0.83784  155.890
 4033.00    0.85962   0.85005  148.126
 4034.00    0.87803   0.88641  141.884
 4035.00    0.92168   0.93704  139.171
 4036.00    0.98739   0.98751  140.468
 4037.00    1.04504   1.02251  143.718
 4038.00    1.08122   1.03504   -1.000
 4039.00    1.08363   1.02929   -1.000
 4040.00    1.06719   1.01303   -1.000
 4041.00    1.05572   0.98624   -1.000
 4042.00    1.04067   0.94300   -1.000
 4043.00    0.99845   0.88515   -1.000
 4044.00    0.90577   0.83227   -1.000
 4045.00    0.81414   0.81193  153.334
 4046.00    0.80053   0.83641   -1.000
 4047.00    0.87618   0.89176  143.812
 4048.00    0.96675   0.95241  143.545
 4049.00    1.01573   0.99705  146.094
 4050.00    1.04152   1.01769   -1.000
 4051.00    1.05228   1.01670   -1.000
 4052.00    1.04025   1.00177   -1.000
 4053.00    1.01164   0.98115   -1.000
 4054.00    0.98630   0.96059   -1.000
 4055.00    0.97674   0.94297   -1.000
 4056.00    0.95454   0.93137   -1.000
 4057.00    0.92937   0.93004  148.948
 4058.00    0.92894   0.93815  148.878
 4059.00    0.94507   0.94488  155.784
 4060.00    0.96962   0.93544   -1.000
 4061.00    0.97403   0.90523   -1.000
 4062.00    0.92046   0.86807   -1.000
 4063.00    0.84267   0.84402  159.189
 4064.00    0.82376   0.84407   -1.000
 4065.00    0.87228   0.86536  150.490
 4066.00    0.92349   0.89625   -1.000
 4067.00    0.95378   0.92370   -1.000
 4068.00    0.98813   0.93681   -1.000
 4069.00    1.01084   0.93091   -1.000
 4070.00    0.99897   0.91357   -1.000
 4071.00    0.95104   0.90143   -1.000
 4072.00    0.93013   0.90309   -1.000
 4073.00    0.96003   0.91029   -1.000
 4074.00    0.97582   0.90716   -1.000
 4075.00    0.95161   0.88990   -1.000
 4076.00    0.89643   0.87330   -1.000
 4077.00    0.86183   0.87630  153.698
 4078.00    0.88928   0.90613  146.285
 4079.00    0.94996   0.95137  145.591
 4080.00    1.00955   0.99163  149.524
 4081.00    1.04906   1.01111   -1.000
 4082.00    1.05583   1.00966   -1.000
 4083.00    1.03287   1.00102   -1.000
 4084.00    1.00775   1.00158  143.588
 4085.00    1.00652   1.01908  138.533
 4086.00    1.03036   1.04805  136.815
 4087.00    1.08137   1.07605  138.712
 4088.00    1.13008   1.09126   -1.000
 4089.00    1.14053   1.09009   -1.000
 4090.00    1.11746   1.07752   -1.000
 4091.00    1.08507   1.06160   -1.000
 4092.00    1.07145   1.04476   -1.000
 4093.00    1.07601   1.02417   -1.000
 4094.00    1.06974   0.99712   -1.000
 4095.00    1.02055   0.96584   -1.000
 4096.00    0.95628   0.93509   -1.000
 4097.00    0.92757   0.90511   -1.000
 4098.00    0.91761   0.87179   -1.000
 4099.00    0.90284   0.83459   -1.000
 4100.00    0.86965   0.80376   -1.000
 4101.00    0.82824   0.79464   -1.000
 4102.00    0.82614   0.81590  160.965
 4103.00    0.86315   0.86093  154.431
 4104.00    0.91477   0.91395  151.944
 4105.00    0.96709   0.95906  152.467
 4106.00    1.01605   0.98806   -1.000
 4107.00    1.03360   1.00003   -1.000
 4108.00    1.01396   0.99943  157.406
 4109.00    0.99106   0.99412  154.470
 4110.00    0.96360   0.99237   -1.000
 4111.00    0.94979   0.99898   -1.000
 4112.00    0.95482   1.01375   -1.000
 4113.00    0.97945   1.03203   -1.000
 4114.00    1.02534   1.04668   -1.000
 4115.00    1.04626   1.05107  153.308
 4116.00    1.04264   1.04331  156.661
 4117.00    1.03134   1.02809  156.301
 4118.00    1.01756   1.01384  154.469
 4119.00    0.99686   1.00721  153.860
 4120.00    0.99871   1.00882  153.024
 4121.00    1.01389   1.01534  150.733
 4122.00    1.00847   1.02391  149.252
 4123.00    1.01808   1.03286  150.199
 4124.00    1.03836   1.03935  152.964
 4125.00    1.05470   1.03954  155.155
 4126.00    1.04524   1.03200  156.122
 4127.00    1.01826   1.01906  157.569
 4128.00    0.99500   1.00284  161.268
 4129.00    0.97937   0.98256  166.439
 4130.00    0.96421   0.95878  168.976
 4131.00    0.94428   0.93756  165.871
 4132.00    0.91872   0.93012  158.592
 4133.00    0.91152   0.94397   -1.000
 4134.00    0.92739   0.97591   -1.000
 4135.00    0.96454   1.01498   -1.000
 4136.00    1.01361   1.04952   -1.000
 4137.00    1.04390   1.07219   -1.000
 4138.00    1.06459   1.07932  152.260
 4139.00    1.06685   1.06693  163.138
 4140.00    1.04986   1.03302  174.181
 4141.00    1.01986   0.98506   -1.000
 4142.00    0.95238   0.94216  165.143
 4143.00    0.86664   0.92398   -1.000
 4144.00    0.84998   0.93631   -1.000
 4145.00    0.90909   0.96703   -1.000
 4146.00    0.96550   0.99591   -1.000
 4147.00    0.99790   1.01054  161.947
 4148.00    1.00504   1.01152  162.062
 4149.00    0.97878   1.00655   -1.000
 4150.00    0.94557   1.00107   -1.000
 4151.00    0.94029   0.99551   -1.000
 4152.00    0.94199   0.98869   -1.000
 4153.00    0.94038   0.98192   -1.000
 4154.00    0.96736   0.97955  160.492
 4155.00    1.10875   0.98606   -1.000
 4156.00    1.15993   1.00252   -1.000
 4157.00    0.90707   1.02647   -1.000
 4158.00    0.79988   1.05312   -1.000
 4159.00    0.95419   1.07731   -1.000
 4160.00    1.05135   1.09662   -1.000
 4161.00    1.05585   1.10988   -1.000
 4162.00    1.05282   1.11534   -1.000
 4163.00    1.05752   1.11066   -1.000
 4164.00    1.04313   1.09595   -1.000
 4165.00    1.01396   1.07594   -1.000
 4166.00    0.98752   1.05910   -1.000
 4167.00    0.96583   1.05008   -1.000
 4168.00    0.96718   1.04533   -1.000
 4169.00    0.98811   1.03524   -1.000
 4170.00    0.99263   1.01358   -1.000
 4171.00    0.95582   0.98575   -1.000
 4172.00    0.90023   0.96454   -1.000
 4173.00    0.87799   0.95949   -1.000
 4174.00    0.88970   0.96929   -1.000
 4175.00    0.92328   0.98521   -1.000
 4176.00    0.94998   1.00065   -1.000
 4177.00    0.94285   1.01425   -1.000
 4178.00    0.93717   1.02521   -1.000
 4179.00    0.95809   1.03155   -1.000
 4180.00    0.97192   1.03341   -1.000
 4181.00    0.96678   1.03582   -1.000
 4182.00    0.97654   1.04404   -1.000
 4183.00    1.00662   1.05497   -1.000
 4184.00    1.03882   1.05961   -1.000
 4185.00    1.05620   1.05276  162.793
 4186.00    1.02678   1.03998  159.858
 4187.00    0.98638   1.03279   -1.000
 4188.00    0.97830   1.03725   -1.000
 4189.00    1.00339   1.05073   -1.000
 4190.00    1.02738   1.06706   -1.000
 4191.00    1.03699   1.08112   -1.000
 4192.00    1.05463   1.08745   -1.000
 4193.00    1.07150   1.07973  165.986
 4194.00    1.04781   1.05529  169.861
 4195.00    0.97989   1.02069   -1.000
 4196.00    0.93480   0.98699   -1.000
 4197.00    0.93064   0.96310   -1.000
 4198.00    0.93112   0.95140   -1.000
 4199.00    0.93761   0.95031  165.559
 4200.00    0.94049   0.95734   -1.000
 4201.00    0.93883   0.97203   -1.000
 4202.00    0.94051   0.99544   -1.000
 4203.00    0.97038   1.02698   -1.000
 4204.00    1.02366   1.06231   -1.000
 4205.00    1.05241   1.09491   -1.000
 4206.00    1.08805   1.11953   -1.000
 4207.00    1.11706   1.13326  150.946
 4208.00    1.11783   1.13719   -1.000
 4209.00    1.10981   1.13587   -1.000
 4210.00    1.07748   1.13296   -1.000
 4211.00    1.06764   1.12673   -1.000
 4212.00    1.07750   1.11158   -1.000
 4213.00    1.05836   1.08782   -1.000
 4214.00    1.01017   1.06778   -1.000
 4215.00    0.97302   1.06724   -1.000
 4216.00    0.99661   1.09266   -1.000
 4217.00    1.08471   1.13340   -1.000
 4218.00    1.16216   1.17129  139.777
 4219.00    1.18680   1.19027  143.905
 4220.00    1.19741   1.18141  152.543
 4221.00    1.18380   1.14154   -1.000
 4222.00    1.12827   1.07294   -1.000
 4223.00    1.04621   0.98444   -1.000
 4224.00    0.93472   0.89700   -1.000
 4225.00    0.82671   0.83795  179.947
 4226.00    0.74619   0.83077   -1.000
 4227.00    0.75145   0.87892   -1.000
 4228.00    0.87874   0.96105   -1.000
 4229.00    1.01314   1.04125   -1.000
 4230.00    1.10257   1.09347  150.333
 4231.00    1.15111   1.11116   -1.000
 4232.00    1.14629   1.10340   -1.000
 4233.00    1.11206   1.08462   -1.000
 4234.00    1.08312   1.06748  158.958
 4235.00    1.05484   1.05906  156.044
 4236.00    1.04126   1.06218   -1.000
 4237.00    1.05289   1.07672   -1.000
 4238.00    1.07293   1.09978   -1.000
 4239.00    1.09469   1.12711   -1.000
 4240.00    1.12675   1.15580   -1.000
 4241.00    1.15254   1.18406   -1.000
 4242.00    1.18377   1.21050   -1.000
 4243.00    1.22042   1.23069  147.120
 4244.00    1.26369   1.23605   -1.000
 4245.00    1.28108   1.21933   -1.000
 4246.00    1.23588   1.18241   -1.000
 4247.00    1.15848   1.13658   -1.000
 4248.00    1.10016   1.09759  157.365
 4249.00    1.07019   1.07613  152.803
 4250.00    1.03616   1.07250   -1.000
 4251.00    1.02622   1.07733   -1.000
 4252.00    1.05336   1.08053   -1.000
 4253.00    1.06271   1.08153   -1.000
 4254.00    1.04574   1.08849   -1.000
 4255.00    1.05615   1.10448   -1.000
 4256.00    1.11503   1.11775  158.436
 4257.00    1.16342   1.11305   -1.000
 4258.00    1.14522   1.09123   -1.000
 4259.00    1.07796   1.07218  152.526
 4260.00    1.03276   1.07933   -1.000
 4261.00    1.03797   1.11931   -1.000
 4262.00    1.09643   1.17773   -1.000
 4263.00    1.18708   1.23039   -1.000
 4264.00    1.25433   1.25991  144.043
 4265.00    1.28197   1.26110   -1.000
 4266.00    1.26609   1.23588   -1.000
 4267.00    1.22479   1.18828   -1.000
 4268.00    1.17345   1.12496   -1.000
 4269.00    1.10613   1.05554   -1.000
 4270.00    1.02210   0.99477   -1.000
 4271.00    0.93356   0.95669   -1.000
 4272.00    0.89745   0.94907   -1.000
 4273.00    0.91862   0.97136   -1.000
 4274.00    0.95032   1.01760   -1.000
 4275.00    0.98969   1.07750   -1.000
 4276.00    1.06430   1.13636   -1.000
 4277.00    1.15982   1.17694  154.724
 4278.00    1.22034   1.19061   -1.000
 4279.00    1.20711   1.18373   -1.000
 4280.00    1.16295   1.17151  153.553
 4281.00    1.13383   1.16445   -1.000
 4282.00    1.11988   1.16149   -1.000
 4283.00    1.13908   1.15611  162.530
 4284.00    1.14448   1.14431  165.408
 4285.00    1.10587   1.12589   -1.000
 4286.00    1.07727   1.10061   -1.000
 4287.00    1.06417   1.06870  181.629
 4288.00    1.02962   1.03586  175.260
 4289.00    0.96914   1.01551   -1.000
 4290.00    0.94766   1.01913   -1.000
 4291.00    0.99203   1.04388   -1.000
 4292.00    1.06758   1.07303  161.625
 4293.00    1.11669   1.08961   -1.000
 4294.00    1.11645   1.08606   -1.000
 4295.00    1.08967   1.06255   -1.000
 4296.00    1.05628   1.02181   -1.000
 4297.00    1.02181   0.96998   -1.000
 4298.00    0.95548   0.91841   -1.000
 4299.00    0.87232   0.88107  198.282
 4300.00    0.83572   0.86543   -1.000
 4301.00    0.84904   0.86787   -1.000
 4302.00    0.87177   0.87779  192.622
 4303.00    0.89046   0.88440  197.536
 4304.00    0.90622   0.87983   -1.000
 4305.00    0.90040   0.86131   -1.000
 4306.00    0.86037   0.83541   -1.000
 4307.00    0.81733   0.81663  203.326
 4308.00    0.79690   0.81968   -1.000
 4309.00    0.81915   0.85043   -1.000
 4310.00    0.87273   0.90499   -1.000
 4311.00    0.93747   0.97510   -1.000
 4312.00    1.00982   1.05558   -1.000
 4313.00    1.08188   1.14491   -1.000
 4314.00    1.15643   1.23846   -1.000
 4315.00    1.25110   1.32630   -1.000
 4316.00    1.37382   1.39314  132.034
 4317.00    1.46625   1.42722   -1.000
 4318.00    1.48588   1.42762   -1.000
 4319.00    1.45136   1.40043   -1.000
 4320.00    1.38432   1.34994   -1.000
 4321.00    1.32126   1.27837   -1.000
 4322.00    1.26373   1.19242   -1.000
 4323.00    1.17105   1.11156   -1.000
 4324.00    1.04916   1.06484  154.700
 4325.00    0.96718   1.07408   -1.000
 4326.00    0.99292   1.13711   -1.000
 4327.00    1.13590   1.22761   -1.000
 4328.00    1.29764   1.31025  136.656
 4329.00    1.37205   1.36488  134.686
 4330.00    1.36995   1.39380   -1.000
 4331.00    1.36628   1.41007   -1.000
 4332.00    1.38366   1.42113   -1.000
 4333.00    1.40507   1.42178  140.807
 4334.00    1.43146   1.39942   -1.000
 4335.00    1.43829   1.34433   -1.000
 4336.00    1.37282   1.25990   -1.000
 4337.00    1.26493   1.16528   -1.000
 4338.00    1.14572   1.08997   -1.000
 4339.00    1.07167   1.05768  163.611
 4340.00    1.05274   1.07502   -1.000
 4341.00    1.10109   1.13067   -1.000
 4342.00    1.19066   1.20226  141.809
 4343.00    1.26356   1.26926  139.011
 4344.00    1.30801   1.32342  137.330
 4345.00    1.34373   1.36556   -1.000
 4346.00    1.37073   1.39733   -1.000
 4347.00    1.37933   1.41531   -1.000
 4348.00    1.40408   1.41029  150.464
 4349.00    1.42043   1.37705   -1.000
 4350.00    1.37560   1.32673   -1.000
 4351.00    1.25886   1.28422   -1.000
 4352.00    1.19459   1.27149   -1.000
 4353.00    1.22230   1.29165   -1.000
 4354.00    1.28222   1.32970   -1.000
 4355.00    1.33622   1.36576   -1.000
 4356.00    1.38176   1.38822  139.490
 4357.00    1.40246   1.39734  137.930
 4358.00    1.39636   1.40197  134.023
 4359.00    1.37106   1.41279   -1.000
 4360.00    1.37557   1.43373   -1.000
 4361.00    1.42531   1.46055   -1.000
 4362.00    1.46459   1.48543  129.384
 4363.00    1.47743   1.50167   -1.000
 4364.00    1.50461   1.50377  137.087
 4365.00    1.51268   1.48835   -1.000
 4366.00    1.46559   1.45930  138.854
 4367.00    1.39955   1.42817   -1.000
 4368.00    1.37165   1.40437   -1.000
 4369.00    1.37290   1.38823  138.517
 4370.00    1.37867   1.37252  143.107
 4371.00    1.37152   1.34936   -1.000
 4372.00    1.35363   1.31837   -1.000
 4373.00    1.33060   1.28858   -1.000
 4374.00    1.27507   1.27469  138.636
 4375.00    1.26469   1.28608   -1.000
 4376.00    1.29124   1.31669   -1.000
 4377.00    1.33624   1.34596  137.166
 4378.00    1.38511   1.35136   -1.000
 4379.00    1.39961   1.31912   -1.000
 4380.00    1.36289   1.24887   -1.000
 4381.00    1.27899   1.15672   -1.000
 4382.00    1.15271   1.07403   -1.000
 4383.00    1.00862   1.03380   -1.000
 4384.00    0.94627   1.05085   -1.000
 4385.00    1.02724   1.11069   -1.000
 4386.00    1.17420   1.17946  144.858
 4387.00    1.27114   1.22984   -1.000
 4388.00    1.29929   1.25649   -1.000
 4389.00    1.28493   1.27011  140.366
 4390.00    1.27442   1.28266  140.309
 4391.00    1.29833   1.29845  142.993
 4392.00    1.33049   1.31565  143.396
 4393.00    1.34528   1.33369  138.135
 4394.00    1.32860   1.35607   -1.000
 4395.00    1.34397   1.38434   -1.000
 4396.00    1.40394   1.41050  138.342
 4397.00    1.45856   1.42161   -1.000
 4398.00    1.47374   1.41210   -1.000
 4399.00    1.42877   1.38826   -1.000
 4400.00    1.35090   1.35811  143.113
 4401.00    1.32185   1.32264  150.876
 4402.00    1.31892   1.27905   -1.000
 4403.00    1.25957   1.23254   -1.000
 4404.00    1.16652   1.20014   -1.000
 4405.00    1.12271   1.19729   -1.000
 4406.00    1.16673   1.22535   -1.000
 4407.00    1.23531   1.27566   -1.000
 4408.00    1.28432   1.33815   -1.000
 4409.00    1.33903   1.40269   -1.000
 4410.00    1.41639   1.45440   -1.000
 4411.00    1.47829   1.47539  137.144
 4412.00    1.50938   1.45871   -1.000
 4413.00    1.47879   1.41732   -1.000
 4414.00    1.37516   1.37764  139.154
 4415.00    1.27878   1.36582   -1.000
 4416.00    1.28292   1.39134   -1.000
 4417.00    1.36806   1.44079   -1.000
 4418.00    1.42827   1.48818   -1.000
 4419.00    1.46910   1.51209   -1.000
 4420.00    1.48114   1.50734   -1.000
 4421.00    1.42745   1.48512   -1.000
 4422.00    1.36281   1.46294   -1.000
 4423.00    1.33666   1.45203   -1.000
 4424.00    1.34451   1.45262   -1.000
 4425.00    1.35400   1.45863   -1.000
 4426.00    1.36161   1.46561   -1.000
 4427.00    1.39927   1.47102   -1.000
 4428.00    1.41465   1.47288   -1.000
 4429.00    1.41007   1.47083   -1.000
 4430.00    1.38481   1.46484   -1.000
 4431.00    1.38624   1.45353   -1.000
 4432.00    1.41838   1.43439  145.143
 4433.00    1.40613   1.41103  140.774
 4434.00    1.34666   1.39905   -1.000
 4435.00    1.32260   1.41429   -1.000
 4436.00    1.35562   1.45803   -1.000
 4437.00    1.44274   1.51037   -1.000
 4438.00    1.53746   1.54407  134.011
 4439.00    1.58954   1.54428   -1.000
 4440.00    1.56384   1.51725   -1.000
 4441.00    1.49530   1.48659  137.260
 4442.00    1.43423   1.47648   -1.000
 4443.00    1.43019   1.49728   -1.000
 4444.00    1.50804   1.53876   -1.000
 4445.00    1.58449   1.58101  128.149
 4446.00    1.60102   1.60965  129.340
 4447.00    1.60680   1.62175  130.673
 4448.00    1.62787   1.62196  130.134
 4449.00    1.61232   1.61330  130.603
 4450.00    1.60040   1.59465  134.666
 4451.00    1.59498   1.56280   -1.000
 4452.00    1.57800   1.51752   -1.000
 4453.00    1.51616   1.46503   -1.000
 4454.00    1.43056   1.41921  140.362
 4455.00    1.37853   1.39178  139.939
 4456.00    1.37830   1.38305  140.581
 4457.00    1.39255   1.38462  141.923
 4458.00    1.40188   1.38759  143.247
 4459.00    1.40091   1.39133  141.197
 4460.00    1.37855   1.40198   -1.000
 4461.00    1.34737   1.42542   -1.000
 4462.00    1.37106   1.46075   -1.000
 4463.00    1.45749   1.49874   -1.000
 4464.00    1.52402   1.52778  133.005
 4465.00    1.52309   1.54168   -1.000
 4466.00    1.51302   1.54248   -1.000
 4467.00    1.51708   1.53805   -1.000
 4468.00    1.51567   1.53786   -1.000
 4469.00    1.48945   1.54975   -1.000
 4470.00    1.48140   1.57726   -1.000
 4471.00    1.54309   1.61561   -1.000
 4472.00    1.62816   1.65544   -1.000
 4473.00    1.68449   1.68914  120.910
 4474.00    1.69613   1.71380  120.117
 4475.00    1.69012   1.72975   -1.000
 4476.00    1.71630   1.73344  124.759
 4477.00    1.75911   1.71759   -1.000
 4478.00    1.76329   1.68007   -1.000
 4479.00    1.68911   1.63166   -1.000
 4480.00    1.59482   1.59478  128.852
 4481.00    1.53442   1.58906   -1.000
 4482.00    1.54808   1.61871   -1.000
 4483.00    1.60937   1.66903   -1.000
 4484.00    1.68331   1.71617   -1.000
 4485.00    1.76327   1.73939  127.281
 4486.00    1.77811   1.73081   -1.000
 4487.00    1.72926   1.69910   -1.000
 4488.00    1.66286   1.66413  126.746
 4489.00    1.60275   1.64416   -1.000
 4490.00    1.57629   1.64239   -1.000
 4491.00    1.59160   1.64793   -1.000
 4492.00    1.63085   1.64585  132.277
 4493.00    1.63198   1.63332  131.560
 4494.00    1.56369   1.62157   -1.000
 4495.00    1.52266   1.62475   -1.000
 4496.00    1.54662   1.64727   -1.000
 4497.00    1.58481   1.67985   -1.000
 4498.00    1.64949   1.70968   -1.000
 4499.00    1.70714   1.73053   -1.000
 4500.00    1.71235   1.74662   -1.000
 4501.00    1.70307   1.76743   -1.000
 4502.00    1.72633   1.79690   -1.000
 4503.00    1.80290   1.82983   -1.000
 4504.00    1.87584   1.85537  118.734
 4505.00    1.88266   1.86534  118.990
 4506.00    1.84866   1.86136  118.227
 4507.00    1.81133   1.85215   -1.000
 4508.00    1.80862   1.84494   -1.000
 4509.00    1.83239   1.83994  120.227
 4510.00    1.83371   1.83179  122.438
 4511.00    1.80981   1.81560  123.431
 4512.00    1.76105   1.79273   -1.000
 4513.00    1.70818   1.76994   -1.000
 4514.00    1.67808   1.75376   -1.000
 4515.00    1.71159   1.74647   -1.000
 4516.00    1.74924   1.74647  123.276
 4517.00    1.73950   1.75186  120.853
 4518.00    1.71244   1.76266   -1.000
 4519.00    1.74010   1.77704   -1.000
 4520.00    1.80081   1.78819  125.895
 4521.00    1.81326   1.78747   -1.000
 4522.00    1.76994   1.76990  129.159
 4523.00    1.72012   1.73660  132.860
 4524.00    1.68652   1.69206  136.697
 4525.00    1.64441   1.64075  138.682
 4526.00    1.58029   1.58895  138.055
 4527.00    1.51884   1.54645   -1.000
 4528.00    1.46024   1.52303   -1.000
 4529.00    1.44585   1.52240   -1.000
 4530.00    1.47796   1.53835   -1.000
 4531.00    1.53287   1.55829   -1.000
 4532.00    1.58152   1.57204  139.181
 4533.00    1.58046   1.57973  132.033
 4534.00    1.54219   1.59206   -1.000
 4535.00    1.52109   1.62097   -1.000
 4536.00    1.60059   1.66726   -1.000
 4537.00    1.73223   1.71733  123.537
 4538.00    1.78671   1.75297   -1.000
 4539.00    1.75805   1.76612  123.061
 4540.00    1.71359   1.76322   -1.000
 4541.00    1.69082   1.75668   -1.000
 4542.00    1.71545   1.75302   64.017
 4543.00    1.59158   1.75020   -1.000
 4544.00    0.59647   1.74405   -1.000
 4545.00    0.05253   1.73353   -1.000
 4546.00    0.12713   1.72122   -1.000
 4547.00    0.97123   1.70958   -1.000
 4548.00    0.67008   1.70115   -1.000
 4549.00    1.08462   1.69859   -1.000
 4550.00    1.60138   1.70207   -1.000
 4551.00    1.69200   1.70724  131.467
 4552.00    1.70335   1.70869  129.920
 4553.00    1.69069   1.70799  125.508
 4554.00    1.68037   1.71420   -1.000
 4555.00    1.68762   1.73647   -1.000
 4556.00    1.76104   1.77545  118.285
 4557.00    1.84338   1.82140  118.339
 4558.00    1.89425   1.86055   -1.000
 4559.00    1.89374   1.88402  120.752
 4560.00    1.89319   1.88914  123.777
 4561.00    1.89767   1.87732  126.032
 4562.00    1.87816   1.85284   -1.000
 4563.00    1.82390   1.82428  122.126
 4564.00    1.75775   1.80453   -1.000
 4565.00    1.74829   1.80409   -1.000
 4566.00    1.81180   1.82306  118.420
 4567.00    1.87830   1.84936   -1.000
 4568.00    1.92372   1.86666   -1.000
 4569.00    1.92247   1.86646   -1.000
 4570.00    1.85500   1.85444  120.638
 4571.00    1.79292   1.84411   -1.000
 4572.00    1.78515   1.84656   -1.000
 4573.00    1.82340   1.86134   -1.000
 4574.00    1.87250   1.87810  119.683
 4575.00    1.88071   1.88549  121.565
 4576.00    1.86177   1.87745  125.038
 4577.00    1.84632   1.85389  127.789
 4578.00    1.81390   1.81969  127.801
 4579.00    1.76053   1.78449  126.142
 4580.00    1.71912   1.75928   -1.000
 4581.00    1.73223   1.74988  125.314
 4582.00    1.77184   1.75308  126.067
 4583.00    1.78447   1.76109  124.632
 4584.00    1.77733   1.76925  121.511
 4585.00    1.73811   1.78044   -1.000
 4586.00    1.74487   1.80026   -1.000
 4587.00    1.79724   1.82794   -1.000
 4588.00    1.86409   1.85426  122.116
 4589.00    1.91640   1.86745   -1.000
 4590.00    1.87941   1.86217  124.646
 4591.00    1.80774   1.84270   -1.000
 4592.00    1.75025   1.81926   -1.000
 4593.00    1.73738   1.80092   -1.000
 4594.00    1.74285   1.79142   -1.000
 4595.00    1.73960   1.79032   -1.000
 4596.00    1.74395   1.79523   -1.000
 4597.00    1.75708   1.80309   -1.000
 4598.00    1.80312   1.81028  124.246
 4599.00    1.81091   1.81444  123.105
 4600.00    1.80336   1.81563  121.714
 4601.00    1.78368   1.81588   -1.000
 4602.00    1.80206   1.81729  121.596
 4603.00    1.82077   1.82151  120.388
 4604.00    1.82526   1.83132  118.109
 4605.00    1.80315   1.85065   -1.000
 4606.00    1.82327   1.88162   -1.000
 4607.00    1.91744   1.91993  114.420
 4608.00    2.00490   1.95529   -1.000
 4609.00    2.06222   1.97635   -1.000
 4610.00    2.03473   1.97830   -1.000
 4611.00    1.98267   1.96718  117.602
 4612.00    1.96523   1.95421  116.589
 4613.00    1.96560   1.94865  116.059
 4614.00    1.98570   1.95274   -1.000
 4615.00    1.99613   1.96253   -1.000
 4616.00    2.01687   1.97221   -1.000
 4617.00    2.02193   1.97860   -1.000
 4618.00    2.01736   1.98217   -1.000
 4619.00    2.00439   1.98535  114.529
 4620.00    1.98760   1.98977  114.801
 4621.00    2.00215   1.99421  115.035
 4622.00    2.02190   1.99577   -1.000
 4623.00    2.00196   1.99277  116.382
 4624.00    1.98399   1.98645  116.347
 4625.00    1.96545   1.97951  117.024
 4626.00    1.97358   1.97451  117.328
 4627.00    1.97007   1.97327  116.812
 4628.00    1.95201   1.97573  115.521
 4629.00    1.94188   1.98038   -1.000
 4630.00    1.96447   1.98404  117.470
 4631.00    1.99238   1.98273  118.815
 4632.00    1.97231   1.97365  118.831
 4633.00    1.92864   1.95761   -1.000
 4634.00    1.90512   1.93831   -1.000
 4635.00    1.90097   1.91858  121.840
 4636.00    1.88053   1.89915  121.718
 4637.00    1.85638   1.88148   -1.000
 4638.00    1.81982   1.86946   -1.000
 4639.00    1.80046   1.86743   -1.000
 4640.00    1.82577   1.87576   -1.000
 4641.00    1.86786   1.88786  117.543
 4642.00    1.91396   1.89290  120.785
 4643.00    1.90749   1.88174  124.152
 4644.00    1.87485   1.85363  124.921
 4645.00    1.81338   1.81798  122.904
 4646.00    1.75458   1.78941   -1.000
 4647.00    1.73091   1.78177   -1.000
 4648.00    1.73775   1.79948   -1.000
 4649.00    1.81174   1.83547   -1.000
 4650.00    1.88770   1.87557  119.048
 4651.00    1.90985   1.90581  121.731
 4652.00    1.94166   1.91903  123.253
 4653.00    1.93026   1.91691  122.371
 4654.00    1.88934   1.90943  118.656
 4655.00    1.84328   1.91071   -1.000
 4656.00    1.84669   1.93098   -1.000
 4657.00    1.92856   1.96963   -1.000
 4658.00    2.03070   2.01442  112.449
 4659.00    2.10148   2.04735   -1.000
 4660.00    2.10593   2.05506   -1.000
 4661.00    2.03344   2.03530  117.869
 4662.00    1.95928   1.99513   -1.000
 4663.00    1.89290   1.94374   -1.000
 4664.00    1.88082   1.88769  129.877
 4665.00    1.86059   1.83207   -1.000
 4666.00    1.77834   1.78589  126.597
 4667.00    1.66109   1.76212   -1.000
 4668.00    1.62881   1.77003   -1.000
 4669.00    1.69296   1.80650   -1.000
 4670.00    1.80356   1.85587   -1.000
 4671.00    1.89119   1.90025  117.038
 4672.00    1.92684   1.93038  115.595
 4673.00    1.92197   1.94813   -1.000
 4674.00    1.92820   1.96003   -1.000
 4675.00    1.94432   1.96789   -1.000
 4676.00    1.97533   1.96790  119.018
 4677.00    1.98512   1.95522   -1.000
 4678.00    1.94356   1.93148  122.227
 4679.00    1.89037   1.90493  120.851
 4680.00    1.85448   1.88590   -1.000
 4681.00    1.83069   1.88113   -1.000
 4682.00    1.84815   1.89051   -1.000
 4683.00    1.91017   1.90796  116.599
 4684.00    1.95956   1.92465   -1.000
 4685.00    1.96832   1.93451   -1.000
 4686.00    1.95576   1.93665  117.286
 4687.00    1.92958   1.93398  118.093
 4688.00    1.92442   1.93036  118.373
 4689.00    1.94644   1.92812  117.044
 4690.00    1.93850   1.92862  115.306
 4691.00    1.92332   1.93312  112.768
 4692.00    1.92365   1.94304  111.272
 4693.00    1.95608   1.95747  111.734
 4694.00    1.99535   1.97163  114.852
 4695.00    2.01836   1.97799   -1.000
 4696.00    2.03098   1.97032   -1.000
 4697.00    1.99924   1.94786   -1.000
 4698.00    1.93831   1.91677  119.755
 4699.00    1.89061   1.88620  121.840
 4700.00    1.89391   1.86319   -1.000
 4701.00    1.89698   1.85084   -1.000
 4702.00    1.85751   1.84988  118.522
 4703.00    1.84442   1.85850  120.041
 4704.00    1.88004   1.87141  122.447
 4705.00    1.94170   1.88079   -1.000
 4706.00    1.96821   1.88259   -1.000
 4707.00    1.93081   1.88033   -1.000
 4708.00    1.87743   1.88232  116.266
 4709.00    1.88124   1.89391  115.040
 4710.00    1.92936   1.91249  116.071
 4711.00    1.98579   1.93016   -1.000
 4712.00    2.00867   1.94099   -1.000
 4713.00    1.96527   1.94657  116.052
 4714.00    1.92803   1.95546   -1.000
 4715.00    1.93962   1.97583   -1.000
 4716.00    1.99739   2.00834  112.648
 4717.00    2.06785   2.04606  112.262
 4718.00    2.09909   2.07938  113.181
 4719.00    2.12422   2.10191  113.998
 4720.00    2.15582   2.11238   -1.000
 4721.00    2.12790   2.11395  112.149
 4722.00    2.09703   2.11130  112.281
 4723.00    2.07484   2.10595   -1.000
 4724.00    2.08428   2.09336  119.311
 4725.00    2.12972   2.06616   -1.000
 4726.00    2.07778   2.02294   -1.000
 4727.00    1.95869   1.97253  120.436
 4728.00    1.86226   1.93109   -1.000
 4729.00    1.83637   1.91176   -1.000
 4730.00    1.88504   1.91698   -1.000
 4731.00    1.92065   1.93951  116.341
 4732.00    1.97206   1.96737  115.692
 4733.00    2.00741   1.99106  116.902
 4734.00    2.02967   2.00630  117.080
 4735.00    2.03892   2.01500  115.588
 4736.00    2.00255   2.02229  115.604
 4737.00    2.01207   2.03202  116.273
 4738.00    2.06532   2.04424  116.438
 4739.00    2.10412   2.05573   -1.000
 4740.00    2.09962   2.06395   -1.000
 4741.00    2.07086   2.06973  114.464
 4742.00    2.04981   2.07599   -1.000
 4743.00    2.08770   2.08464  113.726
 4744.00    2.12698   2.09636   -1.000
 4745.00    2.10866   2.11095  112.323
 4746.00    2.11005   2.12717  112.493
 4747.00    2.14502   2.14287  112.569
 4748.00    2.13830   2.15490  113.382
 4749.00    2.13434   2.16015  114.671
 4750.00    2.14607   2.15628  115.639
 4751.00    2.11836   2.14263  116.433
 4752.00    2.08545   2.12194   -1.000
 4753.00    2.05329   2.10000   -1.000
 4754.00    2.03340   2.08342   -1.000
 4755.00    2.03063   2.07671   -1.000
 4756.00    2.02399   2.08012   -1.000
 4757.00    2.01609   2.09035   -1.000
 4758.00    2.00897   2.10130   -1.000
 4759.00    2.01479   2.10530   -1.000
 4760.00    2.01578   2.09600   -1.000
 4761.00    1.97527   2.07182   -1.000
 4762.00    1.92578   2.03790   -1.000
 4763.00    1.91056   2.00303   -1.000
 4764.00    1.89772   1.97608   -1.000
 4765.00    1.87393   1.96358   -1.000
 4766.00    1.88566   1.97028   -1.000
 4767.00    1.89542   1.99654   -1.000
 4768.00    1.96460   2.03507   -1.000
 4769.00    2.01696   2.07237   -1.000
 4770.00    2.05548   2.09827   -1.000
 4771.00    2.03417   2.11300   -1.000
 4772.00    2.01258   2.12558   -1.000
 4773.00    2.04426   2.14404   -1.000
 4774.00    2.08989   2.16811   -1.000
 4775.00    2.12429   2.19145   -1.000
 4776.00    2.10025   2.20726   -1.000
 4777.00    2.10747   2.21278   -1.000
 4778.00    2.09982   2.20809   -1.000
 4779.00    2.09776   2.19457   -1.000
 4780.00    2.08385   2.17413   -1.000
 4781.00    2.07420   2.14958   -1.000
 4782.00    2.04492   2.12467   -1.000
 4783.00    2.01336   2.10369   -1.000
 4784.00    1.99685   2.08971   -1.000
 4785.00    1.99764   2.08249   -1.000
 4786.00    1.99432   2.08004   -1.000
 4787.00    1.99313   2.08097   -1.000
 4788.00    2.01380   2.08603   -1.000
 4789.00    2.02832   2.09757   -1.000
 4790.00    2.02007   2.11885   -1.000
 4791.00    2.05973   2.15193   -1.000
 4792.00    2.11559   2.19498   -1.000
 4793.00    2.16638   2.24041   -1.000
 4794.00    2.21402   2.27662   -1.000
 4795.00    2.23287   2.29281   -1.000
 4796.00    2.22765   2.28492   -1.000
 4797.00    2.17789   2.25886   -1.000
 4798.00    2.11626   2.22855   -1.000
 4799.00    2.07850   2.20902   -1.000
 4800.00    2.07474   2.20895   -1.000
 4801.00    2.12657   2.22549   -1.000
 4802.00    2.20347   2.24581   -1.000
 4803.00    2.21301   2.25549   -1.000
 4804.00    2.16042   2.24774   -1.000
 4805.00    2.11797   2.22723   -1.000
 4806.00    2.08012   2.20483   -1.000
 4807.00    2.05808   2.19081   -1.000
 4808.00    2.05871   2.18978   -1.000
 4809.00    2.06486   2.20023   -1.000
 4810.00    2.08955   2.21606   -1.000
 4811.00    2.12601   2.23111   -1.000
 4812.00    2.13604   2.24278   -1.000
 4813.00    2.12056   2.25307   -1.000
 4814.00    2.13219   2.26570   -1.000
 4815.00    2.16792   2.28261   -1.000
 4816.00    2.19517   2.30270   -1.000
 4817.00    2.21006   2.32217   -1.000
 4818.00    2.22385   2.33585   -1.000
 4819.00    2.24799   2.33820   -1.000
 4820.00    2.25781   2.32499   -1.000
 4821.00    2.24839   2.29645   -1.000
 4822.00    2.17201   2.25989   -1.000
 4823.00    2.10912   2.22838   -1.000
 4824.00    2.09005   2.21347   -1.000
 4825.00    2.13887   2.21695   -1.000
 4826.00    2.19470   2.22956   -1.000
 4827.00    2.17791   2.23878   -1.000
 4828.00    2.13649   2.23837   -1.000
 4829.00    2.15687   2.22931   -1.000
 4830.00    2.16402   2.21643   -1.000
 4831.00    2.12541   2.20564   -1.000
 4832.00    2.12183   2.20301   -1.000
 4833.00    2.12016   2.21212   -1.000
 4834.00    2.16277   2.22969   -1.000
 4835.00    2.19906   2.24711   -1.000
 4836.00    2.19811   2.25493   -1.000
 4837.00    2.18717   2.24906   -1.000
 4838.00    2.17495   2.23214   -1.000
 4839.00    2.13639   2.21137   -1.000
 4840.00    2.09856   2.19473   -1.000
 4841.00    2.10031   2.18723   -1.000
 4842.00    2.10931   2.19057   -1.000
 4843.00    2.08483   2.20424   -1.000
 4844.00    2.10551   2.22518   -1.000
 4845.00    2.19205   2.24662   -1.000
 4846.00    2.22836   2.25996   -1.000
 4847.00    2.18723   2.26151   -1.000
 4848.00    2.12415   2.25577   -1.000
 4849.00    2.11050   2.25084   -1.000
 4850.00    2.14493   2.24950   -1.000
 4851.00    2.15850   2.24573   -1.000
 4852.00    2.16284   2.23037   -1.000
 4853.00    2.14490   2.19932   -1.000
 4854.00    2.09544   2.15798   -1.000
 4855.00    2.00583   2.11624   -1.000
 4856.00    1.97114   2.07827   -1.000
 4857.00    2.02174   2.03575  152.428
 4858.00    2.01505   1.97477   -1.000
 4859.00    1.93732   1.89465   -1.000
 4860.00    1.77858   1.81625   -1.000
 4861.00    1.65909   1.77386   -1.000
 4862.00    1.69028   1.78737   -1.000
 4863.00    1.83544   1.85121  120.637
 4864.00    1.93524   1.93861  119.607
 4865.00    1.98959   2.02236   -1.000
 4866.00    2.03968   2.08479   -1.000
 4867.00    2.04208   2.11864   -1.000
 4868.00    2.04748   2.12185   -1.000
 4869.00    2.03402   2.09830   -1.000
 4870.00    1.98770   2.06031   -1.000
 4871.00    1.90851   2.02935   -1.000
 4872.00    1.90360   2.02473   -1.000
 4873.00    1.96628   2.05195   -1.000
 4874.00    2.03463   2.09913   -1.000
 4875.00    2.05288   2.14919   -1.000
 4876.00    2.08486   2.19254   -1.000
 4877.00    2.10124   2.22796   -1.000
 4878.00    2.15262   2.25613   -1.000
 4879.00    2.19850   2.27403   -1.000
 4880.00    2.19123   2.27794   -1.000
 4881.00    2.10353   2.26814   -1.000
 4882.00    2.07571   2.24887   -1.000
 4883.00    2.11140   2.22435   -1.000
 4884.00    2.11086   2.19640   -1.000
 4885.00    2.04660   2.16734   -1.000
 4886.00    2.00483   2.14098   -1.000
 4887.00    2.00673   2.11875   -1.000
 4888.00    2.04093   2.09814   -1.000
 4889.00    2.05265   2.07873   -1.000
 4890.00    2.01150   2.07082   -1.000
 4891.00    1.99095   2.09130   -1.000
 4892.00    2.03630   2.15154   -1.000
 4893.00    2.19860   2.24215   -1.000
 4894.00    2.35354   2.33847  107.943
 4895.00    2.39835   2.41340  110.393
 4896.00    2.40839   2.45372   -1.000
 4897.00    2.43770   2.46093  114.147
 4898.00    2.42627   2.44530  113.529
 4899.00    2.35103   2.41879   -1.000
 4900.00    2.27974   2.39088   -1.000
 4901.00    2.27557   2.36770   -1.000
 4902.00    2.27097   2.35317   -1.000
 4903.00    2.25610   2.35096   -1.000
 4904.00    2.28134   2.36215   -1.000
 4905.00    2.33415   2.37962   -1.000
 4906.00    2.37876   2.38895  117.784
 4907.00    2.36699   2.37686  119.121
 4908.00    2.31565   2.34340  117.413
 4909.00    2.24098   2.30316   -1.000
 4910.00    2.21648   2.27606   -1.000
 4911.00    2.23454   2.27504   -1.000
 4912.00    2.26149   2.29914   -1.000
 4913.00    2.29313   2.33553   -1.000
 4914.00    2.35221   2.36479  116.157
 4915.00    2.36231   2.36745  122.625
 4916.00    2.36207   2.32905   -1.000
 4917.00    2.31507   2.24969   -1.000
 4918.00    2.17416   2.14848   -1.000
 4919.00    2.03766   2.06025  120.515
 4920.00    1.95110   2.01589   -1.000
 4921.00    2.00183   2.02620   -1.000
 4922.00    2.12654   2.07663   -1.000
 4923.00    2.20561   2.14285   -1.000
 4924.00    2.24840   2.20788   -1.000
 4925.00    2.27828   2.26870  111.070
 4926.00    2.32682   2.32855  110.322
 4927.00    2.35201   2.38672   -1.000
 4928.00    2.41587   2.43644  110.957
 4929.00    2.44528   2.46810  114.107
 4930.00    2.43940   2.47436   -1.000
 4931.00    2.42374   2.45413  118.207
 4932.00    2.36081   2.41556   -1.000
 4933.00    2.27119   2.37264   -1.000
 4934.00    2.25764   2.33617   -1.000
 4935.00    2.28666   2.30605  122.899
 4936.00    2.26921   2.27531  121.529
 4937.00    2.20777   2.24322   -1.000
 4938.00    2.14220   2.22286   -1.000
 4939.00    2.12477   2.23175   -1.000
 4940.00    2.20439   2.27574   -1.000
 4941.00    2.34727   2.34101  110.819
 4942.00    2.43023   2.40495  111.611
 4943.00    2.46671   2.45010  111.769
 4944.00    2.50044   2.47318   -1.000
 4945.00    2.49130   2.48226  109.422
 4946.00    2.43873   2.48905   -1.000
 4947.00    2.42649   2.50106   -1.000
 4948.00    2.44060   2.51793   -1.000
 4949.00    2.44076   2.53397   -1.000
 4950.00    2.44941   2.54216   -1.000
 4951.00    2.44110   2.53791   -1.000
 4952.00    2.43288   2.51775   -1.000
 4953.00    2.40485   2.47720   -1.000
 4954.00    2.33926   2.41282   -1.000
 4955.00    2.27836   2.32792   -1.000
 4956.00    2.15121   2.24261   -1.000
 4957.00    2.00218   2.18832   -1.000
 4958.00    1.99266   2.18927   -1.000
 4959.00    2.12464   2.24319   -1.000
 4960.00    2.25785   2.31972   -1.000
 4961.00    2.28910   2.38379   -1.000
 4962.00    2.30661   2.41390   -1.000
 4963.00    2.31478   2.40886   -1.000
 4964.00    2.30233   2.38013   -1.000
 4965.00    2.23921   2.34360   -1.000
 4966.00    2.21670   2.31385   -1.000
 4967.00    2.20977   2.30008   -1.000
 4968.00    2.19765   2.30489   -1.000
 4969.00    2.22077   2.32567   -1.000
 4970.00    2.25285   2.35776   -1.000
 4971.00    2.28999   2.39461   -1.000
 4972.00    2.33576   2.42902   -1.000
 4973.00    2.35500   2.45357   -1.000
 4974.00    2.37657   2.46305   -1.000
 4975.00    2.35822   2.45524   -1.000
 4976.00    2.33357   2.43170   -1.000
 4977.00    2.30607   2.39600   -1.000
 4978.00    2.22256   2.35216   -1.000
 4979.00    2.18760   2.30150   -1.000
 4980.00    2.17270   2.24394   -1.000
 4981.00    2.11883   2.18304   -1.000
 4982.00    2.03929   2.13150   -1.000
 4983.00    1.98589   2.10654   -1.000
 4984.00    2.02224   2.12046   -1.000
 4985.00    2.10305   2.16924   -1.000
 4986.00    2.18416   2.23560   -1.000
 4987.00    2.26072   2.29626   -1.000
 4988.00    2.32583   2.33582  118.972
 4989.00    2.30433   2.35172   -1.000
 4990.00    2.26367   2.35307   -1.000
 4991.00    2.25833   2.35198   -1.000
 4992.00    2.26691   2.35536   -1.000
 4993.00    2.28206   2.36352   -1.000
 4994.00    2.28452   2.37349   -1.000
 4995.00    2.28755   2.38077   -1.000
 4996.00    2.29893   2.37901   -1.000
 4997.00    2.29603   2.36232   -1.000
 4998.00    2.25774   2.32883   -1.000
 4999.00    2.19833   2.28580   -1.000
 5000.00    2.12355   2.24507   -1.000
 5001.00    2.08692   2.21550   -1.000
 5002.00    2.13630   2.19636   -1.000
 5003.00    2.16854   2.17983  125.884
 5004.00    2.15316   2.16093  122.618
 5005.00    2.09164   2.14485   -1.000
 5006.00    2.05181   2.14496   -1.000
 5007.00    2.07719   2.16777   -1.000
 5008.00    2.16399   2.20511   -1.000
 5009.00    2.22929   2.23492  128.221
 5010.00    2.20794   2.23788   -1.000
 5011.00    2.15535   2.20981   -1.000
 5012.00    2.08138   2.16415   -1.000
 5013.00    2.01428   2.12282   -1.000
 5014.00    2.01307   2.10184   -1.000
 5015.00    2.04025   2.10474   -1.000
 5016.00    2.10744   2.12325  122.556
 5017.00    2.11523   2.14719   -1.000
 5018.00    2.10978   2.17019   -1.000
 5019.00    2.13437   2.18918   -1.000
 5020.00    2.16689   2.20376   -1.000
 5021.00    2.18248   2.21563   -1.000
 5022.00    2.16515   2.22962   -1.000
 5023.00    2.16040   2.24943   -1.000
 5024.00    2.22115   2.27218   -1.000
 5025.00    2.27061   2.29016  119.473
 5026.00    2.27249   2.29961   -1.000
 5027.00    2.23364   2.30566   -1.000
 5028.00    2.22448   2.32001   -1.000
 5029.00    2.28293   2.34976   -1.000
 5030.00    2.34694   2.39205   -1.000
 5031.00    2.36894   2.43476   -1.000
 5032.00    2.42550   2.46225   -1.000
 5033.00    2.45640   2.46275  123.187
 5034.00    2.39174   2.43431   -1.000
 5035.00    2.27143   2.38578   -1.000
 5036.00    2.18291   2.32958   -1.000
 5037.00    2.18681   2.27225   -1.000
 5038.00    2.19373   2.21361  134.592
 5039.00    2.12040   2.15723   -1.000
 5040.00    1.99606   2.11977   -1.000
 5041.00    1.96052   2.12317   -1.000
 5042.00    2.06392   2.17908   -1.000
 5043.00    2.22972   2.27344   -1.000
 5044.00    2.31136   2.37448   -1.000
 5045.00    1.44875   2.44775   -1.000
 5046.00    0.21503   2.47387   -1.000
 5047.00    0.10692   2.45343   -1.000
 5048.00    0.86770   2.40445   -1.000
 5049.00    2.12505   2.35245   -1.000
 5050.00    2.24575   2.31948   -1.000
 5051.00    2.25381   2.31656   -1.000
 5052.00    2.29636   2.34230   -1.000
 5053.00    2.35144   2.38563   -1.000
 5054.00    2.41159   2.43360   -1.000
 5055.00    2.45859   2.47592  112.701
 5056.00    2.49904   2.50870  112.558
 5057.00    2.50118   2.53467   -1.000
 5058.00    2.49734   2.55711   -1.000
 5059.00    2.50282   2.57632   -1.000
 5060.00    2.52585   2.58708   -1.000
 5061.00    2.56885   2.57981  121.279
 5062.00    2.56308   2.54813  122.209
 5063.00    2.47759   2.49516  120.578
 5064.00    2.35418   2.43552   -1.000
 5065.00    2.26618   2.38742   -1.000
 5066.00    2.29589   2.36218   -1.000
 5067.00    2.34049   2.35922  117.407
 5068.00    2.34288   2.37041   -1.000
 5069.00    2.37196   2.38525  119.035
 5070.00    2.39594   2.39616  117.554
 5071.00    2.37231   2.40020   -1.000
 5072.00    2.34674   2.40054   -1.000
 5073.00    2.36828   2.40176   -1.000
 5074.00    2.39908   2.40543  118.283
 5075.00    2.39637   2.40593  122.733
 5076.00    2.37463   2.39351  128.065
 5077.00    2.35787   2.36162  128.794
 5078.00    2.31607   2.31300  125.927
 5079.00    2.21174   2.26304   -1.000
 5080.00    2.12735   2.22960   -1.000
 5081.00    2.13619   2.22494   -1.000
 5082.00    2.19935   2.24747   -1.000
 5083.00    2.25655   2.28754   -1.000
 5084.00    2.30147   2.33435   -1.000
 5085.00    2.35868   2.38003   -1.000
 5086.00    2.39977   2.41953   -1.000
 5087.00    2.42387   2.45086   -1.000
 5088.00    2.45449   2.47506  113.801
 5089.00    2.45928   2.49606   -1.000
 5090.00    2.46934   2.51766   -1.000
 5091.00    2.49844   2.54024   -1.000
 5092.00    2.52208   2.55848   -1.000
 5093.00    2.54975   2.56233  118.069
 5094.00    2.55045   2.54297  120.891
 5095.00    2.46998   2.49910   -1.000
 5096.00    2.38566   2.44007   -1.000
 5097.00    2.32153   2.38279   -1.000
 5098.00    2.26562   2.34617   -1.000
 5099.00    2.23840   2.34052   -1.000
 5100.00    2.29006   2.36429   -1.000
 5101.00    2.38187   2.40113   -1.000
 5102.00    2.42989   2.43185  119.778
 5103.00    2.40946   2.44348   -1.000
 5104.00    2.37386   2.43448   -1.000
 5105.00    2.34390   2.41165   -1.000
 5106.00    2.30752   2.38385   -1.000
 5107.00    2.29751   2.35910   -1.000
 5108.00    2.29396   2.34534   -1.000
 5109.00    2.29287   2.34760   -1.000
 5110.00    2.30405   2.36805   -1.000
 5111.00    2.35191   2.40209   -1.000
 5112.00    2.40824   2.44290   -1.000
 5113.00    2.43938   2.48393   -1.000
 5114.00    2.48054   2.52164   -1.000
 5115.00    2.52928   2.55466   -1.000
 5116.00    2.55871   2.58026  114.338
 5117.00    2.57168   2.59381  116.100
 5118.00    2.55778   2.59016   -1.000
 5119.00    2.53026   2.56689   -1.000
 5120.00    2.48953   2.52503   -1.000
 5121.00    2.43662   2.47038   -1.000
 5122.00    2.35681   2.41173   -1.000
 5123.00    2.26930   2.36023   -1.000
 5124.00    2.22206   2.32502   -1.000
 5125.00    2.23712   2.30915   -1.000
 5126.00    2.28754   2.30900   -1.000
 5127.00    2.29769   2.31844   -1.000
 5128.00    2.28387   2.33344   -1.000
 5129.00    2.29771   2.35439   -1.000
 5130.00    2.33332   2.38195   -1.000
 5131.00    2.40160   2.41386  115.899
 5132.00    2.45856   2.44580  116.040
 5133.00    2.46946   2.47171  118.367
 5134.00    2.49974   2.48645  121.116
 5135.00    2.53466   2.48446   -1.000
 5136.00    2.52368   2.46406   -1.000
 5137.00    2.45394   2.43153  121.763
 5138.00    2.35616   2.39806   -1.000
 5139.00    2.32313   2.37465   -1.000
 5140.00    2.36040   2.36409  123.422
 5141.00    2.37984   2.36243  121.581
 5142.00    2.33372   2.36516   -1.000
 5143.00    2.31319   2.36884   -1.000
 5144.00    2.36091   2.36972  122.497
 5145.00    2.35454   2.36658  121.062
 5146.00    2.30612   2.36050   -1.000
 5147.00    2.29610   2.35659   -1.000
 5148.00    2.31213   2.35740   -1.000
 5149.00    2.32411   2.35966   -1.000
 5150.00    2.34334   2.35858  124.009
 5151.00    2.30766   2.35318   -1.000
 5152.00    2.27990   2.34991   -1.000
 5153.00    2.28323   2.35847   -1.000
 5154.00    2.31725   2.38561   -1.000
 5155.00    2.40590   2.43025   -1.000
 5156.00    2.49597   2.48354  113.016
 5157.00    2.57457   2.53285   -1.000
 5158.00    2.59027   2.56705  114.249
 5159.00    2.57670   2.58001  115.660
 5160.00    2.56507   2.56952  117.975
 5161.00    2.51689   2.53412  123.578
 5162.00    2.46061   2.47256  134.572
 5163.00    2.41001   2.38293   -1.000
 5164.00    2.32448   2.26478   -1.000
 5165.00    2.12096   2.12799  150.138
 5166.00    1.85092   1.99786   -1.000
 5167.00    1.67169   1.90243   -1.000
 5168.00    1.66439   1.85637   -1.000
 5169.00    1.82070   1.84353   -1.000
 5170.00    1.91638   1.83665   -1.000
 5171.00    1.81327   1.82746   -1.000
 5172.00    1.65785   1.83406   -1.000
 5173.00    1.66308   1.88877   -1.000
 5174.00    1.90113   1.99437   -1.000
 5175.00    2.17999   2.12642   -1.000
 5176.00    2.32463   2.24493   -1.000
 5177.00    2.37520   2.31934   -1.000
 5178.00    2.43904   2.33783   -1.000
 5179.00    2.41014   2.29804   -1.000
 5180.00    2.26865   2.20376   -1.000
 5181.00    2.11558   2.07692   -1.000
 5182.00    1.89439   1.95632   -1.000
 5183.00    1.67916   1.89414   -1.000
 5184.00    1.67087   1.91919   -1.000
 5185.00    1.93869   2.02440   -1.000
 5186.00    2.21576   2.16693   -1.000
 5187.00    2.36468   2.29741   -1.000
 5188.00    2.41287   2.38296  125.621
 5189.00    2.45803   2.41405   -1.000
 5190.00    2.45697   2.40064   -1.000
 5191.00    2.37682   2.36473  124.497
 5192.00    2.30649   2.33206   -1.000
 5193.00    2.29445   2.31983   -1.000
 5194.00    2.34541   2.33535  118.352
 5195.00    2.37885   2.37286  116.587
 5196.00    2.41941   2.42291  115.863
 5197.00    2.48084   2.47667  116.016
 5198.00    2.53178   2.52401  117.259
 5199.00    2.56001   2.55536  119.572
 5200.00    2.55466   2.56151  122.563
 5201.00    2.53094   2.53797  126.468
 5202.00    2.50032   2.48364  129.596
 5203.00    2.43310   2.40577  129.945
 5204.00    2.34150   2.31793  130.679
 5205.00    2.26926   2.23840  130.862
 5206.00    2.23527   2.18324   -1.000
 5207.00    2.21806   2.16257   -1.000
 5208.00    2.21107   2.18087  118.749
 5209.00    2.24867   2.23691  114.609
 5210.00    2.33693   2.32150  113.160
 5211.00    2.46032   2.41716   -1.000
 5212.00    2.59420   2.49885   -1.000
 5213.00    2.66044   2.54865   -1.000
 5214.00    2.64965   2.56375   -1.000
 5215.00    2.60766   2.56048   -1.000
 5216.00    2.58418   2.56188  112.827
 5217.00    2.60837   2.58292  112.096
 5218.00    2.64119   2.62255  112.106
 5219.00    2.69384   2.66568   -1.000
 5220.00    2.73267   2.69290   -1.000
 5221.00    2.73622   2.68860   -1.000
 5222.00    2.70941   2.64623   -1.000
 5223.00    2.61871   2.56947   -1.000
 5224.00    2.47513   2.47452  126.088
 5225.00    2.33481   2.39000   -1.000
 5226.00    2.25824   2.34534   -1.000
 5227.00    2.29282   2.35747   -1.000
 5228.00    2.46794   2.41804   -1.000
 5229.00    2.65759   2.49477   -1.000
 5230.00    2.74340   2.55440   -1.000
 5231.00    2.74438   2.57887   -1.000
 5232.00    2.68264   2.57762   -1.000
 5233.00    2.61468   2.57616   -1.000
 5234.00    2.61472   2.59439  110.990
 5235.00    2.67538   2.63828   -1.000
 5236.00    2.76690   2.69484   -1.000
 5237.00    2.84093   2.74624   -1.000
 5238.00    2.86026   2.78065   -1.000
 5239.00    2.82767   2.79574   -1.000
 5240.00    2.78456   2.79822  110.355
 5241.00    2.76794   2.79640  110.773
 5242.00    2.78618   2.79485  113.443
 5243.00    2.80954   2.79011  116.849
 5244.00    2.83031   2.77388   -1.000
 5245.00    2.79793   2.74071   -1.000
 5246.00    2.68717   2.69415  119.424
 5247.00    2.59370   2.64616   -1.000
 5248.00    2.58173   2.60899   -1.000
 5249.00    2.59925   2.58970  117.372
 5250.00    2.56921   2.58856  116.539
 5251.00    2.58123   2.59959  116.398
 5252.00    2.64303   2.61717  115.017
 5253.00    2.67563   2.63837   -1.000
 5254.00    2.66693   2.66599  109.596
 5255.00    2.67609   2.70578   -1.000
 5256.00    2.75994   2.75436  110.882
 5257.00    2.85933   2.79940   -1.000
 5258.00    2.89995   2.81954   -1.000
 5259.00    2.87154   2.79804   -1.000
 5260.00    2.81285   2.73042   -1.000
 5261.00    2.71486   2.62741   -1.000
 5262.00    2.56760   2.50868   -1.000
 5263.00    2.41708   2.39782  127.770
 5264.00    2.30701   2.31290  126.818
 5265.00    2.26819   2.26076  130.474
 5266.00    2.31355   2.23282   -1.000
 5267.00    2.37614   2.21423   -1.000
 5268.00    2.35776   2.20038   -1.000
 5269.00    2.23760   2.20179   -1.000
 5270.00    2.23128   2.23815  117.480
 5271.00    2.39067   2.31131   -1.000
 5272.00    2.59709   2.40400   -1.000
 5273.00    2.70119   2.49479   -1.000
 5274.00    2.71070   2.56993   -1.000
 5275.00    2.71768   2.63706   -1.000
 5276.00    2.78431   2.70247   -1.000
 5277.00    2.89441   2.76013   -1.000
 5278.00    2.96946   2.79587   -1.000
 5279.00    2.98276   2.79696   -1.000
 5280.00    2.91875   2.76633   -1.000
 5281.00    2.83126   2.72185   -1.000
 5282.00    2.76902   2.69065   -1.000
 5283.00    2.72831   2.69367   -1.000
 5284.00    2.74979   2.73794  107.805
 5285.00    2.90386   2.80891   -1.000
 5286.00    3.03900   2.88385   -1.000
 5287.00    3.09427   2.94322   -1.000
 5288.00    3.09171   2.97976   -1.000
 5289.00    3.08881   2.99853   -1.000
 5290.00    3.09984   3.00430   -1.000
 5291.00    3.08320   2.99921   -1.000
 5292.00    3.05327   2.98102   -1.000
 5293.00    3.03257   2.94532   -1.000
 5294.00    3.01611   2.88863   -1.000
 5295.00    2.93991   2.81456   -1.000
 5296.00    2.78856   2.73634   -1.000
 5297.00    2.66130   2.67671  114.713
 5298.00    2.64423   2.65271  113.855
 5299.00    2.74078   2.66774   -1.000
 5300.00    2.85157   2.71226   -1.000
 5301.00    2.89810   2.77245   -1.000
 5302.00    2.93745   2.83930   -1.000
 5303.00    3.02707   2.90526   -1.000
 5304.00    3.12641   2.96091   -1.000
 5305.00    3.17289   2.99950   -1.000
 5306.00    3.15991   3.01966   -1.000
 5307.00    3.13631   3.02955   -1.000
 5308.00    3.14559   3.03837   -1.000
 5309.00    3.18566   3.04789   -1.000
 5310.00    3.20796   3.05436   -1.000
 5311.00    3.20553   3.05147   -1.000
 5312.00    3.17221   3.03707   -1.000
 5313.00    3.12992   3.01456   -1.000
 5314.00    3.09904   2.98863   -1.000
 5315.00    3.08164   2.96522   -1.000
 5316.00    3.06273   2.94929   -1.000
 5317.00    3.05789   2.94179   -1.000
 5318.00    3.07220   2.94022   -1.000
 5319.00    3.07500   2.93762   -1.000
 5320.00    3.07815   2.92567   -1.000
 5321.00    3.04818   2.89788   -1.000
 5322.00    2.98435   2.85321   -1.000
 5323.00    2.91773   2.79372   -1.000
 5324.00    2.86879   2.72189   -1.000
 5325.00    2.86691   2.63918   -1.000
 5326.00    2.79842   2.55542   -1.000
 5327.00    2.60430   2.49034   -1.000
 5328.00    2.45262   2.47265  113.243
 5329.00    2.49883   2.51398  112.204
 5330.00    2.72238   2.60332   -1.000
 5331.00    2.91342   2.71099   -1.000
 5332.00    2.99866   2.80795   -1.000
 5333.00    3.04638   2.88279   -1.000
 5334.00    3.09362   2.93376   -1.000
 5335.00    3.13964   2.96096   -1.000
 5336.00    3.13691   2.96183   -1.000
 5337.00    3.09546   2.93398   -1.000
 5338.00    3.03459   2.88489   -1.000
 5339.00    2.94772   2.83205   -1.000
 5340.00    2.86433   2.79782   -1.000
 5341.00    2.85589   2.79374   -1.000
 5342.00    2.94772   2.81651   -1.000
 5343.00    3.05432   2.84835   -1.000
 5344.00    3.08756   2.87034   -1.000
 5345.00    3.05921   2.87467   -1.000
 5346.00    3.05155   2.86524   -1.000
 5347.00    3.04340   2.85293   -1.000
 5348.00    3.00258   2.85101   -1.000
 5349.00    2.99079   2.86816   -1.000
 5350.00    3.05806   2.90620   -1.000
 5351.00    3.16567   2.95934   -1.000
 5352.00    3.21811   3.01665   -1.000
 5353.00    3.22798   3.07044   -1.000
 5354.00    3.23389   3.11538   -1.000
 5355.00    3.27594   3.14950   -1.000
 5356.00    3.32095   3.17138   -1.000
 5357.00    3.31871   3.17882   -1.000
 5358.00    3.31219   3.17107   -1.000
 5359.00    3.30569   3.14930   -1.000
 5360.00    3.26217   3.11666   -1.000
 5361.00    3.18323   3.07737   -1.000
 5362.00    3.14529   3.03635   -1.000
 5363.00    3.13396   2.99801   -1.000
 5364.00    3.09652   2.96419   -1.000
 5365.00    3.06066   2.93509   -1.000
 5366.00    3.05576   2.90584   -1.000
 5367.00    3.05613   2.86822   -1.000
 5368.00    3.04118   2.81891   -1.000
 5369.00    2.95690   2.76458   -1.000
 5370.00    2.82085   2.72644   -1.000
 5371.00    2.77308   2.72774   -1.000
 5372.00    2.87708   2.77595   -1.000
 5373.00    3.07500   2.85799   -1.000
 5374.00    3.24168   2.94499   -1.000
 5375.00    3.30035   3.01317   -1.000
 5376.00    3.28077   3.05373   -1.000
 5377.00    3.25494   3.07120   -1.000
 5378.00    3.27056   3.07435   -1.000
 5379.00    3.28478   3.06757   -1.000
 5380.00    3.27091   3.05337   -1.000
 5381.00    3.22934   3.03549   -1.000
 5382.00    3.19034   3.02103   -1.000
 5383.00    3.17517   3.01663   -1.000
 5384.00    3.17945   3.02298   -1.000
 5385.00    3.21607   3.03310   -1.000
 5386.00    3.24174   3.03597   -1.000
 5387.00    3.22983   3.02339   -1.000
 5388.00    3.17932   2.99412   -1.000
 5389.00    3.10218   2.95545   -1.000
 5390.00    3.04765   2.91730   -1.000
 5391.00    3.02159   2.88663   -1.000
 5392.00    3.01704   2.86428   -1.000
 5393.00    3.02544   2.84468   -1.000
 5394.00    3.02664   2.82195   -1.000
 5395.00    2.99649   2.79661   -1.000
 5396.00    2.91276   2.77804   -1.000
 5397.00    2.87768   2.77875   -1.000
 5398.00    2.93965   2.80319   -1.000
 5399.00    3.03133   2.84273   -1.000
 5400.00    3.07957   2.87764   -1.000
 5401.00    3.09090   2.88683   -1.000
 5402.00    3.08444   2.86033   -1.000
 5403.00    3.01125   2.80370   -1.000
 5404.00    2.87466   2.73937   -1.000
 5405.00    2.77134   2.69277   -1.000
 5406.00    2.77018   2.67824   -1.000
 5407.00    2.86888   2.69510   -1.000
 5408.00    2.95808   2.72824   -1.000
 5409.00    2.95612   2.76913   -1.000
 5410.00    2.95695   2.81654   -1.000
 5411.00    3.03541   2.87058   -1.000
 5412.00    3.14502   2.92890   -1.000
 5413.00    3.22104   2.98234   -1.000
 5414.00    3.24642   3.02633   -1.000
 5415.00    3.25960   3.06129   -1.000
 5416.00    3.29639   3.08697   -1.000
 5417.00    3.32221   3.10188   -1.000
 5418.00    3.30652   3.10328   -1.000
 5419.00    3.26704   3.09236   -1.000
 5420.00    3.23589   3.07531   -1.000
 5421.00    3.24457   3.05740   -1.000
 5422.00    3.25312   3.04325   -1.000
 5423.00    3.20797   3.03806   -1.000
 5424.00    3.16232   3.04317   -1.000
 5425.00    3.20313   3.05409   -1.000
 5426.00    3.28160   3.05684   -1.000
 5427.00    3.27855   3.03705   -1.000
 5428.00    3.16583   2.99516   -1.000
 5429.00    3.04027   2.94468   -1.000
 5430.00    3.02562   2.90441   -1.000
 5431.00    3.08591   2.88125   -1.000
 5432.00    3.10040   2.86908   -1.000
 5433.00    3.05362   2.86317   -1.000
 5434.00    3.00679   2.86691   -1.000
 5435.00    3.00213   2.89248   -1.000
 5436.00    3.06048   2.94638   -1.000
 5437.00    3.16596   3.02163   -1.000
 5438.00    3.26982   3.10212   -1.000
 5439.00    3.36141   3.17040   -1.000
 5440.00    3.39561   3.21534   -1.000
 5441.00    3.38277   3.23078   -1.000
 5442.00    3.34399   3.21360   -1.000
 5443.00    3.28492   3.16351   -1.000
 5444.00    3.23403   3.08719   -1.000
 5445.00    3.12409   3.00509   -1.000
 5446.00    2.94014   2.94327  110.813
 5447.00    2.87530   2.92330   -1.000
 5448.00    2.98072   2.94575   -1.000
 5449.00    3.13073   2.99017   -1.000
 5450.00    3.21983   3.02907   -1.000
 5451.00    3.25568   3.03929   -1.000
 5452.00    3.21189   3.01541   -1.000
 5453.00    3.13422   2.96916   -1.000
 5454.00    2.99961   2.92318   -1.000
 5455.00    2.91798   2.90240  110.384
 5456.00    2.96502   2.92023   -1.000
 5457.00    3.07583   2.96726   -1.000
 5458.00    3.20485   3.01986   -1.000
 5459.00    3.25681   3.05114   -1.000
 5460.00    3.22055   3.05032   -1.000
 5461.00    3.14736   3.02784   -1.000
 5462.00    3.08518   3.00346   -1.000
 5463.00    3.05706   2.99381   -1.000
 5464.00    3.08347   3.00404   -1.000
 5465.00    3.13595   3.02847   -1.000
 5466.00    3.17359   3.05548   -1.000
 5467.00    3.18509   3.07481   -1.000
 5468.00    3.18197   3.08145   -1.000
 5469.00    3.16019   3.07530   -1.000
 5470.00    3.13035   3.05896   -1.000
 5471.00    3.13199   3.03530   -1.000
 5472.00    3.13096   3.00494   -1.000
 5473.00    3.09601   2.96755   -1.000
 5474.00    3.05497   2.92581   -1.000
 5475.00    2.99032   2.88858   -1.000
 5476.00    2.91455   2.86987   -1.000
 5477.00    2.91851   2.87504   -1.000
 5478.00    3.02292   2.89856   -1.000
 5479.00    3.11672   2.92688   -1.000
 5480.00    3.11331   2.94876   -1.000
 5481.00    3.02997   2.96784   -1.000
 5482.00    2.98498   2.99287  111.240
 5483.00    3.04555   3.02721  112.668
 5484.00    3.14336   3.06230   -1.000
 5485.00    3.20688   3.08314   -1.000
 5486.00    3.20670   3.08481   -1.000
 5487.00    3.16440   3.07411   -1.000
 5488.00    3.14058   3.06514   -1.000
 5489.00    3.14913   3.06622   -1.000
 5490.00    3.16252   3.07680   -1.000
 5491.00    3.20466   3.08978   -1.000
 5492.00    3.24095   3.09824   -1.000
 5493.00    3.23257   3.10067   -1.000
 5494.00    3.21775   3.09793   -1.000
 5495.00    3.21886   3.09294   -1.000
 5496.00    3.19199   3.08927   -1.000
 5497.00    3.15810   3.08812   -1.000
 5498.00    3.18729   3.08785   -1.000
 5499.00    3.22501   3.08424   -1.000
 5500.00    3.21866   3.07268   -1.000
 5501.00    3.17335   3.05455   -1.000
 5502.00    3.13580   3.03453   -1.000
 5503.00    3.14333   3.01729   -1.000
 5504.00    3.15749   3.00571   -1.000
 5505.00    3.11958   2.99986   -1.000
 5506.00    3.09050   3.00178   -1.000
 5507.00    3.12899   3.01234   -1.000
 5508.00    3.18308   3.02532   -1.000
 5509.00    3.20763   3.03030   -1.000
 5510.00    3.18408   3.01878   -1.000
 5511.00    3.13772   2.99278   -1.000
 5512.00    3.09407   2.96600   -1.000
 5513.00    3.06119   2.95296   -1.000
 5514.00    3.08871   2.96274   -1.000
 5515.00    3.14965   2.99522   -1.000
 5516.00    3.19466   3.04331   -1.000
 5517.00    3.26349   3.09724   -1.000
 5518.00    3.34830   3.14657   -1.000
 5519.00    3.37899   3.18356   -1.000
 5520.00    3.37796   3.20534   -1.000
 5521.00    3.37958   3.21251   -1.000
 5522.00    3.35724   3.20786   -1.000
 5523.00    3.34984   3.19143   -1.000
 5524.00    3.33718   3.16060   -1.000
 5525.00    3.29076   3.11582   -1.000
 5526.00    3.22301   3.06526   -1.000
 5527.00    3.14252   3.02640   -1.000
 5528.00    3.08288   3.01376   -1.000
 5529.00    3.11506   3.03139   -1.000
 5530.00    3.21697   3.06865   -1.000
 5531.00    3.28027   3.10658   -1.000
 5532.00    3.28430   3.13077   -1.000
 5533.00    3.26466   3.13827   -1.000
 5534.00    3.26498   3.13656   -1.000
 5535.00    3.27082   3.13530   -1.000
 5536.00    3.27492   3.14062   -1.000
 5537.00    3.29755   3.15469   -1.000
 5538.00    3.32441   3.17583   -1.000
 5539.00    3.35721   3.19810   -1.000
 5540.00    3.41183   3.21489   -1.000
 5541.00    3.44724   3.22158   -1.000
 5542.00    3.41956   3.21800   -1.000
 5543.00    3.38439   3.20917   -1.000
 5544.00    3.38933   3.20302   -1.000
 5545.00    3.40207   3.20620   -1.000
 5546.00    3.39069   3.22107   -1.000
 5547.00    3.40619   3.24448   -1.000
 5548.00    3.46480   3.27017   -1.000
 5549.00    3.51528   3.29053   -1.000
 5550.00    3.51470   3.29831   -1.000
 5551.00    3.48710   3.29135   -1.000
 5552.00    3.46023   3.27389   -1.000
 5553.00    3.42212   3.25321   -1.000
 5554.00    3.38685   3.23637   -1.000
 5555.00    3.37980   3.22710   -1.000
 5556.00    3.38775   3.22463   -1.000
 5557.00    3.39418   3.22576   -1.000
 5558.00    3.39473   3.22611   -1.000
 5559.00    3.40318   3.22229   -1.000
 5560.00    3.40461   3.21287   -1.000
 5561.00    3.36790   3.19830   -1.000
 5562.00    3.32602   3.18070   -1.000
 5563.00    3.31411   3.16354   -1.000
 5564.00    3.31518   3.14905   -1.000
 5565.00    3.30489   3.13757   -1.000
 5566.00    3.29033   3.12911   -1.000
 5567.00    3.29125   3.12423   -1.000
 5568.00    3.31083   3.12367   -1.000
 5569.00    3.33380   3.12637   -1.000
 5570.00    3.37468   3.12996   -1.000
 5571.00    3.47102   3.13334   -1.000
 5572.00    3.56702   3.13859   -1.000
 5573.00    3.62493   3.14897   -1.000
 5574.00    3.57548   3.16487   -1.000
 5575.00    3.40576   3.18537   -1.000
 5576.00    3.35339   3.20720   -1.000
 5577.00    3.40101   3.22537   -1.000
 5578.00    3.42106   3.23868   -1.000
 5579.00    3.41867   3.24683   -1.000
 5580.00    3.41885   3.24716   -1.000
 5581.00    3.42127   3.23814   -1.000
 5582.00    3.40352   3.21782   -1.000
 5583.00    3.36311   3.18281   -1.000
 5584.00    3.33483   3.13202   -1.000
 5585.00    3.28202   3.06853   -1.000
 5586.00    3.18578   3.00352   -1.000
 5587.00    3.09867   2.95334   -1.000
 5588.00    3.05657   2.93126   -1.000
 5589.00    3.08856   2.94062   -1.000
 5590.00    3.15733   2.97211   -1.000
 5591.00    3.20370   3.01255   -1.000
 5592.00    3.21163   3.05269   -1.000
 5593.00    3.21037   3.08916   -1.000
 5594.00    3.24921   3.12111   -1.000
 5595.00    3.32377   3.14462   -1.000
 5596.00    3.36823   3.15325   -1.000
 5597.00    3.31953   3.14200   -1.000
 5598.00    3.23373   3.11330   -1.000
 5599.00    3.18334   3.07772   -1.000
 5600.00    3.16120   3.05019   -1.000
 5601.00    3.14459   3.04443   -1.000
 5602.00    3.15055   3.06726   -1.000
 5603.00    3.20894   3.11713   -1.000
 5604.00    3.29085   3.18491   -1.000
 5605.00    3.37550   3.25480   -1.000
 5606.00    3.46949   3.31150   -1.000
 5607.00    3.51304   3.34846   -1.000
 5608.00    3.48550   3.36786   -1.000
 5609.00    3.45555   3.37487   -1.000
 5610.00    3.45357   3.37053   -1.000
 5611.00    3.47898   3.34956   -1.000
 5612.00    3.49036   3.30528   -1.000
 5613.00    3.42132   3.23951   -1.000
 5614.00    3.28380   3.16738   -1.000
 5615.00    3.17487   3.11159   -1.000
 5616.00    3.16587   3.08939   -1.000
 5617.00    3.23137   3.10192   -1.000
 5618.00    3.28352   3.13665   -1.000
 5619.00    3.27341   3.17438   -1.000
 5620.00    3.28384   3.19917   -1.000
 5621.00    3.33050   3.20523   -1.000
 5622.00    3.33135   3.19274   -1.000
 5623.00    3.26534   3.16866   -1.000
 5624.00    3.18942   3.14807   -1.000
 5625.00    3.18075   3.14526   -1.000
 5626.00    3.24861   3.16674   -1.000
 5627.00    3.33914   3.20778   -1.000
 5628.00    3.41250   3.25418   -1.000
 5629.00    3.44504   3.29318   -1.000
 5630.00    3.46317   3.31785   -1.000
 5631.00    3.47467   3.32557   -1.000
 5632.00    3.44676   3.31745   -1.000
 5633.00    3.40899   3.29752   -1.000
 5634.00    3.38521   3.27147   -1.000
 5635.00    3.35687   3.24513   -1.000
 5636.00    3.33065   3.22349   -1.000
 5637.00    3.32216   3.20925   -1.000
 5638.00    3.32954   3.20147   -1.000
 5639.00    3.33026   3.19728   -1.000
 5640.00    3.31781   3.19520   -1.000
 5641.00    3.30416   3.19572   -1.000
 5642.00    3.29992   3.20053   -1.000
 5643.00    3.31618   3.21166   -1.000
 5644.00    3.35575   3.22759   -1.000
 5645.00    3.37711   3.24337   -1.000
 5646.00    3.38514   3.25560   -1.000
 5647.00    3.40885   3.26351   -1.000
 5648.00    3.41621   3.26866   -1.000
 5649.00    3.41132   3.27427   -1.000
 5650.00    3.42717   3.28141   -1.000
 5651.00    3.45932   3.28734   -1.000
 5652.00    3.47904   3.28769   -1.000
 5653.00    3.46673   3.27756   -1.000
 5654.00    3.43583   3.25412   -1.000
 5655.00    3.40244   3.21917   -1.000
 5656.00    3.35654   3.17784   -1.000
 5657.00    3.26405   3.13901   -1.000
 5658.00    3.17091   3.11274   -1.000
 5659.00    3.18085   3.10439   -1.000
 5660.00    3.25845   3.11528   -1.000
 5661.00    3.30795   3.14114   -1.000
 5662.00    3.31082   3.17212   -1.000
 5663.00    3.31605   3.20241   -1.000
 5664.00    3.35722   3.22977   -1.000
 5665.00    3.39417   3.24958   -1.000
 5666.00    3.38931   3.25930   -1.000
 5667.00    3.36148   3.26187   -1.000
 5668.00    3.34789   3.26421   -1.000
 5669.00    3.36083   3.27416   -1.000
 5670.00    3.39186   3.29469   -1.000
 5671.00    3.42999   3.32250   -1.000
 5672.00    3.49195   3.35225   -1.000
 5673.00    3.55456   3.37811   -1.000
 5674.00    3.57214   3.39577   -1.000
 5675.00    3.55911   3.40442   -1.000
 5676.00    3.55660   3.40488   -1.000
 5677.00    3.56190   3.39795   -1.000
 5678.00    3.56494   3.38356   -1.000
 5679.00    3.54951   3.36059   -1.000
 5680.00    3.51209   3.33113   -1.000
 5681.00    3.47537   3.30199   -1.000
 5682.00    3.43609   3.27934   -1.000
 5683.00    3.42889   3.26547   -1.000
 5684.00    3.46706   3.25981   -1.000
 5685.00    3.48255   3.25884   -1.000
 5686.00    3.44203   3.25909   -1.000
 5687.00    3.39448   3.26280   -1.000
 5688.00    3.39518   3.27580   -1.000
 5689.00    3.44906   3.30096   -1.000
 5690.00    3.51865   3.33489   -1.000
 5691.00    3.58433   3.36917   -1.000
 5692.00    3.63205   3.39541   -1.000
 5693.00    3.62348   3.40917   -1.000
 5694.00    3.59388   3.40973   -1.000
 5695.00    3.58311   3.39860   -1.000
 5696.00    3.56139   3.37828   -1.000
 5697.00    3.51951   3.35134   -1.000
 5698.00    3.45501   3.32046   -1.000
 5699.00    3.38692   3.29037   -1.000
 5700.00    3.33137   3.26781   -1.000
 5701.00    3.28876   3.25609   -1.000
 5702.00    3.30344   3.25352   -1.000
 5703.00    3.36775   3.25423   -1.000
 5704.00    3.40510   3.24869   -1.000
 5705.00    3.39045   3.22998   -1.000
 5706.00    3.33485   3.19864   -1.000
 5707.00    3.27620   3.16232   -1.000
 5708.00    3.23518   3.13318   -1.000
 5709.00    3.22147   3.12106   -1.000
 5710.00    3.24998   3.13129   -1.000
 5711.00    3.29089   3.16469   -1.000
 5712.00    3.35048   3.21491   -1.000
 5713.00    3.44553   3.27245   -1.000
 5714.00    3.53184   3.32784   -1.000
 5715.00    3.58565   3.37325   -1.000
 5716.00    3.60479   3.40714   -1.000
 5717.00    3.60863   3.43373   -1.000
 5718.00    3.61157   3.45717   -1.000
 5719.00    3.63416   3.48005   -1.000
 5720.00    3.66614   3.50256   -1.000
 5721.00    3.69098   3.52195   -1.000
 5722.00    3.72102   3.53350   -1.000
 5723.00    3.72579   3.53329   -1.000
 5724.00    3.70419   3.52092   -1.000
 5725.00    3.67189   3.50095   -1.000
 5726.00    3.61435   3.48098   -1.000
 5727.00    3.57054   3.46681   -1.000
 5728.00    3.58717   3.46065   -1.000
 5729.00    3.63172   3.46081   -1.000
 5730.00    3.62810   3.46434   -1.000
 5731.00    3.58006   3.47098   -1.000
 5732.00    3.59647   3.48204   -1.000
 5733.00    3.68511   3.49715   -1.000
 5734.00    3.73812   3.51210   -1.000
 5735.00    3.72177   3.52076   11.060
 5736.00    3.67933   3.52132   11.081
 5737.00    3.64917   3.51701   11.102
 5738.00    3.63756   3.51208   11.096
 5739.00    3.64105   3.50891   11.076
 5740.00    3.64867   3.50795   11.023
 5741.00    3.65204   3.50972   10.951
 5742.00    3.65154   3.51503   10.967
 5743.00    3.65411   3.52298   11.065
 5744.00    3.68009   3.52999   11.135
 5745.00    3.72179   3.53178   11.106
 5746.00    3.73359   3.52754   11.054
 5747.00    3.68425   3.51933   11.099
 5748.00    3.64331   3.51050   11.223
 5749.00    3.67698   3.50139   11.347
 5750.00    3.71337   3.48810   11.386
 5751.00    3.69212   3.46818   11.287
 5752.00    3.63239   3.44661   11.093
 5753.00    3.57314   3.43566   10.932
 5754.00    3.56300   3.44509   10.910
 5755.00    3.59911   3.47364   11.008
 5756.00    3.66255   3.50788   11.149
 5757.00    3.72043   3.52983   11.301
 5758.00    3.72588   3.52756   11.393
 5759.00    3.67364   3.50311   11.330
 5760.00    3.59665   3.46943   11.147
 5761.00    3.53020   3.44455   10.985
 5762.00    3.50545   3.44261   10.918
 5763.00    3.55268   3.46606   10.903
 5764.00    3.63521   3.50768   10.888
 5765.00    3.71081   3.55330   10.895
 5766.00    3.73912   3.58863   10.929
 5767.00    3.73462   3.60706   10.981
 5768.00    3.71456   3.61070   11.048
 5769.00    3.67765   3.60364   11.091
 5770.00    3.65910   3.59008   11.107
 5771.00    3.64676   3.57439   11.097
 5772.00    3.60734   3.55988   11.050
 5773.00    3.54594   3.54960   11.022
 5774.00    3.47647   3.54483   11.044
 5775.00    3.40892   3.54252   11.162
 5776.00    3.36237   3.53581   11.390
 5777.00    3.37003   3.51628   11.582
 5778.00    3.43876   3.47880   11.615
 5779.00    3.47402   3.42599   11.571
 5780.00    3.44318   3.36912   11.528
 5781.00    3.39371   3.32043   11.486
 5782.00    3.36987   3.28900   11.388
 5783.00    3.37084   3.27988   11.240
 5784.00    3.38987   3.29226   11.131
 5785.00    3.42809   3.32046   11.112
 5786.00    3.48600   3.35942   11.154
 5787.00    3.56896   3.40216   11.162
 5788.00    3.64457   3.43986   11.092
 5789.00    3.65934   3.46774   11.008
 5790.00    3.61642   3.48904   10.939
 5791.00    3.58567   3.51031   10.912
 5792.00    3.58664   3.53576   10.954
 5793.00    3.63033   3.56319   11.027
 5794.00    3.70725   3.58493   11.016
 5795.00    3.75343   3.59582   10.900
 5796.00    3.75634   3.59827   10.750
 5797.00    3.74620   3.60138   10.682
 5798.00    3.75261   3.61314   10.739
 5799.00    3.78849   3.63472   10.829
 5800.00    3.83216   3.65844   10.916
 5801.00    3.83690   3.67208   10.979
 5802.00    3.82683   3.66884   10.977
 5803.00    3.80211   3.65187   10.938
 5804.00    3.72691   3.63079   10.902
 5805.00    3.68828   3.61510   10.891
 5806.00    3.70173   3.61051   10.885
 5807.00    3.70317   3.61646   10.853
 5808.00    3.72140   3.62830   10.817
 5809.00    3.75821   3.64013   10.821
 5810.00    3.77384   3.64739   10.891
 5811.00    3.78675   3.64644   10.958
 5812.00    3.79543   3.63553   10.935
 5813.00    3.77826   3.61698   10.861
 5814.00    3.75512   3.59869   10.797
 5815.00    3.72546   3.58933   10.742
 5816.00    3.71656   3.59513   10.701
 5817.00    3.75143   3.61586   10.701
 5818.00    3.79718   3.64463   10.735
 5819.00    3.84612   3.67050   10.735
 5820.00    3.88047   3.68577   10.716
 5821.00    3.88492   3.69019   10.697
 5822.00    3.86079   3.68858   10.684
 5823.00    3.84321   3.68674   10.683
 5824.00    3.85357   3.68802   10.699
 5825.00    3.88506   3.69278   10.692
 5826.00    3.90029   3.69957   10.685
 5827.00    3.89020   3.70673   10.678
 5828.00    3.89512   3.71253   10.686
 5829.00    3.89278   3.71581   10.744
 5830.00    3.88808   3.71520   10.781
 5831.00    3.88919   3.70978   10.759
 5832.00    3.87564   3.70048   10.732
 5833.00    3.86186   3.69017   10.750
 5834.00    3.85169   3.68129   10.780
 5835.00    3.85636   3.67567   10.763
 5836.00    3.87524   3.67532   10.695
 5837.00    3.86183   3.68085   10.630
 5838.00    3.83046   3.69137   10.616
 5839.00    3.82346   3.70560   10.644
 5840.00    3.84592   3.72084   10.684
 5841.00    3.88267   3.73205   10.747
 5842.00    3.89800   3.73400   10.808
 5843.00    3.88802   3.72415   10.860
 5844.00    3.84335   3.70430   10.868
 5845.00    3.77875   3.67970   10.874
 5846.00    3.74230   3.65606   10.924
 5847.00    3.73406   3.63683   10.993
 5848.00    3.73442   3.62167   11.090
 5849.00    3.73500   3.60757   11.162
 5850.00    3.71202   3.59108   11.189
 5851.00    3.66266   3.57069   11.202
 5852.00    3.61812   3.54749   11.286
 5853.00    3.61403   3.52263   11.399
 5854.00    3.63827   3.49647   11.374
 5855.00    3.63685   3.47027   11.242
 5856.00    3.58832   3.44779   11.133
 5857.00    3.53818   3.43572   11.082
 5858.00    3.54907   3.43991   11.040
 5859.00    3.60554   3.46149   11.015
 5860.00    3.64649   3.49297   11.033
 5861.00    3.65699   3.52305   11.071
 5862.00    3.66075   3.54336   11.121
 5863.00    3.65849   3.55259   11.130
 5864.00    3.64852   3.55432   11.049
 5865.00    3.63373   3.55498   10.949
 5866.00    3.61544   3.55951   10.889
 5867.00    3.61164   3.57088   10.875
 5868.00    3.65614   3.58974   10.897
 5869.00    3.70437   3.61150   10.908
 5870.00    3.71817   3.62868   10.895
 5871.00    3.71394   3.63714   10.913
 5872.00    3.68615   3.63762   10.958
 5873.00    3.69467   3.63260   10.983
 5874.00    3.73304   3.62380   11.048
 5875.00    3.74605   3.61099   11.127
 5876.00    3.70980   3.59285   11.147
 5877.00    3.66854   3.56995   11.122
 5878.00    3.61173   3.54603   11.112
 5879.00    3.55112   3.52606   11.149
 5880.00    3.50252   3.51169   11.171
 5881.00    3.42860   3.50157   11.200
 5882.00    3.26398   3.49142   11.310
 5883.00    2.98625   3.47216   -1.000
 5884.00    2.69278   3.42994   -1.000
 5885.00    2.48450   3.35065   -1.000
 5886.00    2.44583   3.22543   -1.000
 5887.00    2.52941   3.06178   -1.000
 5888.00    2.50903   2.88906   -1.000
 5889.00    2.30832   2.74986   -1.000
 5890.00    2.11947   2.67547   -1.000
 5891.00    2.09417   2.67063   -1.000
 5892.00    2.27932   2.70806   -1.000
 5893.00    2.56456   2.75018   12.620
 5894.00    2.73425   2.77995   12.177
 5895.00    2.77600   2.80919   11.805
 5896.00    2.83859   2.86163   11.528
 5897.00    3.02028   2.95311   11.310
 5898.00    3.23984   3.07709   11.213
 5899.00    3.39916   3.20551   11.194
 5900.00    3.49561   3.31543   11.191
 5901.00    3.57657   3.39787   11.204
 5902.00    3.62083   3.45316   11.205
 5903.00    3.61131   3.48638   11.186
 5904.00    3.60708   3.50580   11.161
 5905.00    3.62428   3.51894   11.183
 5906.00    3.65480   3.53091   11.207
 5907.00    3.67405   3.54441   11.219
 5908.00    3.65228   3.55828   11.254
 5909.00    3.62154   3.56786   11.388
 5910.00    3.63381   3.56805   11.499
 5911.00    3.66011   3.55624   11.500
 5912.00    3.62927   3.53421   11.439
 5913.00    3.56306   3.50861   11.390
 5914.00    3.49576   3.48854   11.345
 5915.00    3.47264   3.48264   11.313
 5916.00    3.50139   3.49358   11.275
 5917.00    3.55541   3.51627   11.267
 5918.00    3.62420   3.54168   11.278
 5919.00    3.67695   3.56266   11.246
 5920.00    3.65853   3.57578   11.206
 5921.00    3.63145   3.58300   11.183
 5922.00    3.65807   3.58841   11.172
 5923.00    3.65839   3.59514   11.187
 5924.00    3.66815   3.60288   11.255
 5925.00    3.68321   3.60764   11.345
 5926.00    3.68122   3.60514   11.357
 5927.00    3.67186   3.59493   11.265
 5928.00    3.64440   3.58182   11.196
 5929.00    3.60914   3.57188   11.250
 5930.00    3.62822   3.56911   11.335
 5931.00    3.66693   3.57274   11.365
 5932.00    3.67108   3.57945   11.311
 5933.00    3.66759   3.58635   11.217
 5934.00    3.63640   3.59349   11.163
 5935.00    3.62802   3.60314   11.187
 5936.00    3.66696   3.61556   11.289
 5937.00    3.70642   3.62624   11.366
 5938.00    3.72657   3.62853   11.372
 5939.00    3.71775   3.62136   11.315
 5940.00    3.66673   3.61027   11.247
 5941.00    3.64230   3.60204   11.198
 5942.00    3.65360   3.60198   11.214
 5943.00    3.68173   3.61037   11.303
 5944.00    3.71376   3.62162   11.421
 5945.00    3.73954   3.62773   11.468
 5946.00    3.74171   3.62517   11.424
 5947.00    3.71774   3.61596   11.375
 5948.00    3.68678   3.60453   11.390
 5949.00    3.66085   3.59529   11.392
 5950.00    3.64383   3.59039   11.371
 5951.00    3.62218   3.58884   11.368
 5952.00    3.61194   3.58755   11.407
 5953.00    3.61702   3.58537   11.431
 5954.00    3.65036   3.58347   11.398
 5955.00    3.68890   3.58399   11.282
 5956.00    3.65135   3.58807   11.167
 5957.00    3.62315   3.59755   11.111
 5958.00    3.64939   3.61516   11.094
 5959.00    3.69918   3.63971   11.113
 5960.00    3.74275   3.66485   11.169
 5961.00    3.76482   3.68334   11.212
 5962.00    3.77304   3.69124   11.251
 5963.00    3.76254   3.68981   11.239
 5964.00    3.74028   3.68468   11.162
 5965.00    3.72506   3.68160   11.122
 5966.00    3.73321   3.68478   11.117
 5967.00    3.76072   3.69544   11.097
 5968.00    3.77608   3.71109   11.081
 5969.00    3.78455   3.72633   11.128
 5970.00    3.79938   3.73653   11.214
 5971.00    3.80598   3.73838   11.301
 5972.00    3.78964   3.72939   11.382
 5973.00    3.77171   3.70960   11.439
 5974.00    3.74567   3.68283   11.407
 5975.00    3.70768   3.65546   11.315
 5976.00    3.68211   3.63511   11.260
 5977.00    3.66824   3.62713   11.276
 5978.00    3.70003   3.63107   11.358
 5979.00    3.73058   3.63937   11.458
 5980.00    3.74997   3.64281   11.523
 5981.00    3.76647   3.63534   11.499
 5982.00    3.74588   3.61891   11.390
 5983.00    3.66589   3.60171   11.310
 5984.00    3.63226   3.59381   11.269
 5985.00    3.67295   3.60106   11.218
 5986.00    3.72787   3.62191   11.221
 5987.00    3.76169   3.64822   11.248
 5988.00    3.78581   3.67198   11.207
 5989.00    3.81262   3.69165   11.118
 5990.00    3.83265   3.70883   11.074
 5991.00    3.82669   3.72459   11.134
 5992.00    3.81649   3.73815   11.215
 5993.00    3.83686   3.74656   11.269
 5994.00    3.85540   3.74590   11.296
 5995.00    3.83281   3.73453   11.283
 5996.00    3.77629   3.71626   11.287
 5997.00    3.75315   3.69849   11.346
 5998.00    3.76164   3.68749   11.390
 5999.00    3.77391   3.68404   11.392
 6000.00    3.77418   3.68505   11.365
 6001.00    3.75320   3.68594   11.365
 6002.00    3.72648   3.68356   11.436
 6003.00    3.72634   3.67645   11.548
 6004.00    3.73272   3.66464   11.568
 6005.00    3.70521   3.65023   11.454
 6006.00    3.66388   3.63661   11.329
 6007.00    3.64017   3.62890   11.314
 6008.00    3.65208   3.63140   11.391
 6009.00    3.70111   3.64283   11.458
 6010.00    3.74430   3.65664   11.419
 6011.00    3.77883   3.66453   11.405
 6012.00    3.76921   3.66274   11.449
 6013.00    3.73332   3.65540   11.477
 6014.00    3.72027   3.64838   11.455
 6015.00    3.73205   3.64432   11.478
 6016.00    3.74252   3.64102   11.547
 6017.00    3.75273   3.63609   11.523
 6018.00    3.76559   3.63088   11.447
 6019.00    3.74478   3.62773   11.413
 6020.00    3.73079   3.62843   11.398
 6021.00    3.76140   3.63612   11.338
 6022.00    3.78476   3.65300   11.298
 6023.00    3.80033   3.67684   11.233
 6024.00    3.83888   3.70432   11.180
 6025.00    3.88354   3.73270   11.160
 6026.00    3.89812   3.76012   11.161
 6027.00    3.89282   3.78502   11.184
 6028.00    3.90365   3.80690   11.171
 6029.00    3.92292   3.82642   11.124
 6030.00    3.92915   3.84442   11.092
 6031.00    3.93099   3.86179   11.084
 6032.00    3.93805   3.87920   11.067
 6033.00    3.95089   3.89531   11.073
 6034.00    3.96697   3.90697   11.130
 6035.00    3.98382   3.91107   11.160
 6036.00    3.98459   3.90585   11.192
 6037.00    3.98355   3.89361   11.178
 6038.00    3.97496   3.88002   11.160
 6039.00    3.95356   3.87027   11.109
 6040.00    3.94879   3.86816   11.024
 6041.00    3.95396   3.87428   11.015
 6042.00    3.96640   3.88689   11.021
 6043.00    3.98659   3.90220   11.005
 6044.00    4.02296   3.91656   11.012
 6045.00    4.03632   3.92775   11.047
 6046.00    4.04079   3.93531   11.075
 6047.00    4.04800   3.94007   11.086
 6048.00    4.06183   3.94124   11.106
 6049.00    4.06379   3.93761   11.148
 6050.00    4.03927   3.92794   11.184
 6051.00    4.02413   3.91178   11.242
 6052.00    4.00836   3.89001   11.281
 6053.00    3.99030   3.86616   11.269
 6054.00    3.96666   3.84558   11.213
 6055.00    3.95527   3.83318   11.155
 6056.00    3.94157   3.83091   11.158
 6057.00    3.93957   3.83747   11.184
 6058.00    3.94827   3.84810   11.325
 6059.00    4.00958   3.85517   11.543
 6060.00    4.05293   3.85236   11.243
 6061.00    3.99486   3.83781   16.316
 6062.00    3.95144   3.81609    4.223
 6063.00    3.27276   3.79682   -1.000
 6064.00    2.31361   3.78998   -1.000
 6065.00    3.20355   3.80174   -1.000
 6066.00    3.87028   3.83151   10.930
 6067.00    3.97781   3.87236   10.757
 6068.00    3.97539   3.91327   10.941
 6069.00    3.90197   3.94555   11.048
 6070.00    4.04395   3.96628   11.063
 6071.00    4.13539   3.97671   11.096
 6072.00    4.13139   3.97794   11.152
 6073.00    4.10651   3.97018   11.216
 6074.00    4.09931   3.95376   11.300
 6075.00    4.08806   3.93023   11.372
 6076.00    4.02657   3.90212   11.387
 6077.00    3.96303   3.87277   11.395
 6078.00    3.96909   3.84571   11.425
 6079.00    3.95280   3.82385   11.429
 6080.00    3.94448   3.80877   11.421
 6081.00    3.94184   3.80004   11.410
 6082.00    3.93694   3.79737   11.379
 6083.00    3.92517   3.80069   11.334
 6084.00    3.93322   3.80882   11.347
 6085.00    3.95292   3.81784   11.412
 6086.00    3.95341   3.82379   11.464
 6087.00    3.96650   3.82452   11.465
 6088.00    3.99752   3.81953   11.398
 6089.00    3.98022   3.81157   11.338
 6090.00    3.93826   3.80602   11.275
 6091.00    3.91671   3.80824   11.224
 6092.00    3.94804   3.82034   11.222
 6093.00    3.98841   3.83941   11.248
 6094.00    4.00152   3.86060   11.258
 6095.00    4.01223   3.87883   11.260
 6096.00    3.98279   3.88929   11.378
 6097.00    4.00128   3.88772   11.643
 6098.00    4.03738   3.87069   11.845
 6099.00    3.99803   3.83863   11.791
 6100.00    3.94741   3.79659   11.577
 6101.00    3.86820   3.75614   11.395
 6102.00    3.77243   3.73174   11.341
 6103.00    3.77658   3.73300   11.377
 6104.00    3.85342   3.76042   11.408
 6105.00    3.92703   3.80215   11.406
 6106.00    3.96945   3.84334   11.383
 6107.00    3.97642   3.87489   11.336
 6108.00    3.99067   3.89649   11.328
 6109.00    4.03244   3.91125   11.275
 6110.00    4.01179   3.92230   11.243
 6111.00    3.95437   3.93101   11.279
 6112.00    3.96178   3.93833   11.352
 6113.00    3.96646   3.94369   11.375
 6114.00    3.94863   3.94377   11.424
 6115.00    3.97778   3.93503   11.579
 6116.00    4.01466   3.91493   11.733
 6117.00    3.98701   3.88334   11.849
 6118.00    3.94735   3.84240   11.870
 6119.00    3.92205   3.79725   11.697
 6120.00    3.86685   3.75739   11.539
 6121.00    3.79943   3.73338   11.521
 6122.00    3.79716   3.73167   11.583
 6123.00    3.86350   3.75082   11.578
 6124.00    3.92429   3.78110   11.552
 6125.00    3.96111   3.81149   11.465
 6126.00    3.89548   3.83598   11.357
 6127.00    3.84844   3.85714   11.324
 6128.00    3.86260   3.87900   11.343
 6129.00    3.86069   3.90114   11.442
 6130.00    3.90110   3.91677   11.688
 6131.00    3.94559   3.91422   12.029
 6132.00    3.93373   3.88417   12.339
 6133.00    3.87994   3.82721   12.402
 6134.00    3.76589   3.75610   12.121
 6135.00    3.63876   3.69170   11.776
 6136.00    3.54332   3.65476   11.626
 6137.00    3.54541   3.65606   11.635
 6138.00    3.58743   3.69298   11.656
 6139.00    3.71360   3.74914   11.551
 6140.00    3.81319   3.80625   11.412
 6141.00    3.80883   3.85320   11.383
 6142.00    3.82267   3.88909   11.431
 6143.00    3.88578   3.91651   11.503
 6144.00    3.91086   3.93345   11.586
 6145.00    3.92067   3.93646   11.655
 6146.00    3.89924   3.92558   11.662
 6147.00    3.88053   3.90636   11.622
 6148.00    3.83753   3.88618   11.543
 6149.00    3.82978   3.87083   11.523
 6150.00    3.83082   3.86238   11.612
 6151.00    3.81779   3.85848   11.677
 6152.00    3.78455   3.85518   11.689
 6153.00    3.74395   3.84759   11.734
 6154.00    3.76739   3.83314   11.853
 6155.00    3.74518   3.81015   12.073
 6156.00    3.66703   3.77591   12.430
 6157.00    3.65271   3.72578   12.795
 6158.00    3.59385   3.65669   12.938
 6159.00    3.46509   3.57455   12.768
 6160.00    3.34815   3.49391   12.423
 6161.00    3.25917   3.43444   12.220
 6162.00    3.21032   3.41151   12.159
 6163.00    3.28004   3.42767   12.186
 6164.00    3.37525   3.46944   12.337
 6165.00    3.44372   3.51423   12.466
 6166.00    3.48736   3.54588   12.389
 6167.00    3.46131   3.56045   12.156
 6168.00    3.41262   3.56621   11.980
 6169.00    3.38136   3.57482   11.980
 6170.00    3.39493   3.59601   11.992
 6171.00    3.45562   3.63020   11.964
 6172.00    3.53214   3.66912   11.941
 6173.00    3.55304   3.70277   11.909
 6174.00    3.59034   3.72712   11.851
 6175.00    3.56513   3.74499   11.807
 6176.00    3.53402   3.76027   11.770
 6177.00    3.55768   3.77604   11.716
 6178.00    3.58209   3.79352   11.684
 6179.00    3.60773   3.81114   11.705
 6180.00    3.64909   3.82562   11.746
 6181.00    3.66220   3.83355   11.837
 6182.00    3.66039   3.83227   11.966
 6183.00    3.65044   3.81937   12.090
 6184.00    3.60158   3.79492   12.206
 6185.00    3.53684   3.76179   12.295
 6186.00    3.57674   3.72337   12.454
 6187.00    3.61129   3.68377   12.538
 6188.00    3.48696   3.64785   12.408
 6189.00    3.37648   3.62166   -1.000
 6190.00    3.34785   3.61102   -1.000
 6191.00    3.35332   3.62017   -1.000
 6192.00    3.43007   3.64959   11.804
 6193.00    3.54059   3.69222   11.878
 6194.00    3.60383   3.73448   12.015
 6195.00    3.64299   3.76432   12.115
 6196.00    3.62261   3.77737   12.107
 6197.00    3.56108   3.77795   11.988
 6198.00    3.49547   3.77414   -1.000
 6199.00    3.45879   3.77505   -1.000
 6200.00    3.45608   3.78604   -1.000
 6201.00    3.50126   3.80772   -1.000
 6202.00    3.57422   3.83414   -1.000
 6203.00    3.62770   3.85832   11.825
 6204.00    3.64016   3.87640   11.825
 6205.00    3.63158   3.88692   11.876
 6206.00    3.63060   3.88980   -1.000
 6207.00    3.62667   3.88366   -1.000
 6208.00    3.59195   3.86647   -1.000
 6209.00    3.56569   3.83653   -1.000
 6210.00    3.54319   3.79426   -1.000
 6211.00    3.50224   3.74389   12.543
 6212.00    3.46908   3.69270   12.383
 6213.00    3.42084   3.64895   12.320
 6214.00    3.39203   3.61941   12.411
 6215.00    3.44850   3.60570   12.368
 6216.00    3.52293   3.60457   12.277
 6217.00    3.54430   3.60965   12.350
 6218.00    3.53789   3.61616   13.255
 6219.00    3.47709   3.62305   12.855
 6220.00    3.40453   3.63193   12.253
 6221.00    3.42511   3.64490   12.210
 6222.00    3.50406   3.66018   12.219
 6223.00    3.57538   3.67344   12.287
 6224.00    3.59885   3.68009   12.453
 6225.00    3.61283   3.67634   12.660
 6226.00    3.58695   3.65970   12.823
 6227.00    3.52893   3.63064   12.773
 6228.00    3.49806   3.59480   12.591
 6229.00    3.43658   3.56339   12.352
 6230.00    3.34865   3.54905   12.151
 6231.00    3.31824   3.56018   -1.000
 6232.00    3.35334   3.59516   -1.000
 6233.00    3.39132   3.64183   -1.000
 6234.00    3.47523   3.68357   12.420
 6235.00    3.57842   3.70735   12.552
 6236.00    3.61421   3.70815   12.606
 6237.00    3.53959   3.68936   12.602
 6238.00    3.50440   3.66001   12.693
 6239.00    3.43990   3.62852   12.777
 6240.00    3.37625   3.60088   12.770
 6241.00    3.38103   3.57986   12.689
 6242.00    3.38916   3.56730   12.564
 6243.00    3.35545   3.56526   12.404
 6244.00    3.34104   3.57593   12.274
 6245.00    3.36802   3.59942   12.260
 6246.00    3.40411   3.63090   12.373
 6247.00    3.47074   3.66105   12.601
 6248.00    3.52684   3.68013   12.758
 6249.00    3.52022   3.68078   12.846
 6250.00    3.48830   3.66210   12.882
 6251.00    3.42402   3.63006   12.877
 6252.00    3.35636   3.59334   -1.000
 6253.00    3.33737   3.55972   13.110
 6254.00    3.34349   3.53399   13.056
 6255.00    3.32799   3.51775   12.860
 6256.00    3.29679   3.51277   12.666
 6257.00    3.28329   3.52219   -1.000
 6258.00    3.30318   3.54887   -1.000
 6259.00    3.33373   3.59181   -1.000
 6260.00    3.41930   3.64307   12.334
 6261.00    3.51214   3.69237   12.417
 6262.00    3.55103   3.73078   12.362
 6263.00    3.57209   3.75521   12.272
 6264.00    3.54814   3.76714   12.314
 6265.00    3.50013   3.77158   -1.000
 6266.00    3.50573   3.77377   -1.000
 6267.00    3.52654   3.77700   -1.000
 6268.00    3.51822   3.78186   -1.000
 6269.00    3.51107   3.78737   -1.000
 6270.00    3.50269   3.79303   -1.000
 6271.00    3.49375   3.79700   -1.000
 6272.00    3.43421   3.79564   -1.000
 6273.00    3.36388   3.78530   -1.000
 6274.00    3.32052   3.76502   -1.000
 6275.00    3.27387   3.73717   -1.000
 6276.00    3.24367   3.70685   -1.000
 6277.00    3.21363   3.68028   -1.000
 6278.00    3.16877   3.66292   -1.000
 6279.00    3.13156   3.65926   -1.000
 6280.00    3.14642   3.67127   -1.000
 6281.00    3.21818   3.69818   -1.000
 6282.00    3.35447   3.73598   -1.000
 6283.00    3.48793   3.77843   -1.000
 6284.00    3.54837   3.81864   -1.000
 6285.00    3.56495   3.85176   -1.000
 6286.00    3.61952   3.87469   -1.000
 6287.00    3.66206   3.88610   12.453
 6288.00    3.72558   3.88556   12.477
 6289.00    3.72453   3.87438   12.491
 6290.00    3.68335   3.85599   12.513
 6291.00    3.67058   3.83500   12.611
 6292.00    3.66223   3.81463   12.694
 6293.00    3.63579   3.79573   12.713
 6294.00    3.64471   3.77714   12.693
 6295.00    3.63086   3.75872   12.640
 6296.00    3.58245   3.74144   12.583
 6297.00    3.55042   3.72749   12.692
 6298.00    3.54990   3.71895   12.837
 6299.00    3.57732   3.71614   12.728
 6300.00    3.58467   3.71837   12.525
 6301.00    3.57882   3.72673   12.372
 6302.00    3.58580   3.74371   12.267
 6303.00    3.62149   3.77095   12.155
 6304.00    3.65595   3.80536   12.136
 6305.00    3.67602   3.84121   12.190
 6306.00    3.71454   3.87206   12.274
 6307.00    3.77727   3.89336   12.321
 6308.00    3.82610   3.90219   12.372
 6309.00    3.83443   3.89827   12.382
 6310.00    3.81102   3.88365   12.499
 6311.00    3.73783   3.86265   12.543
 6312.00    3.69264   3.83863   12.534
 6313.00    3.68574   3.81356   12.521
 6314.00    3.67559   3.78955   12.540
 6315.00    3.66086   3.76940   12.493
 6316.00    3.66538   3.75787   12.339
 6317.00    3.66782   3.75887   12.219
 6318.00    3.67462   3.77358   12.173
 6319.00    3.69455   3.80037   12.132
 6320.00    3.74702   3.83553   12.066
 6321.00    3.81133   3.87264   12.029
 6322.00    3.84999   3.90623   12.023
 6323.00    3.89337   3.93430   11.961
 6324.00    3.91837   3.95643   11.974
 6325.00    3.90272   3.97257   11.982
 6326.00    3.92662   3.98324   11.991
 6327.00    3.94401   3.99023   11.946
 6328.00    3.89494   3.99536   11.927
 6329.00    3.93380   3.99864   11.960
 6330.00    3.95301   3.99771   11.990
 6331.00    3.94850   3.98925   12.277
 6332.00    3.98069   3.97150   12.300
 6333.00    3.93630   3.94530   12.194
 6334.00    3.86570   3.91608   12.069
 6335.00    3.82759   3.89334   11.935
 6336.00    3.81965   3.88506   11.879
 6337.00    3.83539   3.89355   11.820
 6338.00    3.88322   3.91278   11.831
 6339.00    3.93694   3.93239   11.941
 6340.00    3.98522   3.94457   11.956
 6341.00    3.96559   3.94718   11.922
 6342.00    3.92656   3.94378   11.856
 6343.00    3.91261   3.94213   11.772
 6344.00    3.90121   3.94954   11.729
 6345.00    3.88896   3.96868   11.733
 6346.00    3.92684   3.99667   11.706
 6347.00    3.97396   4.02608   11.718
 6348.00    3.98408   4.04994   11.770
 6349.00    3.99940   4.06342   11.824
 6350.00    3.97889   4.06418   11.963
 6351.00    3.98135   4.05233   12.065
 6352.00    3.96826   4.02997   12.068
 6353.00    3.92005   4.00043   12.104
 6354.00    3.88324   3.96715   12.246
 6355.00    3.84784   3.93269   12.296
 6356.00    3.85120   3.89838   12.243
 6357.00    3.81782   3.86454   12.204
 6358.00    3.74648   3.83246   12.194
 6359.00    3.74492   3.80613   12.151
 6360.00    3.74763   3.79070   12.069
 6361.00    3.75572   3.78989   11.992
 6362.00    3.77051   3.80491   11.928
 6363.00    3.79479   3.83473   11.851
 6364.00    3.84849   3.87556   11.772
 6365.00    3.90426   3.92151   11.744
 6366.00    3.98158   3.96622   11.753
 6367.00    4.03085   4.00535   11.712
 6368.00    4.07048   4.03726   11.665
 6369.00    4.09691   4.06240   11.699
 6370.00    4.09091   4.08234   11.707
 6371.00    4.09457   4.09891   11.733
 6372.00    4.10539   4.11190   11.777
 6373.00    4.10541   4.11966   11.838
 6374.00    4.10654   4.12010   11.920
 6375.00    4.10730   4.11288   11.964
 6376.00    4.09366   4.10004   11.970
 6377.00    4.06572   4.08464   11.994
 6378.00    4.04299   4.07004   11.990
 6379.00    4.00419   4.05971   11.957
 6380.00    3.98986   4.05572   12.017
 6381.00    4.00390   4.05780   12.042
 6382.00    4.01826   4.06448   12.031
 6383.00    4.03118   4.07390   12.070
 6384.00    4.01118   4.08449   12.108
 6385.00    4.00661   4.09467   12.212
 6386.00    4.01277   4.10232   12.307
 6387.00    4.00789   4.10425   12.451
 6388.00    4.01236   4.09692   12.643
 6389.00    3.98966   4.07935   12.747
 6390.00    3.95546   4.05431   12.702
 6391.00    3.91474   4.02818   12.505
 6392.00    3.83706   4.00911   12.491
 6393.00    3.77353   4.00323   12.573
 6394.00    3.77142   4.00993   12.769
 6395.00    3.82182   4.02181   13.068
 6396.00    3.87799   4.02841   13.156
 6397.00    3.89567   4.02454   13.010
 6398.00    3.84804   4.01488   12.798
 6399.00    3.76551   4.01061   12.741
 6400.00    3.71430   4.02132   -1.000
 6401.00    3.73997   4.04786   -1.000
 6402.00    3.80133   4.08139   -1.000
 6403.00    3.85011   4.10780   13.248
 6404.00    3.83510   4.11830   -1.000
 6405.00    3.77960   4.11303   -1.000
 6406.00    3.72443   4.09839   -1.000
 6407.00    3.64890   4.08207   -1.000
 6408.00    3.61474   4.06943   -1.000
 6409.00    3.61128   4.06210   -1.000
 6410.00    3.58477   4.05919   -1.000
 6411.00    3.54888   4.05999   -1.000
 6412.00    3.51633   4.06494   -1.000
 6413.00    3.47905   4.07364   -1.000
 6414.00    3.46000   4.08289   -1.000
 6415.00    3.45268   4.08693   -1.000
 6416.00    3.44643   4.08201   -1.000
 6417.00    3.40033   4.06846   -1.000
 6418.00    3.36733   4.05156   -1.000
 6419.00    3.32158   4.04006   -1.000
 6420.00    3.23981   4.04200   -1.000
 6421.00    3.22379   4.06054   -1.000
 6422.00    3.27234   4.09211   -1.000
 6423.00    3.31029   4.12787   -1.000
 6424.00    3.29020   4.15699   -1.000
 6425.00    3.25878   4.17199   -1.000
 6426.00    3.24540   4.16999   -1.000
 6427.00    0.11408   4.15256   -1.000
 6428.00    0.00000   4.12570   -2.000
