###################################################################
## OUTPUT of StarlightChains_v04.for    [Cid@UFSC - 01/Apr/2007] ##
###################################################################

## Some input info
NGC6528_b_2.cxt                          [arq_obs]
Base.BC03.N                              [arq_base]
NGC6528_b_2.msk                          [arq_masks]
StCv04.C99.config                        [arq_config]
   45                                    [N_base]
    0                                    [N_YAV_components = # of components with extra extinction!]
    0                                    [i_FitPowerLaw (1/0 = Yes/No)]
-9.99                                    [alpha_PowerLaw]
CCM                                      [red_law_option]
 1.458241                                [q_norm = A(l_norm)/A(V)]

## (Re)Sampling Parameters
 3359.00                                 [l_ini (A)]
 6428.00                                 [l_fin (A)]
    1.00                                 [dl    (A)]     (OBS: dl_cushion =    50.00 A)

## Normalization info
 4020.00                                 [l_norm (A) - for base]
 4010.00                                 [llow_norm (A) - window for f_obs]
 4060.00                                 [lupp_norm (A) - window for f_obs]
4.330667E-15                             [fobs_norm (in input units)]

## S/N
 4730.00                                 [llow_SN (A) - window for S/N]
 4780.00                                 [lupp_SN (A) - window for S/N]
  27.791                                 [S/N in S/N window]
  14.946                                 [S/N in norm. window]
 304.113                                 [S/N_err in S/N window]
 163.548                                 [S/N_err in norm. window]
  1.0000                                 [fscale_chi2]

## etc...
  2147483603                             [idum_orig]
  3069                                   [NOl_eff]
   894                                   [Nl_eff]
  2175    NSIGMA                         [Ntot_cliped & clip_method]
  2362080                                [Nglobal_steps]
   7                                     [N_chains]
  13                                     [NEX0s_base = N_base in EX0s-fits]
 0   0   1      139   2.0   3.771E+02    [Clip-Bug, RC-Crash & Burn-In warning-flags, n_censored_weights, wei_nsig_threshold & wei_limit]
    28     27.705     27.697      0.008  [idt_all, wdt_TotTime, wdt_UsrTime & wdt_SysTime (sec)]

## Synthesis Results - Best model ##

 3.19438E+00                             [chi2/Nl_eff]
     2.47548                             [adev (%)]

    96.87970                             [sum-of-x (%)]
 3.56650E-14                             [Flux_tot (units of input spectrum!)]
 2.38201E-09                             [Mini_tot (???)]
 1.20685E-09                             [Mcor_tot (???)]

  -7.23                                  [v0_min  (km/s)]
  64.42                                  [vd_min  (km/s)]
 1.5935                                  [AV_min  (mag)]
 0.0000                                  [YAV_min (mag)]

# j     x_j(%)      Mini_j(%)     Mcor_j(%)     age_j(yr)     Z_j      (L/M)_j    YAV?  Mstars   component_j        a/Fe...       SSP_chi2r SSP_adev(%)   SSP_AV   SSP_x(%)
  1      1.2105     1.6793E-03    3.3146E-03    1.000000E+06  0.00400  1.114E-02    0   1.0000   age020_m42            0.0000     4.1670E+03    46.4574   4.0000    99.2778
  2      6.7023     2.5432E-03    5.0191E-03    3.160000E+06  0.00400  4.073E-02    0   0.9999   age045_m42            0.0000     1.0345E+03    23.1065   4.0000   106.3113
  3      2.2374     1.3646E-03    2.5555E-03    5.010000E+06  0.00400  2.534E-02    0   0.9488   age055_m42            0.0000     2.0849E+03    33.5867   4.0000   104.6994
  4      6.6956     8.1416E-03    1.4241E-02    1.000000E+07  0.00400  1.271E-02    0   0.8862   age070_m42            0.0000     7.4892E+02    17.3708   4.0000    99.6453
  5      1.9541     5.9567E-03    9.6102E-03    2.512000E+07  0.00400  5.070E-03    0   0.8174   age090_m42            0.0000     5.7065E+02    15.1553   4.0000    99.1186
  6      0.0000     0.0000E+00    0.0000E+00    4.000000E+07  0.00400  3.505E-03    0   0.7851   age104_m42            0.0000     3.1791E+02    11.8368   4.0000    95.9015
  7      0.0000     0.0000E+00    0.0000E+00    1.015200E+08  0.00400  2.268E-03    0   0.7207   age116_m42            0.0000     5.8682E+02    11.7605   3.9438   102.9830
  8      0.0000     0.0000E+00    0.0000E+00    2.861200E+08  0.00400  1.079E-03    0   0.6613   age125_m42            0.0000     6.1817E+02    11.7714   3.4391   104.8004
  9      0.0000     0.0000E+00    0.0000E+00    6.405400E+08  0.00400  5.077E-04    0   0.6197   age132_m42            0.0000     6.2533E+02    12.0112   3.0700   108.9821
 10      0.0000     0.0000E+00    0.0000E+00    9.047900E+08  0.00400  3.535E-04    0   0.6024   age135_m42            0.0000     4.6274E+02    10.3482   2.8434   107.8705
 11      0.0000     0.0000E+00    0.0000E+00    1.434000E+09  0.00400  1.910E-04    0   0.5716   age139_m42            0.0000     2.4380E+02     8.0528   2.3200   105.5369
 12      0.0000     0.0000E+00    0.0000E+00    2.500000E+09  0.00400  9.818E-05    0   0.5463   age150_m42            0.0000     9.7582E+01     5.5339   2.0540   100.4625
 13      0.0000     0.0000E+00    0.0000E+00    5.000000E+09  0.00400  4.718E-05    0   0.5228   age161_m42            0.0000     4.7024E+01     4.1605   1.9075    96.9621
 14     13.0421     9.1413E+00    8.9852E+00    1.100000E+10  0.00400  2.205E-05    0   0.4980   age185_m42            0.0000     3.0003E+01     4.2186   1.6325    94.4960
 15      2.5430     2.0872E+00    2.0297E+00    1.300000E+10  0.00400  1.883E-05    0   0.4927   age193_m42            0.0000     2.9674E+01     4.2597   1.6173    94.3061
 16      0.0000     0.0000E+00    0.0000E+00    1.000000E+06  0.02000  1.989E-02    0   1.0000   age020_m62            0.0000     4.0536E+03    45.5628   4.0000    99.9924
 17      0.0000     0.0000E+00    0.0000E+00    3.160000E+06  0.02000  3.772E-02    0   0.9858   age045_m62            0.0000     3.5127E+03    42.8339   4.0000   102.1025
 18      2.1099     1.0105E-03    1.8632E-03    5.010000E+06  0.02000  3.227E-02    0   0.9342   age055_m62            0.0000     1.6084E+03    29.7653   4.0000   106.4864
 19      0.0000     0.0000E+00    0.0000E+00    1.000000E+07  0.02000  1.011E-02    0   0.8751   age070_m62            0.0000     1.1176E+03    20.9280   4.0000    98.0961
 20      0.0000     0.0000E+00    0.0000E+00    2.512000E+07  0.02000  4.206E-03    0   0.8099   age090_m62            0.0000     8.3127E+02    18.4138   4.0000    97.0067
 21      0.0000     0.0000E+00    0.0000E+00    4.000000E+07  0.02000  3.373E-03    0   0.7799   age104_m62            0.0000     4.5419E+02    12.5505   4.0000   101.0532
 22      0.0000     0.0000E+00    0.0000E+00    1.015200E+08  0.02000  1.878E-03    0   0.7221   age116_m62            0.0000     5.6584E+02    11.3700   4.0000   103.5134
 23      0.0000     0.0000E+00    0.0000E+00    2.861200E+08  0.02000  8.869E-04    0   0.6700   age125_m62            0.0000     8.4899E+02    14.1078   3.4190   109.9775
 24      0.0000     0.0000E+00    0.0000E+00    6.405400E+08  0.02000  3.657E-04    0   0.6322   age132_m62            0.0000     5.7966E+02    12.4786   2.7082   112.2001
 25      0.0000     0.0000E+00    0.0000E+00    9.047900E+08  0.02000  2.312E-04    0   0.6152   age135_m62            0.0000     3.5571E+02    10.2765   2.3474   110.5755
 26      0.0000     0.0000E+00    0.0000E+00    1.434000E+09  0.02000  1.168E-04    0   0.5865   age139_m62            0.0000     1.2532E+02     6.8078   1.9586   104.2598
 27      0.0000     0.0000E+00    0.0000E+00    2.500000E+09  0.02000  5.505E-05    0   0.5610   age150_m62            0.0000     4.9910E+01     5.9128   1.5744   101.0872
 28      0.0000     0.0000E+00    0.0000E+00    5.000000E+09  0.02000  2.596E-05    0   0.5353   age161_m62            0.0000     5.1167E+01     7.4697   1.2136   100.5309
 29     34.1155     4.5103E+01    4.5428E+01    1.100000E+10  0.02000  1.169E-05    0   0.5103   age185_m62            0.0000     1.0170E+02     9.8407   0.8158   101.5803
 30     23.2754     3.7119E+01    3.6976E+01    1.300000E+10  0.02000  9.691E-06    0   0.5047   age193_m62            0.0000     1.1549E+02    10.2394   0.7678   101.7220
 31      0.0000     0.0000E+00    0.0000E+00    1.000000E+06  0.05000  2.651E-02    0   0.9998   age020_m72            0.0000     3.9295E+03    45.1951   4.0000   101.1413
 32      0.0000     0.0000E+00    0.0000E+00    3.160000E+06  0.05000  4.817E-02    0   0.9577   age045_m72            0.0000     2.7425E+03    38.7877   4.0000   105.2220
 33      0.0000     0.0000E+00    0.0000E+00    5.010000E+06  0.05000  3.101E-02    0   0.9147   age055_m72            0.0000     1.8626E+03    31.3901   4.0000   105.1933
 34      0.0000     0.0000E+00    0.0000E+00    1.000000E+07  0.05000  8.954E-03    0   0.8524   age070_m72            0.0000     2.3674E+03    35.9345   4.0000   105.7343
 35      0.0000     0.0000E+00    0.0000E+00    2.512000E+07  0.05000  4.207E-03    0   0.7902   age090_m72            0.0000     1.1660E+03    25.2250   4.0000   106.9565
 36      0.0000     0.0000E+00    0.0000E+00    4.000000E+07  0.05000  3.198E-03    0   0.7618   age104_m72            0.0000     5.5359E+02    13.4145   4.0000   106.4790
 37      0.0000     0.0000E+00    0.0000E+00    1.015200E+08  0.05000  1.716E-03    0   0.7092   age116_m72            0.0000     6.3832E+02    12.0021   4.0000   105.2304
 38      0.0000     0.0000E+00    0.0000E+00    2.861200E+08  0.05000  7.047E-04    0   0.6618   age125_m72            0.0000     7.8716E+02    14.1327   3.1906   110.0972
 39      0.0000     0.0000E+00    0.0000E+00    6.405400E+08  0.05000  2.633E-04    0   0.6253   age132_m72            0.0000     4.2906E+02    11.3826   2.3378   110.7940
 40      0.0000     0.0000E+00    0.0000E+00    9.047900E+08  0.05000  1.484E-04    0   0.6088   age135_m72            0.0000     1.7572E+02     8.5589   1.8663   104.9896
 41      0.0000     0.0000E+00    0.0000E+00    1.434000E+09  0.05000  7.827E-05    0   0.5847   age139_m72            0.0000     7.5524E+01     7.5764   1.4544   101.2895
 42      0.0000     0.0000E+00    0.0000E+00    2.500000E+09  0.05000  3.759E-05    0   0.5583   age150_m72            0.0000     6.2967E+01     8.1648   1.1187   100.2783
 43      0.7476     7.4639E-01    7.8373E-01    5.000000E+09  0.05000  1.548E-05    0   0.5320   age161_m72            0.0000     1.2095E+02     9.9255   0.7238    99.0837
 44      1.3813     3.2683E+00    3.2705E+00    1.100000E+10  0.05000  6.532E-06    0   0.5070   age185_m72            0.0000     2.4312E+02    12.9726   0.2899    98.6436
 45      0.8650     2.5146E+00    2.4906E+00    1.300000E+10  0.05000  5.316E-06    0   0.5018   age193_m72            0.0000     3.0181E+02    14.1933   0.1470    98.7014


## Synthesis Results - Average & Chains ##

# j      x_j: min, <> & last-chain-values for 1 ...  7 chains
  1      1.2105      1.7261      1.7273      1.7839      1.6237      1.6619      1.6868      1.6405      1.7988
  2      6.7023      4.7450      4.8388      4.8218      4.8087      4.7770      4.7783      5.1365      4.9645
  3      2.2374      2.2147      2.3972      2.2343      2.2841      2.4479      2.2072      2.3692      2.1911
  4      6.6956      6.4122      6.6862      6.4211      6.5338      6.5582      6.4317      6.6525      6.7204
  5      1.9541      1.7222      1.6446      1.7084      1.7160      1.6526      2.0647      1.7820      1.7883
  6      0.0000      0.0427      0.0000      0.0000      0.0000      0.0000      0.0456      0.0738      0.0000
  7      0.0000      0.0754      0.1902      0.0159      0.1307      0.3199      0.0000      0.0000      0.0000
  8      0.0000      0.0593      0.0000      0.0391      0.0000      0.2626      0.0116      0.0000      0.0000
  9      0.0000      0.1346      0.0000      0.1737      0.2957      0.0000      0.2962      0.2084      0.1447
 10      0.0000      0.1698      0.5081      0.2628      0.4535      0.2823      0.1497      0.0743      0.2549
 11      0.0000      0.0813      0.0000      0.1215      0.0000      0.0000      0.0280      0.1051      0.2525
 12      0.0000      0.1261      0.2326      0.0000      0.1043      0.1448      0.0000      0.0337      0.0000
 13      0.0000      0.2966      0.0203      0.4920      0.2197      0.2200      0.0896      0.1315      0.1705
 14     13.0421     12.6093     12.3800     12.5810     12.2811     11.9309     12.8456     12.0123     12.6261
 15      2.5430      1.6434      1.8161      1.7347      2.2428      2.1081      2.0651      2.2067      1.4514
 16      0.0000      0.0817      0.0000      0.0669      0.0616      0.0000      0.0781      0.0000      0.0122
 17      0.0000      0.0337      0.0027      0.1020      0.0000      0.0318      0.0000      0.0000      0.0000
 18      2.1099      2.6289      2.5890      2.7745      2.6831      2.7075      2.6489      2.7224      2.6856
 19      0.0000      0.2017      0.2241      0.1855      0.4155      0.2607      0.2662      0.0000      0.0444
 20      0.0000      0.0211      0.0000      0.0000      0.0161      0.0000      0.0000      0.0480      0.0534
 21      0.0000      0.0437      0.0000      0.0000      0.0000      0.0000      0.0000      0.0000      0.0000
 22      0.0000      0.0602      0.0701      0.0026      0.0000      0.0000      0.1047      0.0000      0.0000
 23      0.0000      0.0402      0.0000      0.1360      0.0000      0.0456      0.1521      0.0966      0.0000
 24      0.0000      0.0536      0.0000      0.0000      0.0000      0.0000      0.0000      0.0000      0.0000
 25      0.0000      0.0430      0.0000      0.0000      0.0019      0.0000      0.0000      0.0000      0.0000
 26      0.0000      0.0892      0.0000      0.1349      0.0878      0.1761      0.0000      0.3273      0.1302
 27      0.0000      0.0793      0.0216      0.0000      0.0000      0.0142      0.0394      0.0000      0.0000
 28      0.0000      0.1045      0.0000      0.0054      0.0000      0.0000      0.0000      0.0000      0.0359
 29     34.1155     35.6014     35.8334     35.1711     35.5735     35.5192     35.1277     34.9462     35.7289
 30     23.2754     23.0035     23.2106     22.7321     22.9794     23.2436     23.3362     23.3413     23.2838
 31      0.0000      0.0169      0.0389      0.0000      0.0000      0.0000      0.0000      0.0000      0.0000
 32      0.0000      0.0144      0.0000      0.0000      0.0000      0.0000      0.0000      0.0000      0.0000
 33      0.0000      0.0242      0.0000      0.0000      0.0000      0.0000      0.0226      0.0000      0.0000
 34      0.0000      0.0299      0.0000      0.0000      0.0000      0.0000      0.0000      0.0000      0.0000
 35      0.0000      0.0356      0.0000      0.0000      0.0000      0.0031      0.0000      0.0000      0.0000
 36      0.0000      0.0261      0.0000      0.0000      0.0000      0.0432      0.0000      0.0000      0.0000
 37      0.0000      0.0322      0.0000      0.0000      0.0000      0.0000      0.0000      0.0000      0.3686
 38      0.0000      0.0314      0.1703      0.0000      0.0000      0.0000      0.0000      0.0000      0.0000
 39      0.0000      0.0586      0.0000      0.0000      0.0000      0.0359      0.0000      0.2340      0.0000
 40      0.0000      0.1092      0.0000      0.3155      0.0000      0.0000      0.0000      0.0224      0.0000
 41      0.0000      0.0548      0.0000      0.0000      0.0000      0.0000      0.0000      0.0286      0.0000
 42      0.0000      0.0340      0.0000      0.0938      0.0065      0.0000      0.0072      0.0000      0.0000
 43      0.7476      0.8590      0.7071      0.8403      0.8921      0.6777      0.4168      0.7686      0.6784
 44      1.3813      0.9130      0.9543      1.0644      0.9974      1.2004      1.1440      0.8853      0.9130
 45      0.8650      0.6367      0.7451      0.9547      0.5616      0.6971      0.8658      1.1547      0.7111

# j      m_j: min, <> & last-chain-values for 1 ...  7 chains
  1  3.3146E-03  4.7653E-03  4.7375E-03  4.9096E-03  4.4810E-03  4.5563E-03  4.6145E-03  4.4891E-03  4.9491E-03
  2  5.0191E-03  3.5825E-03  3.6295E-03  3.6293E-03  3.6293E-03  3.5817E-03  3.5749E-03  3.8440E-03  3.7354E-03
  3  2.5555E-03  2.5503E-03  2.7425E-03  2.5650E-03  2.6293E-03  2.7993E-03  2.5186E-03  2.7043E-03  2.5145E-03
  4  1.4241E-02  1.3750E-02  1.4244E-02  1.3727E-02  1.4006E-02  1.3966E-02  1.3666E-02  1.4140E-02  1.4361E-02
  5  9.6102E-03  8.5394E-03  8.1011E-03  8.4449E-03  8.5057E-03  8.1376E-03  1.0145E-02  8.7580E-03  8.8366E-03
  6  0.0000E+00  2.9444E-04  0.0000E+00  0.0000E+00  0.0000E+00  0.0000E+00  3.1142E-04  5.0366E-04  0.0000E+00
  7  0.0000E+00  7.3733E-04  1.8470E-03  1.5471E-04  1.2770E-03  3.1044E-03  0.0000E+00  0.0000E+00  0.0000E+00
  8  0.0000E+00  1.1184E-03  0.0000E+00  7.3565E-04  0.0000E+00  4.9149E-03  2.1669E-04  0.0000E+00  0.0000E+00
  9  0.0000E+00  5.0531E-03  0.0000E+00  6.4992E-03  1.1098E-02  0.0000E+00  1.1018E-02  7.7529E-03  5.4144E-03
 10  0.0000E+00  8.8965E-03  2.6454E-02  1.3729E-02  2.3759E-02  1.4692E-02  7.7737E-03  3.8583E-03  1.3313E-02
 11  0.0000E+00  7.4803E-03  0.0000E+00  1.1145E-02  0.0000E+00  0.0000E+00  2.5552E-03  9.5863E-03  2.3157E-02
 12  0.0000E+00  2.1583E-02  3.9548E-02  0.0000E+00  1.7837E-02  2.4605E-02  0.0000E+00  5.7088E-03  0.0000E+00
 13  0.0000E+00  1.0106E-01  6.8621E-03  1.6715E-01  7.4830E-02  7.4445E-02  3.0252E-02  4.4408E-02  5.7909E-02
 14  8.9852E+00  8.7584E+00  8.5430E+00  8.7118E+00  8.5274E+00  8.2297E+00  8.8414E+00  8.2703E+00  8.7399E+00
 15  2.0297E+00  1.3225E+00  1.4519E+00  1.3916E+00  1.8042E+00  1.6847E+00  1.6467E+00  1.7601E+00  1.1640E+00
 16  0.0000E+00  1.2628E-04  0.0000E+00  1.0319E-04  9.5273E-05  0.0000E+00  1.1971E-04  0.0000E+00  1.8801E-05
 17  0.0000E+00  2.7079E-05  2.1604E-06  8.1725E-05  0.0000E+00  2.5362E-05  0.0000E+00  0.0000E+00  0.0000E+00
 18  1.8632E-03  2.3406E-03  2.2901E-03  2.4626E-03  2.3880E-03  2.3939E-03  2.3370E-03  2.4025E-03  2.3829E-03
 19  0.0000E+00  5.3683E-04  5.9259E-04  4.9237E-04  1.1056E-03  6.8909E-04  7.0228E-04  0.0000E+00  1.1779E-04
 20  0.0000E+00  1.2517E-04  0.0000E+00  0.0000E+00  9.5599E-05  0.0000E+00  0.0000E+00  2.8195E-04  3.1513E-04
 21  0.0000E+00  3.1086E-04  0.0000E+00  0.0000E+00  0.0000E+00  0.0000E+00  0.0000E+00  0.0000E+00  0.0000E+00
 22  0.0000E+00  7.1139E-04  8.2315E-04  3.1165E-05  0.0000E+00  0.0000E+00  1.2271E-03  0.0000E+00  0.0000E+00
 23  0.0000E+00  9.3309E-04  0.0000E+00  3.1498E-03  0.0000E+00  1.0529E-03  3.5019E-03  2.2251E-03  0.0000E+00
 24  0.0000E+00  2.8481E-03  0.0000E+00  0.0000E+00  0.0000E+00  0.0000E+00  0.0000E+00  0.0000E+00  0.0000E+00
 25  0.0000E+00  3.5180E-03  0.0000E+00  0.0000E+00  1.5340E-04  0.0000E+00  0.0000E+00  0.0000E+00  0.0000E+00
 26  0.0000E+00  1.3770E-02  0.0000E+00  2.0764E-02  1.3556E-02  2.7004E-02  0.0000E+00  5.0097E-02  2.0032E-02
 27  0.0000E+00  2.4863E-02  6.7234E-03  0.0000E+00  0.0000E+00  4.4252E-03  1.2228E-02  0.0000E+00  0.0000E+00
 28  0.0000E+00  6.6253E-02  0.0000E+00  3.4056E-03  0.0000E+00  0.0000E+00  0.0000E+00  0.0000E+00  2.2661E-02
 29  4.5428E+01  4.7796E+01  4.7793E+01  4.7072E+01  4.7741E+01  4.7355E+01  4.6731E+01  4.6503E+01  4.7802E+01
 30  3.6976E+01  3.6844E+01  3.6933E+01  3.6297E+01  3.6792E+01  3.6971E+01  3.7037E+01  3.7056E+01  3.7165E+01
 31  0.0000E+00  1.9616E-05  4.4790E-05  0.0000E+00  0.0000E+00  0.0000E+00  0.0000E+00  0.0000E+00  0.0000E+00
 32  0.0000E+00  8.7751E-06  0.0000E+00  0.0000E+00  0.0000E+00  0.0000E+00  0.0000E+00  0.0000E+00  0.0000E+00
 33  0.0000E+00  2.1923E-05  0.0000E+00  0.0000E+00  0.0000E+00  0.0000E+00  2.0356E-05  0.0000E+00  0.0000E+00
 34  0.0000E+00  8.7659E-05  0.0000E+00  0.0000E+00  0.0000E+00  0.0000E+00  0.0000E+00  0.0000E+00  0.0000E+00
 35  0.0000E+00  2.0585E-04  0.0000E+00  0.0000E+00  0.0000E+00  1.7651E-05  0.0000E+00  0.0000E+00  0.0000E+00
 36  0.0000E+00  1.9113E-04  0.0000E+00  0.0000E+00  0.0000E+00  3.1448E-04  0.0000E+00  0.0000E+00  0.0000E+00
 37  0.0000E+00  4.0882E-04  0.0000E+00  0.0000E+00  0.0000E+00  0.0000E+00  0.0000E+00  0.0000E+00  4.6690E-03
 38  0.0000E+00  9.0729E-04  4.8878E-03  0.0000E+00  0.0000E+00  0.0000E+00  0.0000E+00  0.0000E+00  0.0000E+00
 39  0.0000E+00  4.2784E-03  0.0000E+00  0.0000E+00  0.0000E+00  2.6019E-03  0.0000E+00  1.6940E-02  0.0000E+00
 40  0.0000E+00  1.3782E-02  0.0000E+00  3.9678E-02  0.0000E+00  0.0000E+00  0.0000E+00  2.7983E-03  0.0000E+00
 41  0.0000E+00  1.2590E-02  0.0000E+00  0.0000E+00  0.0000E+00  0.0000E+00  0.0000E+00  6.5230E-03  0.0000E+00
 42  0.0000E+00  1.5541E-02  0.0000E+00  4.2733E-02  2.9666E-03  0.0000E+00  3.2567E-03  0.0000E+00  0.0000E+00
 43  7.8373E-01  9.0794E-01  7.4249E-01  8.8540E-01  9.4261E-01  7.1132E-01  4.3658E-01  8.0527E-01  7.1457E-01
 44  3.2705E+00  2.1795E+00  2.2633E+00  2.5331E+00  2.3801E+00  2.8456E+00  2.7060E+00  2.0948E+00  2.1719E+00
 45  2.4906E+00  1.8482E+00  2.1491E+00  2.7630E+00  1.6297E+00  2.0097E+00  2.4905E+00  3.3228E+00  2.0574E+00

# AV, chi2 & Mass for <> & i_chain = 1 ...  7 solutions
AV       1.5935      1.5889      1.5886      1.5903      1.5929      1.5897      1.5911      1.5894      1.5935
chi2 3.1944E+00  3.2249E+00  3.2174E+00  3.2168E+00  3.2136E+00  3.2162E+00  3.2146E+00  3.2121E+00  3.2174E+00
Mass 1.2068E-09  1.1897E-09  1.1971E-09  1.1957E-09  1.1965E-09  1.1993E-09  1.2041E-09  1.2010E-09  1.2012E-09
  -6.89                                  [v0_min (km/s) before EX0s...]
  64.82                                  [vd_min (km/s) before EX0s...]


## Synthetic spectrum (Best Model) ##l_obs f_obs f_syn wei
 3070    [Nl_obs]
 3359.00    0.23214   0.37463   -1.000
 3360.00    0.22166   0.35503   -1.000
 3361.00    0.25036   0.35927   -1.000
 3362.00    0.25547   0.38428   -1.000
 3363.00    0.24920   0.41554   -1.000
 3364.00    0.26283   0.43607   -1.000
 3365.00    0.28177   0.43597   -1.000
 3366.00    0.30534   0.41820   -1.000
 3367.00    0.28968   0.39524   -1.000
 3368.00    0.31082   0.37627   -1.000
 3369.00    0.31727   0.36605   -1.000
 3370.00    0.27558   0.36235   -1.000
 3371.00    0.26882   0.36244   -1.000
 3372.00    0.26772   0.36931   -1.000
 3373.00    0.26515   0.38674   -1.000
 3374.00    0.28518   0.41273   -1.000
 3375.00    0.30189   0.43953   -1.000
 3376.00    0.32154   0.45452   -1.000
 3377.00    0.32365   0.44893   -1.000
 3378.00    0.30544   0.42831   -1.000
 3379.00    0.29965   0.40750   -1.000
 3380.00    0.29311   0.39887   -1.000
 3381.00    0.30870   0.40626   -1.000
 3382.00    0.31024   0.42165   -1.000
 3383.00    0.30634   0.43646   -1.000
 3384.00    0.31709   0.44755   -1.000
 3385.00    0.31183   0.45586   -1.000
 3386.00    0.32668   0.45952   -1.000
 3387.00    0.33769   0.45888   -1.000
 3388.00    0.32517   0.45671   -1.000
 3389.00    0.35513   0.45393   -1.000
 3390.00    0.34803   0.44691   -1.000
 3391.00    0.34521   0.43363   -1.000
 3392.00    0.34708   0.42141   -1.000
 3393.00    0.33287   0.41993   -1.000
 3394.00    0.34903   0.43200   -1.000
 3395.00    0.35904   0.45188   -1.000
 3396.00    0.36295   0.47031   -1.000
 3397.00    0.36829   0.48552   -1.000
 3398.00    0.39072   0.49604   -1.000
 3399.00    0.39058   0.49922   -1.000
 3400.00    0.37579   0.49564   -1.000
 3401.00    0.38656   0.48633   -1.000
 3402.00    0.37923   0.47316   -1.000
 3403.00    0.39542   0.46133   -1.000
 3404.00    0.37978   0.45267   -1.000
 3405.00    0.39295   0.44538   50.981
 3406.00    0.40366   0.43813   51.798
 3407.00    0.41447   0.43326   52.084
 3408.00    0.40103   0.43419   51.763
 3409.00    0.38954   0.44062   50.194
 3410.00    0.39670   0.44704   49.797
 3411.00    0.40477   0.44400   51.956
 3412.00    0.40777   0.43048   52.917
 3413.00    0.40564   0.41469   52.800
 3414.00    0.39128   0.40707   51.485
 3415.00    0.40589   0.41408   49.269
 3416.00    0.38312   0.43212   46.936
 3417.00    0.38054   0.45473   -1.000
 3418.00    0.40194   0.47557   -1.000
 3419.00    0.44485   0.49108   44.069
 3420.00    0.44553   0.49584   44.340
 3421.00    0.42332   0.48747   45.648
 3422.00    0.43914   0.47177   46.681
 3423.00    0.45207   0.46099   45.339
 3424.00    0.44384   0.45836   44.143
 3425.00    0.41589   0.46081   43.907
 3426.00    0.40483   0.46618   -1.000
 3427.00    0.43956   0.47599   -1.000
 3428.00    0.45552   0.49222   -1.000
 3429.00    0.44777   0.50680   -1.000
 3430.00    0.47203   0.50609   -1.000
 3431.00    0.44603   0.49063   44.596
 3432.00    0.44118   0.47148   43.783
 3433.00    0.43796   0.46249   -1.000
 3434.00    0.42961   0.46618   -1.000
 3435.00    0.40632   0.47168   44.176
 3436.00    0.41697   0.46945   45.825
 3437.00    0.41880   0.45595   48.591
 3438.00    0.42671   0.43182   52.477
 3439.00    0.41322   0.40125   54.586
 3440.00    0.37383   0.37311   54.668
 3441.00    0.35777   0.35580   54.433
 3442.00    0.33597   0.35513   52.257
 3443.00    0.34866   0.36663   49.388
 3444.00    0.38041   0.38205   46.651
 3445.00    0.39621   0.39767   45.035
 3446.00    0.38669   0.41518   -1.000
 3447.00    0.40599   0.43553   -1.000
 3448.00    0.45813   0.45774  377.136
 3449.00    0.47428   0.47426  377.136
 3450.00    0.45771   0.47612   -1.000
 3451.00    0.45516   0.46514   -1.000
 3452.00    0.43772   0.45366   -1.000
 3453.00    0.44847   0.45148  377.136
 3454.00    0.47215   0.45881   -1.000
 3455.00    0.46681   0.46462  377.136
 3456.00    0.42495   0.45977   -1.000
 3457.00    0.44163   0.44413   43.902
 3458.00    0.43778   0.42440   44.499
 3459.00    0.41502   0.40953   44.358
 3460.00    0.43478   0.40278   -1.000
 3461.00    0.44050   0.40775   -1.000
 3462.00    0.42279   0.42479  377.136
 3463.00    0.42314   0.44352   -1.000
 3464.00    0.45434   0.45031  377.136
 3465.00    0.47852   0.44844   -1.000
 3466.00    0.45420   0.44801  377.136
 3467.00    0.42907   0.45547   -1.000
 3468.00    0.46239   0.46909  371.043
 3469.00    0.49396   0.48061   -1.000
 3470.00    0.49062   0.48329  377.136
 3471.00    0.48645   0.47335   -1.000
 3472.00    0.48117   0.45279   -1.000
 3473.00    0.44392   0.42710   44.285
 3474.00    0.44934   0.40385   45.935
 3475.00    0.43598   0.39084   45.442
 3476.00    0.43855   0.39499   -1.000
 3477.00    0.44643   0.41274   -1.000
 3478.00    0.42781   0.43439  376.375
 3479.00    0.46933   0.45072   -1.000
 3480.00    0.48107   0.45780   -1.000
 3481.00    0.47174   0.45534   -1.000
 3482.00    0.45680   0.44635   -1.000
 3483.00    0.45208   0.43830   -1.000
 3484.00    0.47269   0.44031   -1.000
 3485.00    0.47823   0.45434   -1.000
 3486.00    0.49505   0.47030   -1.000
 3487.00    0.48288   0.47473   -1.000
 3488.00    0.47660   0.46091   -1.000
 3489.00    0.47286   0.43687   -1.000
 3490.00    0.44425   0.41764   -1.000
 3491.00    0.43635   0.41338   -1.000
 3492.00    0.45608   0.42206   -1.000
 3493.00    0.45553   0.43366   -1.000
 3494.00    0.44095   0.43885  377.136
 3495.00    0.43041   0.43451  377.136
 3496.00    0.42752   0.42949  377.136
 3497.00    0.42935   0.43615  368.143
 3498.00    0.42401   0.45754   -1.000
 3499.00    0.44948   0.48095   -1.000
 3500.00    0.47823   0.49412   -1.000
 3501.00    0.49041   0.50190   -1.000
 3502.00    0.51406   0.50951  350.048
 3503.00    0.54367   0.51307   -1.000
 3504.00    0.53300   0.50810   -1.000
 3505.00    0.51239   0.49740   -1.000
 3506.00    0.52084   0.48882   -1.000
 3507.00    0.51170   0.48534   -1.000
 3508.00    0.50492   0.48093   -1.000
 3509.00    0.49036   0.47121   -1.000
 3510.00    0.47203   0.45900   -1.000
 3511.00    0.46860   0.44643   -1.000
 3512.00    0.48682   0.43412   -1.000
 3513.00    0.47678   0.42437   -1.000
 3514.00    0.45363   0.42561   -1.000
 3515.00    0.43885   0.44515  352.315
 3516.00    0.44173   0.47624   -1.000
 3517.00    0.47092   0.50213   -1.000
 3518.00    0.50191   0.51004   -1.000
 3519.00    0.50230   0.49779  377.136
 3520.00    0.48831   0.47370   -1.000
 3521.00    0.46468   0.44746   -1.000
 3522.00    0.44456   0.42555   43.944
 3523.00    0.43174   0.40646   45.463
 3524.00    0.41478   0.39232   46.906
 3525.00    0.39412   0.39099  377.136
 3526.00    0.38708   0.40665   -1.000
 3527.00    0.40183   0.43524   -1.000
 3528.00    0.44392   0.46603   -1.000
 3529.00    0.47502   0.48597   -1.000
 3530.00    0.49956   0.49051   -1.000
 3531.00    0.49166   0.48594  370.117
 3532.00    0.47098   0.48486   -1.000
 3533.00    0.47899   0.49198   -1.000
 3534.00    0.51004   0.50305  351.020
 3535.00    0.52134   0.51077   -1.000
 3536.00    0.51746   0.51330  348.885
 3537.00    0.50565   0.51710   -1.000
 3538.00    0.51705   0.52392  348.046
 3539.00    0.53181   0.52691  354.569
 3540.00    0.51865   0.52201  357.290
 3541.00    0.52846   0.51440   -1.000
 3542.00    0.51248   0.51430  349.551
 3543.00    0.49989   0.52257   -1.000
 3544.00    0.50568   0.53062   -1.000
 3545.00    0.50110   0.53173   -1.000
 3546.00    0.47497   0.52625   -1.000
 3547.00    0.47590   0.52106   -1.000
 3548.00    0.50241   0.52007   -1.000
 3549.00    0.49639   0.52093   -1.000
 3550.00    0.48528   0.51872   -1.000
 3551.00    0.48493   0.51009   -1.000
 3552.00    0.48338   0.49660   -1.000
 3553.00    0.46193   0.48480   -1.000
 3554.00    0.46258   0.48169   -1.000
 3555.00    0.44952   0.48592   -1.000
 3556.00    0.45632   0.48975   -1.000
 3557.00    0.46502   0.48871   -1.000
 3558.00    0.45643   0.48472   -1.000
 3559.00    0.44524   0.48530   -1.000
 3560.00    0.43134   0.49410   -1.000
 3561.00    0.46143   0.50586   -1.000
 3562.00    0.46713   0.50866   -1.000
 3563.00    0.47244   0.49108   44.443
 3564.00    0.43904   0.45638   46.119
 3565.00    0.43017   0.42342   45.579
 3566.00    0.38751   0.40963   45.446
 3567.00    0.38501   0.40883   46.978
 3568.00    0.41197   0.40515   47.671
 3569.00    0.40519   0.39506   46.103
 3570.00    0.39296   0.38798   47.053
 3571.00    0.39225   0.39412  377.136
 3572.00    0.38712   0.41108   -1.000
 3573.00    0.42312   0.42751  377.136
 3574.00    0.45186   0.43851   -1.000
 3575.00    0.44495   0.44334  377.136
 3576.00    0.42939   0.44072  269.275
 3577.00    0.42571   0.42858   46.064
 3578.00    0.43388   0.40667   49.681
 3579.00    0.40956   0.37929   52.217
 3580.00    0.37112   0.35692   52.519
 3581.00    0.35414   0.34730   52.817
 3582.00    0.35405   0.35010   54.200
 3583.00    0.34094   0.35533   55.921
 3584.00    0.34685   0.35477   56.405
 3585.00    0.34173   0.35002   53.496
 3586.00    0.34309   0.34976   50.661
 3587.00    0.35811   0.35992   48.034
 3588.00    0.38140   0.38087   47.364
 3589.00    0.38049   0.40986   -1.000
 3590.00    0.39293   0.43908   -1.000
 3591.00    0.42066   0.45983   -1.000
 3592.00    0.45610   0.46775   -1.000
 3593.00    0.45763   0.47073   -1.000
 3594.00    0.45971   0.47938   -1.000
 3595.00    0.46876   0.49675   -1.000
 3596.00    0.49569   0.51623   -1.000
 3597.00    0.48713   0.53091   -1.000
 3598.00    0.50614   0.54230   -1.000
 3599.00    0.52866   0.54946   -1.000
 3600.00    0.52849   0.54475   -1.000
 3601.00    0.52759   0.52503  377.136
 3602.00    0.51948   0.49703   -1.000
 3603.00    0.48513   0.47092   -1.000
 3604.00    0.46424   0.45519   -1.000
 3605.00    0.44815   0.44906  377.136
 3606.00    0.46324   0.44405   -1.000
 3607.00    0.44376   0.43325   -1.000
 3608.00    0.41570   0.42053  377.136
 3609.00    0.41909   0.41765  377.136
 3610.00    0.43020   0.43067  377.136
 3611.00    0.46054   0.45209   -1.000
 3612.00    0.49783   0.46985   -1.000
 3613.00    0.48937   0.48401  357.540
 3614.00    0.48662   0.49702   -1.000
 3615.00    0.50153   0.50222  377.136
 3616.00    0.49862   0.48837  233.222
 3617.00    0.47079   0.45475   47.744
 3618.00    0.43805   0.42177   -1.000
 3619.00    0.42303   0.41580   -1.000
 3620.00    0.43024   0.43830  351.764
 3621.00    0.45049   0.47428   -1.000
 3622.00    0.48952   0.50603   -1.000
 3623.00    0.51851   0.52851   -1.000
 3624.00    0.53533   0.54951   -1.000
 3625.00    0.55737   0.57564   -1.000
 3626.00    0.55342   0.60058   -1.000
 3627.00    0.57736   0.61046   -1.000
 3628.00    0.57753   0.59365   -1.000
 3629.00    0.57048   0.54933   -1.000
 3630.00    0.52806   0.49485   -1.000
 3631.00    0.47807   0.45790   -1.000
 3632.00    0.44053   0.44938  377.136
 3633.00    0.45198   0.46344   -1.000
 3634.00    0.45778   0.48461   -1.000
 3635.00    0.47162   0.50276   -1.000
 3636.00    0.51174   0.51782  326.868
 3637.00    0.53143   0.53697  317.103
 3638.00    0.56838   0.56010  317.785
 3639.00    0.57133   0.57883   -1.000
 3640.00    0.58423   0.58483  338.063
 3641.00    0.58224   0.57473  355.715
 3642.00    0.54796   0.55403  365.509
 3643.00    0.51457   0.53146   -1.000
 3644.00    0.49628   0.51112   -1.000
 3645.00    0.49578   0.49289  377.136
 3646.00    0.48986   0.47517   -1.000
 3647.00    0.46823   0.46169  371.393
 3648.00    0.48340   0.46101   -1.000
 3649.00    0.48492   0.47675  338.852
 3650.00    0.51623   0.50602   -1.000
 3651.00    0.53793   0.54018  317.844
 3652.00    0.54458   0.56993   -1.000
 3653.00    0.56286   0.58772   -1.000
 3654.00    0.56881   0.59733   -1.000
 3655.00    0.57825   0.60601   -1.000
 3656.00    0.59793   0.61861   -1.000
 3657.00    0.61107   0.63306   -1.000
 3658.00    0.61611   0.64298   -1.000
 3659.00    0.63553   0.64625   -1.000
 3660.00    0.63501   0.64223   -1.000
 3661.00    0.61016   0.63086   -1.000
 3662.00    0.60387   0.61576   -1.000
 3663.00    0.59814   0.60412   -1.000
 3664.00    0.58808   0.59927   -1.000
 3665.00    0.58882   0.59941   -1.000
 3666.00    0.59196   0.59773  323.075
 3667.00    0.60126   0.58897   -1.000
 3668.00    0.61164   0.57617   -1.000
 3669.00    0.59481   0.57007   -1.000
 3670.00    0.57678   0.57916  308.950
 3671.00    0.58141   0.59763   -1.000
 3672.00    0.59875   0.61296   -1.000
 3673.00    0.61725   0.61891  309.987
 3674.00    0.62056   0.61524  319.823
 3675.00    0.60675   0.60257  329.763
 3676.00    0.59365   0.58173   -1.000
 3677.00    0.56940   0.55608   -1.000
 3678.00    0.55539   0.53209   -1.000
 3679.00    0.52901   0.51850   -1.000
 3680.00    0.53374   0.52122   -1.000
 3681.00    0.53370   0.53668  325.046
 3682.00    0.54700   0.55357  333.928
 3683.00    0.56467   0.56111  347.813
 3684.00    0.54652   0.55192  361.055
 3685.00    0.53548   0.52741  365.044
 3686.00    0.51499   0.50147   -1.000
 3687.00    0.49681   0.49384  328.779
 3688.00    0.50961   0.51202  308.660
 3689.00    0.53164   0.54932   -1.000
 3690.00    0.58013   0.58846  304.481
 3691.00    0.62994   0.61177   -1.000
 3692.00    0.62296   0.61179  315.887
 3693.00    0.61594   0.59893   -1.000
 3694.00    0.59771   0.58755  311.203
 3695.00    0.57593   0.58361  306.417
 3696.00    0.57292   0.58950   -1.000
 3697.00    0.60457   0.60620  289.578
 3698.00    0.62641   0.62945  287.121
 3699.00    0.64710   0.64818  293.910
 3700.00    0.66548   0.65254   -1.000
 3701.00    0.65586   0.63565   -1.000
 3702.00    0.63207   0.59557   -1.000
 3703.00    0.59073   0.54126   -1.000
 3704.00    0.54674   0.49185   -1.000
 3705.00    0.51179   0.46139   -1.000
 3706.00    0.48636   0.45475   -1.000
 3707.00    0.49577   0.46252   -1.000
 3708.00    0.49874   0.47655   -1.000
 3709.00    0.52201   0.49742   -1.000
 3710.00    0.55181   0.52713   -1.000
 3711.00    0.59565   0.56255   -1.000
 3712.00    0.63338   0.59922   -1.000
 3713.00    0.64713   0.62821   -1.000
 3714.00    0.65738   0.64072   -1.000
 3715.00    0.66060   0.63464   -1.000
 3716.00    0.63581   0.61073   -1.000
 3717.00    0.61697   0.56861   -1.000
 3718.00    0.55879   0.51203   -1.000
 3719.00    0.49185   0.45155   51.677
 3720.00    0.43790   0.40637   -1.000
 3721.00    0.42046   0.39594   -1.000
 3722.00    0.43478   0.42073   -1.000
 3723.00    0.47540   0.46781  316.978
 3724.00    0.53445   0.51698   -1.000
 3725.00    0.56472   0.54674   -1.000
 3726.00    0.56405   0.55068   -1.000
 3727.00    0.54298   0.54500  327.461
 3728.00    0.52775   0.54516   -1.000
 3729.00    0.53656   0.54629  351.531
 3730.00    0.56158   0.53420   -1.000
 3731.00    0.54422   0.49904   44.512
 3732.00    0.48546   0.44594   49.338
 3733.00    0.44385   0.39312   50.416
 3734.00    0.41047   0.35508   47.456
 3735.00    0.38055   0.34371   51.121
 3736.00    0.38460   0.36236   -1.000
 3737.00    0.41540   0.40522   -1.000
 3738.00    0.44400   0.46092   -1.000
 3739.00    0.49591   0.51495   -1.000
 3740.00    0.53922   0.54805  342.390
 3741.00    0.55274   0.55136  364.166
 3742.00    0.53127   0.52921  377.136
 3743.00    0.50867   0.49496   -1.000
 3744.00    0.49039   0.46151   -1.000
 3745.00    0.46354   0.43668   44.819
 3746.00    0.43080   0.41513   47.331
 3747.00    0.41202   0.39208   56.288
 3748.00    0.40337   0.37357   -1.000
 3749.00    0.38950   0.37364   -1.000
 3750.00    0.41290   0.40295   -1.000
 3751.00    0.46698   0.45468   -1.000
 3752.00    0.50776   0.51100  295.684
 3753.00    0.54820   0.56120   -1.000
 3754.00    0.59431   0.59500  314.602
 3755.00    0.60568   0.59738   -1.000
 3756.00    0.58094   0.56663   -1.000
 3757.00    0.54882   0.52004   -1.000
 3758.00    0.50817   0.48522   -1.000
 3759.00    0.48560   0.47874   -1.000
 3760.00    0.48947   0.49190  337.732
 3761.00    0.51738   0.50691   -1.000
 3762.00    0.53686   0.51328   -1.000
 3763.00    0.52755   0.51328   -1.000
 3764.00    0.52572   0.51099   -1.000
 3765.00    0.52741   0.50566   -1.000
 3766.00    0.52364   0.49918   -1.000
 3767.00    0.52675   0.49728   -1.000
 3768.00    0.52746   0.50072   -1.000
 3769.00    0.54465   0.50686   -1.000
 3770.00    0.56927   0.51758   -1.000
 3771.00    0.57830   0.53648   -1.000
 3772.00    0.60538   0.56077   -1.000
 3773.00    0.63764   0.58203   -1.000
 3774.00    0.63587   0.59400   -1.000
 3775.00    0.62500   0.60054   -1.000
 3776.00    0.60962   0.60764  295.042
 3777.00    0.61909   0.61806  285.575
 3778.00    0.61531   0.63195   -1.000
 3779.00    0.62252   0.64686   -1.000
 3780.00    0.62434   0.66006   -1.000
 3781.00    0.64728   0.66916   -1.000
 3782.00    0.66576   0.67331  286.344
 3783.00    0.66931   0.66949  303.044
 3784.00    0.65909   0.65121   -1.000
 3785.00    0.62516   0.61783   -1.000
 3786.00    0.59405   0.57920   -1.000
 3787.00    0.54362   0.54694  341.996
 3788.00    0.53356   0.52933  336.281
 3789.00    0.54011   0.52875   -1.000
 3790.00    0.52104   0.53808   -1.000
 3791.00    0.53377   0.54497  354.285
 3792.00    0.54426   0.53947   -1.000
 3793.00    0.52587   0.52082   -1.000
 3794.00    0.50414   0.49756   -1.000
 3795.00    0.49475   0.47456   -1.000
 3796.00    0.47930   0.45103   -1.000
 3797.00    0.45987   0.42903   -1.000
 3798.00    0.44703   0.42185   -1.000
 3799.00    0.45399   0.44280   -1.000
 3800.00    0.48478   0.48730  315.062
 3801.00    0.50710   0.53723   -1.000
 3802.00    0.53310   0.57896   -1.000
 3803.00    0.56641   0.60374   -1.000
 3804.00    0.57708   0.60922   -1.000
 3805.00    0.56415   0.59874   -1.000
 3806.00    0.53937   0.58434   -1.000
 3807.00    0.52889   0.58073   -1.000
 3808.00    0.54595   0.59314   -1.000
 3809.00    0.56245   0.61123   -1.000
 3810.00    0.56620   0.61886   -1.000
 3811.00    0.56386   0.60577   -1.000
 3812.00    0.54579   0.57387   -1.000
 3813.00    0.51904   0.53519   -1.000
 3814.00    0.48339   0.50268   -1.000
 3815.00    0.44708   0.48736   -1.000
 3816.00    0.44603   0.48804   -1.000
 3817.00    0.45958   0.49053   -1.000
 3818.00    0.47457   0.47991  377.136
 3819.00    0.45036   0.45855  377.136
 3820.00    0.42184   0.44432   -1.000
 3821.00    0.42323   0.44746   -1.000
 3822.00    0.42557   0.45774   -1.000
 3823.00    0.42253   0.45482   46.062
 3824.00    0.40709   0.43565   46.735
 3825.00    0.39026   0.41544   46.227
 3826.00    0.38983   0.40532   45.469
 3827.00    0.38836   0.40675   45.010
 3828.00    0.38955   0.41435   45.922
 3829.00    0.40723   0.42010   48.397
 3830.00    0.41704   0.41668   51.808
 3831.00    0.40725   0.40201   52.750
 3832.00    0.38522   0.38063   51.403
 3833.00    0.36901   0.36159   49.514
 3834.00    0.36158   0.35268   48.926
 3835.00    0.37928   0.35455   50.049
 3836.00    0.37512   0.36152   50.781
 3837.00    0.37738   0.36691   49.355
 3838.00    0.38103   0.37169   58.824
 3839.00    0.36963   0.38322   -1.000
 3840.00    0.37633   0.40854   -1.000
 3841.00    0.41165   0.44707   -1.000
 3842.00    0.44403   0.48871   -1.000
 3843.00    0.46624   0.52294   -1.000
 3844.00    0.48920   0.54296   -1.000
 3845.00    0.49776   0.55218   -1.000
 3846.00    0.49088   0.55627   -1.000
 3847.00    0.47963   0.55472   -1.000
 3848.00    0.46465   0.54582   -1.000
 3849.00    0.45621   0.53535   -1.000
 3850.00    0.45909   0.53306   -1.000
 3851.00    0.47446   0.54065   -1.000
 3852.00    0.47430   0.54794   -1.000
 3853.00    0.46535   0.54534   -1.000
 3854.00    0.46450   0.53218   -1.000
 3855.00    0.44412   0.51494   -1.000
 3856.00    0.43613   0.49778   44.041
 3857.00    0.44122   0.47936   45.934
 3858.00    0.43339   0.46199   56.985
 3859.00    0.41290   0.45640   -1.000
 3860.00    0.40139   0.47103   -1.000
 3861.00    0.41847   0.50229   -1.000
 3862.00    0.46642   0.53347   -1.000
 3863.00    0.50812   0.54959   -1.000
 3864.00    0.51839   0.54950   -1.000
 3865.00    0.51141   0.54317   -1.000
 3866.00    0.50294   0.53888   -1.000
 3867.00    0.48315   0.53639   -1.000
 3868.00    0.47303   0.53035   -1.000
 3869.00    0.45444   0.51641   -1.000
 3870.00    0.43505   0.49733   -1.000
 3871.00    0.42810   0.48494   -1.000
 3872.00    0.43033   0.48996   -1.000
 3873.00    0.46333   0.51373   -1.000
 3874.00    0.50839   0.54337   -1.000
 3875.00    0.52957   0.55907   -1.000
 3876.00    0.52577   0.54910   -1.000
 3877.00    0.50187   0.52525   -1.000
 3878.00    0.46939   0.50794   -1.000
 3879.00    0.46994   0.50361   -1.000
 3880.00    0.47326   0.50654   -1.000
 3881.00    0.46644   0.51031   -1.000
 3882.00    0.47034   0.51571   -1.000
 3883.00    0.49230   0.52204   -1.000
 3884.00    0.51336   0.51709  375.871
 3885.00    0.51728   0.49318   -1.000
 3886.00    0.49388   0.46102   -1.000
 3887.00    0.49683   0.43876   -1.000
 3888.00    0.51293   0.44028   -1.000
 3889.00    0.52724   0.46857   -1.000
 3890.00    0.56875   0.51512   -1.000
 3891.00    0.61743   0.56396   -1.000
 3892.00    0.63197   0.59847   -1.000
 3893.00    0.62489   0.61060   -1.000
 3894.00    0.61680   0.60956  290.520
 3895.00    0.62568   0.60952   -1.000
 3896.00    0.63194   0.61468   -1.000
 3897.00    0.63446   0.61950   -1.000
 3898.00    0.64999   0.61853   -1.000
 3899.00    0.64453   0.61589   -1.000
 3900.00    0.63722   0.61797   -1.000
 3901.00    0.64945   0.62123   -1.000
 3902.00    0.66173   0.61807   -1.000
 3903.00    0.63947   0.60669   -1.000
 3904.00    0.61012   0.59331   -1.000
 3905.00    0.59091   0.58919  292.114
 3906.00    0.60479   0.60169  275.813
 3907.00    0.64720   0.62995   -1.000
 3908.00    0.68532   0.66308   -1.000
 3909.00    0.70676   0.68888   -1.000
 3910.00    0.72083   0.70368   -1.000
 3911.00    0.72760   0.71118   -1.000
 3912.00    0.73674   0.71293   -1.000
 3913.00    0.72151   0.70869   -1.000
 3914.00    0.70641   0.69980  284.635
 3915.00    0.71536   0.68867   -1.000
 3916.00    0.70111   0.67609   -1.000
 3917.00    0.67333   0.66005   -1.000
 3918.00    0.65193   0.63718   -1.000
 3919.00    0.62944   0.60960   -1.000
 3920.00    0.61383   0.58573   -1.000
 3921.00    0.58841   0.57332   -1.000
 3922.00    0.58155   0.57456   -1.000
 3923.00    0.59340   0.58125   -1.000
 3924.00    0.59712   0.58121   -1.000
 3925.00    0.59076   0.56629   -1.000
 3926.00    0.56321   0.53577   50.592
 3927.00    0.51867   0.49638   59.299
 3928.00    0.46021   0.45506   69.579
 3929.00    0.37793   0.41707   82.136
 3930.00    0.32171   0.38203   -1.000
 3931.00    0.28911   0.34851   -1.000
 3932.00    0.28041   0.31938   92.267
 3933.00    0.28483   0.30272   78.757
 3934.00    0.28973   0.30822   64.934
 3935.00    0.31353   0.33587   53.709
 3936.00    0.34834   0.37659   63.282
 3937.00    0.39234   0.42218   -1.000
 3938.00    0.43281   0.46743   -1.000
 3939.00    0.48227   0.50562   -1.000
 3940.00    0.53947   0.53248   -1.000
 3941.00    0.56495   0.54525   -1.000
 3942.00    0.54679   0.54730  343.094
 3943.00    0.52000   0.54935   -1.000
 3944.00    0.53309   0.56296   -1.000
 3945.00    0.57445   0.58818   -1.000
 3946.00    0.61675   0.61419  293.580
 3947.00    0.64331   0.63384   -1.000
 3948.00    0.66436   0.64972   -1.000
 3949.00    0.69388   0.66669   -1.000
 3950.00    0.72685   0.68099   -1.000
 3951.00    0.73704   0.68626   -1.000
 3952.00    0.72024   0.68824   -1.000
 3953.00    0.71909   0.69352   -1.000
 3954.00    0.74157   0.69758   -1.000
 3955.00    0.74567   0.69350   -1.000
 3956.00    0.72433   0.68325   -1.000
 3957.00    0.70519   0.67486   -1.000
 3958.00    0.70910   0.66655   -1.000
 3959.00    0.70467   0.64277   -1.000
 3960.00    0.63971   0.59777   -1.000
 3961.00    0.56379   0.54654  123.032
 3962.00    0.50830   0.50474   47.771
 3963.00    0.46801   0.47648   56.856
 3964.00    0.43915   0.44938   70.065
 3965.00    0.40069   0.41078   83.378
 3966.00    0.35005   0.36157   87.334
 3967.00    0.32077   0.31393   77.805
 3968.00    0.30264   0.28499   63.980
 3969.00    0.30271   0.28457   52.882
 3970.00    0.33160   0.31217   63.724
 3971.00    0.37785   0.36002   -1.000
 3972.00    0.43063   0.41795   -1.000
 3973.00    0.48933   0.47746   -1.000
 3974.00    0.54273   0.53525  291.142
 3975.00    0.59567   0.58825  274.670
 3976.00    0.64359   0.63638  260.143
 3977.00    0.68934   0.68089  249.522
 3978.00    0.74355   0.72090   -1.000
 3979.00    0.78761   0.75219   -1.000
 3980.00    0.79637   0.76745   -1.000
 3981.00    0.79401   0.76765   -1.000
 3982.00    0.79454   0.76208   -1.000
 3983.00    0.80425   0.76218   -1.000
 3984.00    0.81474   0.77210   -1.000
 3985.00    0.82155   0.78822   -1.000
 3986.00    0.83214   0.80690   -1.000
 3987.00    0.84728   0.82396   -1.000
 3988.00    0.87723   0.83417   -1.000
 3989.00    0.88451   0.83770   -1.000
 3990.00    0.86980   0.84113   -1.000
 3991.00    0.86895   0.84949   -1.000
 3992.00    0.89527   0.86004   -1.000
 3993.00    0.90386   0.86415   -1.000
 3994.00    0.90328   0.85649   -1.000
 3995.00    0.89183   0.84052   -1.000
 3996.00    0.86053   0.82638   -1.000
 3997.00    0.84102   0.82591  220.906
 3998.00    0.85028   0.84262  214.769
 3999.00    0.89002   0.86920   -1.000
 4000.00    0.93675   0.89429   -1.000
 4001.00    0.95270   0.90989   -1.000
 4002.00    0.97036   0.90848   -1.000
 4003.00    0.97593   0.88442   -1.000
 4004.00    0.93254   0.84486   -1.000
 4005.00    0.87097   0.81464   -1.000
 4006.00    0.85863   0.81520   -1.000
 4007.00    0.87460   0.84444   -1.000
 4008.00    0.91498   0.88115   -1.000
 4009.00    0.94156   0.90651   -1.000
 4010.00    0.95053   0.91925   -1.000
 4011.00    0.97239   0.92577   -1.000
 4012.00    1.01051   0.93079   -1.000
 4013.00    1.00311   0.93683   -1.000
 4014.00    1.00549   0.94288   -1.000
 4015.00    1.00864   0.94527   -1.000
 4016.00    1.00139   0.94400   -1.000
 4017.00    1.00355   0.94500   -1.000
 4018.00    1.00934   0.95175   -1.000
 4019.00    1.01428   0.95994   -1.000
 4020.00    1.02369   0.96302   -1.000
 4021.00    1.01919   0.95825   -1.000
 4022.00    1.00741   0.94846   -1.000
 4023.00    1.00228   0.93739   -1.000
 4024.00    0.99175   0.93046   -1.000
 4025.00    0.99837   0.93544   -1.000
 4026.00    1.02847   0.95371   -1.000
 4027.00    1.05152   0.97095   -1.000
 4028.00    1.04833   0.96507   -1.000
 4029.00    1.01096   0.92680   -1.000
 4030.00    0.94254   0.87092   -1.000
 4031.00    0.87524   0.82378   -1.000
 4032.00    0.82790   0.79998   -1.000
 4033.00    0.82323   0.80335   -1.000
 4034.00    0.84367   0.83388  200.500
 4035.00    0.89156   0.88552  195.691
 4036.00    0.97322   0.94350   -1.000
 4037.00    1.04336   0.98924   -1.000
 4038.00    1.07792   1.00694   -1.000
 4039.00    1.06098   0.99949   -1.000
 4040.00    1.03074   0.98400   -1.000
 4041.00    1.01539   0.96814   -1.000
 4042.00    1.00455   0.93838   -1.000
 4043.00    0.97342   0.88094   -1.000
 4044.00    0.88770   0.80838   -1.000
 4045.00    0.78121   0.76128   -1.000
 4046.00    0.76546   0.77400  207.005
 4047.00    0.84363   0.83643  202.473
 4048.00    0.92930   0.90884   -1.000
 4049.00    1.00000   0.96275   -1.000
 4050.00    1.04743   0.98792   -1.000
 4051.00    1.03820   0.98803   -1.000
 4052.00    1.00828   0.97196   -1.000
 4053.00    0.97542   0.94959   -1.000
 4054.00    0.94801   0.92859   -1.000
 4055.00    0.93074   0.91079   -1.000
 4056.00    0.91970   0.89538   -1.000
 4057.00    0.91259   0.88799   -1.000
 4058.00    0.90397   0.89696  208.669
 4059.00    0.93254   0.91571   -1.000
 4060.00    0.95622   0.92066   -1.000
 4061.00    0.96250   0.89320   -1.000
 4062.00    0.91669   0.84379   -1.000
 4063.00    0.83160   0.80543   -1.000
 4064.00    0.81497   0.79827   -1.000
 4065.00    0.86084   0.81903   -1.000
 4066.00    0.90852   0.85334   -1.000
 4067.00    0.93887   0.88705   -1.000
 4068.00    0.96127   0.90923   -1.000
 4069.00    0.97396   0.90878   -1.000
 4070.00    0.95121   0.88430   -1.000
 4071.00    0.91412   0.85832   -1.000
 4072.00    0.90926   0.85711   -1.000
 4073.00    0.93756   0.87641   -1.000
 4074.00    0.95242   0.88681   -1.000
 4075.00    0.93138   0.86768   -1.000
 4076.00    0.88158   0.83376   -1.000
 4077.00    0.84764   0.81925   -1.000
 4078.00    0.85737   0.84311  206.545
 4079.00    0.90268   0.89666  204.055
 4080.00    0.97791   0.95125   -1.000
 4081.00    1.03468   0.98114   -1.000
 4082.00    1.03181   0.97852   -1.000
 4083.00    0.99571   0.95880   -1.000
 4084.00    0.97341   0.94674   -1.000
 4085.00    0.98591   0.95782   -1.000
 4086.00    1.01564   0.98918   -1.000
 4087.00    1.06653   1.02464   -1.000
 4088.00    1.10872   1.04786   -1.000
 4089.00    1.11154   1.04956   -1.000
 4090.00    1.08389   1.03432   -1.000
 4091.00    1.05857   1.01590   -1.000
 4092.00    1.04719   1.00235   -1.000
 4093.00    1.03801   0.98775   -1.000
 4094.00    1.01922   0.96358   -1.000
 4095.00    0.97743   0.92995   -1.000
 4096.00    0.93426   0.89658   -1.000
 4097.00    0.91052   0.86976   -1.000
 4098.00    0.91260   0.84172   -1.000
 4099.00    0.89379   0.80183   -1.000
 4100.00    0.84011   0.75562   -1.000
 4101.00    0.79203   0.72695   -1.000
 4102.00    0.78294   0.73723   -1.000
 4103.00    0.82589   0.78508   -1.000
 4104.00    0.89555   0.84811   -1.000
 4105.00    0.94731   0.90388   -1.000
 4106.00    0.97624   0.94024   -1.000
 4107.00    0.97981   0.95639   -1.000
 4108.00    0.97537   0.95628   -1.000
 4109.00    0.96452   0.94716   -1.000
 4110.00    0.94468   0.93986  213.378
 4111.00    0.93851   0.94274  209.886
 4112.00    0.96055   0.95693  207.133
 4113.00    0.98716   0.97810  206.339
 4114.00    1.00953   0.99874  208.763
 4115.00    1.02987   1.00980   -1.000
 4116.00    1.02968   1.00485   -1.000
 4117.00    1.01360   0.98647   -1.000
 4118.00    0.98840   0.96583   -1.000
 4119.00    0.96971   0.95468   -1.000
 4120.00    0.96864   0.95603  215.455
 4121.00    0.97986   0.96328   -1.000
 4122.00    0.97821   0.97086  209.870
 4123.00    0.98378   0.97959  210.648
 4124.00    1.00842   0.98952   -1.000
 4125.00    1.01789   0.99435   -1.000
 4126.00    1.00550   0.98813   -1.000
 4127.00    0.97953   0.97387  221.025
 4128.00    0.95734   0.95895  225.544
 4129.00    0.94995   0.94305  232.800
 4130.00    0.94586   0.92060   -1.000
 4131.00    0.92128   0.89324   -1.000
 4132.00    0.87812   0.87432  224.741
 4133.00    0.87372   0.88057  214.940
 4134.00    0.90383   0.91328  209.478
 4135.00    0.94624   0.95713  206.210
 4136.00    0.98948   0.99613  203.974
 4137.00    1.02055   1.02220  205.253
 4138.00    1.02929   1.03509  212.259
 4139.00    1.03651   1.03372  226.352
 4140.00    1.02609   1.00941   -1.000
 4141.00    0.98292   0.95855   -1.000
 4142.00    0.90155   0.89900  234.419
 4143.00    0.82384   0.86319   -1.000
 4144.00    0.81846   0.86981   -1.000
 4145.00    0.87253   0.90852   -1.000
 4146.00    0.92804   0.94967   -1.000
 4147.00    0.95612   0.96946   -1.000
 4148.00    0.95091   0.96758   -1.000
 4149.00    0.93609   0.95808   -1.000
 4150.00    0.91847   0.95178   -1.000
 4151.00    0.91694   0.94855   -1.000
 4152.00    0.91302   0.94347   -1.000
 4153.00    0.89820   0.93503   -1.000
 4154.00    0.91531   0.92757  225.089
 4155.00    1.04384   0.92839   -1.000
 4156.00    1.12589   0.94127   -1.000
 4157.00    0.89775   0.96410   -1.000
 4158.00    0.74944   0.99201   -1.000
 4159.00    0.91856   1.01770   -1.000
 4160.00    1.01683   1.03669   -1.000
 4161.00    1.01975   1.05058   -1.000
 4162.00    1.03295   1.05957   -1.000
 4163.00    1.03874   1.06003   -1.000
 4164.00    1.02040   1.04845   -1.000
 4165.00    0.98919   1.02648   -1.000
 4166.00    0.95596   1.00402   -1.000
 4167.00    0.93370   0.99324   -1.000
 4168.00    0.94214   0.99467   -1.000
 4169.00    0.96738   0.99515   -1.000
 4170.00    0.97437   0.97841  249.877
 4171.00    0.94108   0.94387  245.986
 4172.00    0.88777   0.91084   -1.000
 4173.00    0.86104   0.89863   -1.000
 4174.00    0.87823   0.90993   -1.000
 4175.00    0.89880   0.93022   -1.000
 4176.00    0.90844   0.94524   -1.000
 4177.00    0.90837   0.95552   -1.000
 4178.00    0.90591   0.96658   -1.000
 4179.00    0.91850   0.97580   -1.000
 4180.00    0.93268   0.97752   -1.000
 4181.00    0.93842   0.97468   -1.000
 4182.00    0.93440   0.97987   -1.000
 4183.00    0.94804   0.99727   -1.000
 4184.00    0.98211   1.01214   -1.000
 4185.00    0.98971   1.00884   -1.000
 4186.00    0.96357   0.98926   -1.000
 4187.00    0.94028   0.97248   -1.000
 4188.00    0.95080   0.97381   -1.000
 4189.00    0.96526   0.98921   -1.000
 4190.00    0.96964   1.00699   -1.000
 4191.00    0.97498   1.02248   -1.000
 4192.00    0.99938   1.03496   -1.000
 4193.00    1.02464   1.03692  232.129
 4194.00    1.01917   1.01762  238.110
 4195.00    0.97387   0.97941  240.572
 4196.00    0.91996   0.93923   -1.000
 4197.00    0.88986   0.91094   -1.000
 4198.00    0.88183   0.89802   -1.000
 4199.00    0.89533   0.89673  232.943
 4200.00    0.91202   0.90224  230.416
 4201.00    0.91288   0.91216  227.624
 4202.00    0.91880   0.92941  224.751
 4203.00    0.94398   0.95757   -1.000
 4204.00    0.98272   0.99358  214.733
 4205.00    1.01082   1.02901   -1.000
 4206.00    1.02831   1.05694   -1.000
 4207.00    1.03805   1.07361   -1.000
 4208.00    1.05507   1.07724   -1.000
 4209.00    1.05654   1.07283   -1.000
 4210.00    1.04134   1.06984   -1.000
 4211.00    1.04234   1.07063   -1.000
 4212.00    1.04060   1.06436   -1.000
 4213.00    1.02094   1.03910   -1.000
 4214.00    0.97317   1.00380   -1.000
 4215.00    0.92573   0.98618   -1.000
 4216.00    0.94549   1.00636   -1.000
 4217.00    1.02728   1.05629   -1.000
 4218.00    1.11344   1.10773  196.150
 4219.00    1.16327   1.13946   -1.000
 4220.00    1.18781   1.14279   -1.000
 4221.00    1.18080   1.11604   -1.000
 4222.00    1.12788   1.05938   -1.000
 4223.00    1.04204   0.97426   -1.000
 4224.00    0.93866   0.87358   -1.000
 4225.00    0.81895   0.78817   -1.000
 4226.00    0.72427   0.75320   -1.000
 4227.00    0.73011   0.78934   -1.000
 4228.00    0.83937   0.88235   -1.000
 4229.00    0.97241   0.98483   -1.000
 4230.00    1.06575   1.05119  210.416
 4231.00    1.10284   1.07107   -1.000
 4232.00    1.09607   1.05828   -1.000
 4233.00    1.07182   1.03210   -1.000
 4234.00    1.04770   1.00891   -1.000
 4235.00    1.03183   0.99680   -1.000
 4236.00    1.00907   0.99646  215.897
 4237.00    1.00865   1.00780  212.355
 4238.00    1.03603   1.02949  208.812
 4239.00    1.05562   1.05620  206.945
 4240.00    1.08144   1.08331  204.802
 4241.00    1.11682   1.10943  200.801
 4242.00    1.13457   1.13520  199.566
 4243.00    1.15103   1.16118  205.223
 4244.00    1.18801   1.17896  214.178
 4245.00    1.21328   1.17319   -1.000
 4246.00    1.17981   1.13882   -1.000
 4247.00    1.11630   1.08732   -1.000
 4248.00    1.06427   1.03813   -1.000
 4249.00    1.01738   1.00868  215.750
 4250.00    0.99052   1.00461   -1.000
 4251.00    0.99692   1.01662   -1.000
 4252.00    1.03579   1.02525  218.665
 4253.00    1.05372   1.02044   -1.000
 4254.00    1.02894   1.01614  207.445
 4255.00    1.02674   1.03250  210.586
 4256.00    1.07439   1.06225  220.726
 4257.00    1.11133   1.07185   -1.000
 4258.00    1.08524   1.04444   -1.000
 4259.00    1.01723   1.00279  216.651
 4260.00    0.96771   0.98740   -1.000
 4261.00    0.98602   1.02065   -1.000
 4262.00    1.06586   1.08924   -1.000
 4263.00    1.15744   1.15816  196.402
 4264.00    1.20973   1.19910  201.355
 4265.00    1.21579   1.20732  207.890
 4266.00    1.20146   1.18947  215.027
 4267.00    1.16893   1.14933   -1.000
 4268.00    1.12367   1.09012   -1.000
 4269.00    1.06209   1.01820   -1.000
 4270.00    0.97376   0.94636   -1.000
 4271.00    0.89135   0.89498  241.768
 4272.00    0.85789   0.87709   -1.000
 4273.00    0.86871   0.89205   -1.000
 4274.00    0.89887   0.93277   -1.000
 4275.00    0.94135   0.99238   -1.000
 4276.00    1.01525   1.06047   -1.000
 4277.00    1.10749   1.11600  216.288
 4278.00    1.15620   1.13707   -1.000
 4279.00    1.14470   1.12465   -1.000
 4280.00    1.10169   1.10242  216.130
 4281.00    1.07982   1.09228   -1.000
 4282.00    1.08987   1.09466  221.345
 4283.00    1.09917   1.09546  227.533
 4284.00    1.09450   1.08651  231.978
 4285.00    1.07470   1.07069  238.038
 4286.00    1.05225   1.05121  248.801
 4287.00    1.02814   1.02347  255.302
 4288.00    0.98969   0.98433  248.497
 4289.00    0.93942   0.94728  233.873
 4290.00    0.91161   0.93802   -1.000
 4291.00    0.94180   0.96581   -1.000
 4292.00    1.00113   1.00847  226.552
 4293.00    1.04900   1.03548   -1.000
 4294.00    1.06139   1.03709   -1.000
 4295.00    1.03587   1.01994   -1.000
 4296.00    1.00090   0.98744   -1.000
 4297.00    0.96607   0.93829   -1.000
 4298.00    0.90837   0.87954   -1.000
 4299.00    0.82928   0.83019  279.342
 4300.00    0.78453   0.80809   -1.000
 4301.00    0.79810   0.81257   -1.000
 4302.00    0.82156   0.82845  270.507
 4303.00    0.83932   0.84242  276.028
 4304.00    0.85936   0.84678   -1.000
 4305.00    0.85396   0.83384   -1.000
 4306.00    0.81429   0.80272   -1.000
 4307.00    0.76377   0.76934  288.442
 4308.00    0.73080   0.75726   -1.000
 4309.00    0.74231   0.77912   -1.000
 4310.00    0.79918   0.82964   -1.000
 4311.00    0.87014   0.89417   -1.000
 4312.00    0.93982   0.96274   -1.000
 4313.00    1.00118   1.03830   -1.000
 4314.00    1.07204   1.12549   -1.000
 4315.00    1.17923   1.21875   -1.000
 4316.00    1.29350   1.30059  185.080
 4317.00    1.36333   1.34754  188.756
 4318.00    1.38072   1.35298   -1.000
 4319.00    1.36031   1.33034   -1.000
 4320.00    1.32001   1.29113   -1.000
 4321.00    1.27622   1.23369   -1.000
 4322.00    1.21434   1.15269   -1.000
 4323.00    1.11128   1.05591   -1.000
 4324.00    0.98379   0.97660  221.503
 4325.00    0.90330   0.95671   -1.000
 4326.00    0.92520   1.01217   -1.000
 4327.00    1.05012   1.11730   -1.000
 4328.00    1.19972   1.22034   -1.000
 4329.00    1.27870   1.28097  189.876
 4330.00    1.29382   1.30096  187.226
 4331.00    1.29616   1.30758  186.173
 4332.00    1.30506   1.31968   -1.000
 4333.00    1.32668   1.33383  195.789
 4334.00    1.34571   1.33174  212.134
 4335.00    1.34301   1.29435   -1.000
 4336.00    1.28622   1.21420   -1.000
 4337.00    1.17531   1.10496   -1.000
 4338.00    1.06239   1.00174   -1.000
 4339.00    0.98730   0.94345   -1.000
 4340.00    0.97289   0.94630   -1.000
 4341.00    1.01094   1.00187  206.053
 4342.00    1.08560   1.08394  200.205
 4343.00    1.16953   1.16060  195.910
 4344.00    1.22821   1.21643  193.341
 4345.00    1.27182   1.25720  190.698
 4346.00    1.29780   1.29164  189.536
 4347.00    1.30998   1.32140  195.592
 4348.00    1.33845   1.33560  208.909
 4349.00    1.35475   1.31413   -1.000
 4350.00    1.31033   1.25453   -1.000
 4351.00    1.20088   1.18862  204.057
 4352.00    1.11832   1.15782   -1.000
 4353.00    1.13875   1.17677   -1.000
 4354.00    1.19991   1.22541   -1.000
 4355.00    1.25406   1.27283   -1.000
 4356.00    1.30139   1.30027  195.685
 4357.00    1.31419   1.30608  194.545
 4358.00    1.29428   1.30055  189.357
 4359.00    1.27535   1.30099   -1.000
 4360.00    1.29244   1.31892   -1.000
 4361.00    1.34369   1.34907  182.894
 4362.00    1.37437   1.37849  181.857
 4363.00    1.38825   1.40021   -1.000
 4364.00    1.41235   1.41155  191.526
 4365.00    1.42419   1.40403   -1.000
 4366.00    1.38909   1.37264  195.523
 4367.00    1.33137   1.33172  193.885
 4368.00    1.29812   1.30287  193.296
 4369.00    1.28151   1.29145  194.347
 4370.00    1.27636   1.28630  199.732
 4371.00    1.28550   1.27246  208.016
 4372.00    1.29034   1.24239   -1.000
 4373.00    1.25161   1.20173   -1.000
 4374.00    1.18594   1.16968  196.521
 4375.00    1.16582   1.16978  190.266
 4376.00    1.20192   1.20676  189.649
 4377.00    1.26525   1.25597  192.200
 4378.00    1.32122   1.28372   -1.000
 4379.00    1.33424   1.27138   -1.000
 4380.00    1.29715   1.21377   -1.000
 4381.00    1.22467   1.11605   -1.000
 4382.00    1.10164   1.00564   -1.000
 4383.00    0.95201   0.93023   -1.000
 4384.00    0.88376   0.92777   -1.000
 4385.00    0.95690   0.99521   -1.000
 4386.00    1.10120   1.08594   -1.000
 4387.00    1.20272   1.14924   -1.000
 4388.00    1.22542   1.17239   -1.000
 4389.00    1.20039   1.17575   -1.000
 4390.00    1.18929   1.18178  196.919
 4391.00    1.21361   1.19749  200.212
 4392.00    1.23930   1.21557   -1.000
 4393.00    1.25610   1.22780   -1.000
 4394.00    1.25389   1.23972  188.468
 4395.00    1.26823   1.26562  187.810
 4396.00    1.33110   1.30417   -1.000
 4397.00    1.39159   1.33076   -1.000
 4398.00    1.39385   1.32518   -1.000
 4399.00    1.34035   1.29609   -1.000
 4400.00    1.27892   1.26686  199.860
 4401.00    1.25958   1.24380  209.995
 4402.00    1.26337   1.21101   -1.000
 4403.00    1.21290   1.15751   -1.000
 4404.00    1.11391   1.10402  207.299
 4405.00    1.06902   1.08510   -1.000
 4406.00    1.10954   1.10879  199.661
 4407.00    1.16031   1.15608  191.278
 4408.00    1.19873   1.21248  184.072
 4409.00    1.25591   1.27723   -1.000
 4410.00    1.33538   1.34442  182.419
 4411.00    1.39850   1.38797  190.885
 4412.00    1.42056   1.38205   -1.000
 4413.00    1.38713   1.33149   -1.000
 4414.00    1.29020   1.26834   -1.000
 4415.00    1.20842   1.23139   -1.000
 4416.00    1.20641   1.24598   -1.000
 4417.00    1.26856   1.30443   -1.000
 4418.00    1.34709   1.37151   -1.000
 4419.00    1.39658   1.41157   -1.000
 4420.00    1.39759   1.41056  189.459
 4421.00    1.34878   1.37975   -1.000
 4422.00    1.29319   1.34594   -1.000
 4423.00    1.27123   1.33071   -1.000
 4424.00    1.27222   1.33480   -1.000
 4425.00    1.28286   1.34474   -1.000
 4426.00    1.29219   1.35261   -1.000
 4427.00    1.29706   1.35940   -1.000
 4428.00    1.32234   1.36304   -1.000
 4429.00    1.34380   1.36012   -1.000
 4430.00    1.32513   1.35375   -1.000
 4431.00    1.31687   1.34829   -1.000
 4432.00    1.32966   1.33714  203.719
 4433.00    1.30455   1.30937  199.314
 4434.00    1.24580   1.27633   -1.000
 4435.00    1.21978   1.27101   -1.000
 4436.00    1.26166   1.31303   -1.000
 4437.00    1.34379   1.38435   -1.000
 4438.00    1.43718   1.44153  186.831
 4439.00    1.48552   1.45331   -1.000
 4440.00    1.45410   1.41922   -1.000
 4441.00    1.38979   1.36639   -1.000
 4442.00    1.32252   1.33286  186.115
 4443.00    1.31107   1.34418   -1.000
 4444.00    1.36663   1.39414   -1.000
 4445.00    1.43008   1.45057   -1.000
 4446.00    1.47768   1.48667  181.430
 4447.00    1.50101   1.49853  183.366
 4448.00    1.50644   1.49752  183.179
 4449.00    1.51393   1.49211   -1.000
 4450.00    1.50541   1.48122   -1.000
 4451.00    1.47920   1.46018   -1.000
 4452.00    1.45498   1.42346   -1.000
 4453.00    1.40879   1.36948   -1.000
 4454.00    1.33984   1.31240   -1.000
 4455.00    1.28866   1.27674  196.623
 4456.00    1.28440   1.27018  197.409
 4457.00    1.30613   1.27840   -1.000
 4458.00    1.30378   1.28314   -1.000
 4459.00    1.28953   1.27940  199.189
 4460.00    1.27803   1.27728  192.589
 4461.00    1.26256   1.29027   -1.000
 4462.00    1.27562   1.32384   -1.000
 4463.00    1.33076   1.36879   -1.000
 4464.00    1.40030   1.40644  186.560
 4465.00    1.43044   1.42392  189.687
 4466.00    1.43549   1.42247  191.817
 4467.00    1.44283   1.41191   -1.000
 4468.00    1.42875   1.40203   -1.000
 4469.00    1.39925   1.40230  179.261
 4470.00    1.40537   1.42227   -1.000
 4471.00    1.44488   1.46156   -1.000
 4472.00    1.50981   1.50660  171.011
 4473.00    1.56684   1.54375   -1.000
 4474.00    1.58128   1.56856  168.987
 4475.00    1.59587   1.58684  169.606
 4476.00    1.62669   1.60218   -1.000
 4477.00    1.64988   1.60277   -1.000
 4478.00    1.63821   1.57219   -1.000
 4479.00    1.57075   1.51199   -1.000
 4480.00    1.47621   1.45008   -1.000
 4481.00    1.40869   1.42306   -1.000
 4482.00    1.40903   1.44768   -1.000
 4483.00    1.48124   1.50928   -1.000
 4484.00    1.56485   1.57530  171.967
 4485.00    1.63046   1.61661  177.714
 4486.00    1.65911   1.61672   -1.000
 4487.00    1.62822   1.57794   -1.000
 4488.00    1.55129   1.52454   -1.000
 4489.00    1.48540   1.49006  175.379
 4490.00    1.46383   1.49005   -1.000
 4491.00    1.49134   1.51056   -1.000
 4492.00    1.52330   1.52154  185.268
 4493.00    1.50492   1.50613  185.322
 4494.00    1.45538   1.47823   -1.000
 4495.00    1.42623   1.46642   -1.000
 4496.00    1.43391   1.48636   -1.000
 4497.00    1.48048   1.52743   -1.000
 4498.00    1.53028   1.56560   -1.000
 4499.00    1.55931   1.58537   -1.000
 4500.00    1.57505   1.59032   -1.000
 4501.00    1.58089   1.59832   -1.000
 4502.00    1.61642   1.62311  161.691
 4503.00    1.68833   1.66200   -1.000
 4504.00    1.74310   1.69896   -1.000
 4505.00    1.75576   1.71569   -1.000
 4506.00    1.73525   1.70823   -1.000
 4507.00    1.69930   1.69098  165.166
 4508.00    1.68355   1.68043  165.688
 4509.00    1.69927   1.68046  168.396
 4510.00    1.72181   1.68185   -1.000
 4511.00    1.70807   1.67217   -1.000
 4512.00    1.65344   1.64816  173.079
 4513.00    1.60585   1.61901  172.655
 4514.00    1.57679   1.59714   -1.000
 4515.00    1.57436   1.58824  175.479
 4516.00    1.59481   1.58858  173.817
 4517.00    1.60141   1.59168  170.443
 4518.00    1.59788   1.59846  169.623
 4519.00    1.62002   1.61383  172.550
 4520.00    1.66705   1.63352   -1.000
 4521.00    1.68623   1.64344   -1.000
 4522.00    1.66009   1.63281   -1.000
 4523.00    1.61718   1.60361  185.744
 4524.00    1.57980   1.56466  191.225
 4525.00    1.52868   1.51916  194.560
 4526.00    1.46777   1.46668  194.322
 4527.00    1.41188   1.41497  191.477
 4528.00    1.37211   1.37970  187.971
 4529.00    1.36410   1.37275  186.208
 4530.00    1.38941   1.39214  189.417
 4531.00    1.43420   1.42163  195.656
 4532.00    1.48088   1.44153   -1.000
 4533.00    1.47955   1.44351   -1.000
 4534.00    1.43349   1.43910  176.372
 4535.00    1.40855   1.45225   -1.000
 4536.00    1.48006   1.49689   -1.000
 4537.00    1.60419   1.55973   -1.000
 4538.00    1.66582   1.60901   -1.000
 4539.00    1.64164   1.62323   -1.000
 4540.00    1.59213   1.60993   -1.000
 4541.00    1.57554   1.59411   -1.000
 4542.00    1.61503   1.59121  104.353
 4543.00    1.47421   1.59550   -1.000
 4544.00    0.66133   1.59419   -1.000
 4545.00    0.08155   1.58416   -1.000
 4546.00    0.15198   1.57170   -1.000
 4547.00    0.78771   1.56019   -1.000
 4548.00    0.69856   1.54797   -1.000
 4549.00    0.97705   1.53877   -1.000
 4550.00    1.47529   1.54095   -1.000
 4551.00    1.59297   1.55270   -1.000
 4552.00    1.57791   1.55923   -1.000
 4553.00    1.54651   1.55231  177.563
 4554.00    1.52892   1.54326  170.530
 4555.00    1.54924   1.55202  166.285
 4556.00    1.61404   1.58815   -1.000
 4557.00    1.68254   1.64107   -1.000
 4558.00    1.72014   1.68878   -1.000
 4559.00    1.74990   1.71729   -1.000
 4560.00    1.76090   1.72671   -1.000
 4561.00    1.74022   1.72054   -1.000
 4562.00    1.70551   1.69863  176.229
 4563.00    1.66660   1.66329  172.432
 4564.00    1.62142   1.62855  167.872
 4565.00    1.59671   1.61506  165.315
 4566.00    1.63784   1.63323  166.091
 4567.00    1.70981   1.67180   -1.000
 4568.00    1.75050   1.70415   -1.000
 4569.00    1.75073   1.70968   -1.000
 4570.00    1.70356   1.69001  170.493
 4571.00    1.64460   1.66528   -1.000
 4572.00    1.64173   1.65847  166.517
 4573.00    1.69295   1.67639  167.126
 4574.00    1.73945   1.70333   -1.000
 4575.00    1.75553   1.71923   -1.000
 4576.00    1.75025   1.71729   -1.000
 4577.00    1.71184   1.69939  178.996
 4578.00    1.66261   1.66673  179.756
 4579.00    1.61494   1.62488  177.752
 4580.00    1.56610   1.58930   -1.000
 4581.00    1.56561   1.57472  176.022
 4582.00    1.60337   1.58072   -1.000
 4583.00    1.62845   1.59324   -1.000
 4584.00    1.62244   1.59951   -1.000
 4585.00    1.60266   1.60145  167.641
 4586.00    1.61072   1.61304  166.402
 4587.00    1.65498   1.64193  168.087
 4588.00    1.71316   1.67814   -1.000
 4589.00    1.75569   1.70254   -1.000
 4590.00    1.74475   1.70249   -1.000
 4591.00    1.69023   1.68064  174.140
 4592.00    1.64984   1.65155  172.703
 4593.00    1.63466   1.62937  171.977
 4594.00    1.61794   1.61841  171.604
 4595.00    1.60825   1.61590  171.226
 4596.00    1.61278   1.61950  172.170
 4597.00    1.62486   1.62826  173.750
 4598.00    1.65654   1.63856   -1.000
 4599.00    1.67524   1.64489   -1.000
 4600.00    1.65220   1.64549  171.406
 4601.00    1.64174   1.64401  171.038
 4602.00    1.65585   1.64428  170.962
 4603.00    1.67212   1.64607   -1.000
 4604.00    1.67597   1.64891   -1.000
 4605.00    1.66966   1.65809  163.067
 4606.00    1.68554   1.68185  160.685
 4607.00    1.75587   1.72182   -1.000
 4608.00    1.82955   1.76756   -1.000
 4609.00    1.86056   1.80002   -1.000
 4610.00    1.85092   1.80536   -1.000
 4611.00    1.81659   1.78812   -1.000
 4612.00    1.78712   1.76599   -1.000
 4613.00    1.78778   1.75438   -1.000
 4614.00    1.78954   1.75775   -1.000
 4615.00    1.79693   1.77031   -1.000
 4616.00    1.80862   1.78277   -1.000
 4617.00    1.82021   1.78952   -1.000
 4618.00    1.82094   1.79062   -1.000
 4619.00    1.80743   1.79016  160.954
 4620.00    1.83625   1.79324   -1.000
 4621.00    1.85208   1.80060   -1.000
 4622.00    1.83845   1.80652   -1.000
 4623.00    1.83358   1.80550   -1.000
 4624.00    1.84009   1.79866   -1.000
 4625.00    1.82854   1.79033   -1.000
 4626.00    1.80475   1.78333   -1.000
 4627.00    1.81053   1.77966   -1.000
 4628.00    1.82554   1.78017   -1.000
 4629.00    1.82974   1.78448   -1.000
 4630.00    1.82145   1.79153   -1.000
 4631.00    1.82802   1.79698   -1.000
 4632.00    1.82471   1.79280   -1.000
 4633.00    1.79153   1.77609  167.974
 4634.00    1.76518   1.75472  170.003
 4635.00    1.75992   1.73698   -1.000
 4636.00    1.74062   1.72129   -1.000
 4637.00    1.70728   1.70315  168.916
 4638.00    1.68113   1.68534  165.059
 4639.00    1.66312   1.67652  162.292
 4640.00    1.67476   1.68294  162.205
 4641.00    1.72408   1.70157   -1.000
 4642.00    1.77072   1.71899   -1.000
 4643.00    1.77170   1.71873   -1.000
 4644.00    1.73640   1.69389   -1.000
 4645.00    1.67623   1.65188   -1.000
 4646.00    1.61214   1.60908  169.449
 4647.00    1.57806   1.58566  166.677
 4648.00    1.59385   1.59512  165.888
 4649.00    1.65746   1.63343   -1.000
 4650.00    1.73008   1.68234   -1.000
 4651.00    1.77720   1.72264   -1.000
 4652.00    1.78920   1.74304   -1.000
 4653.00    1.77764   1.74086   -1.000
 4654.00    1.74697   1.72302   -1.000
 4655.00    1.70461   1.70710  161.518
 4656.00    1.69936   1.71266  157.212
 4657.00    1.74089   1.74783  156.224
 4658.00    1.82519   1.80257   -1.000
 4659.00    1.89558   1.85248   -1.000
 4660.00    1.91802   1.87368   -1.000
 4661.00    1.87864   1.85893   -1.000
 4662.00    1.82094   1.81882  167.705
 4663.00    1.77473   1.76959  173.823
 4664.00    1.73474   1.71948   -1.000
 4665.00    1.69785   1.66611   -1.000
 4666.00    1.61650   1.60994  178.962
 4667.00    1.52461   1.56670   -1.000
 4668.00    1.50638   1.55894   -1.000
 4669.00    1.57512   1.59406  164.705
 4670.00    1.68088   1.65398   -1.000
 4671.00    1.74961   1.70915   -1.000
 4672.00    1.78309   1.74105   -1.000
 4673.00    1.77790   1.75269   -1.000
 4674.00    1.76908   1.75964  160.457
 4675.00    1.78708   1.77131   -1.000
 4676.00    1.81909   1.78150   -1.000
 4677.00    1.82637   1.77667   -1.000
 4678.00    1.78282   1.75254   -1.000
 4679.00    1.73426   1.71914   -1.000
 4680.00    1.69925   1.69140  166.421
 4681.00    1.68427   1.67977  163.713
 4682.00    1.69731   1.68729  163.651
 4683.00    1.75268   1.70852   -1.000
 4684.00    1.78884   1.73102   -1.000
 4685.00    1.79676   1.74393   -1.000
 4686.00    1.78762   1.74525   -1.000
 4687.00    1.77899   1.74006   -1.000
 4688.00    1.76614   1.73455   -1.000
 4689.00    1.75531   1.73164   -1.000
 4690.00    1.76064   1.73059   -1.000
 4691.00    1.76195   1.73090   -1.000
 4692.00    1.76283   1.73583   -1.000
 4693.00    1.78460   1.74885   -1.000
 4694.00    1.81731   1.76772   -1.000
 4695.00    1.85305   1.78398   -1.000
 4696.00    1.85384   1.78630   -1.000
 4697.00    1.80752   1.76754   -1.000
 4698.00    1.75241   1.73283   -1.000
 4699.00    1.71820   1.69724   -1.000
 4700.00    1.70802   1.67182   -1.000
 4701.00    1.70597   1.65732   -1.000
 4702.00    1.69021   1.65216   -1.000
 4703.00    1.67137   1.65876   -1.000
 4704.00    1.69148   1.67659   -1.000
 4705.00    1.74100   1.69416   -1.000
 4706.00    1.75143   1.69784   -1.000
 4707.00    1.71730   1.68772   -1.000
 4708.00    1.69576   1.67867   -1.000
 4709.00    1.71695   1.68506   -1.000
 4710.00    1.76409   1.70708   -1.000
 4711.00    1.80789   1.73211   -1.000
 4712.00    1.80344   1.74591   -1.000
 4713.00    1.77502   1.74458   -1.000
 4714.00    1.75278   1.73993  160.503
 4715.00    1.75044   1.74989  159.050
 4716.00    1.80908   1.78103   -1.000
 4717.00    1.88627   1.82349   -1.000
 4718.00    1.91495   1.86216   -1.000
 4719.00    1.92814   1.88838   -1.000
 4720.00    1.95089   1.90031   -1.000
 4721.00    1.93793   1.89970   -1.000
 4722.00    1.90638   1.89361  157.747
 4723.00    1.87987   1.89123  160.828
 4724.00    1.90304   1.89140  166.540
 4725.00    1.92865   1.87957   -1.000
 4726.00    1.88626   1.84247   -1.000
 4727.00    1.80225   1.78384   -1.000
 4728.00    1.72431   1.72627  168.161
 4729.00    1.69669   1.69402  166.285
 4730.00    1.71319   1.69498   -1.000
 4731.00    1.74507   1.72008   -1.000
 4732.00    1.77409   1.75382   -1.000
 4733.00    1.80807   1.78295   -1.000
 4734.00    1.83580   1.79973   -1.000
 4735.00    1.84803   1.80485   -1.000
 4736.00    1.84059   1.80616   -1.000
 4737.00    1.84698   1.81213   -1.000
 4738.00    1.86998   1.82563   -1.000
 4739.00    1.89848   1.84078   -1.000
 4740.00    1.89767   1.84927   -1.000
 4741.00    1.87082   1.85149   -1.000
 4742.00    1.85924   1.85448  161.009
 4743.00    1.88598   1.86117   -1.000
 4744.00    1.90661   1.87047   -1.000
 4745.00    1.91205   1.88249   -1.000
 4746.00    1.91668   1.89784   -1.000
 4747.00    1.92029   1.91476  158.201
 4748.00    1.93161   1.92952  159.141
 4749.00    1.94413   1.93904  160.839
 4750.00    1.94341   1.94068  162.296
 4751.00    1.92313   1.93138  163.452
 4752.00    1.89436   1.91096  163.440
 4753.00    1.86645   1.88491  163.875
 4754.00    1.84468   1.86247  164.995
 4755.00    1.83574   1.85118  165.391
 4756.00    1.84200   1.85230  164.303
 4757.00    1.84426   1.86293  163.774
 4758.00    1.83264   1.87885   -1.000
 4759.00    1.83818   1.89288   -1.000
 4760.00    1.86322   1.89439   -1.000
 4761.00    1.84775   1.87572   -1.000
 4762.00    1.80419   1.83974   -1.000
 4763.00    1.76478   1.79952   -1.000
 4764.00    1.73481   1.76746   -1.000
 4765.00    1.71033   1.74734   -1.000
 4766.00    1.70828   1.74202   -1.000
 4767.00    1.75477   1.76021  163.039
 4768.00    1.82017   1.80327   -1.000
 4769.00    1.87632   1.85320   -1.000
 4770.00    1.88560   1.88569  164.425
 4771.00    1.86325   1.89335   -1.000
 4772.00    1.84348   1.89241   -1.000
 4773.00    1.87283   1.90336   -1.000
 4774.00    1.92850   1.93008  159.937
 4775.00    1.95228   1.96027  160.880
 4776.00    1.95079   1.98112   -1.000
 4777.00    1.94600   1.98982   -1.000
 4778.00    1.94987   1.98854   -1.000
 4779.00    1.94364   1.97797   -1.000
 4780.00    1.92204   1.95980   -1.000
 4781.00    1.91925   1.93714   -1.000
 4782.00    1.90207   1.91144  166.792
 4783.00    1.85889   1.88664   -1.000
 4784.00    1.85475   1.87013  169.383
 4785.00    1.84959   1.86352  169.410
 4786.00    1.83926   1.86135   -1.000
 4787.00    1.83428   1.86021   -1.000
 4788.00    1.83299   1.86116   -1.000
 4789.00    1.83463   1.86579   -1.000
 4790.00    1.84216   1.87665   -1.000
 4791.00    1.86678   1.89943   -1.000
 4792.00    1.89774   1.93796   -1.000
 4793.00    1.95611   1.98763   -1.000
 4794.00    1.99934   2.03565   -1.000
 4795.00    2.02963   2.06578   -1.000
 4796.00    2.03002   2.06597   -1.000
 4797.00    1.98414   2.03741   -1.000
 4798.00    1.91871   1.99548   -1.000
 4799.00    1.87724   1.96104   -1.000
 4800.00    1.87962   1.95087   -1.000
 4801.00    1.93525   1.96936   -1.000
 4802.00    1.99674   2.00325  162.800
 4803.00    2.01138   2.02744  164.386
 4804.00    1.97947   2.02475   -1.000
 4805.00    1.94498   1.99924   -1.000
 4806.00    1.92367   1.96825   -1.000
 4807.00    1.90443   1.94667   -1.000
 4808.00    1.90744   1.94114   -1.000
 4809.00    1.91470   1.95146   -1.000
 4810.00    1.93316   1.97102   -1.000
 4811.00    1.95717   1.98921   -1.000
 4812.00    1.96253   1.99938   -1.000
 4813.00    1.96610   2.00432   -1.000
 4814.00    1.97024   2.01135   -1.000
 4815.00    1.98189   2.02486   -1.000
 4816.00    2.00921   2.04430   -1.000
 4817.00    2.02893   2.06595   -1.000
 4818.00    2.04669   2.08527   -1.000
 4819.00    2.06334   2.09700   -1.000
 4820.00    2.04692   2.09437   -1.000
 4821.00    2.00830   2.07171   -1.000
 4822.00    1.96595   2.03052   -1.000
 4823.00    1.90850   1.98424   -1.000
 4824.00    1.87860   1.95522   -1.000
 4825.00    1.92401   1.95811   -1.000
 4826.00    1.98997   1.98215  162.513
 4827.00    1.98838   2.00153  162.625
 4828.00    1.95019   2.00332   -1.000
 4829.00    1.94786   1.99354   -1.000
 4830.00    1.95155   1.97982   -1.000
 4831.00    1.91930   1.96381   -1.000
 4832.00    1.89861   1.95155   -1.000
 4833.00    1.91283   1.95396   -1.000
 4834.00    1.95833   1.97391  159.931
 4835.00    2.00015   2.00023  161.910
 4836.00    1.99958   2.01718  164.729
 4837.00    1.98046   2.01665   -1.000
 4838.00    1.95027   1.99960   -1.000
 4839.00    1.91594   1.97374   -1.000
 4840.00    1.89635   1.95089   -1.000
 4841.00    1.90049   1.93939   -1.000
 4842.00    1.90294   1.93899   -1.000
 4843.00    1.89862   1.94732   -1.000
 4844.00    1.93599   1.96632   -1.000
 4845.00    1.98768   1.99437  163.161
 4846.00    2.00669   2.01774  163.502
 4847.00    1.97598   2.02081   -1.000
 4848.00    1.95209   2.00551   -1.000
 4849.00    1.94493   1.99134   -1.000
 4850.00    1.96742   1.99223   -1.000
 4851.00    1.98079   2.00182  167.273
 4852.00    1.96689   2.00177   -1.000
 4853.00    1.94947   1.97801   -1.000
 4854.00    1.91074   1.93139  170.880
 4855.00    1.82821   1.87985   -1.000
 4856.00    1.80195   1.84478   -1.000
 4857.00    1.83859   1.82593   -1.000
 4858.00    1.83513   1.79440   -1.000
 4859.00    1.73864   1.71880   -1.000
 4860.00    1.57680   1.60908   -1.000
 4861.00    1.47281   1.52094   -1.000
 4862.00    1.49537   1.50760  174.205
 4863.00    1.60745   1.57250   -1.000
 4864.00    1.71711   1.67443   -1.000
 4865.00    1.80033   1.77048   -1.000
 4866.00    1.84894   1.84172  168.705
 4867.00    1.85326   1.88599   -1.000
 4868.00    1.85216   1.90287   -1.000
 4869.00    1.84870   1.88860   -1.000
 4870.00    1.77519   1.84436   -1.000
 4871.00    1.68853   1.78911   -1.000
 4872.00    1.68518   1.75966   -1.000
 4873.00    1.75222   1.78072   -1.000
 4874.00    1.80320   1.83711   -1.000
 4875.00    1.82881   1.89400   -1.000
 4876.00    1.84658   1.93437   -1.000
 4877.00    1.87218   1.96483   -1.000
 4878.00    1.90917   1.99491   -1.000
 4879.00    1.94744   2.02198   -1.000
 4880.00    1.95783   2.03428   -1.000
 4881.00    1.91909   2.02517   -1.000
 4882.00    1.88937   2.00363   -1.000
 4883.00    1.91099   1.98232   -1.000
 4884.00    1.90111   1.95983   -1.000
 4885.00    1.84188   1.92986   -1.000
 4886.00    1.80417   1.89964   -1.000
 4887.00    1.81649   1.88133   -1.000
 4888.00    1.82632   1.87083   -1.000
 4889.00    1.80913   1.85182   -1.000
 4890.00    1.75555   1.82195   -1.000
 4891.00    1.74697   1.80789   -1.000
 4892.00    1.81621   1.84350   -1.000
 4893.00    1.96044   1.93558   -1.000
 4894.00    2.07267   2.05127   -1.000
 4895.00    2.11654   2.14429   -1.000
 4896.00    2.14824   2.19220   -1.000
 4897.00    2.15168   2.20039   -1.000
 4898.00    2.13569   2.18310   -1.000
 4899.00    2.08648   2.15313   -1.000
 4900.00    2.03827   2.12235   -1.000
 4901.00    2.03141   2.09801   -1.000
 4902.00    2.00859   2.08001   -1.000
 4903.00    1.99518   2.06899   -1.000
 4904.00    2.02056   2.07374   -1.000
 4905.00    2.07123   2.10010   -1.000
 4906.00    2.11357   2.13121  164.731
 4907.00    2.10957   2.13639   -1.000
 4908.00    2.05283   2.10242   -1.000
 4909.00    1.97608   2.04534   -1.000
 4910.00    1.92786   1.99635   -1.000
 4911.00    1.92594   1.98054   -1.000
 4912.00    1.98403   2.00302  156.647
 4913.00    2.03811   2.04884  157.137
 4914.00    2.08549   2.09635  162.079
 4915.00    2.12768   2.12647  170.636
 4916.00    2.11121   2.11924  178.989
 4917.00    2.04322   2.05632  181.843
 4918.00    1.89492   1.94313   -1.000
 4919.00    1.76188   1.81960   -1.000
 4920.00    1.69887   1.74015   -1.000
 4921.00    1.75061   1.73636   -1.000
 4922.00    1.85198   1.79461   -1.000
 4923.00    1.92234   1.87053   -1.000
 4924.00    1.94029   1.93079  157.995
 4925.00    1.97102   1.97775  156.362
 4926.00    2.02124   2.02888  155.250
 4927.00    2.08725   2.08794  154.299
 4928.00    2.15029   2.14486  155.541
 4929.00    2.18749   2.18855  159.500
 4930.00    2.19411   2.20931  165.182
 4931.00    2.16281   2.19873   -1.000
 4932.00    2.12542   2.15761   -1.000
 4933.00    2.05134   2.10364   -1.000
 4934.00    2.01243   2.06282   -1.000
 4935.00    2.02004   2.04481  172.142
 4936.00    2.04116   2.03053   -1.000
 4937.00    1.97958   1.99582  165.910
 4938.00    1.89624   1.94828   -1.000
 4939.00    1.87515   1.92706   -1.000
 4940.00    1.97024   1.96049  155.726
 4941.00    2.08206   2.03660   -1.000
 4942.00    2.14490   2.11723   -1.000
 4943.00    2.17743   2.17184  157.125
 4944.00    2.20176   2.19372  155.885
 4945.00    2.18214   2.19352  154.068
 4946.00    2.16661   2.18862  153.459
 4947.00    2.18493   2.19378  152.834
 4948.00    2.21374   2.21201  153.484
 4949.00    2.24000   2.23371  154.522
 4950.00    2.24973   2.24821  156.243
 4951.00    2.25003   2.25093  158.185
 4952.00    2.22417   2.24135  162.191
 4953.00    2.17865   2.21909   -1.000
 4954.00    2.13662   2.17808   -1.000
 4955.00    2.08143   2.10647   -1.000
 4956.00    1.96773   2.00291   -1.000
 4957.00    1.83634   1.90381   -1.000
 4958.00    1.81959   1.86989   -1.000
 4959.00    1.95765   1.92461   -1.000
 4960.00    2.09484   2.02820   -1.000
 4961.00    2.14959   2.11787   -1.000
 4962.00    2.15627   2.16005  164.500
 4963.00    2.14992   2.15781  166.782
 4964.00    2.11286   2.12612  167.021
 4965.00    2.03960   2.08051   -1.000
 4966.00    1.98957   2.03940   -1.000
 4967.00    1.99616   2.01722  163.683
 4968.00    2.01032   2.01668  161.923
 4969.00    2.01976   2.03303  160.002
 4970.00    2.04255   2.06120  158.452
 4971.00    2.08121   2.09749  157.729
 4972.00    2.11231   2.13609  158.674
 4973.00    2.15408   2.16776  160.306
 4974.00    2.17441   2.18457  162.446
 4975.00    2.16374   2.18367  165.067
 4976.00    2.13497   2.16547   -1.000
 4977.00    2.08759   2.13310   -1.000
 4978.00    2.04444   2.09354   -1.000
 4979.00    2.00492   2.05312   -1.000
 4980.00    1.98236   2.00886   -1.000
 4981.00    1.93200   1.95138  177.924
 4982.00    1.83515   1.88371   -1.000
 4983.00    1.79324   1.83157   -1.000
 4984.00    1.83209   1.82382  163.324
 4985.00    1.90400   1.86747   -1.000
 4986.00    1.97294   1.94323   -1.000
 4987.00    2.04703   2.02047   -1.000
 4988.00    2.10023   2.07196   -1.000
 4989.00    2.07986   2.08696  165.960
 4990.00    2.05024   2.07778   -1.000
 4991.00    2.05419   2.06714  165.065
 4992.00    2.08482   2.06777   -1.000
 4993.00    2.07683   2.07674  163.450
 4994.00    2.05972   2.08694   -1.000
 4995.00    2.07165   2.09763   -1.000
 4996.00    2.10209   2.10768  169.710
 4997.00    2.09484   2.10566  171.950
 4998.00    2.05061   2.07974   -1.000
 4999.00    2.01624   2.03218  170.715
 5000.00    1.98495   1.98095  169.542
 5001.00    1.96467   1.94635   -1.000
 5002.00    1.96111   1.93428   -1.000
 5003.00    1.96200   1.93086   -1.000
 5004.00    1.95341   1.91577   -1.000
 5005.00    1.91570   1.88503   -1.000
 5006.00    1.88829   1.86063   -1.000
 5007.00    1.91070   1.87245   -1.000
 5008.00    1.98221   1.92303   -1.000
 5009.00    2.04394   1.98042   -1.000
 5010.00    2.04551   2.00614   -1.000
 5011.00    1.99786   1.98378   -1.000
 5012.00    1.92043   1.92591  179.159
 5013.00    1.83834   1.86393   -1.000
 5014.00    1.80091   1.82915   -1.000
 5015.00    1.84229   1.83123   -1.000
 5016.00    1.90594   1.85499   -1.000
 5017.00    1.93678   1.87957   -1.000
 5018.00    1.93039   1.89818   -1.000
 5019.00    1.95048   1.91614   -1.000
 5020.00    1.98101   1.93302   -1.000
 5021.00    1.97673   1.94225   -1.000
 5022.00    1.93428   1.94704  168.304
 5023.00    1.96691   1.96113  168.993
 5024.00    2.02997   1.99024   -1.000
 5025.00    2.04647   2.01991   -1.000
 5026.00    2.02485   2.03020  165.303
 5027.00    1.98766   2.02190   -1.000
 5028.00    1.98762   2.01708   -1.000
 5029.00    2.04263   2.03557  158.369
 5030.00    2.08625   2.07794  158.512
 5031.00    2.12753   2.13039  163.344
 5032.00    2.17814   2.17582  169.811
 5033.00    2.21906   2.19606   -1.000
 5034.00    2.20233   2.17741   -1.000
 5035.00    2.09872   2.12532   -1.000
 5036.00    2.01053   2.06555   -1.000
 5037.00    1.99457   2.01818   -1.000
 5038.00    1.99566   1.97566   -1.000
 5039.00    1.90739   1.91768  181.473
 5040.00    1.77585   1.84869   -1.000
 5041.00    1.74661   1.80913   -1.000
 5042.00    1.83919   1.83907  159.606
 5043.00    1.98715   1.93901   -1.000
 5044.00    2.14046   2.06656   -1.000
 5045.00    1.28147   2.16940   -1.000
 5046.00    0.19357   2.21576   -1.000
 5047.00    0.05352   2.20119   -1.000
 5048.00    0.61180   2.14214   -1.000
 5049.00    1.63299   2.07026   -1.000
 5050.00    1.95801   2.01837   -1.000
 5051.00    2.00677   2.00256  159.959
 5052.00    2.06237   2.02165   -1.000
 5053.00    2.11835   2.06667   -1.000
 5054.00    2.16629   2.12130   -1.000
 5055.00    2.19594   2.16757   -1.000
 5056.00    2.21569   2.19818   -1.000
 5057.00    2.22757   2.21765  157.294
 5058.00    2.23948   2.23492  157.340
 5059.00    2.25751   2.25556  159.400
 5060.00    2.27447   2.27765  163.980
 5061.00    2.29955   2.29087  169.823
 5062.00    2.30264   2.27825   -1.000
 5063.00    2.22292   2.22922  169.951
 5064.00    2.11633   2.15633   -1.000
 5065.00    2.03485   2.09099   -1.000
 5066.00    2.04714   2.05715  166.000
 5067.00    2.08425   2.05473   -1.000
 5068.00    2.07132   2.06951  166.182
 5069.00    2.10368   2.08989   -1.000
 5070.00    2.14396   2.10736   -1.000
 5071.00    2.13988   2.11311   -1.000
 5072.00    2.11017   2.10643  163.960
 5073.00    2.12137   2.10000   -1.000
 5074.00    2.16589   2.10476   -1.000
 5075.00    2.16850   2.11680   -1.000
 5076.00    2.14501   2.12258   -1.000
 5077.00    2.14567   2.10750   -1.000
 5078.00    2.10208   2.06204   -1.000
 5079.00    1.98212   1.99468  173.927
 5080.00    1.91218   1.93780   -1.000
 5081.00    1.94593   1.92039   -1.000
 5082.00    2.00587   1.94236   -1.000
 5083.00    2.04038   1.98378   -1.000
 5084.00    2.06583   2.02945   -1.000
 5085.00    2.11247   2.07416   -1.000
 5086.00    2.15640   2.11414   -1.000
 5087.00    2.16919   2.14450   -1.000
 5088.00    2.17418   2.16479  160.261
 5089.00    2.18245   2.17952  158.417
 5090.00    2.20855   2.19475   -1.000
 5091.00    2.24792   2.21559   -1.000
 5092.00    2.27111   2.24228   -1.000
 5093.00    2.30185   2.26446   -1.000
 5094.00    2.29267   2.26416   -1.000
 5095.00    2.24149   2.23047   -1.000
 5096.00    2.17050   2.16911  173.348
 5097.00    2.09300   2.09778  169.107
 5098.00    2.00997   2.03870   -1.000
 5099.00    1.99508   2.01476  162.732
 5100.00    2.04060   2.03637  163.686
 5101.00    2.12936   2.08924   -1.000
 5102.00    2.18317   2.13980   -1.000
 5103.00    2.15976   2.16187  170.014
 5104.00    2.12569   2.15420   -1.000
 5105.00    2.12117   2.13008  171.890
 5106.00    2.10478   2.10033  170.781
 5107.00    2.05112   2.07059  169.553
 5108.00    2.03033   2.04658  167.104
 5109.00    2.03153   2.03682  165.057
 5110.00    2.05286   2.04824  163.043
 5111.00    2.11630   2.08062   -1.000
 5112.00    2.17099   2.12342   -1.000
 5113.00    2.19037   2.16364   -1.000
 5114.00    2.23073   2.19714   -1.000
 5115.00    2.26590   2.22745   -1.000
 5116.00    2.26758   2.25633   -1.000
 5117.00    2.29584   2.27905   -1.000
 5118.00    2.31408   2.28737   -1.000
 5119.00    2.30705   2.27516   -1.000
 5120.00    2.24885   2.24203  174.801
 5121.00    2.18915   2.19196  175.970
 5122.00    2.12911   2.13152  174.363
 5123.00    2.03705   2.07122   -1.000
 5124.00    2.00068   2.02599   -1.000
 5125.00    2.01863   2.00702   -1.000
 5126.00    2.03663   2.01062   -1.000
 5127.00    2.04410   2.02203   -1.000
 5128.00    2.04262   2.03204   -1.000
 5129.00    2.05726   2.04406   -1.000
 5130.00    2.08552   2.06571   -1.000
 5131.00    2.13458   2.09723   -1.000
 5132.00    2.19307   2.13059   -1.000
 5133.00    2.21511   2.15898   -1.000
 5134.00    2.23327   2.18064   -1.000
 5135.00    2.24795   2.19198   -1.000
 5136.00    2.23271   2.18208   -1.000
 5137.00    2.16204   2.14540   -1.000
 5138.00    2.09322   2.09833  172.290
 5139.00    2.07672   2.06674   -1.000
 5140.00    2.10146   2.05908   -1.000
 5141.00    2.11757   2.06254   -1.000
 5142.00    2.07481   2.06452   -1.000
 5143.00    2.06283   2.06720  172.171
 5144.00    2.10923   2.07448   -1.000
 5145.00    2.10336   2.07671   -1.000
 5146.00    2.06463   2.06577  169.435
 5147.00    2.06297   2.05201   -1.000
 5148.00    2.09204   2.05138   -1.000
 5149.00    2.09204   2.06272   -1.000
 5150.00    2.08970   2.06956   -1.000
 5151.00    2.07883   2.06225   -1.000
 5152.00    2.03892   2.04764  167.102
 5153.00    2.02168   2.04026  162.849
 5154.00    2.05177   2.05277  159.839
 5155.00    2.12129   2.09078   -1.000
 5156.00    2.19152   2.14749   -1.000
 5157.00    2.27588   2.20523   -1.000
 5158.00    2.31091   2.24737   -1.000
 5159.00    2.30949   2.26742   -1.000
 5160.00    2.32426   2.26642   -1.000
 5161.00    2.29767   2.24548   -1.000
 5162.00    2.24141   2.20296   -1.000
 5163.00    2.18857   2.13788   -1.000
 5164.00    2.09755   2.04748   -1.000
 5165.00    1.93891   1.92323   -1.000
 5166.00    1.72293   1.77124   -1.000
 5167.00    1.54342   1.63813   -1.000
 5168.00    1.54488   1.58080   -1.000
 5169.00    1.66868   1.60188   -1.000
 5170.00    1.73975   1.63499   -1.000
 5171.00    1.64682   1.61724   -1.000
 5172.00    1.47816   1.56676   -1.000
 5173.00    1.48871   1.56199   -1.000
 5174.00    1.69816   1.65495   -1.000
 5175.00    1.95230   1.81383   -1.000
 5176.00    2.10478   1.96246   -1.000
 5177.00    2.15129   2.05453   -1.000
 5178.00    2.17346   2.09023   -1.000
 5179.00    2.14699   2.07998   -1.000
 5180.00    2.06915   2.01851   -1.000
 5181.00    1.90652   1.89489   -1.000
 5182.00    1.67311   1.73066   -1.000
 5183.00    1.46016   1.59419   -1.000
 5184.00    1.46167   1.56509   -1.000
 5185.00    1.71675   1.66556   -1.000
 5186.00    1.99097   1.83887   -1.000
 5187.00    2.14295   2.00070   -1.000
 5188.00    2.20708   2.10322   -1.000
 5189.00    2.24247   2.14353   -1.000
 5190.00    2.25758   2.13238   -1.000
 5191.00    2.16369   2.08248   -1.000
 5192.00    2.02842   2.02345  172.925
 5193.00    2.01524   1.99312   -1.000
 5194.00    2.09275   2.00303   -1.000
 5195.00    2.13357   2.03735   -1.000
 5196.00    2.18563   2.08168   -1.000
 5197.00    2.23147   2.13244   -1.000
 5198.00    2.28327   2.18535   -1.000
 5199.00    2.32465   2.22934   -1.000
 5200.00    2.33930   2.25238   -1.000
 5201.00    2.31269   2.24722   -1.000
 5202.00    2.26686   2.21151   -1.000
 5203.00    2.22520   2.14496   -1.000
 5204.00    2.12653   2.05513   -1.000
 5205.00    2.01758   1.96303   -1.000
 5206.00    1.97004   1.89399   -1.000
 5207.00    1.95578   1.86065   -1.000
 5208.00    1.93712   1.86192   -1.000
 5209.00    1.96348   1.89733   -1.000
 5210.00    2.06260   1.97028   -1.000
 5211.00    2.19189   2.07187   -1.000
 5212.00    2.33051   2.17370   -1.000
 5213.00    2.38998   2.24048   -1.000
 5214.00    2.36498   2.25385   -1.000
 5215.00    2.31417   2.22711   -1.000
 5216.00    2.26389   2.19830   -1.000
 5217.00    2.28496   2.20221   -1.000
 5218.00    2.36328   2.24455   15.714
 5219.00    2.43657   2.30348   15.941
 5220.00    2.46924   2.35130   16.452
 5221.00    2.46501   2.36950   17.147
 5222.00    2.43736   2.34864   17.950
 5223.00    2.35682   2.28606   18.401
 5224.00    2.24445   2.18787   17.936
 5225.00    2.10782   2.07530   16.906
 5226.00    2.01536   1.98844   16.243
 5227.00    2.02177   1.96980   15.984
 5228.00    2.15459   2.03215   15.986
 5229.00    2.32082   2.14135   -1.000
 5230.00    2.40666   2.23519   -1.000
 5231.00    2.42498   2.26940   16.540
 5232.00    2.34828   2.24741   16.138
 5233.00    2.29100   2.21032   15.759
 5234.00    2.29217   2.20260   15.601
 5235.00    2.32932   2.24046   15.599
 5236.00    2.42138   2.30758   15.650
 5237.00    2.50529   2.37353   15.614
 5238.00    2.52321   2.41567   15.522
 5239.00    2.51392   2.43002   15.551
 5240.00    2.51121   2.42681   15.515
 5241.00    2.51007   2.41906   15.504
 5242.00    2.51594   2.41662   15.846
 5243.00    2.52234   2.42239   16.351
 5244.00    2.53314   2.42602   16.709
 5245.00    2.51688   2.40804   16.728
 5246.00    2.42416   2.36049   16.763
 5247.00    2.33836   2.29998   16.868
 5248.00    2.31973   2.25227   16.769
 5249.00    2.31809   2.22841   16.528
 5250.00    2.31284   2.22465   16.377
 5251.00    2.31299   2.23618   16.385
 5252.00    2.34795   2.25677   16.246
 5253.00    2.38504   2.27506   15.846
 5254.00    2.37934   2.28676   15.427
 5255.00    2.37506   2.30618   15.323
 5256.00    2.43433   2.35199   15.498
 5257.00    2.54718   2.41785   15.955
 5258.00    2.61333   2.47128   16.653
 5259.00    2.59115   2.48057   17.443
 5260.00    2.54542   2.43411   18.019
 5261.00    2.44469   2.33958   18.358
 5262.00    2.28917   2.21777   18.367
 5263.00    2.15695   2.09512   18.023
 5264.00    2.06547   1.99680   17.739
 5265.00    2.01334   1.94046   18.193
 5266.00    2.02577   1.92664   18.894
 5267.00    2.09425   1.92981   -1.000
 5268.00    2.07172   1.91510   17.321
 5269.00    1.93151   1.88054   16.632
 5270.00    1.91146   1.87099   16.508
 5271.00    2.09255   1.93146   16.524
 5272.00    2.27845   2.04588   -1.000
 5273.00    2.35388   2.15030   -1.000
 5274.00    2.36014   2.20960   15.562
 5275.00    2.35087   2.24655   15.312
 5276.00    2.40308   2.29862   15.447
 5277.00    2.52331   2.37171   15.841
 5278.00    2.62435   2.43630   -1.000
 5279.00    2.62145   2.45836   -1.000
 5280.00    2.54708   2.42926   16.563
 5281.00    2.48810   2.36789   16.188
 5282.00    2.40776   2.30586   15.681
 5283.00    2.35202   2.27660   15.211
 5284.00    2.31640   2.30339   15.134
 5285.00    2.49236   2.38271   15.221
 5286.00    2.67114   2.47833   -1.000
 5287.00    2.71654   2.54855   15.115
 5288.00    2.71673   2.58106   15.096
 5289.00    2.70619   2.59240   15.197
 5290.00    2.73621   2.59969   15.348
 5291.00    2.74758   2.60345   15.571
 5292.00    2.70319   2.59626   16.022
 5293.00    2.66932   2.57557   16.640
 5294.00    2.66524   2.53906   17.032
 5295.00    2.59340   2.47729   16.864
 5296.00    2.46633   2.38912   16.423
 5297.00    2.32475   2.30008   16.141
 5298.00    2.28517   2.25117   16.044
 5299.00    2.37817   2.26113   15.820
 5300.00    2.46667   2.30981   15.388
 5301.00    2.50753   2.36635   15.134
 5302.00    2.55266   2.42181   15.125
 5303.00    2.63714   2.48414   15.284
 5304.00    2.73238   2.55035   -1.000
 5305.00    2.79040   2.59920   -1.000
 5306.00    2.76647   2.61604   15.116
 5307.00    2.72682   2.61187   15.033
 5308.00    2.74505   2.61076   15.061
 5309.00    2.78789   2.62424   15.149
 5310.00    2.80623   2.64220   15.216
 5311.00    2.78601   2.64799   15.334
 5312.00    2.75762   2.63634   15.487
 5313.00    2.75723   2.61313   15.613
 5314.00    2.73617   2.58568   15.598
 5315.00    2.72499   2.55830   15.478
 5316.00    2.69197   2.53573   15.427
 5317.00    2.67588   2.52508   15.497
 5318.00    2.67622   2.52841   15.616
 5319.00    2.68780   2.53756   15.813
 5320.00    2.69998   2.54052   16.086
 5321.00    2.67245   2.52799   16.211
 5322.00    2.63227   2.49462   16.233
 5323.00    2.58861   2.44302   16.767
 5324.00    2.52381   2.38349   17.850
 5325.00    2.49733   2.31878   -1.000
 5326.00    2.46134   2.23733   -1.000
 5327.00    2.28830   2.14041   16.407
 5328.00    2.12122   2.06919   15.946
 5329.00    2.17016   2.07944   15.801
 5330.00    2.37109   2.17817   -1.000
 5331.00    2.53884   2.30946   -1.000
 5332.00    2.59425   2.41409   -1.000
 5333.00    2.62982   2.47947   15.541
 5334.00    2.69710   2.52519   -1.000
 5335.00    2.75660   2.56232   -1.000
 5336.00    2.77017   2.58120   -1.000
 5337.00    2.73292   2.56877   -1.000
 5338.00    2.68769   2.52201   -1.000
 5339.00    2.59650   2.45202   15.843
 5340.00    2.50142   2.38807   15.599
 5341.00    2.48968   2.36631   15.628
 5342.00    2.56326   2.39676   15.736
 5343.00    2.66493   2.45044   -1.000
 5344.00    2.70080   2.48872   -1.000
 5345.00    2.66484   2.49601   -1.000
 5346.00    2.63223   2.48092   16.055
 5347.00    2.62495   2.45819   15.773
 5348.00    2.60430   2.43969   15.416
 5349.00    2.58994   2.43854   15.252
 5350.00    2.64818   2.46607   -1.000
 5351.00    2.71962   2.51907   -1.000
 5352.00    2.77191   2.57968   -1.000
 5353.00    2.81797   2.63180   -1.000
 5354.00    2.84931   2.67329   14.813
 5355.00    2.89721   2.70841   -1.000
 5356.00    2.92464   2.73509   -1.000
 5357.00    2.90947   2.74790   15.102
 5358.00    2.88767   2.74597   15.358
 5359.00    2.87185   2.73077   15.567
 5360.00    2.84537   2.70278   15.666
 5361.00    2.77645   2.66515   15.756
 5362.00    2.74353   2.62492   15.835
 5363.00    2.72456   2.58778   15.781
 5364.00    2.71149   2.55575   15.803
 5365.00    2.67160   2.53004   16.003
 5366.00    2.67482   2.51211   -1.000
 5367.00    2.67494   2.49590   -1.000
 5368.00    2.62675   2.46320   -1.000
 5369.00    2.54030   2.40150   16.136
 5370.00    2.43836   2.32802   15.425
 5371.00    2.39095   2.28719   15.105
 5372.00    2.48777   2.31604   15.029
 5373.00    2.64866   2.40896   -1.000
 5374.00    2.78918   2.52007   -1.000
 5375.00    2.84841   2.60168   -1.000
 5376.00    2.84625   2.63800   -1.000
 5377.00    2.81235   2.64541   15.380
 5378.00    2.80689   2.64582   15.522
 5379.00    2.82021   2.64509   -1.000
 5380.00    2.81173   2.63587   -1.000
 5381.00    2.78416   2.61445   -1.000
 5382.00    2.77402   2.58971   -1.000
 5383.00    2.75565   2.57630   -1.000
 5384.00    2.76117   2.58241   -1.000
 5385.00    2.80859   2.60314   -1.000
 5386.00    2.83424   2.62236   -1.000
 5387.00    2.81078   2.62264   -1.000
 5388.00    2.74558   2.59720   16.006
 5389.00    2.69180   2.55384   16.015
 5390.00    2.65276   2.50847   16.077
 5391.00    2.62505   2.47503   16.215
 5392.00    2.61491   2.45802   16.452
 5393.00    2.62870   2.45119   -1.000
 5394.00    2.62591   2.44109   -1.000
 5395.00    2.59393   2.41576   -1.000
 5396.00    2.52327   2.37869   15.724
 5397.00    2.48333   2.35388   15.676
 5398.00    2.55297   2.36690   -1.000
 5399.00    2.63832   2.41732   -1.000
 5400.00    2.68368   2.47675   -1.000
 5401.00    2.69362   2.51310   -1.000
 5402.00    2.69384   2.50744   -1.000
 5403.00    2.62301   2.45450   -1.000
 5404.00    2.49220   2.36783   16.508
 5405.00    2.41209   2.28744   16.425
 5406.00    2.40378   2.25749   16.559
 5407.00    2.46842   2.28337   -1.000
 5408.00    2.53144   2.32861   -1.000
 5409.00    2.52413   2.36081   15.616
 5410.00    2.52872   2.38579   15.495
 5411.00    2.59880   2.42898   15.516
 5412.00    2.69570   2.49222   -1.000
 5413.00    2.77138   2.55085   -1.000
 5414.00    2.76469   2.58891   -1.000
 5415.00    2.76790   2.61498   15.398
 5416.00    2.79781   2.64268   15.549
 5417.00    2.85333   2.66821   -1.000
 5418.00    2.86440   2.67642   -1.000
 5419.00    2.82097   2.66339   15.519
 5420.00    2.77433   2.64127   15.749
 5421.00    2.77869   2.62254   15.836
 5422.00    2.79903   2.60767   -1.000
 5423.00    2.76706   2.59303   -1.000
 5424.00    2.72365   2.58742   15.537
 5425.00    2.75684   2.60528   16.010
 5426.00    2.82388   2.63836   -1.000
 5427.00    2.84060   2.64949   -1.000
 5428.00    2.75521   2.60902   16.114
 5429.00    2.63031   2.53425   16.171
 5430.00    2.59169   2.47544   16.414
 5431.00    2.64333   2.45946   -1.000
 5432.00    2.67589   2.46558   -1.000
 5433.00    2.63749   2.45957   -1.000
 5434.00    2.59281   2.43877   15.628
 5435.00    2.58068   2.43303   15.328
 5436.00    2.63111   2.46852   15.136
 5437.00    2.72295   2.54373   -1.000
 5438.00    2.81408   2.63450   -1.000
 5439.00    2.89903   2.71326   -1.000
 5440.00    2.93933   2.76508   -1.000
 5441.00    2.95258   2.79001   -1.000
 5442.00    2.93654   2.79155   16.374
 5443.00    2.91501   2.76459   -1.000
 5444.00    2.82776   2.69930   16.540
 5445.00    2.68532   2.60064   15.988
 5446.00    2.55334   2.50250   15.600
 5447.00    2.53542   2.45248   15.500
 5448.00    2.61873   2.47394   15.536
 5449.00    2.74297   2.54436   -1.000
 5450.00    2.81248   2.61394   -1.000
 5451.00    2.84451   2.64582   -1.000
 5452.00    2.81298   2.63231   -1.000
 5453.00    2.73935   2.58094   16.461
 5454.00    2.66140   2.50880   15.887
 5455.00    2.58212   2.44978   15.526
 5456.00    2.60122   2.44360   15.513
 5457.00    2.70958   2.50180   -1.000
 5458.00    2.82527   2.58857   -1.000
 5459.00    2.88513   2.64850   -1.000
 5460.00    2.83983   2.65359   -1.000
 5461.00    2.76453   2.61574   16.015
 5462.00    2.69802   2.56762   15.852
 5463.00    2.68101   2.54005   15.767
 5464.00    2.72208   2.54596   -1.000
 5465.00    2.78981   2.57637   -1.000
 5466.00    2.81066   2.61195   -1.000
 5467.00    2.81237   2.63837   -1.000
 5468.00    2.82706   2.64996   -1.000
 5469.00    2.81637   2.64629   -1.000
 5470.00    2.78174   2.63084   16.233
 5471.00    2.75562   2.61021   16.491
 5472.00    2.74348   2.58890   -1.000
 5473.00    2.72224   2.56355   -1.000
 5474.00    2.69770   2.52571   -1.000
 5475.00    2.64621   2.47495   -1.000
 5476.00    2.56784   2.43035   16.038
 5477.00    2.54520   2.42131   16.211
 5478.00    2.62785   2.45636   -1.000
 5479.00    2.71431   2.50541   -1.000
 5480.00    2.72141   2.52996   -1.000
 5481.00    2.66254   2.52614   15.662
 5482.00    2.62568   2.52643   15.598
 5483.00    2.66777   2.55927   15.788
 5484.00    2.75242   2.61485   15.994
 5485.00    2.82258   2.65714   -1.000
 5486.00    2.83196   2.66143   -1.000
 5487.00    2.77726   2.63502   15.906
 5488.00    2.75319   2.60711   15.802
 5489.00    2.76712   2.60141   -1.000
 5490.00    2.79137   2.61822   -1.000
 5491.00    2.82740   2.63998   -1.000
 5492.00    2.84145   2.65185   -1.000
 5493.00    2.82934   2.65288   -1.000
 5494.00    2.81737   2.64971   -1.000
 5495.00    2.83100   2.64532   -1.000
 5496.00    2.82808   2.63856   -1.000
 5497.00    2.80382   2.63372   -1.000
 5498.00    2.82282   2.63854   -1.000
 5499.00    2.86188   2.64866   -1.000
 5500.00    2.86766   2.64706   -1.000
 5501.00    2.81424   2.62508   -1.000
 5502.00    2.77137   2.59566   -1.000
 5503.00    2.74557   2.57737   -1.000
 5504.00    2.75913   2.57015   -1.000
 5505.00    2.74126   2.56140   -1.000
 5506.00    2.71159   2.55131   15.924
 5507.00    2.72168   2.55531   -1.000
 5508.00    2.77807   2.58028   -1.000
 5509.00    2.81420   2.60788   -1.000
 5510.00    2.81370   2.61003   -1.000
 5511.00    2.76956   2.57880   -1.000
 5512.00    2.69725   2.53357   -1.000
 5513.00    2.65756   2.50226   15.924
 5514.00    2.67316   2.50057   -1.000
 5515.00    2.72766   2.52671   -1.000
 5516.00    2.79324   2.57095   -1.000
 5517.00    2.85007   2.62462   -1.000
 5518.00    2.90163   2.67925   -1.000
 5519.00    2.94585   2.72315   -1.000
 5520.00    2.95032   2.74653   -1.000
 5521.00    2.93831   2.75103   -1.000
 5522.00    2.93887   2.74759   -1.000
 5523.00    2.94539   2.74220   -1.000
 5524.00    2.92710   2.72849   -1.000
 5525.00    2.88358   2.69443   -1.000
 5526.00    2.81874   2.63676   -1.000
 5527.00    2.72811   2.57171   15.855
 5528.00    2.66875   2.53158   15.721
 5529.00    2.69236   2.54154   15.799
 5530.00    2.78759   2.59381   -1.000
 5531.00    2.85723   2.65255   -1.000
 5532.00    2.86866   2.68604   -1.000
 5533.00    2.85690   2.68933   -1.000
 5534.00    2.85013   2.67734   -1.000
 5535.00    2.84441   2.66601   -1.000
 5536.00    2.84022   2.66406   -1.000
 5537.00    2.86067   2.67384   -1.000
 5538.00    2.88602   2.69369   -1.000
 5539.00    2.93155   2.72004   -1.000
 5540.00    2.97531   2.74620   -1.000
 5541.00    2.99955   2.76120   -1.000
 5542.00    2.97264   2.75755   -1.000
 5543.00    2.91281   2.74047   -1.000
 5544.00    2.89960   2.72402   -1.000
 5545.00    2.92223   2.71859   -1.000
 5546.00    2.93374   2.72689   -1.000
 5547.00    2.94199   2.74844   -1.000
 5548.00    2.99258   2.77956   -1.000
 5549.00    3.03629   2.81004   -1.000
 5550.00    3.04544   2.82767   -1.000
 5551.00    3.05482   2.82599   -1.000
 5552.00    3.04012   2.80660   -1.000
 5553.00    3.00240   2.77839   -1.000
 5554.00    2.96343   2.75442   -1.000
 5555.00    2.95601   2.74356   -1.000
 5556.00    2.97520   2.74420   -1.000
 5557.00    2.98826   2.74848   -1.000
 5558.00    2.99322   2.75158   -1.000
 5559.00    2.99841   2.75289   -1.000
 5560.00    2.99004   2.74941   -1.000
 5561.00    2.96532   2.73646   -1.000
 5562.00    2.93549   2.71628   -1.000
 5563.00    2.90713   2.69761   -1.000
 5564.00    2.88704   2.68524   -1.000
 5565.00    2.88448   2.67609   -1.000
 5566.00    2.88239   2.66637   -1.000
 5567.00    2.86946   2.65792   -1.000
 5568.00    2.87920   2.65527   -1.000
 5569.00    2.91394   2.65947   -1.000
 5570.00    2.98588   2.66656   -1.000
 5571.00    3.20144   2.67059   -1.000
 5572.00    3.55479   2.66926   -1.000
 5573.00    3.69812   2.66892   -1.000
 5574.00    3.35262   2.68035   -1.000
 5575.00    2.71711   2.70420   15.674
 5576.00    2.37320   2.72791   -1.000
 5577.00    2.68471   2.74358   16.193
 5578.00    2.98301   2.75556   -1.000
 5579.00    3.01612   2.76693   -1.000
 5580.00    3.01840   2.77330   -1.000
 5581.00    3.00448   2.77026   -1.000
 5582.00    2.97830   2.75845   -1.000
 5583.00    2.96401   2.73948   -1.000
 5584.00    2.94540   2.70738   -1.000
 5585.00    2.87772   2.65198   -1.000
 5586.00    2.77345   2.57589   -1.000
 5587.00    2.69200   2.50226   -1.000
 5588.00    2.66040   2.46093   -1.000
 5589.00    2.69586   2.46504   -1.000
 5590.00    2.75407   2.50312   -1.000
 5591.00    2.80143   2.55081   -1.000
 5592.00    2.82162   2.58886   -1.000
 5593.00    2.82169   2.61550   -1.000
 5594.00    2.84523   2.64246   -1.000
 5595.00    2.89588   2.67651   -1.000
 5596.00    2.94176   2.70560   -1.000
 5597.00    2.93229   2.70880   -1.000
 5598.00    2.87045   2.67962   -1.000
 5599.00    2.82162   2.63309   -1.000
 5600.00    2.79528   2.59018   -1.000
 5601.00    2.77048   2.56399   -1.000
 5602.00    2.75515   2.56413   -1.000
 5603.00    2.80263   2.60070   -1.000
 5604.00    2.90406   2.67157   -1.000
 5605.00    2.99996   2.75437   -1.000
 5606.00    3.06139   2.82137   -1.000
 5607.00    3.07862   2.85893   -1.000
 5608.00    3.08271   2.87147   -1.000
 5609.00    3.09043   2.87321   -1.000
 5610.00    3.10041   2.87612   -1.000
 5611.00    3.11440   2.87900   -1.000
 5612.00    3.10518   2.86404   -1.000
 5613.00    3.03999   2.81023   -1.000
 5614.00    2.90715   2.71909   -1.000
 5615.00    2.78947   2.62701   -1.000
 5616.00    2.77782   2.58097   -1.000
 5617.00    2.84666   2.59668   -1.000
 5618.00    2.91019   2.64679   -1.000
 5619.00    2.94399   2.69437   -1.000
 5620.00    2.95039   2.72690   -1.000
 5621.00    2.97184   2.74577   -1.000
 5622.00    2.97438   2.74298   -1.000
 5623.00    2.92439   2.71084   -1.000
 5624.00    2.83824   2.66411   -1.000
 5625.00    2.80184   2.63581   -1.000
 5626.00    2.85901   2.64837   -1.000
 5627.00    2.93666   2.69436   -1.000
 5628.00    3.00676   2.75022   -1.000
 5629.00    3.04220   2.79841   -1.000
 5630.00    3.07122   2.83063   -1.000
 5631.00    3.08889   2.84334   -1.000
 5632.00    3.08427   2.83757   -1.000
 5633.00    3.04203   2.81835   -1.000
 5634.00    2.99663   2.79128   -1.000
 5635.00    2.98434   2.76140   -1.000
 5636.00    2.95587   2.73488   -1.000
 5637.00    2.93406   2.71819   -1.000
 5638.00    2.93271   2.71338   -1.000
 5639.00    2.93364   2.71474   -1.000
 5640.00    2.92670   2.71316   -1.000
 5641.00    2.92303   2.70659   -1.000
 5642.00    2.93099   2.70356   -1.000
 5643.00    2.94770   2.71201   -1.000
 5644.00    2.96281   2.72951   -1.000
 5645.00    2.98667   2.74859   -1.000
 5646.00    2.99659   2.76402   -1.000
 5647.00    3.00213   2.77243   -1.000
 5648.00    3.00074   2.77299   -1.000
 5649.00    2.99327   2.77082   -1.000
 5650.00    3.00114   2.77480   -1.000
 5651.00    3.04810   2.78784   -1.000
 5652.00    3.08894   2.80009   -1.000
 5653.00    3.06444   2.79815   -1.000
 5654.00    3.01315   2.78013   -1.000
 5655.00    2.98589   2.75260   -1.000
 5656.00    2.95792   2.71659   -1.000
 5657.00    2.88053   2.67006   -1.000
 5658.00    2.80256   2.62406   -1.000
 5659.00    2.80431   2.60284   -1.000
 5660.00    2.87127   2.61687   -1.000
 5661.00    2.90936   2.64747   -1.000
 5662.00    2.90940   2.67452   -1.000
 5663.00    2.93484   2.70056   -1.000
 5664.00    2.99482   2.73256   -1.000
 5665.00    3.02171   2.76150   -1.000
 5666.00    3.00441   2.77310   -1.000
 5667.00    2.97522   2.76679   -1.000
 5668.00    2.95837   2.75666   -1.000
 5669.00    2.96383   2.75656   -1.000
 5670.00    3.00069   2.77081   -1.000
 5671.00    3.04272   2.79802   -1.000
 5672.00    3.08979   2.83315   -1.000
 5673.00    3.12504   2.86567   -1.000
 5674.00    3.13817   2.88559   -1.000
 5675.00    3.15059   2.89216   -1.000
 5676.00    3.16036   2.89236   -1.000
 5677.00    3.15489   2.89069   -1.000
 5678.00    3.15805   2.88380   -1.000
 5679.00    3.11782   2.86684   -1.000
 5680.00    3.07914   2.83993   -1.000
 5681.00    3.05733   2.80657   -1.000
 5682.00    3.02289   2.77424   -1.000
 5683.00    2.99637   2.75539   -1.000
 5684.00    3.02711   2.75555   -1.000
 5685.00    3.04859   2.76310   -1.000
 5686.00    3.00651   2.76243   -1.000
 5687.00    2.95582   2.75360   -1.000
 5688.00    2.95055   2.75151   -1.000
 5689.00    2.99718   2.76913   -1.000
 5690.00    3.06850   2.80538   -1.000
 5691.00    3.13253   2.84726   -1.000
 5692.00    3.15957   2.88047   -1.000
 5693.00    3.15690   2.89754   -1.000
 5694.00    3.14479   2.89958   -1.000
 5695.00    3.13282   2.89195   -1.000
 5696.00    3.10625   2.87753   -1.000
 5697.00    3.07248   2.85537   -1.000
 5698.00    3.03239   2.82578   -1.000
 5699.00    2.97797   2.79302   -1.000
 5700.00    2.93540   2.76289   -1.000
 5701.00    2.90518   2.74264   -1.000
 5702.00    2.89854   2.74013   -1.000
 5703.00    2.95153   2.75391   -1.000
 5704.00    3.00997   2.76756   -1.000
 5705.00    2.99939   2.76170   -1.000
 5706.00    2.93913   2.73057   -1.000
 5707.00    2.87546   2.68567   -1.000
 5708.00    2.82617   2.64451   -1.000
 5709.00    2.80807   2.61891   -1.000
 5710.00    2.82664   2.61511   -1.000
 5711.00    2.86270   2.63645   -1.000
 5712.00    2.92485   2.68214   -1.000
 5713.00    3.00666   2.74367   -1.000
 5714.00    3.06694   2.80449   -1.000
 5715.00    3.09101   2.85052   -1.000
 5716.00    3.13045   2.87982   -1.000
 5717.00    3.16439   2.89877   -1.000
 5718.00    3.17363   2.91463   -1.000
 5719.00    3.20163   2.93271   -1.000
 5720.00    3.21310   2.95452   -1.000
 5721.00    3.22091   2.97725   -1.000
 5722.00    3.25270   2.99596   -1.000
 5723.00    3.27082   3.00508   -1.000
 5724.00    3.25773   2.99904   -1.000
 5725.00    3.22406   2.97616   -1.000
 5726.00    3.17907   2.94492   -1.000
 5727.00    3.14141   2.92232   -1.000
 5728.00    3.14732   2.91912   -1.000
 5729.00    3.17744   2.92732   -1.000
 5730.00    3.18444   2.93037   -1.000
 5731.00    3.16689   2.92538   -1.000
 5732.00    3.16351   2.92626   -1.000
 5733.00    3.19061   2.94382   -1.000
 5734.00    3.22793   2.96973   -1.000
 5735.00    3.25094   2.98589   -1.000
 5736.00    3.23241   2.98481   -1.000
 5737.00    3.20339   2.97427   -1.000
 5738.00    3.18900   2.96593   -1.000
 5739.00    3.18258   2.96391   -1.000
 5740.00    3.18337   2.96395   -1.000
 5741.00    3.17229   2.96196   -1.000
 5742.00    3.16792   2.96064   -1.000
 5743.00    3.17615   2.96705   -1.000
 5744.00    3.20684   2.98237   -1.000
 5745.00    3.24576   2.99557   -1.000
 5746.00    3.23978   2.99268   -1.000
 5747.00    3.19664   2.97416   -1.000
 5748.00    3.16106   2.95791   -1.000
 5749.00    3.19025   2.95770   -1.000
 5750.00    3.23596   2.96359   -1.000
 5751.00    3.19860   2.95239   -1.000
 5752.00    3.12078   2.91620   -1.000
 5753.00    3.06571   2.87637   -1.000
 5754.00    3.06653   2.86548   -1.000
 5755.00    3.14225   2.89693   -1.000
 5756.00    3.23057   2.95300   -1.000
 5757.00    3.27098   3.00003   -1.000
 5758.00    3.26650   3.01377   -1.000
 5759.00    3.23262   2.99013   -1.000
 5760.00    3.16081   2.94167   -1.000
 5761.00    3.09176   2.89151   -1.000
 5762.00    3.06239   2.86562   -1.000
 5763.00    3.09582   2.88077   -1.000
 5764.00    3.17351   2.93184   -1.000
 5765.00    3.25598   2.99286   -1.000
 5766.00    3.28364   3.03781   -1.000
 5767.00    3.26874   3.05860   -1.000
 5768.00    3.26734   3.06098   -1.000
 5769.00    3.24789   3.05281   -1.000
 5770.00    3.22498   3.03941   -1.000
 5771.00    3.19755   3.02347   -1.000
 5772.00    3.15556   3.00652   15.550
 5773.00    3.10200   2.99165   15.493
 5774.00    3.04837   2.98383   15.510
 5775.00    2.97955   2.98633   15.633
 5776.00    2.92892   2.99548   15.927
 5777.00    2.95261   2.99793   16.238
 5778.00    3.01973   2.97738   16.339
 5779.00    3.04139   2.92721   16.277
 5780.00    3.01438   2.85803   -1.000
 5781.00    2.97620   2.79346   -1.000
 5782.00    2.94878   2.75419   -1.000
 5783.00    2.93917   2.74264   -1.000
 5784.00    2.93669   2.74774   -1.000
 5785.00    2.95336   2.76525   -1.000
 5786.00    3.01760   2.80084   -1.000
 5787.00    3.10934   2.85161   -1.000
 5788.00    3.17832   2.89989   -1.000
 5789.00    3.18984   2.92864   -1.000
 5790.00    3.16125   2.93704   -1.000
 5791.00    3.12621   2.94071   -1.000
 5792.00    3.13277   2.95752   -1.000
 5793.00    3.17463   2.99119   -1.000
 5794.00    3.22592   3.02727   -1.000
 5795.00    3.27532   3.04569   -1.000
 5796.00    3.27949   3.03882   -1.000
 5797.00    3.25426   3.02012   -1.000
 5798.00    3.25493   3.01499   -1.000
 5799.00    3.30000   3.03833   -1.000
 5800.00    3.36890   3.07989   -1.000
 5801.00    3.39517   3.11321   -1.000
 5802.00    3.36375   3.11854   -1.000
 5803.00    3.31126   3.09593   -1.000
 5804.00    3.25481   3.06133   -1.000
 5805.00    3.21968   3.03431   -1.000
 5806.00    3.22017   3.02540   -1.000
 5807.00    3.24245   3.03232   -1.000
 5808.00    3.27545   3.04690   -1.000
 5809.00    3.30895   3.06292   -1.000
 5810.00    3.33680   3.07680   -1.000
 5811.00    3.35745   3.08438   -1.000
 5812.00    3.36188   3.08091   -1.000
 5813.00    3.32866   3.06392   -1.000
 5814.00    3.27927   3.03621   -1.000
 5815.00    3.25499   3.00895   -1.000
 5816.00    3.25203   2.99944   -1.000
 5817.00    3.28552   3.01845   -1.000
 5818.00    3.34221   3.05836   -1.000
 5819.00    3.37762   3.09787   -1.000
 5820.00    3.39524   3.11919   -1.000
 5821.00    3.39545   3.12002   -1.000
 5822.00    3.37969   3.11055   -1.000
 5823.00    3.38189   3.10273   -1.000
 5824.00    3.39339   3.10218   -1.000
 5825.00    3.39091   3.10726   -1.000
 5826.00    3.39006   3.11410   -1.000
 5827.00    3.39723   3.12072   -1.000
 5828.00    3.40748   3.12720   -1.000
 5829.00    3.41501   3.13307   -1.000
 5830.00    3.41000   3.13592   -1.000
 5831.00    3.41016   3.13339   -1.000
 5832.00    3.39480   3.12484   -1.000
 5833.00    3.36975   3.11173   -1.000
 5834.00    3.34924   3.09833   -1.000
 5835.00    3.34803   3.09012   -1.000
 5836.00    3.35699   3.08874   -1.000
 5837.00    3.35958   3.09103   -1.000
 5838.00    3.33945   3.09603   -1.000
 5839.00    3.33495   3.10765   -1.000
 5840.00    3.36648   3.12718   -1.000
 5841.00    3.39921   3.14793   -1.000
 5842.00    3.41264   3.15940   -1.000
 5843.00    3.41848   3.15531   -1.000
 5844.00    3.41217   3.13662   -1.000
 5845.00    3.38909   3.10900   -1.000
 5846.00    3.34441   3.08018   -1.000
 5847.00    3.31005   3.05825   -1.000
 5848.00    3.31412   3.04770   -1.000
 5849.00    3.32894   3.04467   -1.000
 5850.00    3.32659   3.03820   -1.000
 5851.00    3.29663   3.02028   -1.000
 5852.00    3.24751   2.99444   -1.000
 5853.00    3.20885   2.97152   -1.000
 5854.00    3.20841   2.95574   -1.000
 5855.00    3.21372   2.93801   -1.000
 5856.00    3.18206   2.90857   -1.000
 5857.00    3.13926   2.87574   -1.000
 5858.00    3.13604   2.86303   -1.000
 5859.00    3.18895   2.88424   -1.000
 5860.00    3.24635   2.92706   -1.000
 5861.00    3.25770   2.96651   -1.000
 5862.00    3.25193   2.98907   -1.000
 5863.00    3.24520   2.99756   -1.000
 5864.00    3.23232   2.99835   -1.000
 5865.00    3.22862   2.99295   -1.000
 5866.00    3.23344   2.98473   -1.000
 5867.00    3.25290   2.98536   -1.000
 5868.00    3.29307   3.00414   -1.000
 5869.00    3.33301   3.03462   -1.000
 5870.00    3.34735   3.06035   -1.000
 5871.00    3.34937   3.07058   -1.000
 5872.00    3.34500   3.06707   -1.000
 5873.00    3.34965   3.05922   -1.000
 5874.00    3.36017   3.05394   -1.000
 5875.00    3.34537   3.04936   -1.000
 5876.00    3.31088   3.03838   -1.000
 5877.00    3.27109   3.01733   -1.000
 5878.00    3.22813   2.98995   -1.000
 5879.00    3.20038   2.96453   -1.000
 5880.00    3.17258   2.94902   -1.000
 5881.00    3.12723   2.94547   -1.000
 5882.00    3.02295   2.94714   15.850
 5883.00    2.80829   2.94449   16.227
 5884.00    2.52337   2.93311   -1.000
 5885.00    2.25680   2.90606   -1.000
 5886.00    2.10631   2.84018   -1.000
 5887.00    2.13179   2.70619   -1.000
 5888.00    2.14641   2.50457   -1.000
 5889.00    2.02814   2.29282   -1.000
 5890.00    1.92176   2.16127   -1.000
 5891.00    1.89979   2.16240   -1.000
 5892.00    1.97867   2.25766   -1.000
 5893.00    2.16341   2.34942   17.865
 5894.00    2.35084   2.37001   17.259
 5895.00    2.42002   2.33663   16.693
 5896.00    2.46934   2.32600   16.281
 5897.00    2.62585   2.39478   -1.000
 5898.00    2.85108   2.52835   -1.000
 5899.00    3.02831   2.67212   -1.000
 5900.00    3.13358   2.78791   -1.000
 5901.00    3.19249   2.86754   -1.000
 5902.00    3.21184   2.91646   -1.000
 5903.00    3.20854   2.94230   -1.000
 5904.00    3.20134   2.95280   -1.000
 5905.00    3.19317   2.95622   -1.000
 5906.00    3.19945   2.96095   -1.000
 5907.00    3.22554   2.97190   -1.000
 5908.00    3.24657   2.98767   -1.000
 5909.00    3.25665   3.00359   -1.000
 5910.00    3.26839   3.01464   -1.000
 5911.00    3.27475   3.01414   -1.000
 5912.00    3.25085   2.99558   -1.000
 5913.00    3.20233   2.96043   -1.000
 5914.00    3.17309   2.92314   -1.000
 5915.00    3.16384   2.90309   -1.000
 5916.00    3.16907   2.90939   -1.000
 5917.00    3.20427   2.93614   -1.000
 5918.00    3.24901   2.96996   -1.000
 5919.00    3.27062   2.99781   -1.000
 5920.00    3.26554   3.01226   -1.000
 5921.00    3.25396   3.01391   -1.000
 5922.00    3.25406   3.01049   -1.000
 5923.00    3.27068   3.01204   -1.000
 5924.00    3.30058   3.02318   -1.000
 5925.00    3.32454   3.03842   -1.000
 5926.00    3.32379   3.04589   -1.000
 5927.00    3.30257   3.03667   -1.000
 5928.00    3.25870   3.01321   -1.000
 5929.00    3.21676   2.98999   -1.000
 5930.00    3.22376   2.98270   -1.000
 5931.00    3.26321   2.99367   -1.000
 5932.00    3.29012   3.00871   -1.000
 5933.00    3.28638   3.01303   -1.000
 5934.00    3.26070   3.00840   -1.000
 5935.00    3.24900   3.01002   -1.000
 5936.00    3.27361   3.02658   -1.000
 5937.00    3.29919   3.04903   -1.000
 5938.00    3.32463   3.06152   -1.000
 5939.00    3.32062   3.05621   -1.000
 5940.00    3.29250   3.03643   -1.000
 5941.00    3.27216   3.01426   -1.000
 5942.00    3.26034   3.00465   -1.000
 5943.00    3.28262   3.01448   -1.000
 5944.00    3.32943   3.03651   -1.000
 5945.00    3.34710   3.05524   -1.000
 5946.00    3.34106   3.05797   -1.000
 5947.00    3.31311   3.04315   -1.000
 5948.00    3.27618   3.02224   -1.000
 5949.00    3.25298   3.01033   -1.000
 5950.00    3.25568   3.01084   -1.000
 5951.00    3.26707   3.01371   -1.000
 5952.00    3.26382   3.01101   -1.000
 5953.00    3.24485   3.00663   -1.000
 5954.00    3.23899   3.00681   -1.000
 5955.00    3.25912   3.00835   -1.000
 5956.00    3.26610   3.00490   -1.000
 5957.00    3.25411   3.00134   -1.000
 5958.00    3.27722   3.01027   -1.000
 5959.00    3.32167   3.03597   -1.000
 5960.00    3.34089   3.06937   -1.000
 5961.00    3.36055   3.09663   -1.000
 5962.00    3.37527   3.10902   -1.000
 5963.00    3.37305   3.10599   -1.000
 5964.00    3.34492   3.09309   -1.000
 5965.00    3.30276   3.07976   -1.000
 5966.00    3.30705   3.07591   -1.000
 5967.00    3.35073   3.08536   -1.000
 5968.00    3.38452   3.10332   -1.000
 5969.00    3.40205   3.12233   -1.000
 5970.00    3.41831   3.13777   -1.000
 5971.00    3.41762   3.14680   -1.000
 5972.00    3.40208   3.14639   -1.000
 5973.00    3.38847   3.13363   -1.000
 5974.00    3.36004   3.10744   -1.000
 5975.00    3.31455   3.07204   -1.000
 5976.00    3.27909   3.03880   -1.000
 5977.00    3.26810   3.02092   -1.000
 5978.00    3.28324   3.02483   -1.000
 5979.00    3.31758   3.04556   -1.000
 5980.00    3.34208   3.06752   -1.000
 5981.00    3.34313   3.07210   -1.000
 5982.00    3.32046   3.05071   -1.000
 5983.00    3.26000   3.01425   -1.000
 5984.00    3.20916   2.98722   -1.000
 5985.00    3.22009   2.98787   -1.000
 5986.00    3.26314   3.01314   -1.000
 5987.00    3.30859   3.04580   -1.000
 5988.00    3.34332   3.07260   -1.000
 5989.00    3.36540   3.08987   -1.000
 5990.00    3.37193   3.09948   -1.000
 5991.00    3.35870   3.10765   -1.000
 5992.00    3.36034   3.12177   -1.000
 5993.00    3.39423   3.14134   -1.000
 5994.00    3.41630   3.15417   -1.000
 5995.00    3.40146   3.14710   -1.000
 5996.00    3.36281   3.12061   -1.000
 5997.00    3.31385   3.09021   -1.000
 5998.00    3.29700   3.07327   -1.000
 5999.00    3.31301   3.07461   -1.000
 6000.00    3.32572   3.08434   -1.000
 6001.00    3.32067   3.08956   -1.000
 6002.00    3.29422   3.08687   -1.000
 6003.00    3.27311   3.08235   -1.000
 6004.00    3.26927   3.07913   -1.000
 6005.00    3.25694   3.06949   -1.000
 6006.00    3.22624   3.04664   -1.000
 6007.00    3.20273   3.02055   -1.000
 6008.00    3.21346   3.01275   -1.000
 6009.00    3.26782   3.03272   -1.000
 6010.00    3.33289   3.06394   -1.000
 6011.00    3.35718   3.08014   -1.000
 6012.00    3.33182   3.07320   -1.000
 6013.00    3.29543   3.05702   -1.000
 6014.00    3.28947   3.04735   -1.000
 6015.00    3.30383   3.04601   -1.000
 6016.00    3.30132   3.04624   -1.000
 6017.00    3.28537   3.04474   -1.000
 6018.00    3.28240   3.04067   -1.000
 6019.00    3.27740   3.03244   -1.000
 6020.00    3.26323   3.02354   -1.000
 6021.00    3.26420   3.02278   -1.000
 6022.00    3.28634   3.03483   -1.000
 6023.00    3.31023   3.05685   -1.000
 6024.00    3.32660   3.08330   -1.000
 6025.00    3.36212   3.10979   -1.000
 6026.00    3.41249   3.13389   -1.000
 6027.00    3.43699   3.15555   -1.000
 6028.00    3.44241   3.17576   -1.000
 6029.00    3.45432   3.19359   -1.000
 6030.00    3.45140   3.20738   -1.000
 6031.00    3.43657   3.21889   -1.000
 6032.00    3.43936   3.23281   -1.000
 6033.00    3.45169   3.25182   -1.000
 6034.00    3.45916   3.27206   -1.000
 6035.00    3.47086   3.28447   -1.000
 6036.00    3.48555   3.28268   -1.000
 6037.00    3.47608   3.26842   -1.000
 6038.00    3.45251   3.24850   -1.000
 6039.00    3.43806   3.23051   -1.000
 6040.00    3.42482   3.22105   -1.000
 6041.00    3.42346   3.22399   -1.000
 6042.00    3.44732   3.23790   -1.000
 6043.00    3.46944   3.25629   -1.000
 6044.00    3.48775   3.27185   -1.000
 6045.00    3.51948   3.28171   -1.000
 6046.00    3.53416   3.28761   -1.000
 6047.00    3.52073   3.29169   -1.000
 6048.00    3.51680   3.29453   -1.000
 6049.00    3.53602   3.29559   -1.000
 6050.00    3.55074   3.29267   -1.000
 6051.00    3.54286   3.28220   -1.000
 6052.00    3.51658   3.26253   -1.000
 6053.00    3.48838   3.23655   -1.000
 6054.00    3.46560   3.21016   -1.000
 6055.00    3.44494   3.18965   -1.000
 6056.00    3.43215   3.18125   -1.000
 6057.00    3.43481   3.18816   -1.000
 6058.00    3.45852   3.20635   -1.000
 6059.00    3.48250   3.22542   -1.000
 6060.00    3.50053   3.23414   -1.000
 6061.00    3.53235   3.22580   -1.000
 6062.00    3.24032   3.20059    7.826
 6063.00    2.51245   3.16643   -1.000
 6064.00    2.37154   3.13874   -1.000
 6065.00    2.90213   3.13515   15.709
 6066.00    3.25501   3.16327   15.471
 6067.00    3.38156   3.21224   -1.000
 6068.00    3.00478   3.26075   -1.000
 6069.00    1.85104   3.29473   -1.000
 6070.00    2.24329   3.31409   -1.000
 6071.00    3.43919   3.32432   15.583
 6072.00    3.58622   3.32821   -1.000
 6073.00    3.58752   3.32561   -1.000
 6074.00    3.58270   3.31554   -1.000
 6075.00    3.55716   3.29682   -1.000
 6076.00    3.52060   3.26978   -1.000
 6077.00    3.47584   3.23853   -1.000
 6078.00    3.43482   3.21008   -1.000
 6079.00    3.41557   3.18905   -1.000
 6080.00    3.41842   3.17445   -1.000
 6081.00    3.41734   3.16363   -1.000
 6082.00    3.40424   3.15752   -1.000
 6083.00    3.41387   3.15851   -1.000
 6084.00    3.42741   3.16596   -1.000
 6085.00    3.42810   3.17728   -1.000
 6086.00    3.41968   3.18953   -1.000
 6087.00    3.42009   3.19751   -1.000
 6088.00    3.43178   3.19499   -1.000
 6089.00    3.41747   3.18105   -1.000
 6090.00    3.38827   3.16387   -1.000
 6091.00    3.36801   3.15560   -1.000
 6092.00    3.37641   3.16320   -1.000
 6093.00    3.41493   3.18452   -1.000
 6094.00    3.45111   3.21075   -1.000
 6095.00    3.47687   3.23222   -1.000
 6096.00    3.48247   3.24502   -1.000
 6097.00    3.48492   3.25199   -1.000
 6098.00    3.48836   3.25343   -1.000
 6099.00    3.47122   3.23919   -1.000
 6100.00    3.43579   3.19756   -1.000
 6101.00    3.37070   3.13436   -1.000
 6102.00    3.28630   3.07911   -1.000
 6103.00    3.25802   3.06465   -1.000
 6104.00    3.31112   3.09699   -1.000
 6105.00    3.39303   3.15158   -1.000
 6106.00    3.45111   3.19970   -1.000
 6107.00    3.45408   3.23092   -1.000
 6108.00    3.43639   3.24972   -1.000
 6109.00    3.44502   3.26064   -1.000
 6110.00    3.46059   3.26528   -1.000
 6111.00    3.44815   3.26832   -1.000
 6112.00    3.45313   3.27598   -1.000
 6113.00    3.50484   3.28756   -1.000
 6114.00    3.53120   3.29477   -1.000
 6115.00    3.50553   3.29135   -1.000
 6116.00    3.47305   3.27903   -1.000
 6117.00    3.46143   3.26079   -1.000
 6118.00    3.44071   3.23269   -1.000
 6119.00    3.39369   3.18861   -1.000
 6120.00    3.34554   3.13309   -1.000
 6121.00    3.29830   3.08631   -1.000
 6122.00    3.28143   3.07206   -1.000
 6123.00    3.32551   3.09685   -1.000
 6124.00    3.39081   3.14159   -1.000
 6125.00    3.42378   3.17854   -1.000
 6126.00    3.41917   3.19517   -1.000
 6127.00    3.40616   3.19961   -1.000
 6128.00    3.41047   3.20821   -1.000
 6129.00    3.44438   3.23072   -1.000
 6130.00    3.48559   3.26276   -1.000
 6131.00    3.50362   3.28854   -1.000
 6132.00    3.49207   3.28905   -1.000
 6133.00    3.44599   3.24989   -1.000
 6134.00    3.36480   3.16969   -1.000
 6135.00    3.26015   3.06954   -1.000
 6136.00    3.15002   2.99142   -1.000
 6137.00    3.10486   2.97392   16.341
 6138.00    3.18588   3.02078   -1.000
 6139.00    3.33268   3.09670   -1.000
 6140.00    3.41454   3.15983   -1.000
 6141.00    3.40330   3.19741   -1.000
 6142.00    3.40741   3.22451   -1.000
 6143.00    3.44816   3.25437   -1.000
 6144.00    3.47451   3.28201   -1.000
 6145.00    3.48191   3.29451   -1.000
 6146.00    3.46970   3.28622   -1.000
 6147.00    3.43997   3.26212   -1.000
 6148.00    3.39891   3.23295   -1.000
 6149.00    3.35948   3.21026   -1.000
 6150.00    3.35604   3.20174   -1.000
 6151.00    3.38284   3.20648   -1.000
 6152.00    3.41823   3.21416   -1.000
 6153.00    3.41012   3.21290   -1.000
 6154.00    3.36660   3.20004   -1.000
 6155.00    3.33414   3.18282   -1.000
 6156.00    3.31986   3.16690   -1.000
 6157.00    3.29897   3.14608   -1.000
 6158.00    3.25572   3.10466   -1.000
 6159.00    3.18012   3.03054   -1.000
 6160.00    3.06565   2.93059   -1.000
 6161.00    2.93356   2.83597   17.228
 6162.00    2.86340   2.78601   17.101
 6163.00    2.89900   2.79950   17.113
 6164.00    3.00623   2.86055   -1.000
 6165.00    3.09036   2.93243   -1.000
 6166.00    3.11786   2.98097   -1.000
 6167.00    3.11997   2.99070   17.169
 6168.00    3.09322   2.97108   16.889
 6169.00    3.05290   2.95120   16.826
 6170.00    3.05025   2.95880   16.853
 6171.00    3.10234   2.99758   16.827
 6172.00    3.17666   3.04709   16.790
 6173.00    3.21192   3.08534   16.750
 6174.00    3.21116   3.10579   16.678
 6175.00    3.21621   3.11464   16.608
 6176.00    3.22369   3.12120   16.554
 6177.00    3.23734   3.13179   16.485
 6178.00    3.26798   3.14711   16.431
 6179.00    3.29204   3.16417   16.442
 6180.00    3.30859   3.18085   16.495
 6181.00    3.31260   3.19582   16.604
 6182.00    3.31017   3.20464   16.774
 6183.00    3.31296   3.20104   16.953
 6184.00    3.30675   3.18238   17.118
 6185.00    3.28173   3.15191   17.254
 6186.00    3.23856   3.11646   17.446
 6187.00    3.18669   3.08170   17.602
 6188.00    3.14718   3.04813   17.496
 6189.00    3.12374   3.01359   17.120
 6190.00    3.08639   2.98346   16.785
 6191.00    3.05374   2.97392   16.637
 6192.00    3.08731   2.99792   16.595
 6193.00    3.17172   3.04937   16.664
 6194.00    3.24260   3.10651   16.838
 6195.00    3.27449   3.14867   16.998
 6196.00    3.26266   3.16617   17.026
 6197.00    3.22235   3.15964   16.894
 6198.00    3.16144   3.13903   16.687
 6199.00    3.11261   3.12223   16.589
 6200.00    3.11193   3.12521   16.585
 6201.00    3.16969   3.14932   16.566
 6202.00    3.25447   3.18198   16.556
 6203.00    3.31861   3.20966   16.602
 6204.00    3.34026   3.22751   16.624
 6205.00    3.34741   3.23790   16.671
 6206.00    3.35721   3.24380   16.804
 6207.00    3.35592   3.24500   16.946
 6208.00    3.33962   3.23868   17.101
 6209.00    3.31842   3.22159   17.336
 6210.00    3.28984   3.19119   17.543
 6211.00    3.25138   3.14624   17.623
 6212.00    3.19439   3.09005   17.468
 6213.00    3.13456   3.03409   17.328
 6214.00    3.09721   2.99462   17.405
 6215.00    3.08786   2.98163   17.408
 6216.00    3.10133   2.99019   17.287
 6217.00    3.14336   3.00399   -1.000
 6218.00    3.17394   3.00940   -1.000
 6219.00    3.15182   3.00713   -1.000
 6220.00    3.15234   3.00841   -1.000
 6221.00    3.18370   3.02037   -1.000
 6222.00    3.19375   3.03900   -1.000
 6223.00    3.20914   3.05624   -1.000
 6224.00    3.22344   3.06861   -1.000
 6225.00    3.22644   3.07586   -1.000
 6226.00    3.22722   3.07426   -1.000
 6227.00    3.22580   3.05558   -1.000
 6228.00    3.19484   3.01518   -1.000
 6229.00    3.11347   2.96207   -1.000
 6230.00    3.02034   2.91934   17.141
 6231.00    2.99055   2.91070   17.007
 6232.00    3.04143   2.94402   17.074
 6233.00    3.12280   3.00597   17.238
 6234.00    3.21901   3.07020   -1.000
 6235.00    3.28556   3.11154   -1.000
 6236.00    3.27463   3.11811   -1.000
 6237.00    3.22876   3.09511   -1.000
 6238.00    3.17713   3.05820   17.804
 6239.00    3.13457   3.02268   17.932
 6240.00    3.11038   2.99583   17.956
 6241.00    3.09645   2.97621   17.865
 6242.00    3.07767   2.95991   17.702
 6243.00    3.05936   2.94771   17.488
 6244.00    3.06284   2.94583   17.292
 6245.00    3.10458   2.96061   -1.000
 6246.00    3.16032   2.99316   -1.000
 6247.00    3.21451   3.03620   -1.000
 6248.00    3.24099   3.07428   -1.000
 6249.00    3.23200   3.09041   -1.000
 6250.00    3.20398   3.07627   -1.000
 6251.00    3.15256   3.03821   18.103
 6252.00    3.09574   2.99351   18.217
 6253.00    3.05253   2.95820   18.389
 6254.00    3.02499   2.93593   18.377
 6255.00    3.01600   2.91932   18.145
 6256.00    3.00672   2.90308   17.865
 6257.00    2.98781   2.89379   17.616
 6258.00    2.99558   2.90471   17.353
 6259.00    3.03581   2.94227   17.214
 6260.00    3.10550   2.99921   17.297
 6261.00    3.18736   3.05908   17.426
 6262.00    3.22248   3.10543   17.400
 6263.00    3.23008   3.12922   17.279
 6264.00    3.21484   3.13329   17.287
 6265.00    3.18723   3.12959   17.375
 6266.00    3.19015   3.12888   17.383
 6267.00    3.21165   3.13212   17.329
 6268.00    3.22274   3.13456   17.282
 6269.00    3.21029   3.13575   17.305
 6270.00    3.18540   3.14051   17.412
 6271.00    3.16505   3.15069   17.552
 6272.00    3.11652   3.16038   17.796
 6273.00    3.06123   3.16034   18.208
 6274.00    3.03766   3.14567   18.581
 6275.00    3.01500   3.11894   18.751
 6276.00    2.97924   3.08701   18.723
 6277.00    2.93212   3.05608   18.482
 6278.00    2.88484   3.03024   18.162
 6279.00    2.82345   3.01387   17.873
 6280.00    2.80547   3.01311   17.642
 6281.00    2.87131   3.03255   17.481
 6282.00    2.97919   3.06956   17.328
 6283.00    3.07686   3.11385   17.196
 6284.00    3.14861   3.15465   17.140
 6285.00    3.21656   3.18751   17.201
 6286.00    3.26835   3.21349   17.337
 6287.00    3.30015   3.23234   17.473
 6288.00    3.34170   3.23919   17.532
 6289.00    3.35339   3.22963   -1.000
 6290.00    3.33328   3.20696   -1.000
 6291.00    3.29831   3.18177   17.689
 6292.00    3.27576   3.16352   17.815
 6293.00    3.28600   3.15278   -1.000
 6294.00    3.29945   3.14186   -1.000
 6295.00    3.26728   3.12368   -1.000
 6296.00    3.24303   3.10071   -1.000
 6297.00    3.22686   3.08319   -1.000
 6298.00    3.21159   3.07681   -1.000
 6299.00    3.21119   3.07594   -1.000
 6300.00    3.20757   3.07265   -1.000
 6301.00    3.18004   3.06891   17.437
 6302.00    3.15690   3.07463   17.274
 6303.00    3.17106   3.09546   17.121
 6304.00    3.21291   3.12785   17.060
 6305.00    3.26008   3.16488   17.113
 6306.00    3.30204   3.20108   17.222
 6307.00    3.36189   3.23063   -1.000
 6308.00    3.39052   3.24617   -1.000
 6309.00    3.37070   3.24382   -1.000
 6310.00    3.33649   3.22786   17.524
 6311.00    3.30522   3.20698   17.618
 6312.00    3.29351   3.18633   17.621
 6313.00    3.27613   3.16509   17.603
 6314.00    3.24532   3.14137   17.617
 6315.00    3.22248   3.11663   17.577
 6316.00    3.22484   3.09520   -1.000
 6317.00    3.21941   3.08308   -1.000
 6318.00    3.22699   3.08762   -1.000
 6319.00    3.25377   3.11207   -1.000
 6320.00    3.30600   3.14947   -1.000
 6321.00    3.34968   3.18760   -1.000
 6322.00    3.38014   3.22006   -1.000
 6323.00    3.39568   3.24747   -1.000
 6324.00    3.40547   3.27017   -1.000
 6325.00    3.43243   3.28593   -1.000
 6326.00    3.44274   3.29421   -1.000
 6327.00    3.43683   3.29797   -1.000
 6328.00    3.43745   3.30038   -1.000
 6329.00    3.45124   3.30318   -1.000
 6330.00    3.46068   3.30760   -1.000
 6331.00    3.46492   3.31204   -1.000
 6332.00    3.48935   3.30818   -1.000
 6333.00    3.47973   3.28575   -1.000
 6334.00    3.42362   3.24515   -1.000
 6335.00    3.35362   3.20287   -1.000
 6336.00    3.33044   3.18009   -1.000
 6337.00    3.37472   3.18625   -1.000
 6338.00    3.42228   3.21412   -1.000
 6339.00    3.44258   3.24770   -1.000
 6340.00    3.44649   3.27116   -1.000
 6341.00    3.44287   3.27456   -1.000
 6342.00    3.41931   3.25934   -1.000
 6343.00    3.40474   3.23948   -1.000
 6344.00    3.40039   3.23252   -1.000
 6345.00    3.40590   3.24667   -1.000
 6346.00    3.42931   3.27677   -1.000
 6347.00    3.46979   3.31133   -1.000
 6348.00    3.51154   3.34132   -1.000
 6349.00    3.52614   3.36201   -1.000
 6350.00    3.53372   3.37102   -1.000
 6351.00    3.53570   3.36655   -1.000
 6352.00    3.51365   3.34795   -1.000
 6353.00    3.46843   3.31868   -1.000
 6354.00    3.42137   3.28672   -1.000
 6355.00    3.39239   3.25863   -1.000
 6356.00    3.38867   3.23317   -1.000
 6357.00    3.36534   3.20444   -1.000
 6358.00    3.31494   3.17115   -1.000
 6359.00    3.28123   3.13887   -1.000
 6360.00    3.28025   3.11436   -1.000
 6361.00    3.28397   3.10220   -1.000
 6362.00    3.28391   3.10613   -1.000
 6363.00    3.31503   3.12833   -1.000
 6364.00    3.36440   3.16616   -1.000
 6365.00    3.41576   3.21235   -1.000
 6366.00    3.45464   3.25887   -1.000
 6367.00    3.48224   3.29896   -1.000
 6368.00    3.52112   3.32798   -1.000
 6369.00    3.54197   3.34593   -1.000
 6370.00    3.54352   3.35883   -1.000
 6371.00    3.55196   3.37343   -1.000
 6372.00    3.56628   3.39017   -1.000
 6373.00    3.56638   3.40371   -1.000
 6374.00    3.55385   3.40932   -1.000
 6375.00    3.55313   3.40627   -1.000
 6376.00    3.55904   3.39543   -1.000
 6377.00    3.54880   3.37833   -1.000
 6378.00    3.52057   3.35927   -1.000
 6379.00    3.51297   3.34476   -1.000
 6380.00    3.51147   3.33911   -1.000
 6381.00    3.49628   3.34177   -1.000
 6382.00    3.48893   3.34885   -1.000
 6383.00    3.49617   3.35679   -1.000
 6384.00    3.49477   3.36525   -1.000
 6385.00    3.49979   3.37567   -1.000
 6386.00    3.51848   3.38743   -1.000
 6387.00    3.52985   3.39702   -1.000
 6388.00    3.52150   3.40034   -1.000
 6389.00    3.50515   3.39315   -1.000
 6390.00    3.47686   3.37084   17.871
 6391.00    3.42692   3.33361   17.645
 6392.00    3.36343   3.29379   17.557
 6393.00    3.30087   3.27245   17.642
 6394.00    3.29064   3.28280   17.878
 6395.00    3.33563   3.31600   18.263
 6396.00    3.38130   3.34501   18.466
 6397.00    3.38631   3.34550   18.339
 6398.00    3.33372   3.31576   18.060
 6399.00    3.25630   3.28018   17.925
 6400.00    3.22385   3.27096   17.949
 6401.00    3.25569   3.30112   18.040
 6402.00    3.29893   3.35441   18.267
 6403.00    3.32686   3.40096   18.551
 6404.00    3.33818   3.42038   18.761
 6405.00    3.32089   3.41048   18.864
 6406.00    3.27092   3.38408   18.956
 6407.00    3.20149   3.35926   19.099
 6408.00    3.15720   3.34683   19.217
 6409.00    3.15144   3.34393   19.260
 6410.00    3.14152   3.34144   19.278
 6411.00    3.09918   3.33660   -1.000
 6412.00    3.08664   3.33537   -1.000
 6413.00    3.09659   3.34343   -1.000
 6414.00    3.06896   3.35911   -1.000
 6415.00    3.06129   3.37460   -1.000
 6416.00    3.07385   3.38072   -1.000
 6417.00    3.04786   3.37035   -1.000
 6418.00    2.99778   3.34372   -1.000
 6419.00    2.92954   3.31243   -1.000
 6420.00    2.85725   3.29548   -1.000
 6421.00    2.84386   3.30662   -1.000
 6422.00    2.88078   3.34308   -1.000
 6423.00    2.90349   3.38816   -1.000
 6424.00    2.89114   3.42586   -1.000
 6425.00    2.87749   3.45026   -1.000
 6426.00    2.86029   3.45993   -1.000
 6427.00    0.79176   3.45064   -1.000
 6428.00    0.00000   3.41926   -2.000
