###################################################################
## OUTPUT of StarlightChains_v04.for    [Cid@UFSC - 01/Apr/2007] ##
###################################################################

## Some input info
NGC6284_a_1.cxt                          [arq_obs]
Base.BC03.N                              [arq_base]
NGC6284_a_1.msk                          [arq_masks]
StCv04.C99.config                        [arq_config]
   45                                    [N_base]
    0                                    [N_YAV_components = # of components with extra extinction!]
    0                                    [i_FitPowerLaw (1/0 = Yes/No)]
-9.99                                    [alpha_PowerLaw]
CCM                                      [red_law_option]
 1.458241                                [q_norm = A(l_norm)/A(V)]

## (Re)Sampling Parameters
 3359.00                                 [l_ini (A)]
 6428.00                                 [l_fin (A)]
    1.00                                 [dl    (A)]     (OBS: dl_cushion =    50.00 A)

## Normalization info
 4020.00                                 [l_norm (A) - for base]
 4010.00                                 [llow_norm (A) - window for f_obs]
 4060.00                                 [lupp_norm (A) - window for f_obs]
9.247314E-15                             [fobs_norm (in input units)]

## S/N
 4730.00                                 [llow_SN (A) - window for S/N]
 4780.00                                 [lupp_SN (A) - window for S/N]
  76.302                                 [S/N in S/N window]
  62.584                                 [S/N in norm. window]
  42.607                                 [S/N_err in S/N window]
  34.947                                 [S/N_err in norm. window]
  1.0000                                 [fscale_chi2]

## etc...
  2147483621                             [idum_orig]
  3068                                   [NOl_eff]
  1944                                   [Nl_eff]
  1124    NSIGMA                         [Ntot_cliped & clip_method]
  1563100                                [Nglobal_steps]
   7                                     [N_chains]
  10                                     [NEX0s_base = N_base in EX0s-fits]
 0   0   1      208   2.0   7.609E+02    [Clip-Bug, RC-Crash & Burn-In warning-flags, n_censored_weights, wei_nsig_threshold & wei_limit]
    22     22.078     22.078      0.000  [idt_all, wdt_TotTime, wdt_UsrTime & wdt_SysTime (sec)]

## Synthesis Results - Best model ##

 1.51795E+00                             [chi2/Nl_eff]
     1.89786                             [adev (%)]

   100.48530                             [sum-of-x (%)]
 3.27940E-14                             [Flux_tot (units of input spectrum!)]
 4.98811E-10                             [Mini_tot (???)]
 2.58948E-10                             [Mcor_tot (???)]

  -7.10                                  [v0_min  (km/s)]
  72.16                                  [vd_min  (km/s)]
 0.9389                                  [AV_min  (mag)]
 0.0000                                  [YAV_min (mag)]

# j     x_j(%)      Mini_j(%)     Mcor_j(%)     age_j(yr)     Z_j      (L/M)_j    YAV?  Mstars   component_j        a/Fe...       SSP_chi2r SSP_adev(%)   SSP_AV   SSP_x(%)
  1      0.0000     0.0000E+00    0.0000E+00    1.000000E+06  0.00400  1.114E-02    0   1.0000   age020_m42            0.0000     6.3687E+02    11.1936   4.0000    75.7368
  2      2.9289     4.7049E-03    9.0621E-03    3.160000E+06  0.00400  4.073E-02    0   0.9999   age045_m42            0.0000     9.7748E+01     5.1613   3.3445    89.5867
  3      0.0000     0.0000E+00    0.0000E+00    5.010000E+06  0.00400  2.534E-02    0   0.9488   age055_m42            0.0000     2.2380E+02     9.8027   3.8776    82.6669
  4      5.9517     3.0637E-02    5.2300E-02    1.000000E+07  0.00400  1.271E-02    0   0.8862   age070_m42            0.0000     1.6519E+02     8.6740   3.0864    86.0853
  5      0.0000     0.0000E+00    0.0000E+00    2.512000E+07  0.00400  5.070E-03    0   0.8174   age090_m42            0.0000     1.4229E+02     7.9053   2.9439    87.6632
  6      0.0000     0.0000E+00    0.0000E+00    4.000000E+07  0.00400  3.505E-03    0   0.7851   age104_m42            0.0000     8.6983E+01     5.4435   2.5698    91.0020
  7     27.3396     7.8869E-01    1.0949E+00    1.015200E+08  0.00400  2.268E-03    0   0.7207   age116_m42            0.0000     3.5904E+02    10.6616   2.1418   102.3171
  8      0.0000     0.0000E+00    0.0000E+00    2.861200E+08  0.00400  1.079E-03    0   0.6613   age125_m42            0.0000     3.8339E+02    12.2965   1.5831   104.8648
  9      1.8670     2.4059E-01    2.8720E-01    6.405400E+08  0.00400  5.077E-04    0   0.6197   age132_m42            0.0000     4.2234E+02    13.2045   1.1935   109.1882
 10      5.5196     1.0216E+00    1.1854E+00    9.047900E+08  0.00400  3.535E-04    0   0.6024   age135_m42            0.0000     2.4571E+02    10.5571   1.0236   108.5021
 11      0.0000     0.0000E+00    0.0000E+00    1.434000E+09  0.00400  1.910E-04    0   0.5716   age139_m42            0.0000     8.4069E+01     7.6915   0.5581   108.1956
 12      0.0000     0.0000E+00    0.0000E+00    2.500000E+09  0.00400  9.818E-05    0   0.5463   age150_m42            0.0000     3.2574E+01     4.8744   0.3974   103.9245
 13     43.2026     5.9911E+01    6.0335E+01    5.000000E+09  0.00400  4.718E-05    0   0.5228   age161_m42            0.0000     7.3664E+01     3.8902   0.3056   100.7676
 14      9.3596     2.7772E+01    2.6641E+01    1.100000E+10  0.00400  2.205E-05    0   0.4980   age185_m42            0.0000     1.8291E+02     5.4191   0.0000    99.9103
 15      0.0000     0.0000E+00    0.0000E+00    1.300000E+10  0.00400  1.883E-05    0   0.4927   age193_m42            0.0000     2.0491E+02     5.3719   0.0000    99.7702
 16      0.0000     0.0000E+00    0.0000E+00    1.000000E+06  0.02000  1.989E-02    0   1.0000   age020_m62            0.0000     6.1525E+02    10.2531   4.0000    76.3068
 17      0.0000     0.0000E+00    0.0000E+00    3.160000E+06  0.02000  3.772E-02    0   0.9858   age045_m62            0.0000     4.8271E+02     7.3970   4.0000    78.2966
 18      2.1604     4.3802E-03    7.8824E-03    5.010000E+06  0.02000  3.227E-02    0   0.9342   age055_m62            0.0000     1.4847E+02     7.5485   3.6813    85.6650
 19      0.0000     0.0000E+00    0.0000E+00    1.000000E+07  0.02000  1.011E-02    0   0.8751   age070_m62            0.0000     3.9451E+02    13.6088   3.2366    81.4837
 20      0.0000     0.0000E+00    0.0000E+00    2.512000E+07  0.02000  4.206E-03    0   0.8099   age090_m62            0.0000     2.9941E+02    11.4785   3.1271    82.6919
 21      0.0000     0.0000E+00    0.0000E+00    4.000000E+07  0.02000  3.373E-03    0   0.7799   age104_m62            0.0000     8.5318E+01     4.4418   2.7392    91.9930
 22      0.0000     0.0000E+00    0.0000E+00    1.015200E+08  0.02000  1.878E-03    0   0.7221   age116_m62            0.0000     2.9113E+02     9.1214   2.2528   101.4453
 23      0.0000     0.0000E+00    0.0000E+00    2.861200E+08  0.02000  8.869E-04    0   0.6700   age125_m62            0.0000     6.9217E+02    16.7997   1.4516   110.3141
 24      0.0000     0.0000E+00    0.0000E+00    6.405400E+08  0.02000  3.657E-04    0   0.6322   age132_m62            0.0000     4.2031E+02    16.2131   0.7261   115.2911
 25      0.0000     0.0000E+00    0.0000E+00    9.047900E+08  0.02000  2.312E-04    0   0.6152   age135_m62            0.0000     2.1360E+02    12.9062   0.4530   114.3681
 26      0.0000     0.0000E+00    0.0000E+00    1.434000E+09  0.02000  1.168E-04    0   0.5865   age139_m62            0.0000     6.3262E+01     7.4310   0.2447   108.2898
 27      0.0000     0.0000E+00    0.0000E+00    2.500000E+09  0.02000  5.505E-05    0   0.5610   age150_m62            0.0000     1.2334E+02     6.8326  -0.0654   106.3431
 28      0.0000     0.0000E+00    0.0000E+00    5.000000E+09  0.02000  2.596E-05    0   0.5353   age161_m62            0.0000     2.9221E+02     8.4454  -0.4138   107.7106
 29      0.0000     0.0000E+00    0.0000E+00    1.100000E+10  0.02000  1.169E-05    0   0.5103   age185_m62            0.0000     4.9697E+02    10.3481  -0.8166   110.5735
 30      0.0000     0.0000E+00    0.0000E+00    1.300000E+10  0.02000  9.691E-06    0   0.5047   age193_m62            0.0000     5.4153E+02    10.6019  -0.8653   111.0287
 31      0.0000     0.0000E+00    0.0000E+00    1.000000E+06  0.05000  2.651E-02    0   0.9998   age020_m72            0.0000     5.7941E+02    10.0622   4.0000    77.2244
 32      0.0000     0.0000E+00    0.0000E+00    3.160000E+06  0.05000  4.817E-02    0   0.9577   age045_m72            0.0000     3.0445E+02     7.6349   4.0000    81.5409
 33      0.0000     0.0000E+00    0.0000E+00    5.010000E+06  0.05000  3.101E-02    0   0.9147   age055_m72            0.0000     2.5038E+02    10.8207   3.7812    83.5340
 34      0.0000     0.0000E+00    0.0000E+00    1.000000E+07  0.05000  8.954E-03    0   0.8524   age070_m72            0.0000     2.8457E+02    10.4428   4.0000    82.2985
 35      0.0000     0.0000E+00    0.0000E+00    2.512000E+07  0.05000  4.207E-03    0   0.7902   age090_m72            0.0000     1.3355E+02     6.3825   3.4797    88.0282
 36      0.0000     0.0000E+00    0.0000E+00    4.000000E+07  0.05000  3.198E-03    0   0.7618   age104_m72            0.0000     1.5555E+02     5.4125   2.7288    97.0809
 37      0.0000     0.0000E+00    0.0000E+00    1.015200E+08  0.05000  1.716E-03    0   0.7092   age116_m72            0.0000     3.6216E+02    10.5798   2.2838   102.0215
 38      0.0000     0.0000E+00    0.0000E+00    2.861200E+08  0.05000  7.047E-04    0   0.6618   age125_m72            0.0000     6.6138E+02    17.0973   1.1958   111.9137
 39      0.0000     0.0000E+00    0.0000E+00    6.405400E+08  0.05000  2.633E-04    0   0.6253   age132_m72            0.0000     3.0165E+02    15.0955   0.3588   115.6831
 40      0.0000     0.0000E+00    0.0000E+00    9.047900E+08  0.05000  1.484E-04    0   0.6088   age135_m72            0.0000     1.0979E+02    11.3250   0.0000   111.0122
 41      0.0000     0.0000E+00    0.0000E+00    1.434000E+09  0.05000  7.827E-05    0   0.5847   age139_m72            0.0000     1.5994E+02     8.9628  -0.2390   108.1458
 42      0.0000     0.0000E+00    0.0000E+00    2.500000E+09  0.05000  3.759E-05    0   0.5583   age150_m72            0.0000     3.0451E+02     9.0169  -0.5116   107.9707
 43      1.9636     8.2993E+00    8.5051E+00    5.000000E+09  0.05000  1.548E-05    0   0.5320   age161_m72            0.0000     4.7231E+02    10.4397  -0.9524   108.8607
 44      0.1924     1.9270E+00    1.8820E+00    1.100000E+10  0.05000  6.532E-06    0   0.5070   age185_m72            0.0000     7.0127E+02    14.6110  -1.0000   108.4416
 45      0.0000     0.0000E+00    0.0000E+00    1.300000E+10  0.05000  5.316E-06    0   0.5018   age193_m72            0.0000     8.3661E+02    18.5824  -1.0000   108.1464


## Synthesis Results - Average & Chains ##

# j      x_j: min, <> & last-chain-values for 1 ...  7 chains
  1      0.0000      0.0165      0.0000      0.0117      0.0795      0.0000      0.0000      0.0000      0.0000
  2      2.9289      1.2342      2.4171      1.4067      1.7085      1.5236      1.7328      1.7594      1.7311
  3      0.0000      0.1314      0.0220      0.2863      0.0727      0.0000      0.1745      0.0796      0.1117
  4      5.9517      5.9445      5.9450      5.9963      5.9168      5.9226      5.8127      5.9800      5.8613
  5      0.0000      0.1327      0.0000      0.2217      0.2598      0.1002      0.0000      0.0000      0.0000
  6      0.0000      0.0502      0.0000      0.0061      0.0000      0.0755      0.0000      0.0000      0.0000
  7     27.3396     30.9239     30.0466     30.6564     30.2350     30.2275     30.3286     30.5724     30.7870
  8      0.0000      0.0639      0.0000      0.0000      0.0000      0.0535      0.0000      0.0000      0.0710
  9      1.8670      0.7547      0.8814      1.1575      1.0135      1.0427      0.6834      1.0082      1.1088
 10      5.5196      1.9039      2.9590      2.0760      2.7168      3.0631      2.8260      2.5180      2.2634
 11      0.0000      0.1650      0.0521      0.0525      0.4438      0.0000      0.0343      0.0231      0.0000
 12      0.0000      0.1571      0.0000      0.0000      0.0000      0.0000      0.1638      0.3110      0.0000
 13     43.2026     48.0450     48.0607     48.2764     47.2889     47.3646     47.9355     47.4649     47.8876
 14      9.3596      5.9632      5.9411      6.0257      6.5696      6.0161      5.6598      6.0783      4.9375
 15      0.0000      0.3333      0.5651      0.2294      0.3828      0.7281      0.4525      0.6203      1.5652
 16      0.0000      0.0115      0.0000      0.0000      0.0000      0.0000      0.0000      0.0000      0.0000
 17      0.0000      0.0340      0.0000      0.0000      0.1015      0.0000      0.0000      0.1123      0.0000
 18      2.1604      0.6014      0.6764      0.7308      0.6027      0.9686      0.8006      0.4326      0.6321
 19      0.0000      0.1582      0.1517      0.0056      0.0604      0.0000      0.1625      0.0000      0.2396
 20      0.0000      0.0355      0.0000      0.0000      0.0000      0.1110      0.0000      0.0000      0.0026
 21      0.0000      0.0497      0.0528      0.0000      0.0351      0.0000      0.0671      0.0000      0.0260
 22      0.0000      0.1368      0.0393      0.0000      0.0000      0.0000      0.0000      0.1582      0.0000
 23      0.0000      0.0235      0.0000      0.0000      0.0000      0.0000      0.0000      0.0000      0.0000
 24      0.0000      0.0055      0.0000      0.0000      0.0000      0.0000      0.0000      0.0000      0.0000
 25      0.0000      0.0073      0.0000      0.0000      0.0000      0.0000      0.0000      0.0075      0.0000
 26      0.0000      0.0076      0.0000      0.0000      0.0000      0.0000      0.0000      0.0000      0.0000
 27      0.0000      0.0170      0.0000      0.0000      0.0000      0.0000      0.0000      0.0000      0.0000
 28      0.0000      0.0337      0.0000      0.0000      0.0000      0.0000      0.0000      0.0147      0.0000
 29      0.0000      0.0883      0.0000      0.0000      0.0000      0.1422      0.0000      0.0000      0.4091
 30      0.0000      0.0508      0.0000      0.0000      0.0956      0.0000      0.1120      0.0000      0.2267
 31      0.0000      0.0132      0.0000      0.0000      0.0000      0.0000      0.0000      0.0000      0.0124
 32      0.0000      0.2339      0.0998      0.2308      0.2354      0.3248      0.2060      0.0992      0.2467
 33      0.0000      0.4258      0.3537      0.6240      0.3612      0.5407      0.4955      0.9616      0.5228
 34      0.0000      0.0213      0.0683      0.0000      0.0155      0.0000      0.0000      0.0000      0.0869
 35      0.0000      0.0251      0.0000      0.0000      0.0000      0.0000      0.0000      0.0134      0.0000
 36      0.0000      0.0815      0.0327      0.0000      0.1619      0.0000      0.0000      0.0000      0.0000
 37      0.0000      0.2296      0.0000      0.1365      0.0000      0.0000      0.4405      0.0000      0.0000
 38      0.0000      0.0096      0.0105      0.0000      0.0000      0.0000      0.0000      0.0000      0.0000
 39      0.0000      0.0069      0.0000      0.0000      0.0000      0.0000      0.0000      0.0000      0.0000
 40      0.0000      0.0082      0.0000      0.0000      0.0000      0.0000      0.0000      0.0000      0.0127
 41      0.0000      0.0145      0.0000      0.0767      0.0000      0.0000      0.0000      0.0000      0.0000
 42      0.0000      0.0539      0.0000      0.0000      0.1868      0.0000      0.0000      0.0102      0.0000
 43      1.9636      0.8751      0.8084      1.0580      0.8742      0.9765      1.0042      1.0440      0.7172
 44      0.1924      0.8216      0.8474      0.7321      0.6905      0.7235      0.7916      0.7874      0.7710
 45      0.0000      0.6914      0.4899      0.4994      0.4536      0.6599      0.7121      0.4948      0.3145

# j      m_j: min, <> & last-chain-values for 1 ...  7 chains
  1  0.0000E+00  1.7254E-04  0.0000E+00  1.2550E-04  8.5617E-04  0.0000E+00  0.0000E+00  0.0000E+00  0.0000E+00
  2  9.0621E-03  3.5254E-03  7.0833E-03  4.1438E-03  5.0292E-03  4.3765E-03  4.9645E-03  5.1341E-03  5.0437E-03
  3  0.0000E+00  5.7255E-04  9.8384E-05  1.2865E-03  3.2640E-04  0.0000E+00  7.6241E-04  3.5420E-04  4.9626E-04
  4  5.2300E-02  4.8226E-02  4.9482E-02  5.0167E-02  4.9466E-02  4.8318E-02  4.7299E-02  4.9563E-02  4.8503E-02
  5  0.0000E+00  2.4899E-03  0.0000E+00  4.2881E-03  5.0226E-03  1.8909E-03  0.0000E+00  0.0000E+00  0.0000E+00
  6  0.0000E+00  1.3083E-03  0.0000E+00  1.6495E-04  0.0000E+00  1.9797E-03  0.0000E+00  0.0000E+00  0.0000E+00
  7  1.0949E+00  1.1434E+00  1.1398E+00  1.1689E+00  1.1520E+00  1.1239E+00  1.1247E+00  1.1548E+00  1.1611E+00
  8  0.0000E+00  4.5560E-03  0.0000E+00  0.0000E+00  0.0000E+00  3.8368E-03  0.0000E+00  0.0000E+00  5.1662E-03
  9  2.8720E-01  1.0719E-01  1.2842E-01  1.6953E-01  1.4833E-01  1.4892E-01  9.7353E-02  1.4629E-01  1.6062E-01
 10  1.1854E+00  3.7749E-01  6.0192E-01  4.2449E-01  5.5512E-01  6.1075E-01  5.6203E-01  5.1006E-01  4.5778E-01
 11  0.0000E+00  5.7447E-02  1.8618E-02  1.8854E-02  1.5924E-01  0.0000E+00  1.1991E-02  8.2134E-03  0.0000E+00
 12  0.0000E+00  1.0173E-01  0.0000E+00  0.0000E+00  0.0000E+00  0.0000E+00  1.0640E-01  2.0567E-01  0.0000E+00
 13  6.0335E+01  6.1945E+01  6.3573E+01  6.4189E+01  6.2831E+01  6.1409E+01  6.1990E+01  6.2520E+01  6.2979E+01
 14  2.6641E+01  1.5670E+01  1.6017E+01  1.6330E+01  1.7791E+01  1.5898E+01  1.4918E+01  1.6318E+01  1.3235E+01
 15  0.0000E+00  1.0147E+00  1.7650E+00  7.2010E-01  1.2008E+00  2.2292E+00  1.3817E+00  1.9294E+00  4.8607E+00
 16  0.0000E+00  6.7273E-05  0.0000E+00  0.0000E+00  0.0000E+00  0.0000E+00  0.0000E+00  0.0000E+00  0.0000E+00
 17  0.0000E+00  1.0331E-04  0.0000E+00  0.0000E+00  3.1821E-04  0.0000E+00  0.0000E+00  3.4892E-04  0.0000E+00
 18  7.8824E-03  2.0258E-03  2.3376E-03  2.5387E-03  2.0920E-03  3.2808E-03  2.7048E-03  1.4888E-03  2.1719E-03
 19  0.0000E+00  1.5936E-03  1.5672E-03  5.7928E-05  6.2721E-04  0.0000E+00  1.6417E-03  0.0000E+00  2.4618E-03
 20  0.0000E+00  7.9567E-04  0.0000E+00  0.0000E+00  0.0000E+00  2.5013E-03  0.0000E+00  0.0000E+00  5.9640E-05
 21  0.0000E+00  1.3359E-03  1.4575E-03  0.0000E+00  9.7422E-04  0.0000E+00  1.8102E-03  0.0000E+00  7.1419E-04
 22  0.0000E+00  6.1201E-03  1.8053E-03  0.0000E+00  0.0000E+00  0.0000E+00  0.0000E+00  7.2326E-03  0.0000E+00
 23  0.0000E+00  2.0660E-03  0.0000E+00  0.0000E+00  0.0000E+00  0.0000E+00  0.0000E+00  0.0000E+00  0.0000E+00
 24  0.0000E+00  1.0982E-03  0.0000E+00  0.0000E+00  0.0000E+00  0.0000E+00  0.0000E+00  0.0000E+00  0.0000E+00
 25  0.0000E+00  2.2686E-03  0.0000E+00  0.0000E+00  0.0000E+00  0.0000E+00  0.0000E+00  2.3787E-03  0.0000E+00
 26  0.0000E+00  4.4538E-03  0.0000E+00  0.0000E+00  0.0000E+00  0.0000E+00  0.0000E+00  0.0000E+00  0.0000E+00
 27  0.0000E+00  2.0164E-02  0.0000E+00  0.0000E+00  0.0000E+00  0.0000E+00  0.0000E+00  0.0000E+00  0.0000E+00
 28  0.0000E+00  8.0895E-02  0.0000E+00  0.0000E+00  0.0000E+00  0.0000E+00  0.0000E+00  3.6003E-02  0.0000E+00
 29  0.0000E+00  4.4870E-01  0.0000E+00  0.0000E+00  0.0000E+00  7.2619E-01  0.0000E+00  0.0000E+00  2.1194E+00
 30  0.0000E+00  3.0804E-01  0.0000E+00  0.0000E+00  5.9678E-01  0.0000E+00  6.8089E-01  0.0000E+00  1.4010E+00
 31  0.0000E+00  5.8020E-05  0.0000E+00  0.0000E+00  0.0000E+00  0.0000E+00  0.0000E+00  0.0000E+00  5.5511E-05
 32  0.0000E+00  5.4108E-04  2.3678E-04  5.5055E-04  5.6113E-04  7.5553E-04  4.7793E-04  2.3442E-04  5.8203E-04
 33  0.0000E+00  1.4612E-03  1.2455E-03  2.2087E-03  1.2774E-03  1.8661E-03  1.7058E-03  3.3718E-03  1.8301E-03
 34  0.0000E+00  2.3556E-04  7.7615E-04  0.0000E+00  1.7729E-04  0.0000E+00  0.0000E+00  0.0000E+00  9.8161E-04
 35  0.0000E+00  5.4786E-04  0.0000E+00  0.0000E+00  0.0000E+00  0.0000E+00  0.0000E+00  2.9847E-04  0.0000E+00
 36  0.0000E+00  2.2591E-03  9.2883E-04  0.0000E+00  4.6256E-03  0.0000E+00  0.0000E+00  0.0000E+00  0.0000E+00
 37  0.0000E+00  1.1039E-02  0.0000E+00  6.7683E-03  0.0000E+00  0.0000E+00  2.1247E-02  0.0000E+00  0.0000E+00
 38  0.0000E+00  1.0537E-03  1.1776E-03  0.0000E+00  0.0000E+00  0.0000E+00  0.0000E+00  0.0000E+00  0.0000E+00
 39  0.0000E+00  1.9099E-03  0.0000E+00  0.0000E+00  0.0000E+00  0.0000E+00  0.0000E+00  0.0000E+00  0.0000E+00
 40  0.0000E+00  3.9309E-03  0.0000E+00  0.0000E+00  0.0000E+00  0.0000E+00  0.0000E+00  0.0000E+00  6.1770E-03
 41  0.0000E+00  1.2564E-02  0.0000E+00  6.8746E-02  0.0000E+00  0.0000E+00  0.0000E+00  0.0000E+00  0.0000E+00
 42  0.0000E+00  9.3105E-02  0.0000E+00  0.0000E+00  3.3269E-01  0.0000E+00  0.0000E+00  1.8074E-02  0.0000E+00
 43  8.5051E+00  3.4993E+00  3.3163E+00  4.3631E+00  3.6023E+00  3.9267E+00  4.0278E+00  4.2649E+00  2.9253E+00
 44  1.8820E+00  7.4201E+00  7.8511E+00  6.8181E+00  6.4261E+00  6.5705E+00  7.1708E+00  7.2651E+00  7.1024E+00
 45  0.0000E+00  7.5938E+00  5.5204E+00  5.6567E+00  5.1341E+00  7.2880E+00  7.8451E+00  5.5524E+00  3.5239E+00

# AV, chi2 & Mass for <> & i_chain = 1 ...  7 solutions
AV       0.9389      0.9050      0.9184      0.9195      0.9151      0.9109      0.9106      0.9156      0.9188
chi2 1.5179E+00  1.5881E+00  1.5599E+00  1.5654E+00  1.5666E+00  1.5657E+00  1.5726E+00  1.5643E+00  1.5647E+00
Mass 2.5895E-10  2.6800E-10  2.6595E-10  2.6496E-10  2.6362E-10  2.6862E-10  2.6921E-10  2.6608E-10  2.6763E-10
  -6.24                                  [v0_min (km/s) before EX0s...]
  72.73                                  [vd_min (km/s) before EX0s...]


## Synthetic spectrum (Best Model) ##l_obs f_obs f_syn wei
 3070    [Nl_obs]
 3359.00    0.02616   0.46331   -1.000
 3360.00    0.21456   0.44230   -1.000
 3361.00    0.20597   0.43939   -1.000
 3362.00    0.22425   0.45652   -1.000
 3363.00    0.23515   0.48204   -1.000
 3364.00    0.25936   0.50071   -1.000
 3365.00    0.25957   0.50399   -1.000
 3366.00    0.25704   0.49261   -1.000
 3367.00    0.27021   0.47438   -1.000
 3368.00    0.24867   0.45897   -1.000
 3369.00    0.25567   0.45098   -1.000
 3370.00    0.25581   0.44801   -1.000
 3371.00    0.24639   0.44613   -1.000
 3372.00    0.24563   0.44686   -1.000
 3373.00    0.25990   0.45635   -1.000
 3374.00    0.27727   0.47714   -1.000
 3375.00    0.29155   0.50265   -1.000
 3376.00    0.31340   0.51772   -1.000
 3377.00    0.30943   0.51305   -1.000
 3378.00    0.30327   0.49476   -1.000
 3379.00    0.31913   0.47625   -1.000
 3380.00    0.31959   0.46869   -1.000
 3381.00    0.30042   0.47529   -1.000
 3382.00    0.30468   0.49064   -1.000
 3383.00    0.30853   0.50494   -1.000
 3384.00    0.30885   0.51436   -1.000
 3385.00    0.31109   0.52075   -1.000
 3386.00    0.33819   0.52358   -1.000
 3387.00    0.33640   0.52223   -1.000
 3388.00    0.34885   0.51963   -1.000
 3389.00    0.35001   0.51814   -1.000
 3390.00    0.35439   0.51618   -1.000
 3391.00    0.36749   0.51058   -1.000
 3392.00    0.35100   0.50206   -1.000
 3393.00    0.35933   0.49787   -1.000
 3394.00    0.36207   0.50434   -1.000
 3395.00    0.37195   0.51956   -1.000
 3396.00    0.38430   0.53699   -1.000
 3397.00    0.39506   0.55086   -1.000
 3398.00    0.41002   0.55659   -1.000
 3399.00    0.42502   0.55283   -1.000
 3400.00    0.43471   0.54367   -1.000
 3401.00    0.42709   0.53326   -1.000
 3402.00    0.43197   0.52290   -1.000
 3403.00    0.42120   0.51508   -1.000
 3404.00    0.40224   0.51084   -1.000
 3405.00    0.39405   0.50721   -1.000
 3406.00    0.40081   0.50158   -1.000
 3407.00    0.39842   0.49659   -1.000
 3408.00    0.39704   0.49654   -1.000
 3409.00    0.38638   0.50200   -1.000
 3410.00    0.39540   0.50851   -1.000
 3411.00    0.40409   0.51027   -1.000
 3412.00    0.41622   0.50629   -1.000
 3413.00    0.40926   0.50057   -1.000
 3414.00    0.40182   0.49800   -1.000
 3415.00    0.39409   0.50101   -1.000
 3416.00    0.39599   0.50959   -1.000
 3417.00    0.41328   0.52177   -1.000
 3418.00    0.42683   0.53550   -1.000
 3419.00    0.43662   0.54745   -1.000
 3420.00    0.44591   0.55291   -1.000
 3421.00    0.45543   0.55031   -1.000
 3422.00    0.43154   0.54319   -1.000
 3423.00    0.45089   0.53656   -1.000
 3424.00    0.45063   0.53368   -1.000
 3425.00    0.45395   0.53447   -1.000
 3426.00    0.46014   0.53832   -1.000
 3427.00    0.45968   0.54666   -1.000
 3428.00    0.47683   0.55938   -1.000
 3429.00    0.48111   0.56923   -1.000
 3430.00    0.48770   0.56881   -1.000
 3431.00    0.48895   0.55851   -1.000
 3432.00    0.46428   0.54547   -1.000
 3433.00    0.46436   0.53747   -1.000
 3434.00    0.47809   0.53742   -1.000
 3435.00    0.48767   0.54188   -1.000
 3436.00    0.49498   0.54381   -1.000
 3437.00    0.47747   0.53832   -1.000
 3438.00    0.45189   0.52358   -1.000
 3439.00    0.45175   0.50136   -1.000
 3440.00    0.43878   0.47697   -1.000
 3441.00    0.41681   0.46000   -1.000
 3442.00    0.41618   0.45661   -1.000
 3443.00    0.42484   0.46361   -1.000
 3444.00    0.42782   0.47458   -1.000
 3445.00    0.44618   0.48737   -1.000
 3446.00    0.47031   0.50372   -1.000
 3447.00    0.46811   0.52376   -1.000
 3448.00    0.47994   0.54267   -1.000
 3449.00    0.50097   0.55259   -1.000
 3450.00    0.50581   0.54915   -1.000
 3451.00    0.49148   0.53588   -1.000
 3452.00    0.47493   0.52123   -1.000
 3453.00    0.47721   0.51425   -1.000
 3454.00    0.47824   0.51719   -1.000
 3455.00    0.48729   0.52395   -1.000
 3456.00    0.50314   0.52586   -1.000
 3457.00    0.48699   0.51896   -1.000
 3458.00    0.48030   0.50763   -1.000
 3459.00    0.48843   0.49699   93.898
 3460.00    0.48371   0.48983   94.940
 3461.00    0.48716   0.49082  106.247
 3462.00    0.49173   0.50184   -1.000
 3463.00    0.49467   0.51508   -1.000
 3464.00    0.50733   0.52183   -1.000
 3465.00    0.51336   0.52226   -1.000
 3466.00    0.50542   0.52210   -1.000
 3467.00    0.49639   0.52630   -1.000
 3468.00    0.50161   0.53403   -1.000
 3469.00    0.51598   0.54137   -1.000
 3470.00    0.53028   0.54455   -1.000
 3471.00    0.53163   0.54082   -1.000
 3472.00    0.50493   0.52948   -1.000
 3473.00    0.50137   0.51238   -1.000
 3474.00    0.49261   0.49378  434.800
 3475.00    0.48730   0.48164   94.956
 3476.00    0.47170   0.48245   97.830
 3477.00    0.46940   0.49454  107.954
 3478.00    0.49953   0.51038   -1.000
 3479.00    0.51973   0.52337  760.885
 3480.00    0.53524   0.53019   -1.000
 3481.00    0.53484   0.53030   -1.000
 3482.00    0.53162   0.52526   -1.000
 3483.00    0.53492   0.51956   -1.000
 3484.00    0.53557   0.51961   -1.000
 3485.00    0.52320   0.52890   -1.000
 3486.00    0.53128   0.54228   -1.000
 3487.00    0.54859   0.54770  760.885
 3488.00    0.54348   0.53906   -1.000
 3489.00    0.51895   0.52190  760.885
 3490.00    0.51010   0.50811   -1.000
 3491.00    0.50155   0.50476  760.885
 3492.00    0.49787   0.50877   -1.000
 3493.00    0.50136   0.51242   -1.000
 3494.00    0.50350   0.51029   -1.000
 3495.00    0.50575   0.50406  760.885
 3496.00    0.49487   0.50119  760.885
 3497.00    0.50136   0.50873   -1.000
 3498.00    0.52469   0.52426  760.885
 3499.00    0.53612   0.53630  760.885
 3500.00    0.54776   0.54033   -1.000
 3501.00    0.55892   0.54223   -1.000
 3502.00    0.54327   0.54599  730.599
 3503.00    0.54819   0.54903  728.605
 3504.00    0.55335   0.54646   -1.000
 3505.00    0.54100   0.53918  758.338
 3506.00    0.53104   0.53322  760.885
 3507.00    0.53073   0.53154  760.495
 3508.00    0.53254   0.53153  754.298
 3509.00    0.54475   0.52900   -1.000
 3510.00    0.53218   0.52322   -1.000
 3511.00    0.50748   0.51643   -1.000
 3512.00    0.51419   0.50903   -1.000
 3513.00    0.51668   0.50196   -1.000
 3514.00    0.50415   0.50216  760.885
 3515.00    0.50815   0.51431   -1.000
 3516.00    0.53272   0.53413  760.885
 3517.00    0.55426   0.55149  751.273
 3518.00    0.56040   0.55723  744.365
 3519.00    0.55637   0.54980   -1.000
 3520.00    0.54806   0.53434   -1.000
 3521.00    0.52731   0.51853   -1.000
 3522.00    0.51629   0.50525   -1.000
 3523.00    0.50128   0.49297   -1.000
 3524.00    0.48281   0.48325   94.119
 3525.00    0.46936   0.48059   97.018
 3526.00    0.47402   0.48868  108.756
 3527.00    0.50033   0.50655   -1.000
 3528.00    0.53210   0.52685   -1.000
 3529.00    0.54341   0.54106  760.885
 3530.00    0.55017   0.54615   -1.000
 3531.00    0.54539   0.54572  760.885
 3532.00    0.53713   0.54604   -1.000
 3533.00    0.53671   0.55008   -1.000
 3534.00    0.54405   0.55569   -1.000
 3535.00    0.54612   0.55956   -1.000
 3536.00    0.56028   0.56169  749.900
 3537.00    0.55486   0.56533   -1.000
 3538.00    0.55720   0.57166   -1.000
 3539.00    0.56704   0.57671   -1.000
 3540.00    0.56086   0.57633   -1.000
 3541.00    0.55572   0.57324   -1.000
 3542.00    0.55620   0.57327   -1.000
 3543.00    0.55879   0.57709   -1.000
 3544.00    0.56678   0.58147   -1.000
 3545.00    0.56502   0.58261   -1.000
 3546.00    0.55961   0.58019   -1.000
 3547.00    0.56211   0.57718   -1.000
 3548.00    0.55841   0.57605   -1.000
 3549.00    0.56179   0.57718   -1.000
 3550.00    0.56346   0.57870   -1.000
 3551.00    0.54408   0.57740   -1.000
 3552.00    0.52883   0.57143   -1.000
 3553.00    0.52298   0.56347   -1.000
 3554.00    0.53638   0.55828   -1.000
 3555.00    0.54597   0.55834   -1.000
 3556.00    0.53433   0.56098   -1.000
 3557.00    0.54491   0.56116   -1.000
 3558.00    0.54981   0.55817   -1.000
 3559.00    0.53797   0.55625   -1.000
 3560.00    0.54340   0.56028   -1.000
 3561.00    0.54623   0.56978   -1.000
 3562.00    0.54244   0.57594   -1.000
 3563.00    0.54721   0.56715   -1.000
 3564.00    0.53291   0.54171   -1.000
 3565.00    0.50663   0.51554   95.140
 3566.00    0.48043   0.50301   98.401
 3567.00    0.49478   0.50154   97.291
 3568.00    0.49422   0.49940   97.247
 3569.00    0.48094   0.49012  100.424
 3570.00    0.48061   0.48061  101.587
 3571.00    0.48044   0.48017   98.163
 3572.00    0.48946   0.48791  106.610
 3573.00    0.49543   0.49710  760.885
 3574.00    0.50636   0.50297   -1.000
 3575.00    0.51767   0.50601   -1.000
 3576.00    0.52272   0.50819   -1.000
 3577.00    0.52382   0.50738   -1.000
 3578.00    0.52410   0.49936   -1.000
 3579.00    0.51016   0.48369   98.779
 3580.00    0.48378   0.46628  106.394
 3581.00    0.46171   0.45502  111.536
 3582.00    0.45652   0.45345  112.169
 3583.00    0.46351   0.45648  112.934
 3584.00    0.46293   0.45504  115.934
 3585.00    0.44592   0.44841  119.496
 3586.00    0.43488   0.44397  120.100
 3587.00    0.45264   0.44770  113.896
 3588.00    0.45873   0.46077  107.895
 3589.00    0.47798   0.48029  102.053
 3590.00    0.48870   0.50169  106.314
 3591.00    0.51605   0.51874  760.885
 3592.00    0.53612   0.52742   -1.000
 3593.00    0.54033   0.53038   -1.000
 3594.00    0.54095   0.53476   -1.000
 3595.00    0.55961   0.54477   -1.000
 3596.00    0.56060   0.55728  752.531
 3597.00    0.55821   0.56827   -1.000
 3598.00    0.57755   0.57633  712.830
 3599.00    0.58946   0.57935   -1.000
 3600.00    0.58827   0.57448   -1.000
 3601.00    0.57794   0.56105   -1.000
 3602.00    0.56507   0.54292   -1.000
 3603.00    0.55090   0.52689   -1.000
 3604.00    0.54698   0.51868   -1.000
 3605.00    0.54350   0.51816   -1.000
 3606.00    0.53517   0.51887   -1.000
 3607.00    0.53019   0.51502   -1.000
 3608.00    0.51971   0.50746   -1.000
 3609.00    0.51342   0.50372   -1.000
 3610.00    0.51901   0.50914   -1.000
 3611.00    0.51361   0.51897  760.885
 3612.00    0.52426   0.52725  760.885
 3613.00    0.52719   0.53456   -1.000
 3614.00    0.54249   0.54302  760.885
 3615.00    0.54776   0.54936  760.885
 3616.00    0.55697   0.54371   -1.000
 3617.00    0.54748   0.52342   -1.000
 3618.00    0.50531   0.50390  425.706
 3619.00    0.48871   0.50091  105.523
 3620.00    0.51198   0.51502  760.885
 3621.00    0.54090   0.53602   -1.000
 3622.00    0.56309   0.55396   -1.000
 3623.00    0.58019   0.56599   -1.000
 3624.00    0.56938   0.57718   -1.000
 3625.00    0.57431   0.59257   -1.000
 3626.00    0.59975   0.60950   -1.000
 3627.00    0.59899   0.61977   -1.000
 3628.00    0.59253   0.61300   -1.000
 3629.00    0.57031   0.58603   -1.000
 3630.00    0.55648   0.55124   -1.000
 3631.00    0.52375   0.52677  760.885
 3632.00    0.51185   0.52200   -1.000
 3633.00    0.52113   0.53169   -1.000
 3634.00    0.52614   0.54376   -1.000
 3635.00    0.53743   0.55074   -1.000
 3636.00    0.54840   0.55540   -1.000
 3637.00    0.56274   0.56494  729.058
 3638.00    0.56455   0.57994   -1.000
 3639.00    0.58172   0.59384   -1.000
 3640.00    0.57042   0.59843   -1.000
 3641.00    0.56996   0.59090   -1.000
 3642.00    0.57493   0.57542  722.720
 3643.00    0.56310   0.55921  760.031
 3644.00    0.54839   0.54792  760.885
 3645.00    0.54191   0.54120  760.885
 3646.00    0.53312   0.53557  760.885
 3647.00    0.53845   0.53148   -1.000
 3648.00    0.54299   0.53196   -1.000
 3649.00    0.54399   0.53852   -1.000
 3650.00    0.54966   0.55095  759.274
 3651.00    0.56685   0.56724  723.000
 3652.00    0.58253   0.58333  694.426
 3653.00    0.59795   0.59572  678.541
 3654.00    0.60749   0.60308  670.173
 3655.00    0.59781   0.60799   -1.000
 3656.00    0.61433   0.61427  659.558
 3657.00    0.61289   0.62122   -1.000
 3658.00    0.60131   0.62594   -1.000
 3659.00    0.59832   0.62700   -1.000
 3660.00    0.60936   0.62399   -1.000
 3661.00    0.61014   0.61733   -1.000
 3662.00    0.60598   0.60889   -1.000
 3663.00    0.59858   0.60164   -1.000
 3664.00    0.60254   0.59828  672.763
 3665.00    0.59500   0.59838   -1.000
 3666.00    0.60035   0.59827  667.883
 3667.00    0.60169   0.59410   -1.000
 3668.00    0.59226   0.58671  690.007
 3669.00    0.58674   0.58319  704.442
 3670.00    0.58694   0.58864  696.431
 3671.00    0.58791   0.60024   -1.000
 3672.00    0.60015   0.61032   -1.000
 3673.00    0.61026   0.61340   -1.000
 3674.00    0.60617   0.60903   -1.000
 3675.00    0.61810   0.59863   -1.000
 3676.00    0.60831   0.58501   -1.000
 3677.00    0.59301   0.57175   -1.000
 3678.00    0.58093   0.56176   -1.000
 3679.00    0.57138   0.55728   -1.000
 3680.00    0.56827   0.55852   -1.000
 3681.00    0.57997   0.56424   -1.000
 3682.00    0.59594   0.57157   -1.000
 3683.00    0.60198   0.57558   -1.000
 3684.00    0.58140   0.57090   -1.000
 3685.00    0.57016   0.55696   -1.000
 3686.00    0.56555   0.54256   -1.000
 3687.00    0.55549   0.53890   -1.000
 3688.00    0.57055   0.55022   -1.000
 3689.00    0.58681   0.57141   -1.000
 3690.00    0.60730   0.59224   -1.000
 3691.00    0.61616   0.60383   -1.000
 3692.00    0.61881   0.60573   -1.000
 3693.00    0.61756   0.60353   -1.000
 3694.00    0.61780   0.60026   -1.000
 3695.00    0.60548   0.59634   -1.000
 3696.00    0.60339   0.59476   -1.000
 3697.00    0.60855   0.60139   -1.000
 3698.00    0.62843   0.61780   -1.000
 3699.00    0.64516   0.63660   -1.000
 3700.00    0.65867   0.64546   -1.000
 3701.00    0.65187   0.63434   -1.000
 3702.00    0.62552   0.60273   -1.000
 3703.00    0.59020   0.56228   -1.000
 3704.00    0.56080   0.52938   -1.000
 3705.00    0.53900   0.51585   -1.000
 3706.00    0.54278   0.52112   -1.000
 3707.00    0.56007   0.53455   -1.000
 3708.00    0.56627   0.54590   -1.000
 3709.00    0.57410   0.55074   -1.000
 3710.00    0.58533   0.55267   -1.000
 3711.00    0.59039   0.56057   -1.000
 3712.00    0.59977   0.58007   -1.000
 3713.00    0.62683   0.60785   -1.000
 3714.00    0.64884   0.63503   -1.000
 3715.00    0.66366   0.65252   -1.000
 3716.00    0.67691   0.65458   -1.000
 3717.00    0.67810   0.63866   -1.000
 3718.00    0.63376   0.60215   -1.000
 3719.00    0.58642   0.54935   -1.000
 3720.00    0.52800   0.50023   -1.000
 3721.00    0.51017   0.47623   -1.000
 3722.00    0.51188   0.48536   -1.000
 3723.00    0.54221   0.52252   -1.000
 3724.00    0.59658   0.57086   -1.000
 3725.00    0.63611   0.60866   -1.000
 3726.00    0.64872   0.62750   -1.000
 3727.00    0.65259   0.63604   -1.000
 3728.00    0.64597   0.64205   -1.000
 3729.00    0.64274   0.64240  699.041
 3730.00    0.64570   0.62690   -1.000
 3731.00    0.62888   0.58877   -1.000
 3732.00    0.57926   0.53472   -1.000
 3733.00    0.50211   0.48061   94.764
 3734.00    0.45890   0.44292  105.249
 3735.00    0.45243   0.43450  107.815
 3736.00    0.46654   0.45807  101.632
 3737.00    0.51711   0.50613  105.966
 3738.00    0.57962   0.56654   -1.000
 3739.00    0.62010   0.62294  735.478
 3740.00    0.64753   0.66022   -1.000
 3741.00    0.66865   0.67325  699.280
 3742.00    0.66965   0.66502   -1.000
 3743.00    0.65007   0.64242   -1.000
 3744.00    0.62028   0.61380   -1.000
 3745.00    0.58789   0.58307   -1.000
 3746.00    0.56406   0.54868   -1.000
 3747.00    0.53089   0.50878   95.497
 3748.00    0.49941   0.46869   -1.000
 3749.00    0.46647   0.44591  115.862
 3750.00    0.47587   0.45597   -1.000
 3751.00    0.52836   0.49701   -1.000
 3752.00    0.57930   0.55510   -1.000
 3753.00    0.63786   0.61478   -1.000
 3754.00    0.68169   0.66191   -1.000
 3755.00    0.71015   0.68624   -1.000
 3756.00    0.70390   0.68445   -1.000
 3757.00    0.67130   0.66440   -1.000
 3758.00    0.64604   0.64368  760.885
 3759.00    0.64034   0.63643  760.885
 3760.00    0.65250   0.64288   -1.000
 3761.00    0.67519   0.65397   -1.000
 3762.00    0.69038   0.66233   -1.000
 3763.00    0.69144   0.66472   -1.000
 3764.00    0.68691   0.65855   -1.000
 3765.00    0.66896   0.64224   -1.000
 3766.00    0.65177   0.61812   -1.000
 3767.00    0.62147   0.58984   -1.000
 3768.00    0.60556   0.56002   -1.000
 3769.00    0.57935   0.53341   -1.000
 3770.00    0.56172   0.51919   -1.000
 3771.00    0.57735   0.52808   -1.000
 3772.00    0.61375   0.56012   -1.000
 3773.00    0.64634   0.60019   -1.000
 3774.00    0.66955   0.63505   -1.000
 3775.00    0.69325   0.66360   -1.000
 3776.00    0.72192   0.68968   -1.000
 3777.00    0.73112   0.71642   -1.000
 3778.00    0.74589   0.74330  631.144
 3779.00    0.76943   0.76743  610.539
 3780.00    0.78379   0.78637   -1.000
 3781.00    0.79718   0.79896   -1.000
 3782.00    0.79782   0.80578   -1.000
 3783.00    0.79379   0.80593   -1.000
 3784.00    0.79239   0.79593   -1.000
 3785.00    0.78085   0.77479  644.539
 3786.00    0.76049   0.74833   -1.000
 3787.00    0.73356   0.72516   -1.000
 3788.00    0.72482   0.71011   -1.000
 3789.00    0.72267   0.70217   -1.000
 3790.00    0.70492   0.69676   -1.000
 3791.00    0.69528   0.68693   -1.000
 3792.00    0.68856   0.66658   -1.000
 3793.00    0.66519   0.63511   -1.000
 3794.00    0.62779   0.59589   -1.000
 3795.00    0.59279   0.55360   -1.000
 3796.00    0.55683   0.51190   -1.000
 3797.00    0.51600   0.47784   -1.000
 3798.00    0.49800   0.46799   -1.000
 3799.00    0.52169   0.49349   -1.000
 3800.00    0.57612   0.54627   -1.000
 3801.00    0.63669   0.60857   -1.000
 3802.00    0.68328   0.66384   -1.000
 3803.00    0.71583   0.70284   -1.000
 3804.00    0.73522   0.72467   -1.000
 3805.00    0.74809   0.73218   -1.000
 3806.00    0.74219   0.73413   -1.000
 3807.00    0.73481   0.74284   -1.000
 3808.00    0.75384   0.76249   -1.000
 3809.00    0.77374   0.78595   -1.000
 3810.00    0.78424   0.80102   -1.000
 3811.00    0.78590   0.79846   -1.000
 3812.00    0.77910   0.77825  710.027
 3813.00    0.74627   0.74911  754.205
 3814.00    0.72598   0.72413  760.885
 3815.00    0.72146   0.71400   -1.000
 3816.00    0.71678   0.71779  760.885
 3817.00    0.72358   0.72277  760.885
 3818.00    0.73813   0.71661   -1.000
 3819.00    0.72106   0.69896   -1.000
 3820.00    0.69108   0.68305   -1.000
 3821.00    0.69017   0.68073   -1.000
 3822.00    0.70156   0.68557   -1.000
 3823.00    0.71035   0.68152   -1.000
 3824.00    0.68178   0.66344   -1.000
 3825.00    0.65146   0.63992   98.199
 3826.00    0.63503   0.62112   99.866
 3827.00    0.62755   0.60938   98.837
 3828.00    0.61809   0.60012   97.218
 3829.00    0.60788   0.58717   96.011
 3830.00    0.59887   0.56577   -1.000
 3831.00    0.56712   0.53401   -1.000
 3832.00    0.53151   0.49424   -1.000
 3833.00    0.49581   0.45346   -1.000
 3834.00    0.46019   0.42370   -1.000
 3835.00    0.45579   0.41378   -1.000
 3836.00    0.47528   0.42223   -1.000
 3837.00    0.48920   0.44218   -1.000
 3838.00    0.50563   0.46870   -1.000
 3839.00    0.52574   0.50247  105.935
 3840.00    0.57184   0.54629   -1.000
 3841.00    0.62350   0.59707   -1.000
 3842.00    0.66589   0.64716   -1.000
 3843.00    0.70104   0.68884   -1.000
 3844.00    0.72413   0.71793   -1.000
 3845.00    0.73069   0.73789   -1.000
 3846.00    0.74229   0.75385   -1.000
 3847.00    0.75414   0.76556   -1.000
 3848.00    0.75590   0.76999   -1.000
 3849.00    0.75030   0.76944   -1.000
 3850.00    0.74587   0.77071   -1.000
 3851.00    0.75026   0.77744   -1.000
 3852.00    0.76325   0.78583   -1.000
 3853.00    0.77522   0.78783   -1.000
 3854.00    0.76906   0.78054   -1.000
 3855.00    0.75110   0.76858   -1.000
 3856.00    0.74282   0.75602   -1.000
 3857.00    0.72984   0.74322   -1.000
 3858.00    0.71821   0.73136   93.501
 3859.00    0.69733   0.72628   98.315
 3860.00    0.70159   0.73430   -1.000
 3861.00    0.73428   0.75352   -1.000
 3862.00    0.76244   0.77388   -1.000
 3863.00    0.78026   0.78548   -1.000
 3864.00    0.80026   0.78766   -1.000
 3865.00    0.79978   0.78613   -1.000
 3866.00    0.78367   0.78515   -1.000
 3867.00    0.78444   0.78568  760.885
 3868.00    0.77899   0.78428   -1.000
 3869.00    0.75936   0.77543   -1.000
 3870.00    0.73975   0.75762   -1.000
 3871.00    0.70851   0.73657   -1.000
 3872.00    0.70337   0.72358   -1.000
 3873.00    0.72757   0.72758  760.885
 3874.00    0.74932   0.74509  745.287
 3875.00    0.76537   0.75837   -1.000
 3876.00    0.75729   0.75304  754.303
 3877.00    0.72426   0.73329   -1.000
 3878.00    0.69503   0.71408   -1.000
 3879.00    0.69056   0.70408   -1.000
 3880.00    0.68606   0.69935   -1.000
 3881.00    0.67837   0.69166   -1.000
 3882.00    0.66204   0.67836   -1.000
 3883.00    0.66222   0.66005  760.885
 3884.00    0.65876   0.63350   -1.000
 3885.00    0.64065   0.59411   -1.000
 3886.00    0.60447   0.54508   -1.000
 3887.00    0.56621   0.50114   -1.000
 3888.00    0.53718   0.47805   -1.000
 3889.00    0.53556   0.48452   -1.000
 3890.00    0.57935   0.51935   -1.000
 3891.00    0.64501   0.56934   -1.000
 3892.00    0.68192   0.61493   -1.000
 3893.00    0.69880   0.64626   -1.000
 3894.00    0.71180   0.66818   -1.000
 3895.00    0.72337   0.68947   -1.000
 3896.00    0.76578   0.71258   -1.000
 3897.00    0.77138   0.73187   -1.000
 3898.00    0.76834   0.74363   -1.000
 3899.00    0.78872   0.75203   -1.000
 3900.00    0.78893   0.76253   -1.000
 3901.00    0.80096   0.77412   -1.000
 3902.00    0.82245   0.78058   -1.000
 3903.00    0.80332   0.77818   -1.000
 3904.00    0.79487   0.77126   -1.000
 3905.00    0.78761   0.76889   -1.000
 3906.00    0.78329   0.77790  670.279
 3907.00    0.80547   0.79948   -1.000
 3908.00    0.82927   0.82683  590.607
 3909.00    0.85160   0.84907  578.407
 3910.00    0.88396   0.86199   -1.000
 3911.00    0.88658   0.86731   -1.000
 3912.00    0.88156   0.86615   -1.000
 3913.00    0.87648   0.86005   -1.000
 3914.00    0.85528   0.85239  586.303
 3915.00    0.84698   0.84577  599.265
 3916.00    0.84368   0.84032  606.765
 3917.00    0.85130   0.83350   -1.000
 3918.00    0.83873   0.82286   -1.000
 3919.00    0.81426   0.80960   -1.000
 3920.00    0.80378   0.79819   -1.000
 3921.00    0.80406   0.79361   -1.000
 3922.00    0.79399   0.79628  697.093
 3923.00    0.79424   0.80037   -1.000
 3924.00    0.79596   0.79768  696.600
 3925.00    0.78604   0.78322   -1.000
 3926.00    0.75048   0.75652  760.885
 3927.00    0.71042   0.71989  430.482
 3928.00    0.65075   0.67794  105.872
 3929.00    0.60204   0.63347  124.120
 3930.00    0.54762   0.58571   -1.000
 3931.00    0.47763   0.53594   -1.000
 3932.00    0.40442   0.49069   -1.000
 3933.00    0.35931   0.46399   -1.000
 3934.00    0.36615   0.46839   -1.000
 3935.00    0.41654   0.50270   -1.000
 3936.00    0.48781   0.55495   -1.000
 3937.00    0.55554   0.61239   -1.000
 3938.00    0.61777   0.66511   -1.000
 3939.00    0.66411   0.70839   -1.000
 3940.00    0.70788   0.74003   -1.000
 3941.00    0.73559   0.75813   -1.000
 3942.00    0.74157   0.76498   -1.000
 3943.00    0.74934   0.76684   -1.000
 3944.00    0.75832   0.77151   -1.000
 3945.00    0.78990   0.78280   -1.000
 3946.00    0.81847   0.79613   -1.000
 3947.00    0.82300   0.80552   -1.000
 3948.00    0.81563   0.81163  630.381
 3949.00    0.82129   0.81741  607.160
 3950.00    0.84045   0.82158   -1.000
 3951.00    0.84482   0.82244   -1.000
 3952.00    0.84315   0.82294   -1.000
 3953.00    0.85155   0.82574   -1.000
 3954.00    0.86419   0.82693   -1.000
 3955.00    0.85465   0.82077   -1.000
 3956.00    0.82092   0.80946   -1.000
 3957.00    0.80611   0.80011  612.841
 3958.00    0.81902   0.79173   -1.000
 3959.00    0.82222   0.77429   -1.000
 3960.00    0.78030   0.74135   -1.000
 3961.00    0.71923   0.69837   -1.000
 3962.00    0.67928   0.65682   -1.000
 3963.00    0.64034   0.61907   -1.000
 3964.00    0.59554   0.57638   99.640
 3965.00    0.52741   0.51965  117.766
 3966.00    0.44061   0.44938  145.311
 3967.00    0.35530   0.38196   -1.000
 3968.00    0.29619   0.33697   -1.000
 3969.00    0.28697   0.32521   -1.000
 3970.00    0.33116   0.34832  141.102
 3971.00    0.40134   0.39869  116.268
 3972.00    0.47266   0.46314  114.483
 3973.00    0.55096   0.53157   -1.000
 3974.00    0.62771   0.59727   -1.000
 3975.00    0.68676   0.65580   -1.000
 3976.00    0.73789   0.70634   -1.000
 3977.00    0.77112   0.74973   -1.000
 3978.00    0.80833   0.78757   -1.000
 3979.00    0.83973   0.81727   -1.000
 3980.00    0.85789   0.83471   -1.000
 3981.00    0.86948   0.84120   -1.000
 3982.00    0.87849   0.84417   -1.000
 3983.00    0.87961   0.85125   -1.000
 3984.00    0.88361   0.86340   -1.000
 3985.00    0.89832   0.87653   -1.000
 3986.00    0.90671   0.88851   -1.000
 3987.00    0.91393   0.89970   -1.000
 3988.00    0.92345   0.90997   -1.000
 3989.00    0.93662   0.91860   -1.000
 3990.00    0.93723   0.92654   -1.000
 3991.00    0.95094   0.93547   -1.000
 3992.00    0.96249   0.94390   -1.000
 3993.00    0.96308   0.94698   -1.000
 3994.00    0.94939   0.94173  489.090
 3995.00    0.94315   0.93045   -1.000
 3996.00    0.93360   0.91964   -1.000
 3997.00    0.91525   0.91610  510.585
 3998.00    0.91021   0.92218   -1.000
 3999.00    0.94169   0.93498  474.493
 4000.00    0.95731   0.94961  459.835
 4001.00    0.97854   0.95993   -1.000
 4002.00    0.99462   0.96020   -1.000
 4003.00    0.99762   0.94779   -1.000
 4004.00    0.96602   0.92639   -1.000
 4005.00    0.92581   0.90825   -1.000
 4006.00    0.92579   0.90751   -1.000
 4007.00    0.95161   0.92464   -1.000
 4008.00    0.97355   0.94726   -1.000
 4009.00    0.98841   0.96440   -1.000
 4010.00    0.98855   0.97321   -1.000
 4011.00    0.99430   0.97648   -1.000
 4012.00    0.98963   0.97804   -1.000
 4013.00    0.99268   0.98019   -1.000
 4014.00    1.00844   0.98278   -1.000
 4015.00    1.00446   0.98451   -1.000
 4016.00    0.99438   0.98544   -1.000
 4017.00    0.99423   0.98750  453.039
 4018.00    0.99979   0.99226  449.906
 4019.00    1.00376   0.99795  443.964
 4020.00    1.00267   1.00105  446.068
 4021.00    0.98630   0.99937   -1.000
 4022.00    0.99395   0.99333  454.812
 4023.00    1.00343   0.98495   -1.000
 4024.00    0.99084   0.97833   -1.000
 4025.00    0.98701   0.97932  446.618
 4026.00    1.00094   0.98900   -1.000
 4027.00    1.01657   0.99908   -1.000
 4028.00    1.01654   0.99765   -1.000
 4029.00    1.01478   0.98149   -1.000
 4030.00    0.97418   0.95830   -1.000
 4031.00    0.94677   0.93886   -1.000
 4032.00    0.94176   0.93063   -1.000
 4033.00    0.94816   0.93500   -1.000
 4034.00    0.96977   0.95010   -1.000
 4035.00    0.98229   0.97346   -1.000
 4036.00    1.01405   1.00172   -1.000
 4037.00    1.03279   1.02684  418.086
 4038.00    1.04574   1.03857  418.410
 4039.00    1.02943   1.03531   -1.000
 4040.00    1.02236   1.02584   -1.000
 4041.00    1.01902   1.01621  441.488
 4042.00    1.01293   1.00200   -1.000
 4043.00    0.99807   0.97488   -1.000
 4044.00    0.95635   0.93862   -1.000
 4045.00    0.90765   0.91423   -1.000
 4046.00    0.91696   0.91803  518.651
 4047.00    0.95773   0.94637   -1.000
 4048.00    1.00513   0.98248   -1.000
 4049.00    1.03368   1.01021   -1.000
 4050.00    1.03280   1.02291   -1.000
 4051.00    1.02448   1.02193  434.186
 4052.00    1.01748   1.01160  446.351
 4053.00    1.01755   0.99831   -1.000
 4054.00    1.00142   0.98865   -1.000
 4055.00    0.99939   0.98338   -1.000
 4056.00    1.00000   0.97981   -1.000
 4057.00    0.98992   0.97918   -1.000
 4058.00    0.99426   0.98477   -1.000
 4059.00    1.01521   0.99448   -1.000
 4060.00    1.02852   0.99757   -1.000
 4061.00    1.01790   0.98426   -1.000
 4062.00    0.98675   0.95786   -1.000
 4063.00    0.94245   0.93201   -1.000
 4064.00    0.94444   0.91932   -1.000
 4065.00    0.96536   0.92201   -1.000
 4066.00    0.98286   0.93452   -1.000
 4067.00    0.98835   0.95078   -1.000
 4068.00    1.00907   0.96458   -1.000
 4069.00    1.02139   0.96734   -1.000
 4070.00    1.00322   0.95594   -1.000
 4071.00    0.98975   0.94038   -1.000
 4072.00    0.97013   0.93460   -1.000
 4073.00    0.98061   0.93965   -1.000
 4074.00    1.00048   0.94178   -1.000
 4075.00    0.98176   0.93015   -1.000
 4076.00    0.94955   0.90987   -1.000
 4077.00    0.92496   0.89612   -1.000
 4078.00    0.92096   0.90090   -1.000
 4079.00    0.95252   0.92396   -1.000
 4080.00    0.98002   0.95263   -1.000
 4081.00    1.00488   0.97001   -1.000
 4082.00    0.99705   0.96920   -1.000
 4083.00    0.98618   0.95712   -1.000
 4084.00    0.96937   0.94724   -1.000
 4085.00    0.96080   0.94897   -1.000
 4086.00    0.98020   0.96203   -1.000
 4087.00    1.01216   0.97858   -1.000
 4088.00    1.03061   0.98867   -1.000
 4089.00    1.02736   0.98695   -1.000
 4090.00    1.01225   0.97561   -1.000
 4091.00    0.98937   0.96124   -1.000
 4092.00    0.97347   0.94720   -1.000
 4093.00    0.97609   0.93115   -1.000
 4094.00    0.95846   0.90893   -1.000
 4095.00    0.93697   0.87940   -1.000
 4096.00    0.91529   0.84566   -1.000
 4097.00    0.88838   0.80910   -1.000
 4098.00    0.85047   0.76623   -1.000
 4099.00    0.80233   0.71344   -1.000
 4100.00    0.72093   0.65798   -1.000
 4101.00    0.65880   0.62103   -1.000
 4102.00    0.66146   0.62158   -1.000
 4103.00    0.71616   0.66100   -1.000
 4104.00    0.79806   0.72207   -1.000
 4105.00    0.84575   0.78088   -1.000
 4106.00    0.88732   0.82479   -1.000
 4107.00    0.91570   0.85439   -1.000
 4108.00    0.91210   0.87329   -1.000
 4109.00    0.92234   0.88652   -1.000
 4110.00    0.93314   0.89940   -1.000
 4111.00    0.94095   0.91428   -1.000
 4112.00    0.95727   0.93089   -1.000
 4113.00    0.97108   0.94853   -1.000
 4114.00    0.98758   0.96583   -1.000
 4115.00    1.00371   0.97860   -1.000
 4116.00    1.00268   0.98284   -1.000
 4117.00    0.99413   0.97871   -1.000
 4118.00    0.98418   0.97102   -1.000
 4119.00    0.98171   0.96587   -1.000
 4120.00    0.99734   0.96637   -1.000
 4121.00    0.99122   0.97071   -1.000
 4122.00    0.99105   0.97619   -1.000
 4123.00    0.99365   0.98297   -1.000
 4124.00    1.00048   0.99069   -1.000
 4125.00    1.00735   0.99498   -1.000
 4126.00    1.00825   0.99159   -1.000
 4127.00    0.99578   0.98294   -1.000
 4128.00    0.98126   0.97524  467.646
 4129.00    0.97602   0.97009  470.497
 4130.00    0.96920   0.96288  477.914
 4131.00    0.96826   0.95141   -1.000
 4132.00    0.95485   0.94191   -1.000
 4133.00    0.94686   0.94357  504.840
 4134.00    0.95203   0.95937   -1.000
 4135.00    0.98066   0.98398  462.663
 4136.00    1.02175   1.00918   -1.000
 4137.00    1.03317   1.02903  442.042
 4138.00    1.03489   1.04171   -1.000
 4139.00    1.05043   1.04456  435.991
 4140.00    1.04604   1.03285   -1.000
 4141.00    1.02578   1.00673   -1.000
 4142.00    0.97979   0.97559  512.266
 4143.00    0.95701   0.95425  531.560
 4144.00    0.94915   0.95470   -1.000
 4145.00    0.97069   0.97402  479.421
 4146.00    1.00244   0.99628  463.867
 4147.00    1.00339   1.00846  461.512
 4148.00    0.99605   1.01001   -1.000
 4149.00    0.98703   1.00894   -1.000
 4150.00    0.97793   1.01026   -1.000
 4151.00    0.99308   1.01125   -1.000
 4152.00    0.99806   1.00728   -1.000
 4153.00    0.98557   0.99855   -1.000
 4154.00    0.98355   0.99094   -1.000
 4155.00    0.98375   0.99040   -1.000
 4156.00    0.98219   0.99772   -1.000
 4157.00    1.05057   1.00980   -1.000
 4158.00    1.12665   1.02307   -1.000
 4159.00    1.01076   1.03426   -1.000
 4160.00    0.92932   1.04186   -1.000
 4161.00    0.99506   1.04726   -1.000
 4162.00    1.04052   1.05237   -1.000
 4163.00    1.02733   1.05657   -1.000
 4164.00    1.02729   1.05683   -1.000
 4165.00    1.02772   1.05078   -1.000
 4166.00    1.00932   1.04016   -1.000
 4167.00    0.99476   1.03050   -1.000
 4168.00    0.99818   1.02511   -1.000
 4169.00    1.00662   1.01896   -1.000
 4170.00    0.99512   1.00393   -1.000
 4171.00    0.97019   0.97990   -1.000
 4172.00    0.93307   0.95773   -1.000
 4173.00    0.92843   0.95109   -1.000
 4174.00    0.94279   0.96216   -1.000
 4175.00    0.95202   0.97931   -1.000
 4176.00    0.95734   0.99076   -1.000
 4177.00    0.96244   0.99634   -1.000
 4178.00    0.96196   1.00260   -1.000
 4179.00    0.98047   1.01080   -1.000
 4180.00    0.99229   1.01544   -1.000
 4181.00    0.98519   1.01417   -1.000
 4182.00    0.98289   1.01218   -1.000
 4183.00    0.98967   1.01504   -1.000
 4184.00    1.00569   1.01995   -1.000
 4185.00    1.00441   1.01913   -1.000
 4186.00    0.98538   1.01087   -1.000
 4187.00    0.96279   1.00176   -1.000
 4188.00    0.96720   0.99895   -1.000
 4189.00    0.98890   1.00315   -1.000
 4190.00    0.99408   1.01098   -1.000
 4191.00    0.99837   1.02066   -1.000
 4192.00    1.00705   1.03045   -1.000
 4193.00    1.01371   1.03509   -1.000
 4194.00    1.01191   1.02925   -1.000
 4195.00    1.00227   1.01284   -1.000
 4196.00    0.97484   0.99156   -1.000
 4197.00    0.94836   0.97258   -1.000
 4198.00    0.94561   0.95977   -1.000
 4199.00    0.93944   0.95395   -1.000
 4200.00    0.94885   0.95426   -1.000
 4201.00    0.95783   0.95859  498.340
 4202.00    0.96919   0.96603  494.294
 4203.00    0.97239   0.97773  486.976
 4204.00    0.97272   0.99367   -1.000
 4205.00    0.98461   1.01158   -1.000
 4206.00    0.99823   1.02837   -1.000
 4207.00    1.00985   1.04038   -1.000
 4208.00    1.01293   1.04530   -1.000
 4209.00    1.01293   1.04503   -1.000
 4210.00    1.01145   1.04484   -1.000
 4211.00    1.01239   1.04753   -1.000
 4212.00    1.00988   1.04850   -1.000
 4213.00    1.00891   1.04030   -1.000
 4214.00    0.99653   1.02290   -1.000
 4215.00    0.96363   1.00594   -1.000
 4216.00    0.96311   1.00063   -1.000
 4217.00    0.99461   1.01137   -1.000
 4218.00    1.02734   1.03158  431.150
 4219.00    1.03841   1.04910   -1.000
 4220.00    1.04447   1.05585   -1.000
 4221.00    1.04221   1.04827  423.827
 4222.00    1.02500   1.02406  443.809
 4223.00    0.98798   0.98407  477.541
 4224.00    0.96701   0.93552   -1.000
 4225.00    0.90030   0.89223   -1.000
 4226.00    0.85171   0.87202   -1.000
 4227.00    0.85902   0.88718   -1.000
 4228.00    0.91601   0.93075   -1.000
 4229.00    0.97916   0.97789  455.489
 4230.00    1.01638   1.00763   -1.000
 4231.00    1.02431   1.01491   -1.000
 4232.00    1.01593   1.00731   -1.000
 4233.00    1.00069   0.99587  456.490
 4234.00    1.00666   0.98727   -1.000
 4235.00    0.99021   0.98265   -1.000
 4236.00    0.97619   0.98176  478.983
 4237.00    0.96805   0.98592   -1.000
 4238.00    0.98065   0.99577   -1.000
 4239.00    0.99341   1.00855   -1.000
 4240.00    1.00539   1.02030   -1.000
 4241.00    1.01254   1.02917   -1.000
 4242.00    1.02434   1.03660   -1.000
 4243.00    1.02716   1.04396   -1.000
 4244.00    1.03234   1.04822   -1.000
 4245.00    1.03520   1.04323  431.993
 4246.00    1.00991   1.02696   -1.000
 4247.00    0.98648   1.00614   -1.000
 4248.00    0.97252   0.99080   -1.000
 4249.00    0.96854   0.98634   -1.000
 4250.00    0.95884   0.99156   -1.000
 4251.00    0.97369   1.00058   -1.000
 4252.00    0.99957   1.00574  454.216
 4253.00    0.99987   1.00243  459.059
 4254.00    0.98581   0.99664   -1.000
 4255.00    0.98878   0.99865   -1.000
 4256.00    1.01231   1.00748   -1.000
 4257.00    1.02719   1.01083   -1.000
 4258.00    1.00578   1.00006   -1.000
 4259.00    0.98454   0.98201  487.373
 4260.00    0.96163   0.97347   -1.000
 4261.00    0.96796   0.98515   -1.000
 4262.00    0.99610   1.01234   -1.000
 4263.00    1.02177   1.04064   -1.000
 4264.00    1.04260   1.05888   -1.000
 4265.00    1.04358   1.06390   -1.000
 4266.00    1.04011   1.05807   -1.000
 4267.00    1.03055   1.04411   -1.000
 4268.00    1.01320   1.02244   -1.000
 4269.00    0.98972   0.99392  473.255
 4270.00    0.96222   0.96301  504.965
 4271.00    0.92515   0.93740   -1.000
 4272.00    0.91342   0.92503   -1.000
 4273.00    0.92511   0.92807  520.522
 4274.00    0.93208   0.94326   -1.000
 4275.00    0.95284   0.96802   -1.000
 4276.00    0.98523   0.99836   -1.000
 4277.00    1.01741   1.02369  433.264
 4278.00    1.02007   1.03350   -1.000
 4279.00    1.00497   1.02788   -1.000
 4280.00    0.98187   1.01725   -1.000
 4281.00    0.98197   1.01138   -1.000
 4282.00    0.99348   1.01111   -1.000
 4283.00    0.98929   1.01000   -1.000
 4284.00    0.98596   1.00407   -1.000
 4285.00    0.97251   0.99407   -1.000
 4286.00    0.95565   0.98102   -1.000
 4287.00    0.94164   0.96428   -1.000
 4288.00    0.91772   0.94343   -1.000
 4289.00    0.89218   0.92451   -1.000
 4290.00    0.89535   0.91942   -1.000
 4291.00    0.91544   0.93206   -1.000
 4292.00    0.94523   0.95206  481.490
 4293.00    0.96572   0.96496  475.511
 4294.00    0.96669   0.96437  481.079
 4295.00    0.96082   0.95300   -1.000
 4296.00    0.94499   0.93445   -1.000
 4297.00    0.91610   0.90884   -1.000
 4298.00    0.87127   0.87775  578.678
 4299.00    0.83404   0.84914   -1.000
 4300.00    0.82311   0.83159   -1.000
 4301.00    0.82684   0.82756  599.386
 4302.00    0.83144   0.83392  590.702
 4303.00    0.84204   0.84604  582.012
 4304.00    0.85916   0.85740   -1.000
 4305.00    0.86753   0.85962   -1.000
 4306.00    0.84883   0.84901  605.294
 4307.00    0.82559   0.83189  635.889
 4308.00    0.81257   0.82110   -1.000
 4309.00    0.81911   0.82618  628.184
 4310.00    0.83468   0.84547   -1.000
 4311.00    0.86293   0.87037  554.485
 4312.00    0.88497   0.89718   -1.000
 4313.00    0.89852   0.92913   -1.000
 4314.00    0.92928   0.97021   -1.000
 4315.00    0.97979   1.01824   -1.000
 4316.00    1.03406   1.06236   -1.000
 4317.00    1.07155   1.09088   -1.000
 4318.00    1.07222   1.09936   -1.000
 4319.00    1.05439   1.09194   -1.000
 4320.00    1.04457   1.07387   -1.000
 4321.00    1.02222   1.04561   -1.000
 4322.00    0.99395   1.00643   -1.000
 4323.00    0.95832   0.96161  482.987
 4324.00    0.91256   0.92478   -1.000
 4325.00    0.89084   0.91150   -1.000
 4326.00    0.90929   0.92911   -1.000
 4327.00    0.95902   0.96748   -1.000
 4328.00    1.00777   1.00425  415.214
 4329.00    1.02435   1.02432  409.898
 4330.00    1.01245   1.02842   -1.000
 4331.00    1.00019   1.02604   -1.000
 4332.00    1.00375   1.02264   -1.000
 4333.00    1.00757   1.01541   -1.000
 4334.00    1.00065   0.99721  398.334
 4335.00    0.98344   0.96103   -1.000
 4336.00    0.93817   0.90291   -1.000
 4337.00    0.86886   0.82867   -1.000
 4338.00    0.79468   0.75574   -1.000
 4339.00    0.72697   0.70484   -1.000
 4340.00    0.68439   0.69217   -1.000
 4341.00    0.70397   0.72168   -1.000
 4342.00    0.77696   0.77890  470.477
 4343.00    0.85626   0.84062   -1.000
 4344.00    0.90452   0.89330   -1.000
 4345.00    0.93679   0.93572  420.812
 4346.00    0.96212   0.97118   -1.000
 4347.00    0.97925   1.00027   -1.000
 4348.00    0.99744   1.01823   -1.000
 4349.00    1.01205   1.01842  409.108
 4350.00    0.99406   1.00115   -1.000
 4351.00    0.94912   0.98004   -1.000
 4352.00    0.93963   0.97310   -1.000
 4353.00    0.96590   0.98738   -1.000
 4354.00    1.00033   1.01452   -1.000
 4355.00    1.01815   1.04016   -1.000
 4356.00    1.02903   1.05660   -1.000
 4357.00    1.03392   1.06410   -1.000
 4358.00    1.04785   1.06686   -1.000
 4359.00    1.04124   1.07057   -1.000
 4360.00    1.04128   1.07954   -1.000
 4361.00    1.05441   1.09268   -1.000
 4362.00    1.06420   1.10537   -1.000
 4363.00    1.06874   1.11527   -1.000
 4364.00    1.07914   1.12096   -1.000
 4365.00    1.08089   1.11837   -1.000
 4366.00    1.06016   1.10601   -1.000
 4367.00    1.04140   1.08939   -1.000
 4368.00    1.03430   1.07525   -1.000
 4369.00    1.03658   1.06594   -1.000
 4370.00    1.04503   1.05955   -1.000
 4371.00    1.05328   1.05192  413.337
 4372.00    1.03970   1.03922  419.833
 4373.00    1.01712   1.02219  437.785
 4374.00    0.98326   1.00843   -1.000
 4375.00    0.98948   1.00835   -1.000
 4376.00    1.01794   1.02442  428.027
 4377.00    1.04602   1.04727  408.677
 4378.00    1.05794   1.06411  403.821
 4379.00    1.06062   1.06609  407.552
 4380.00    1.06330   1.04826   -1.000
 4381.00    1.04018   1.01001   -1.000
 4382.00    0.98036   0.95959   -1.000
 4383.00    0.93383   0.91727   -1.000
 4384.00    0.90650   0.90590  533.003
 4385.00    0.93824   0.92874   -1.000
 4386.00    0.98984   0.96617   -1.000
 4387.00    1.01355   0.99605   -1.000
 4388.00    1.02947   1.01088   -1.000
 4389.00    1.03204   1.01660   -1.000
 4390.00    1.03712   1.02178   -1.000
 4391.00    1.03771   1.03044   -1.000
 4392.00    1.04708   1.03916   -1.000
 4393.00    1.04986   1.04226   -1.000
 4394.00    1.03484   1.04201  431.697
 4395.00    1.02575   1.04717   -1.000
 4396.00    1.05109   1.05998  406.871
 4397.00    1.07561   1.07083   -1.000
 4398.00    1.06908   1.07023  406.558
 4399.00    1.04947   1.06041   -1.000
 4400.00    1.01848   1.05101   -1.000
 4401.00    1.02729   1.04672   -1.000
 4402.00    1.04711   1.04162  420.434
 4403.00    1.03718   1.02882   -1.000
 4404.00    1.01475   1.01260  460.965
 4405.00    1.00123   1.00421  459.969
 4406.00    1.01167   1.00860  444.941
 4407.00    1.01927   1.02143  439.448
 4408.00    1.01742   1.03873   -1.000
 4409.00    1.02536   1.06184   -1.000
 4410.00    1.05793   1.08848   -1.000
 4411.00    1.08732   1.10812   -1.000
 4412.00    1.09961   1.11053   -1.000
 4413.00    1.08737   1.09354  398.323
 4414.00    1.06238   1.06512  420.752
 4415.00    1.03377   1.04148   -1.000
 4416.00    1.02715   1.03787   -1.000
 4417.00    1.03861   1.05664   -1.000
 4418.00    1.05970   1.08736   -1.000
 4419.00    1.08572   1.11448   -1.000
 4420.00    1.09680   1.12581   -1.000
 4421.00    1.08645   1.12128   -1.000
 4422.00    1.07088   1.11090   -1.000
 4423.00    1.06386   1.10383   -1.000
 4424.00    1.05394   1.10118   -1.000
 4425.00    1.05610   1.09906   -1.000
 4426.00    1.05922   1.09687   -1.000
 4427.00    1.04908   1.09742   -1.000
 4428.00    1.04709   1.10111   -1.000
 4429.00    1.05516   1.10579   -1.000
 4430.00    1.05559   1.10920   -1.000
 4431.00    1.06043   1.10925   -1.000
 4432.00    1.07375   1.10309   -1.000
 4433.00    1.06234   1.08892   -1.000
 4434.00    1.03945   1.07241   -1.000
 4435.00    1.02545   1.06683   -1.000
 4436.00    1.03901   1.08089   -1.000
 4437.00    1.07989   1.10877   -1.000
 4438.00    1.10603   1.13439   -1.000
 4439.00    1.11685   1.14381   -1.000
 4440.00    1.10425   1.13271   -1.000
 4441.00    1.07169   1.10882   -1.000
 4442.00    1.04512   1.08816   -1.000
 4443.00    1.03067   1.08489   -1.000
 4444.00    1.04733   1.10121   -1.000
 4445.00    1.08090   1.12605   -1.000
 4446.00    1.09464   1.14549   -1.000
 4447.00    1.10156   1.15383   -1.000
 4448.00    1.10889   1.15423   -1.000
 4449.00    1.10556   1.15151   -1.000
 4450.00    1.09953   1.14738   -1.000
 4451.00    1.09746   1.14048   -1.000
 4452.00    1.09817   1.12653   -1.000
 4453.00    1.08446   1.10321   -1.000
 4454.00    1.05625   1.07689   -1.000
 4455.00    1.03638   1.05916   -1.000
 4456.00    1.04225   1.05617   -1.000
 4457.00    1.05830   1.06358  419.503
 4458.00    1.06795   1.07283  420.565
 4459.00    1.05889   1.07940   -1.000
 4460.00    1.05460   1.08401   -1.000
 4461.00    1.05738   1.08931   -1.000
 4462.00    1.07103   1.09803   -1.000
 4463.00    1.08813   1.11037   -1.000
 4464.00    1.09177   1.12229   -1.000
 4465.00    1.09702   1.12826   -1.000
 4466.00    1.10082   1.12566   -1.000
 4467.00    1.09011   1.11675   -1.000
 4468.00    1.07670   1.10772   -1.000
 4469.00    1.07314   1.10565   -1.000
 4470.00    1.06463   1.11447   -1.000
 4471.00    1.08408   1.13281   -1.000
 4472.00    1.11685   1.15519   37.564
 4473.00    1.14655   1.17472   36.682
 4474.00    1.15057   1.18679   36.476
 4475.00    1.15277   1.19170   36.498
 4476.00    1.15279   1.19257   36.171
 4477.00    1.16011   1.18980   36.060
 4478.00    1.15275   1.17939   36.588
 4479.00    1.14502   1.15811   38.066
 4480.00    1.11229   1.13158   39.709
 4481.00    1.08765   1.11402   40.516
 4482.00    1.08769   1.11583   39.746
 4483.00    1.10030   1.13589   38.026
 4484.00    1.12913   1.16407   36.711
 4485.00    1.15426   1.18719   36.105
 4486.00    1.15864   1.19532   36.338
 4487.00    1.15142   1.18756   37.311
 4488.00    1.13028   1.17156   38.688
 4489.00    1.11136   1.15815   39.313
 4490.00    1.11639   1.15491   38.700
 4491.00    1.13162   1.16145   37.700
 4492.00    1.13778   1.17012   37.325
 4493.00    1.14580   1.17230   38.055
 4494.00    1.13277   1.16744   39.203
 4495.00    1.10597   1.16309   39.803
 4496.00    1.10465   1.16529   39.128
 4497.00    1.12691   1.17301   37.768
 4498.00    1.14869   1.18108   36.838
 4499.00    1.14928   1.18523   36.643
 4500.00    1.13351   1.18605   37.084
 4501.00    1.11769   1.18964   37.063
 4502.00    1.13841   1.20102   35.981
 4503.00    1.16699   1.21830   34.830
 4504.00    1.18842   1.23420   34.397
 4505.00    1.19249   1.24208   34.759
 4506.00    1.18291   1.24053   35.439
 4507.00    1.17789   1.23378   35.707
 4508.00    1.17086   1.22839   35.665
 4509.00    1.17601   1.22750   35.378
 4510.00    1.18673   1.22851   35.228
 4511.00    1.19050   1.22653   35.629
 4512.00    1.17568   1.21957   36.349
 4513.00    1.16347   1.20979   36.920
 4514.00    1.15958   1.20065   37.053
 4515.00    1.15011   1.19489   36.874
 4516.00    1.14639   1.19262   36.940
 4517.00    1.14549   1.19103   37.380
 4518.00    1.14321   1.18905   37.432
 4519.00    1.14574   1.18882   36.729
 4520.00    1.15816   1.19091   36.144
 4521.00    1.16116   1.19205   36.430
 4522.00    1.15073   1.18853   37.319
 4523.00    1.13291   1.18027   37.992
 4524.00    1.12069   1.16947   38.346
 4525.00    1.12140   1.15634   39.102
 4526.00    1.10729   1.13945   40.320
 4527.00    1.09376   1.12017   41.339
 4528.00    1.07877   1.10483   41.657
 4529.00    1.08189   1.09962   41.235
 4530.00    1.09329   1.10445   40.481
 4531.00    1.10408   1.11191   39.835
 4532.00    1.10345   1.11296   39.893
 4533.00    1.08773   1.10597   41.133
 4534.00    1.07437   1.09935   42.205
 4535.00    1.07244   1.10496   41.205
 4536.00    1.09999   1.12763   38.745
 4537.00    1.14191   1.16049   36.676
 4538.00    1.17198   1.18929   35.985
 4539.00    1.17248   1.20335   36.495
 4540.00    1.16401   1.20348   37.247
 4541.00    1.16226   1.19867   37.115
 4542.00    1.15928   1.19604   36.856
 4543.00    1.15612   1.19484   38.802
 4544.00    1.14549   1.19087   39.570
 4545.00    1.13638   1.18354   18.584
 4546.00    0.82689   1.17478   -1.000
 4547.00    0.04425   1.16438   -1.000
 4548.00   -0.01675   1.15188    0.000
 4549.00    0.26630   1.14187   -1.000
 4550.00    0.75369   1.14132   -1.000
 4551.00    0.34153   1.14961   -1.000
 4552.00    1.02415   1.15712   -1.000
 4553.00    1.13519   1.15680   39.234
 4554.00    1.10098   1.15180   39.414
 4555.00    1.10305   1.15158   38.618
 4556.00    1.12275   1.16307   37.137
 4557.00    1.15045   1.18403   35.782
 4558.00    1.17995   1.20596   35.340
 4559.00    1.17945   1.22230   35.541
 4560.00    1.18158   1.23110   35.512
 4561.00    1.18046   1.23198   35.669
 4562.00    1.16992   1.22458   36.556
 4563.00    1.15307   1.21102   37.423
 4564.00    1.13886   1.19781   37.862
 4565.00    1.14091   1.19276   37.294
 4566.00    1.15899   1.19946   36.312
 4567.00    1.18375   1.21336   35.454
 4568.00    1.19601   1.22474   35.258
 4569.00    1.18411   1.22567   35.772
 4570.00    1.16658   1.21552   36.716
 4571.00    1.14481   1.20173   37.468
 4572.00    1.13701   1.19528   36.977
 4573.00    1.16154   1.20119   35.920
 4574.00    1.18198   1.21368   35.531
 4575.00    1.18105   1.22352   35.603
 4576.00    1.17720   1.22638   35.782
 4577.00    1.18063   1.22212   36.062
 4578.00    1.17086   1.21084   36.783
 4579.00    1.14502   1.19397   37.855
 4580.00    1.13354   1.17603   38.462
 4581.00    1.13927   1.16288   38.233
 4582.00    1.13786   1.15748   37.717
 4583.00    1.13399   1.15876   37.520
 4584.00    1.14034   1.16324   37.673
 4585.00    1.14487   1.16889   37.783
 4586.00    1.15409   1.17654   37.137
 4587.00    1.16567   1.18733   36.171
 4588.00    1.17241   1.19941   35.537
 4589.00    1.17663   1.20790   35.619
 4590.00    1.16926   1.20883   36.196
 4591.00    1.16033   1.20272   36.872
 4592.00    1.15629   1.19468   37.410
 4593.00    1.15480   1.19070   37.352
 4594.00    1.15833   1.19266   37.021
 4595.00    1.16322   1.19823   36.765
 4596.00    1.16706   1.20444   36.681
 4597.00    1.17176   1.20921   36.603
 4598.00    1.18010   1.21052   36.591
 4599.00    1.18251   1.20752   36.936
 4600.00    1.16774   1.20171   37.228
 4601.00    1.16205   1.19639   37.232
 4602.00    1.15640   1.19429   36.808
 4603.00    1.16774   1.19585   36.477
 4604.00    1.17387   1.19989   36.540
 4605.00    1.18382   1.20546   36.412
 4606.00    1.18802   1.21271   35.941
 4607.00    1.19582   1.22216   35.203
 4608.00    1.20773   1.23326   34.506
 4609.00    1.21510   1.24302   34.214
 4610.00    1.20774   1.24674   34.451
 4611.00    1.20715   1.24347   34.927
 4612.00    1.19684   1.23714   35.281
 4613.00    1.19367   1.23239   35.430
 4614.00    1.19600   1.23080   35.210
 4615.00    1.19694   1.23059   34.920
 4616.00    1.19550   1.22908   34.854
 4617.00    1.19420   1.22561   35.112
 4618.00    1.19043   1.22212   35.322
 4619.00    1.18357   1.22182   35.219
 4620.00    1.20181   1.22693   34.827
 4621.00    1.20455   1.23613   34.357
 4622.00    1.21910   1.24451   34.391
 4623.00    1.21715   1.24804   34.479
 4624.00    1.20893   1.24711   34.590
 4625.00    1.19811   1.24381   34.881
 4626.00    1.20135   1.23986   34.935
 4627.00    1.20149   1.23640   34.955
 4628.00    1.20045   1.23410   35.168
 4629.00    1.19226   1.23345   35.190
 4630.00    1.19144   1.23541   34.959
 4631.00    1.19800   1.23950   34.642
 4632.00    1.19789   1.24177   34.888
 4633.00    1.18949   1.23882   35.396
 4634.00    1.19366   1.23228   35.704
 4635.00    1.19226   1.22618   35.707
 4636.00    1.19432   1.22190   36.048
 4637.00    1.17729   1.21891   36.478
 4638.00    1.17294   1.21758   36.574
 4639.00    1.18182   1.21975   36.410
 4640.00    1.19531   1.22659   35.713
 4641.00    1.20941   1.23668   34.892
 4642.00    1.21684   1.24515   34.543
 4643.00    1.22143   1.24637   34.804
 4644.00    1.20099   1.23837   35.539
 4645.00    1.18627   1.22324   36.558
 4646.00    1.17307   1.20597   37.418
 4647.00    1.16839   1.19413   37.384
 4648.00    1.17970   1.19389   36.642
 4649.00    1.18148   1.20457   35.838
 4650.00    1.19504   1.21880   35.441
 4651.00    1.19934   1.22869   35.399
 4652.00    1.18806   1.23128   35.411
 4653.00    1.19415   1.22773   35.931
 4654.00    1.19059   1.22088   36.715
 4655.00    1.17497   1.21520   36.981
 4656.00    1.17368   1.21652   36.469
 4657.00    1.18801   1.22847   35.220
 4658.00    1.21156   1.24888   33.958
 4659.00    1.23048   1.26913   33.353
 4660.00    1.23632   1.28006   33.435
 4661.00    1.22754   1.27841   33.947
 4662.00    1.21257   1.26746   34.776
 4663.00    1.20645   1.25216   35.344
 4664.00    1.20699   1.23510   35.483
 4665.00    1.20289   1.21547   36.259
 4666.00    1.18173   1.19308   37.869
 4667.00    1.15520   1.17325   39.169
 4668.00    1.14907   1.16494   38.899
 4669.00    1.14989   1.17257   37.562
 4670.00    1.17802   1.19179   36.068
 4671.00    1.20053   1.21299   35.257
 4672.00    1.21028   1.22863   35.128
 4673.00    1.20712   1.23741   35.155
 4674.00    1.21137   1.24300   35.038
 4675.00    1.20958   1.24846   34.546
 4676.00    1.22497   1.25143   34.146
 4677.00    1.22391   1.24721   34.456
 4678.00    1.21539   1.23525   35.226
 4679.00    1.19219   1.22052   35.898
 4680.00    1.17901   1.20919   36.442
 4681.00    1.18378   1.20430   36.635
 4682.00    1.18587   1.20592   36.050
 4683.00    1.19695   1.21233   35.194
 4684.00    1.21749   1.22032   34.860
 4685.00    1.22730   1.22667   34.990
 4686.00    1.22538   1.23022   35.031
 4687.00    1.21591   1.23166   35.206
 4688.00    1.21757   1.23196   35.197
 4689.00    1.21520   1.23165   35.246
 4690.00    1.21023   1.23081   35.482
 4691.00    1.20816   1.23015   35.456
 4692.00    1.21810   1.23152   34.989
 4693.00    1.23088   1.23569   34.415
 4694.00    1.24683   1.24088   33.692
 4695.00    1.24224   1.24454   33.387
 4696.00    1.24278   1.24427   33.725
 4697.00    1.23499   1.23810   34.753
 4698.00    1.21555   1.22687   35.691
 4699.00    1.20632   1.21399   35.944
 4700.00    1.20309   1.20210   35.718
 4701.00    1.19881   1.19150   36.083
 4702.00    1.18800   1.18317   36.662
 4703.00    1.18577   1.18068   36.665
 4704.00    1.19492   1.18587   35.951
 4705.00    1.19725   1.19402   35.614
 4706.00    1.19408   1.19736   36.207
 4707.00    1.18290   1.19375   36.879
 4708.00    1.17911   1.18909   37.114
 4709.00    1.18190   1.19040   36.724
 4710.00    1.19334   1.19895   35.609
 4711.00    1.22110   1.21090   34.751
 4712.00    1.22876   1.22029   34.560
 4713.00    1.21595   1.22313   34.985
 4714.00    1.21166   1.22162   35.547
 4715.00    1.21516   1.22239   35.382
 4716.00    1.21746   1.22980   34.647
 4717.00    1.22898   1.24169   34.064
 4718.00    1.23916   1.25257   33.894
 4719.00    1.24031   1.25891   33.778
 4720.00    1.23760   1.26089   33.735
 4721.00    1.22745   1.26070   34.037
 4722.00    1.22607   1.26059   34.195
 4723.00    1.22477   1.26162   33.940
 4724.00    1.22057   1.26265   33.639
 4725.00    1.23221   1.26033   33.850
 4726.00    1.22996   1.25116   34.799
 4727.00    1.21281   1.23545   36.057
 4728.00    1.19540   1.21902   36.662
 4729.00    1.18413   1.20848   36.434
 4730.00    1.19036   1.20565   36.066
 4731.00    1.19990   1.20869   35.759
 4732.00    1.20615   1.21523   35.341
 4733.00    1.20835   1.22233   35.061
 4734.00    1.21119   1.22688   34.867
 4735.00    1.21718   1.22784   34.776
 4736.00    1.21181   1.22677   35.122
 4737.00    1.20657   1.22644   35.056
 4738.00    1.22132   1.22912   34.660
 4739.00    1.22736   1.23432   34.735
 4740.00    1.21593   1.23900   34.919
 4741.00    1.20990   1.24179   34.896
 4742.00    1.21801   1.24430   34.580
 4743.00    1.22747   1.24783   34.279
 4744.00    1.23427   1.25156   34.365
 4745.00    1.23712   1.25448   34.340
 4746.00    1.24063   1.25741   34.051
 4747.00    1.23111   1.26206   33.751
 4748.00    1.23345   1.26827   33.717
 4749.00    1.23424   1.27416   33.769
 4750.00    1.23715   1.27770   33.830
 4751.00    1.24737   1.27697   34.115
 4752.00    1.23603   1.27076   34.492
 4753.00    1.22841   1.26046   34.766
 4754.00    1.22125   1.25038   34.947
 4755.00    1.21315   1.24484   34.905
 4756.00    1.21259   1.24522   35.075
 4757.00    1.21733   1.24992   35.302
 4758.00    1.21823   1.25624   35.268
 4759.00    1.22316   1.26094   34.999
 4760.00    1.21332   1.26019   35.058
 4761.00    1.19965   1.25129   35.699
 4762.00    1.19090   1.23552   36.535
 4763.00    1.18878   1.21911   36.906
 4764.00    1.18764   1.20845   36.916
 4765.00    1.18489   1.20542   36.799
 4766.00    1.19645   1.20896   36.484
 4767.00    1.20740   1.21855   35.906
 4768.00    1.21472   1.23281   35.131
 4769.00    1.22268   1.24702   34.760
 4770.00    1.23223   1.25559   34.889
 4771.00    1.22674   1.25745   35.199
 4772.00    1.21369   1.25700   35.379
 4773.00    1.22327   1.25981   34.868
 4774.00    1.23817   1.26707   34.196
 4775.00    1.24223   1.27491   34.037
 4776.00    1.24301   1.27901   34.089
 4777.00    1.24271   1.27808   34.216
 4778.00    1.23585   1.27360   34.475
 4779.00    1.22195   1.26811   34.839
 4780.00    1.21565   1.26352   35.013
 4781.00    1.21295   1.25970   35.111
 4782.00    1.21743   1.25522   35.308
 4783.00    1.21938   1.24978   35.544
 4784.00    1.21451   1.24447   35.538
 4785.00    1.21413   1.24016   35.709
 4786.00    1.21841   1.23724   36.050
 4787.00    1.20396   1.23635   36.205
 4788.00    1.20271   1.23821   36.130
 4789.00    1.20505   1.24300   35.937
 4790.00    1.21072   1.25067   35.685
 4791.00    1.21499   1.26106   35.265
 4792.00    1.22636   1.27354   34.636
 4793.00    1.24450   1.28674   33.886
 4794.00    1.25657   1.29858   33.397
 4795.00    1.26671   1.30601   33.381
 4796.00    1.26589   1.30627   33.802
 4797.00    1.24354   1.29937   34.494
 4798.00    1.24351   1.28881   35.095
 4799.00    1.22588   1.28005   35.366
 4800.00    1.23344   1.27791   34.945
 4801.00    1.24293   1.28307   34.255
 4802.00    1.24948   1.29077   33.873
 4803.00    1.24800   1.29486   34.023
 4804.00    1.24344   1.29291   34.496
 4805.00    1.23073   1.28731   34.913
 4806.00    1.22379   1.28193   35.164
 4807.00    1.23309   1.27891   35.125
 4808.00    1.23607   1.27874   35.020
 4809.00    1.23263   1.28127   34.829
 4810.00    1.24190   1.28514   34.517
 4811.00    1.24116   1.28852   34.287
 4812.00    1.23601   1.29122   34.141
 4813.00    1.24240   1.29446   34.105
 4814.00    1.24381   1.29919   34.011
 4815.00    1.25002   1.30541   33.870
 4816.00    1.25517   1.31191   33.652
 4817.00    1.25713   1.31671   33.457
 4818.00    1.26795   1.31880   33.348
 4819.00    1.26999   1.31858   33.344
 4820.00    1.25992   1.31562   33.399
 4821.00    1.25234   1.30745   33.816
 4822.00    1.24412   1.29271   34.697
 4823.00    1.23059   1.27532   35.211
 4824.00    1.22926   1.26388   35.006
 4825.00    1.23276   1.26421   34.375
 4826.00    1.24511   1.27309   33.971
 4827.00    1.24292   1.28185   34.193
 4828.00    1.23777   1.28499   34.575
 4829.00    1.23670   1.28311   34.739
 4830.00    1.23591   1.27854   34.780
 4831.00    1.22768   1.27233   35.072
 4832.00    1.22964   1.26657   35.002
 4833.00    1.23387   1.26465   34.429
 4834.00    1.24977   1.26773   34.038
 4835.00    1.25250   1.27329   33.961
 4836.00    1.23605   1.27728   34.045
 4837.00    1.24309   1.27689   34.268
 4838.00    1.23632   1.27153   34.779
 4839.00    1.22579   1.26268   35.300
 4840.00    1.21231   1.25361   35.274
 4841.00    1.22008   1.24778   35.177
 4842.00    1.22089   1.24632   34.979
 4843.00    1.22642   1.24787   34.697
 4844.00    1.23434   1.25149   34.309
 4845.00    1.23916   1.25664   33.827
 4846.00    1.23319   1.26003   33.826
 4847.00    1.22174   1.25764   34.522
 4848.00    1.21933   1.25057   34.933
 4849.00    1.21686   1.24420   34.815
 4850.00    1.21799   1.24137   34.380
 4851.00    1.21802   1.23902   34.369
 4852.00    1.21068   1.23151   34.595
 4853.00    1.19023   1.21496   35.028
 4854.00    1.16325   1.18952   36.104
 4855.00    1.13978   1.16017   36.922
 4856.00    1.12762   1.13283   36.736
 4857.00    1.12667   1.10639   36.599
 4858.00    1.09608   1.06972   38.040
 4859.00    1.00986   1.01325   41.641
 4860.00    0.90866   0.94589   46.115
 4861.00    0.83888   0.89510   47.229
 4862.00    0.85951   0.88662   43.887
 4863.00    0.95388   0.92324   40.185
 4864.00    1.03541   0.98497   38.039
 4865.00    1.08732   1.04827   36.829
 4866.00    1.12337   1.10021   36.152
 4867.00    1.15145   1.13770   35.871
 4868.00    1.16529   1.16078   35.809
 4869.00    1.16349   1.16898   36.266
 4870.00    1.15652   1.16341   37.299
 4871.00    1.13738   1.15148   37.980
 4872.00    1.13535   1.14657   37.463
 4873.00    1.15424   1.15774   36.441
 4874.00    1.17158   1.18065   35.890
 4875.00    1.18275   1.20272   35.640
 4876.00    1.18712   1.21632   35.462
 4877.00    1.18402   1.22467   35.272
 4878.00    1.18617   1.23480   34.767
 4879.00    1.20441   1.24812   34.526
 4880.00    1.21248   1.25942   34.909
 4881.00    1.20146   1.26346   35.431
 4882.00    1.20295   1.26057   35.566
 4883.00    1.20311   1.25475   35.490
 4884.00    1.19587   1.24817   35.760
 4885.00    1.18870   1.24095   36.263
 4886.00    1.19728   1.23417   36.371
 4887.00    1.20265   1.22923   36.188
 4888.00    1.19248   1.22440   36.251
 4889.00    1.19786   1.21591   36.861
 4890.00    1.17735   1.20469   37.496
 4891.00    1.17360   1.20012   36.969
 4892.00    1.19517   1.21324   35.395
 4893.00    1.22982   1.24528   33.849
 4894.00    1.26663   1.28433   32.938
 4895.00    1.27455   1.31565   32.416
 4896.00    1.29316   1.33290   32.317
 4897.00    1.28191   1.33741   32.509
 4898.00    1.27072   1.33276   33.252
 4899.00    1.25573   1.32305   33.968
 4900.00    1.24913   1.31284   34.228
 4901.00    1.25232   1.30477   34.081
 4902.00    1.25320   1.29828   34.206
 4903.00    1.24084   1.29310   34.496
 4904.00    1.24079   1.29278   34.025
 4905.00    1.25640   1.30029   33.366
 4906.00    1.26845   1.31111   33.226
 4907.00    1.26880   1.31580   33.643
 4908.00    1.25551   1.30870   34.506
 4909.00    1.24138   1.29220   35.413
 4910.00    1.22900   1.27501   35.674
 4911.00    1.23424   1.26652   35.141
 4912.00    1.24274   1.27062   34.526
 4913.00    1.25056   1.28364   34.062
 4914.00    1.25851   1.29842   33.645
 4915.00    1.26823   1.30788   33.435
 4916.00    1.27108   1.30481   33.791
 4917.00    1.24464   1.28379   35.132
 4918.00    1.21195   1.24668   37.047
 4919.00    1.17822   1.20513   38.566
 4920.00    1.16202   1.17552   38.647
 4921.00    1.17679   1.16843   37.309
 4922.00    1.20440   1.18136   36.096
 4923.00    1.21403   1.20262   35.676
 4924.00    1.21111   1.22318   35.579
 4925.00    1.22274   1.24271   35.022
 4926.00    1.24453   1.26418   34.142
 4927.00    1.26063   1.28720   33.595
 4928.00    1.27546   1.30796   33.303
 4929.00    1.28124   1.32241   33.082
 4930.00    1.28597   1.32793   32.979
 4931.00    1.28430   1.32255   33.426
 4932.00    1.25975   1.30627   34.414
 4933.00    1.22887   1.28488   35.468
 4934.00    1.22522   1.26838   35.385
 4935.00    1.23880   1.26208   34.838
 4936.00    1.24134   1.26059   35.023
 4937.00    1.22333   1.25447   36.082
 4938.00    1.20731   1.24345   36.836
 4939.00    1.20646   1.23826   36.299
 4940.00    1.22329   1.24831   35.045
 4941.00    1.25517   1.27173   34.011
 4942.00    1.27249   1.29745   33.454
 4943.00    1.28236   1.31501   33.218
 4944.00    1.28299   1.32144   33.291
 4945.00    1.27621   1.32030   33.506
 4946.00    1.26712   1.31806   33.503
 4947.00    1.26743   1.32021   33.172
 4948.00    1.28025   1.32770   32.829
 4949.00    1.28593   1.33628   32.731
 4950.00    1.28987   1.34078   32.648
 4951.00    1.28937   1.33968   32.838
 4952.00    1.28450   1.33487   33.095
 4953.00    1.28525   1.32775   33.489
 4954.00    1.27444   1.31581   33.995
 4955.00    1.25928   1.29336   35.072
 4956.00    1.23015   1.25929   36.848
 4957.00    1.18917   1.22558   37.908
 4958.00    1.18945   1.21168   36.809
 4959.00    1.22749   1.22665   34.816
 4960.00    1.25617   1.26004   33.810
 4961.00    1.27419   1.29201   33.651
 4962.00    1.28042   1.31017   33.840
 4963.00    1.27317   1.31381   34.138
 4964.00    1.26598   1.30733   34.606
 4965.00    1.25710   1.29571   35.301
 4966.00    1.25283   1.28378   35.669
 4967.00    1.24942   1.27516   35.644
 4968.00    1.24513   1.27136   35.507
 4969.00    1.24239   1.27264   35.218
 4970.00    1.24880   1.27872   34.837
 4971.00    1.25477   1.28834   34.455
 4972.00    1.27100   1.29944   34.058
 4973.00    1.27547   1.30975   33.772
 4974.00    1.27954   1.31691   33.708
 4975.00    1.27649   1.31916   33.976
 4976.00    1.26955   1.31611   34.357
 4977.00    1.27156   1.30848   34.845
 4978.00    1.26409   1.29733   35.392
 4979.00    1.24809   1.28292   35.837
 4980.00    1.22539   1.26364   36.469
 4981.00    1.20762   1.23776   37.691
 4982.00    1.19007   1.20867   38.690
 4983.00    1.17796   1.18679   38.521
 4984.00    1.19071   1.18294   37.709
 4985.00    1.21231   1.19905   36.613
 4986.00    1.23118   1.22666   35.494
 4987.00    1.24878   1.25369   34.788
 4988.00    1.25624   1.27091   34.930
 4989.00    1.25078   1.27511   35.432
 4990.00    1.23993   1.27007   35.728
 4991.00    1.24150   1.26373   35.672
 4992.00    1.24249   1.26209   35.375
 4993.00    1.24308   1.26577   35.255
 4994.00    1.24922   1.27200   35.211
 4995.00    1.25560   1.27823   35.026
 4996.00    1.26460   1.28261   34.923
 4997.00    1.26617   1.28236   35.193
 4998.00    1.25740   1.27431   35.717
 4999.00    1.23175   1.25841   36.397
 5000.00    1.22221   1.24004   36.767
 5001.00    1.23145   1.22700   36.711
 5002.00    1.23747   1.22332   36.372
 5003.00    1.23077   1.22521   36.275
 5004.00    1.22515   1.22417   36.891
 5005.00    1.21264   1.21562   37.712
 5006.00    1.20215   1.20526   37.688
 5007.00    1.21754   1.20420   36.692
 5008.00    1.24302   1.21664   35.702
 5009.00    1.25696   1.23450   35.495
 5010.00    1.25306   1.24424   36.093
 5011.00    1.23478   1.23771   37.247
 5012.00    1.20837   1.21777   38.560
 5013.00    1.19162   1.19535   39.243
 5014.00    1.18339   1.18107   38.896
 5015.00    1.19966   1.17813   38.025
 5016.00    1.21385   1.18238   37.348
 5017.00    1.21968   1.18836   37.238
 5018.00    1.21931   1.19490   37.169
 5019.00    1.22215   1.20377   36.756
 5020.00    1.22985   1.21417   36.545
 5021.00    1.23853   1.22237   36.704
 5022.00    1.24158   1.22705   36.729
 5023.00    1.24458   1.23181   36.477
 5024.00    1.24767   1.24022   36.112
 5025.00    1.24749   1.24940   35.950
 5026.00    1.25090   1.25345   36.134
 5027.00    1.24497   1.25218   36.212
 5028.00    1.24852   1.25113   35.800
 5029.00    1.26472   1.25512   35.146
 5030.00    1.27511   1.26498   34.636
 5031.00    1.28001   1.27818   34.101
 5032.00    1.28529   1.29013   33.796
 5033.00    1.28222   1.29502   34.052
 5034.00    1.26462   1.28822   35.226
 5035.00    1.24658   1.27095   36.487
 5036.00    1.22988   1.25075   36.980
 5037.00    1.22422   1.23419   37.158
 5038.00    1.22014   1.21953   37.811
 5039.00    1.19540   1.20008   39.343
 5040.00    1.16964   1.17693   40.654
 5041.00    1.15741   1.16321   40.240
 5042.00    1.18843   1.17208   38.132
 5043.00    1.22873   1.20359   35.911
 5044.00    1.25915   1.24447   34.603
 5045.00    1.28629   1.27913   33.777
 5046.00    1.30575   1.29843   32.891
 5047.00    1.23017   1.29992   23.136
 5048.00    0.52585   1.28604   -1.000
 5049.00   -0.00284   1.26395    0.000
 5050.00    0.05879   1.24367   -1.000
 5051.00    0.53106   1.23396   -1.000
 5052.00    1.14402   1.23875   35.471
 5053.00    1.28063   1.25509   34.619
 5054.00    1.29730   1.27451   34.053
 5055.00    1.30806   1.28951   33.778
 5056.00    1.30496   1.29908   33.707
 5057.00    1.29936   1.30607   33.775
 5058.00    1.30072   1.31228   33.823
 5059.00    1.30273   1.31749   33.766
 5060.00    1.30666   1.32076   33.576
 5061.00    1.30802   1.32075   33.684
 5062.00    1.30773   1.31461   34.251
 5063.00    1.29022   1.29969   35.312
 5064.00    1.26100   1.27886   36.422
 5065.00    1.24938   1.26058   36.649
 5066.00    1.25371   1.25161   36.155
 5067.00    1.26246   1.25164   35.686
 5068.00    1.26169   1.25550   35.575
 5069.00    1.26765   1.25921   35.391
 5070.00    1.27927   1.26145   35.254
 5071.00    1.27912   1.26110   35.556
 5072.00    1.26401   1.25811   35.699
 5073.00    1.27203   1.25581   35.266
 5074.00    1.28234   1.25769   35.039
 5075.00    1.27784   1.26259   35.003
 5076.00    1.28163   1.26506   35.046
 5077.00    1.27566   1.25957   35.564
 5078.00    1.25084   1.24425   36.924
 5079.00    1.21580   1.22365   38.455
 5080.00    1.20295   1.20725   38.610
 5081.00    1.21977   1.20210   37.752
 5082.00    1.22917   1.20781   37.003
 5083.00    1.23880   1.21990   36.476
 5084.00    1.25642   1.23515   35.791
 5085.00    1.28064   1.25203   35.249
 5086.00    1.29254   1.26781   35.048
 5087.00    1.29056   1.27932   34.982
 5088.00    1.29053   1.28620   34.786
 5089.00    1.29599   1.29068   34.542
 5090.00    1.29772   1.29494   34.356
 5091.00    1.29892   1.30006   34.136
 5092.00    1.30873   1.30616   33.751
 5093.00    1.31111   1.31124   33.567
 5094.00    1.30975   1.31074   33.971
 5095.00    1.32579   1.30027   34.701
 5096.00    1.31194   1.28036   35.470
 5097.00    1.27189   1.25729   36.313
 5098.00    1.25417   1.23927   36.947
 5099.00    1.24255   1.23221   36.840
 5100.00    1.25260   1.23770   35.867
 5101.00    1.27709   1.25183   34.960
 5102.00    1.29213   1.26635   34.777
 5103.00    1.29825   1.27410   35.049
 5104.00    1.28900   1.27313   35.518
 5105.00    1.27974   1.26526   35.964
 5106.00    1.26668   1.25358   36.406
 5107.00    1.25440   1.24186   36.765
 5108.00    1.24458   1.23420   36.655
 5109.00    1.24763   1.23345   36.408
 5110.00    1.25039   1.24013   36.094
 5111.00    1.25905   1.25243   35.580
 5112.00    1.27379   1.26695   35.147
 5113.00    1.29154   1.28058   34.740
 5114.00    1.30279   1.29221   34.456
 5115.00    1.29987   1.30206   34.241
 5116.00    1.31376   1.31002   33.886
 5117.00    1.31643   1.31510   33.680
 5118.00    1.31965   1.31598   33.860
 5119.00    1.31339   1.31160   34.330
 5120.00    1.30205   1.30178   34.860
 5121.00    1.29090   1.28766   35.499
 5122.00    1.26751   1.27111   36.459
 5123.00    1.25191   1.25408   37.404
 5124.00    1.24256   1.23930   37.515
 5125.00    1.23781   1.22991   37.188
 5126.00    1.25399   1.22676   37.005
 5127.00    1.25783   1.22742   36.835
 5128.00    1.24983   1.22913   36.882
 5129.00    1.24690   1.23164   36.757
 5130.00    1.25726   1.23652   36.230
 5131.00    1.27162   1.24449   35.669
 5132.00    1.28181   1.25418   35.382
 5133.00    1.28917   1.26327   35.048
 5134.00    1.28989   1.27008   34.782
 5135.00    1.29551   1.27310   34.839
 5136.00    1.29283   1.27035   35.540
 5137.00    1.27287   1.26112   36.359
 5138.00    1.25154   1.24814   36.824
 5139.00    1.23937   1.23660   36.778
 5140.00    1.24361   1.23042   36.549
 5141.00    1.24520   1.22949   36.909
 5142.00    1.23610   1.23132   37.366
 5143.00    1.23966   1.23431   37.032
 5144.00    1.25417   1.23789   36.488
 5145.00    1.26470   1.24036   36.473
 5146.00    1.26432   1.23965   36.786
 5147.00    1.26359   1.23718   36.758
 5148.00    1.26762   1.23704   36.331
 5149.00    1.26340   1.23946   36.265
 5150.00    1.25656   1.23986   36.784
 5151.00    1.24404   1.23550   37.384
 5152.00    1.24036   1.22867   37.525
 5153.00    1.25134   1.22426   37.212
 5154.00    1.26261   1.22690   36.431
 5155.00    1.27771   1.23888   35.495
 5156.00    1.30035   1.25805   34.639
 5157.00    1.31403   1.27857   34.078
 5158.00    1.31888   1.29474   33.891
 5159.00    1.32409   1.30386   33.919
 5160.00    1.31721   1.30591   34.054
 5161.00    1.31013   1.30148   34.290
 5162.00    1.30989   1.29057   34.714
 5163.00    1.29906   1.27171   35.410
 5164.00    1.27593   1.24068   37.093
 5165.00    1.23291   1.19307   40.394
 5166.00    1.16335   1.13329   44.391
 5167.00    1.09594   1.07912   46.529
 5168.00    1.08390   1.05099   45.061
 5169.00    1.12516   1.05196   -1.000
 5170.00    1.16237   1.06167   -1.000
 5171.00    1.13912   1.05904   -1.000
 5172.00    1.08708   1.04729   48.006
 5173.00    1.09420   1.05013   45.114
 5174.00    1.16551   1.08477   -1.000
 5175.00    1.23449   1.14239   -1.000
 5176.00    1.27986   1.19876   -1.000
 5177.00    1.30739   1.23668   -1.000
 5178.00    1.30992   1.25284   36.000
 5179.00    1.30393   1.24923   36.551
 5180.00    1.28700   1.22487   -1.000
 5181.00    1.24484   1.17851   -1.000
 5182.00    1.16811   1.11865   -1.000
 5183.00    1.08800   1.06779   48.231
 5184.00    1.08610   1.05158   45.051
 5185.00    1.15777   1.07887   -1.000
 5186.00    1.23735   1.13355   -1.000
 5187.00    1.28394   1.18776   -1.000
 5188.00    1.28798   1.22341   -1.000
 5189.00    1.27946   1.23949   35.954
 5190.00    1.27475   1.24140   36.515
 5191.00    1.24961   1.23318   37.687
 5192.00    1.22341   1.22071   38.456
 5193.00    1.21707   1.21216   38.026
 5194.00    1.23323   1.21244   37.373
 5195.00    1.25636   1.22040   36.827
 5196.00    1.27458   1.23254   36.248
 5197.00    1.27777   1.24756   35.530
 5198.00    1.28935   1.26488   34.995
 5199.00    1.31025   1.28119   34.773
 5200.00    1.31300   1.29135   34.813
 5201.00    1.30529   1.29109   35.179
 5202.00    1.28882   1.27841   35.869
 5203.00    1.27245   1.25454   36.760
 5204.00    1.24867   1.22423   37.931
 5205.00    1.22661   1.19462   38.893
 5206.00    1.22605   1.17241   38.995
 5207.00    1.22287   1.16070   -1.000
 5208.00    1.21892   1.15938   -1.000
 5209.00    1.23381   1.16873   -1.000
 5210.00    1.25720   1.19034   -1.000
 5211.00    1.28841   1.22314   -1.000
 5212.00    1.31698   1.25953   34.414
 5213.00    1.32966   1.28743   33.950
 5214.00    1.32418   1.29787   34.467
 5215.00    1.30105   1.29215   35.227
 5216.00    1.28218   1.28173   35.489
 5217.00    1.28569   1.27958   35.062
 5218.00    1.31079   1.29069   34.326
 5219.00    1.33371   1.31034   33.869
 5220.00    1.33824   1.32949   33.647
 5221.00    1.34465   1.34079   33.631
 5222.00    1.34587   1.33996   34.213
 5223.00    1.32813   1.32466   35.365
 5224.00    1.29222   1.29442   36.887
 5225.00    1.24875   1.25411   38.491
 5226.00    1.21684   1.21725   39.133
 5227.00    1.21366   1.20063   37.921
 5228.00    1.25468   1.21187   35.859
 5229.00    1.30287   1.24188   -1.000
 5230.00    1.32677   1.27143   34.129
 5231.00    1.33150   1.28582   34.251
 5232.00    1.31555   1.28348   34.971
 5233.00    1.30210   1.27397   35.447
 5234.00    1.28777   1.27039   35.181
 5235.00    1.30398   1.28047   34.328
 5236.00    1.32999   1.30166   33.596
 5237.00    1.34483   1.32475   33.311
 5238.00    1.34842   1.34158   33.326
 5239.00    1.33869   1.34961   33.405
 5240.00    1.34679   1.35103   33.308
 5241.00    1.34772   1.34944   33.154
 5242.00    1.33913   1.34805   33.195
 5243.00    1.34537   1.34878   33.122
 5244.00    1.34709   1.35009   33.214
 5245.00    1.33878   1.34697   33.998
 5246.00    1.31628   1.33594   35.033
 5247.00    1.29487   1.31960   35.685
 5248.00    1.29680   1.30449   35.730
 5249.00    1.29511   1.29514   35.830
 5250.00    1.28612   1.29170   35.989
 5251.00    1.29179   1.29256   35.727
 5252.00    1.30816   1.29620   35.243
 5253.00    1.31155   1.30068   34.975
 5254.00    1.30248   1.30499   34.947
 5255.00    1.31552   1.31144   34.563
 5256.00    1.32655   1.32310   33.697
 5257.00    1.35016   1.33861   32.905
 5258.00    1.36495   1.35117   32.770
 5259.00    1.36204   1.35249   33.228
 5260.00    1.34201   1.33771   34.274
 5261.00    1.30751   1.30770   35.795
 5262.00    1.26422   1.26824   37.420
 5263.00    1.23511   1.22787   38.583
 5264.00    1.22139   1.19551   39.209
 5265.00    1.21643   1.17753   39.115
 5266.00    1.22379   1.17372   38.386
 5267.00    1.24143   1.17557   -1.000
 5268.00    1.24484   1.17261   -1.000
 5269.00    1.20923   1.16347   40.226
 5270.00    1.19504   1.15957   39.058
 5271.00    1.24425   1.17331   -1.000
 5272.00    1.29070   1.20264   -1.000
 5273.00    1.29858   1.23354   -1.000
 5274.00    1.29834   1.25584   35.272
 5275.00    1.30198   1.27126   35.059
 5276.00    1.31631   1.28791   34.241
 5277.00    1.33972   1.30971   33.150
 5278.00    1.36525   1.33121   32.730
 5279.00    1.37353   1.34201   33.094
 5280.00    1.36142   1.33642   33.940
 5281.00    1.33790   1.31872   34.774
 5282.00    1.31195   1.29919   35.300
 5283.00    1.29999   1.28813   35.262
 5284.00    1.31208   1.29241   34.422
 5285.00    1.34945   1.31233   33.342
 5286.00    1.34730   1.34018   32.455
 5287.00    1.31583   1.36492   32.341
 5288.00    1.37628   1.38010   32.499
 5289.00    1.38244   1.38673   32.444
 5290.00    1.38645   1.38878   32.268
 5291.00    1.38447   1.38848   32.260
 5292.00    1.38291   1.38635   32.489
 5293.00    1.38244   1.38180   32.829
 5294.00    1.37740   1.37235   33.364
 5295.00    1.35820   1.35479   34.376
 5296.00    1.31455   1.32928   35.643
 5297.00    1.29183   1.30275   36.330
 5298.00    1.28937   1.28610   35.888
 5299.00    1.30766   1.28517   34.989
 5300.00    1.32896   1.29625   34.443
 5301.00    1.33665   1.31138   34.205
 5302.00    1.33693   1.32654   33.664
 5303.00    1.35660   1.34245   32.787
 5304.00    1.38050   1.35850   32.309
 5305.00    1.38040   1.37025   32.337
 5306.00    1.37878   1.37461   32.669
 5307.00    1.37523   1.37405   32.847
 5308.00    1.37508   1.37460   32.575
 5309.00    1.39009   1.37993   32.254
 5310.00    1.40162   1.38801   32.105
 5311.00    1.39841   1.39367   32.182
 5312.00    1.38686   1.39322   32.363
 5313.00    1.37863   1.38636   32.520
 5314.00    1.37458   1.37494   32.780
 5315.00    1.36891   1.36164   33.104
 5316.00    1.35787   1.35049   33.337
 5317.00    1.35211   1.34639   33.276
 5318.00    1.35691   1.35115   33.036
 5319.00    1.36687   1.36024   32.957
 5320.00    1.36934   1.36552   33.117
 5321.00    1.36153   1.36163   33.389
 5322.00    1.35641   1.34864   33.832
 5323.00    1.34197   1.33021   34.380
 5324.00    1.33436   1.31069   34.611
 5325.00    1.33328   1.29130   34.774
 5326.00    1.31631   1.26874   36.051
 5327.00    1.26973   1.24150   38.232
 5328.00    1.23819   1.21857   38.795
 5329.00    1.25628   1.21529   36.957
 5330.00    1.29946   1.23756   -1.000
 5331.00    1.34181   1.27433   -1.000
 5332.00    1.36026   1.30800   33.706
 5333.00    1.36402   1.33015   33.368
 5334.00    1.36962   1.34337   33.026
 5335.00    1.37351   1.35140   32.973
 5336.00    1.36848   1.35410   33.207
 5337.00    1.35834   1.35005   33.452
 5338.00    1.35188   1.33883   33.927
 5339.00    1.33964   1.32234   34.765
 5340.00    1.31961   1.30652   35.169
 5341.00    1.32284   1.29995   34.682
 5342.00    1.34534   1.30700   33.771
 5343.00    1.36336   1.32229   33.313
 5344.00    1.37870   1.33467   33.393
 5345.00    1.37220   1.33727   33.623
 5346.00    1.37061   1.33179   33.828
 5347.00    1.35954   1.32425   34.020
 5348.00    1.34757   1.31972   34.290
 5349.00    1.34908   1.32091   34.227
 5350.00    1.35591   1.32887   33.602
 5351.00    1.37577   1.34240   32.882
 5352.00    1.38674   1.35752   32.560
 5353.00    1.38144   1.37025   32.442
 5354.00    1.38917   1.38032   32.141
 5355.00    1.40579   1.38976   31.756
 5356.00    1.40998   1.39877   31.585
 5357.00    1.40687   1.40529   31.634
 5358.00    1.40805   1.40752   31.697
 5359.00    1.41422   1.40507   31.871
 5360.00    1.40222   1.39788   32.296
 5361.00    1.38146   1.38594   32.835
 5362.00    1.36577   1.37073   33.259
 5363.00    1.35641   1.35531   33.468
 5364.00    1.35147   1.34282   33.662
 5365.00    1.34789   1.33507   33.801
 5366.00    1.35734   1.33151   33.697
 5367.00    1.36108   1.32859   33.776
 5368.00    1.34688   1.32091   34.247
 5369.00    1.32911   1.30508   35.176
 5370.00    1.30133   1.28428   36.057
 5371.00    1.29970   1.26905   35.791
 5372.00    1.32061   1.27095   34.316
 5373.00    1.35084   1.29315   -1.000
 5374.00    1.38404   1.32687   -1.000
 5375.00    1.40522   1.35794   32.102
 5376.00    1.41815   1.37727   32.202
 5377.00    1.41880   1.38447   32.217
 5378.00    1.40760   1.38380   32.311
 5379.00    1.39734   1.37913   32.535
 5380.00    1.38590   1.37226   32.867
 5381.00    1.37355   1.36411   33.156
 5382.00    1.36707   1.35640   33.267
 5383.00    1.37147   1.35220   33.204
 5384.00    1.38042   1.35452   32.995
 5385.00    1.39424   1.36325   32.688
 5386.00    1.39856   1.37377   32.690
 5387.00    1.39937   1.37983   32.888
 5388.00    1.38935   1.37801   33.257
 5389.00    1.37428   1.36922   33.752
 5390.00    1.37068   1.35694   34.071
 5391.00    1.36991   1.34470   34.179
 5392.00    1.36649   1.33453   34.205
 5393.00    1.35829   1.32679   34.349
 5394.00    1.34625   1.31976   34.657
 5395.00    1.34053   1.31054   35.182
 5396.00    1.32812   1.29885   35.768
 5397.00    1.31686   1.28976   35.503
 5398.00    1.33879   1.29043   34.382
 5399.00    1.37017   1.30289   -1.000
 5400.00    1.37568   1.32049   -1.000
 5401.00    1.36636   1.33288   33.598
 5402.00    1.36449   1.33278   34.038
 5403.00    1.34524   1.31845   35.150
 5404.00    1.31581   1.29495   36.168
 5405.00    1.29847   1.27329   36.464
 5406.00    1.30476   1.26375   35.922
 5407.00    1.33061   1.26807   -1.000
 5408.00    1.34984   1.27865   -1.000
 5409.00    1.33749   1.28712   35.345
 5410.00    1.33593   1.29323   34.968
 5411.00    1.35217   1.30265   34.012
 5412.00    1.37517   1.31755   -1.000
 5413.00    1.38592   1.33329   33.089
 5414.00    1.38281   1.34474   33.133
 5415.00    1.38081   1.35245   33.089
 5416.00    1.38228   1.36019   32.829
 5417.00    1.39192   1.36860   32.698
 5418.00    1.38855   1.37489   32.900
 5419.00    1.38409   1.37678   33.213
 5420.00    1.38603   1.37466   33.328
 5421.00    1.38134   1.37004   33.169
 5422.00    1.38064   1.36352   33.166
 5423.00    1.37804   1.35591   33.644
 5424.00    1.36922   1.35054   33.791
 5425.00    1.37462   1.35161   33.335
 5426.00    1.38582   1.35807   32.900
 5427.00    1.38165   1.36118   33.229
 5428.00    1.35751   1.35266   34.243
 5429.00    1.33605   1.33487   35.128
 5430.00    1.34099   1.31892   34.955
 5431.00    1.35318   1.31275   34.412
 5432.00    1.36027   1.31340   34.556
 5433.00    1.35303   1.31303   35.068
 5434.00    1.33814   1.31004   35.347
 5435.00    1.33715   1.31081   35.050
 5436.00    1.35207   1.32209   34.251
 5437.00    1.37058   1.34377   33.338
 5438.00    1.39510   1.36873   32.709
 5439.00    1.41317   1.38915   32.309
 5440.00    1.41562   1.40202   32.099
 5441.00    1.41769   1.40836   32.072
 5442.00    1.41593   1.40834   32.147
 5443.00    1.40843   1.39932   32.625
 5444.00    1.38365   1.37896   33.640
 5445.00    1.34843   1.35005   35.012
 5446.00    1.32914   1.32217   35.835
 5447.00    1.33005   1.30725   35.265
 5448.00    1.34902   1.31162   34.100
 5449.00    1.38408   1.33098   33.300
 5450.00    1.40555   1.35365   33.100
 5451.00    1.41152   1.36864   33.186
 5452.00    1.40458   1.37028   33.596
 5453.00    1.38198   1.35834   34.461
 5454.00    1.35580   1.33781   35.416
 5455.00    1.33262   1.31893   35.882
 5456.00    1.34354   1.31335   35.100
 5457.00    1.36883   1.32560   33.889
 5458.00    1.40179   1.34808   33.148
 5459.00    1.40694   1.36709   33.142
 5460.00    1.39861   1.37315   33.626
 5461.00    1.39635   1.36599   34.239
 5462.00    1.38334   1.35257   34.626
 5463.00    1.37692   1.34202   34.658
 5464.00    1.37691   1.34036   34.184
 5465.00    1.38691   1.34758   33.844
 5466.00    1.39714   1.35901   33.655
 5467.00    1.40627   1.36966   33.310
 5468.00    1.40718   1.37701   33.291
 5469.00    1.40977   1.38018   33.648
 5470.00    1.40037   1.37894   33.949
 5471.00    1.38737   1.37402   34.062
 5472.00    1.38847   1.36650   34.281
 5473.00    1.38536   1.35628   34.676
 5474.00    1.37290   1.34237   35.235
 5475.00    1.35534   1.32545   35.967
 5476.00    1.33332   1.31033   36.314
 5477.00    1.33372   1.30434   35.736
 5478.00    1.35718   1.31107   34.675
 5479.00    1.37968   1.32584   -1.000
 5480.00    1.39169   1.33904   -1.000
 5481.00    1.38180   1.34555   34.957
 5482.00    1.37078   1.34880   34.726
 5483.00    1.38003   1.35493   34.053
 5484.00    1.39750   1.36504   33.438
 5485.00    1.40173   1.37421   33.315
 5486.00    1.38643   1.37704   33.723
 5487.00    1.37619   1.37328   34.155
 5488.00    1.37552   1.36778   34.286
 5489.00    1.38008   1.36566   34.224
 5490.00    1.38250   1.36817   33.960
 5491.00    1.39774   1.37292   33.740
 5492.00    1.40137   1.37702   33.670
 5493.00    1.39441   1.37917   33.748
 5494.00    1.39891   1.37907   33.750
 5495.00    1.39876   1.37634   33.799
 5496.00    1.38865   1.37107   34.067
 5497.00    1.38041   1.36514   34.211
 5498.00    1.37975   1.36121   33.944
 5499.00    1.39220   1.35958   33.688
 5500.00    1.39278   1.35726   34.077
 5501.00    1.37691   1.35210   34.539
 5502.00    1.37761   1.34644   34.477
 5503.00    1.38738   1.34366   34.213
 5504.00    1.38914   1.34284   34.280
 5505.00    1.38472   1.34036   34.765
 5506.00    1.36926   1.33577   34.947
 5507.00    1.36793   1.33343   34.516
 5508.00    1.38139   1.33716   34.033
 5509.00    1.39980   1.34472   -1.000
 5510.00    1.39437   1.34935   34.357
 5511.00    1.38418   1.34619   35.048
 5512.00    1.37636   1.33671   35.555
 5513.00    1.36237   1.32754   35.684
 5514.00    1.36544   1.32539   35.153
 5515.00    1.38620   1.33246   -1.000
 5516.00    1.40570   1.34618   -1.000
 5517.00    1.42546   1.36221   -1.000
 5518.00    1.43017   1.37687   -1.000
 5519.00    1.43167   1.38768   32.910
 5520.00    1.43410   1.39359   32.972
 5521.00    1.43088   1.39539   33.050
 5522.00    1.43244   1.39472   33.156
 5523.00    1.42663   1.39200   33.239
 5524.00    1.41639   1.38533   33.508
 5525.00    1.40338   1.37231   34.055
 5526.00    1.38409   1.35332   34.892
 5527.00    1.36494   1.33361   35.646
 5528.00    1.35317   1.32169   35.566
 5529.00    1.36609   1.32402   34.680
 5530.00    1.38689   1.33932   33.856
 5531.00    1.39760   1.35824   33.569
 5532.00    1.40238   1.37065   33.734
 5533.00    1.40729   1.37309   34.036
 5534.00    1.40205   1.36941   34.125
 5535.00    1.39531   1.36591   33.948
 5536.00    1.39816   1.36657   33.699
 5537.00    1.40677   1.37114   33.621
 5538.00    1.41726   1.37704   33.425
 5539.00    1.42990   1.38266   33.097
 5540.00    1.42911   1.38762   32.903
 5541.00    1.42684   1.39052   33.014
 5542.00    1.42028   1.38947   33.382
 5543.00    1.40855   1.38509   33.661
 5544.00    1.40791   1.38087   33.686
 5545.00    1.40962   1.38003   33.581
 5546.00    1.41920   1.38310   33.478
 5547.00    1.42891   1.38885   33.227
 5548.00    1.43993   1.39599   32.899
 5549.00    1.44683   1.40285   32.673
 5550.00    1.43794   1.40724   32.670
 5551.00    1.43352   1.40769   32.891
 5552.00    1.43137   1.40440   33.207
 5553.00    1.42737   1.39896   33.548
 5554.00    1.41935   1.39392   33.642
 5555.00    1.42268   1.39150   33.562
 5556.00    1.42319   1.39201   33.463
 5557.00    1.42670   1.39409   33.414
 5558.00    1.42445   1.39633   33.374
 5559.00    1.42116   1.39765   33.363
 5560.00    1.42925   1.39665   33.467
 5561.00    1.42529   1.39231   33.685
 5562.00    1.41744   1.38543   34.020
 5563.00    1.40787   1.37835   34.215
 5564.00    1.39720   1.37284   34.295
 5565.00    1.40172   1.36903   34.356
 5566.00    1.40726   1.36619   34.364
 5567.00    1.40190   1.36381   34.282
 5568.00    1.39939   1.36172   34.249
 5569.00    1.39944   1.35979   34.337
 5570.00    1.39830   1.35774   34.305
 5571.00    1.40355   1.35530   -1.000
 5572.00    1.40090   1.35295   -1.000
 5573.00    1.38872   1.35238   34.167
 5574.00    1.38377   1.35512   33.801
 5575.00    1.36435   1.36062   33.477
 5576.00    1.32983   1.36708   32.952
 5577.00    1.36802   1.37376   32.645
 5578.00    1.47396   1.38057   -1.000
 5579.00    1.54433   1.38627   -1.000
 5580.00    1.53278   1.38922   -1.000
 5581.00    1.39455   1.38927   34.132
 5582.00    1.40810   1.38753   33.830
 5583.00    1.41687   1.38436   33.844
 5584.00    1.41782   1.37771   34.186
 5585.00    1.39555   1.36398   35.026
 5586.00    1.36743   1.34208   35.899
 5587.00    1.33889   1.31725   36.575
 5588.00    1.32920   1.29891   36.644
 5589.00    1.34300   1.29383   -1.000
 5590.00    1.37067   1.30182   -1.000
 5591.00    1.38008   1.31684   -1.000
 5592.00    1.38718   1.33113   -1.000
 5593.00    1.38680   1.34039   -1.000
 5594.00    1.38691   1.34585   34.819
 5595.00    1.39342   1.35076   34.340
 5596.00    1.40569   1.35532   -1.000
 5597.00    1.40476   1.35611   -1.000
 5598.00    1.39220   1.35104   35.233
 5599.00    1.37993   1.34239   35.492
 5600.00    1.37224   1.33388   35.485
 5601.00    1.37153   1.32777   35.705
 5602.00    1.36804   1.32677   35.699
 5603.00    1.37899   1.33487   34.952
 5604.00    1.39738   1.35313   33.999
 5605.00    1.41901   1.37699   33.323
 5606.00    1.43826   1.39911   33.032
 5607.00    1.44361   1.41435   33.015
 5608.00    1.43849   1.42211   33.078
 5609.00    1.43548   1.42496   33.124
 5610.00    1.44552   1.42553   33.065
 5611.00    1.45197   1.42391   33.014
 5612.00    1.44505   1.41687   33.315
 5613.00    1.42385   1.40064   34.161
 5614.00    1.39677   1.37607   35.310
 5615.00    1.37623   1.35142   35.833
 5616.00    1.37129   1.33801   35.309
 5617.00    1.39428   1.34108   -1.000
 5618.00    1.41803   1.35557   -1.000
 5619.00    1.42201   1.37177   -1.000
 5620.00    1.42765   1.38366   33.917
 5621.00    1.43636   1.38967   33.818
 5622.00    1.42718   1.38941   34.113
 5623.00    1.40932   1.38314   34.832
 5624.00    1.39778   1.37409   35.287
 5625.00    1.39948   1.36835   34.957
 5626.00    1.40985   1.37062   34.348
 5627.00    1.42261   1.38035   33.886
 5628.00    1.43028   1.39303   33.534
 5629.00    1.44210   1.40408   33.335
 5630.00    1.44580   1.41115   33.245
 5631.00    1.45424   1.41373   33.144
 5632.00    1.44720   1.41222   33.248
 5633.00    1.44617   1.40775   33.526
 5634.00    1.43860   1.40178   33.755
 5635.00    1.43234   1.39534   33.974
 5636.00    1.43705   1.38931   -1.000
 5637.00    1.42554   1.38469   34.401
 5638.00    1.42042   1.38214   34.373
 5639.00    1.42768   1.38122   34.369
 5640.00    1.42096   1.38078   34.480
 5641.00    1.41671   1.38038   34.451
 5642.00    1.41691   1.38087   34.293
 5643.00    1.41949   1.38299   34.157
 5644.00    1.43398   1.38623   34.071
 5645.00    1.43275   1.38976   33.845
 5646.00    1.42915   1.39295   33.768
 5647.00    1.43193   1.39502   33.688
 5648.00    1.43713   1.39548   33.672
 5649.00    1.44311   1.39497   -1.000
 5650.00    1.44150   1.39494   33.675
 5651.00    1.43950   1.39613   33.421
 5652.00    1.43768   1.39739   33.403
 5653.00    1.43409   1.39643   33.584
 5654.00    1.43399   1.39159   33.880
 5655.00    1.41759   1.38227   34.285
 5656.00    1.40666   1.36872   35.071
 5657.00    1.38214   1.35295   36.080
 5658.00    1.35703   1.33981   36.350
 5659.00    1.37115   1.33468   35.657
 5660.00    1.39409   1.33845   -1.000
 5661.00    1.40258   1.34681   -1.000
 5662.00    1.40240   1.35526   -1.000
 5663.00    1.40758   1.36316   34.486
 5664.00    1.42237   1.37172   -1.000
 5665.00    1.43177   1.38016   -1.000
 5666.00    1.42993   1.38543   34.261
 5667.00    1.42196   1.38621   34.428
 5668.00    1.41196   1.38488   34.423
 5669.00    1.41180   1.38491   34.291
 5670.00    1.41635   1.38791   34.038
 5671.00    1.43502   1.39329   33.724
 5672.00    1.44153   1.39941   33.384
 5673.00    1.44201   1.40470   33.141
 5674.00    1.44153   1.40820   33.208
 5675.00    1.44128   1.40989   33.276
 5676.00    1.43723   1.41053   33.159
 5677.00    1.44594   1.41075   33.166
 5678.00    1.44982   1.40992   33.351
 5679.00    1.43546   1.40647   33.495
 5680.00    1.42608   1.39928   33.746
 5681.00    1.43265   1.38878   34.164
 5682.00    1.42688   1.37741   -1.000
 5683.00    1.41745   1.36898   -1.000
 5684.00    1.41563   1.36616   -1.000
 5685.00    1.40942   1.36791   34.182
 5686.00    1.40902   1.37009   34.433
 5687.00    1.40065   1.36961   34.797
 5688.00    1.40210   1.36795   34.757
 5689.00    1.41341   1.36941   34.258
 5690.00    1.43641   1.37632   -1.000
 5691.00    1.44568   1.38701   -1.000
 5692.00    1.44533   1.39755   -1.000
 5693.00    1.44628   1.40513   33.225
 5694.00    1.44894   1.40920   33.271
 5695.00    1.45162   1.41039   33.310
 5696.00    1.44421   1.40916   33.469
 5697.00    1.43433   1.40548   33.839
 5698.00    1.42535   1.39939   34.215
 5699.00    1.41144   1.39154   34.521
 5700.00    1.40742   1.38369   34.852
 5701.00    1.40890   1.37800   34.887
 5702.00    1.40436   1.37579   34.559
 5703.00    1.40662   1.37670   34.255
 5704.00    1.41470   1.37819   34.277
 5705.00    1.41287   1.37698   34.599
 5706.00    1.39974   1.37089   35.153
 5707.00    1.38320   1.36018   35.800
 5708.00    1.36845   1.34722   36.262
 5709.00    1.36482   1.33589   36.365
 5710.00    1.36197   1.33047   36.182
 5711.00    1.36693   1.33381   35.691
 5712.00    1.39275   1.34568   -1.000
 5713.00    1.41836   1.36292   -1.000
 5714.00    1.43184   1.38064   -1.000
 5715.00    1.43662   1.39443   33.623
 5716.00    1.44381   1.40303   33.543
 5717.00    1.44491   1.40821   33.420
 5718.00    1.44498   1.41254   33.236
 5719.00    1.44974   1.41740   33.030
 5720.00    1.45491   1.42295   32.901
 5721.00    1.44587   1.42844   32.836
 5722.00    1.45634   1.43276   32.791
 5723.00    1.45374   1.43501   32.780
 5724.00    1.44469   1.43457   32.919
 5725.00    1.44342   1.43100   33.236
 5726.00    1.44316   1.42504   33.573
 5727.00    1.44148   1.41909   33.722
 5728.00    1.43777   1.41585   33.486
 5729.00    1.43595   1.41577   33.358
 5730.00    1.43844   1.41696   33.502
 5731.00    1.44015   1.41780   33.608
 5732.00    1.45102   1.41881   33.398
 5733.00    1.45970   1.42170   33.081
 5734.00    1.46488   1.42651   32.944
 5735.00    1.45863   1.43108   33.001
 5736.00    1.45268   1.43327   33.052
 5737.00    1.45420   1.43296   33.142
 5738.00    1.45619   1.43171   33.168
 5739.00    1.45132   1.43080   33.242
 5740.00    1.44733   1.43030   33.294
 5741.00    1.44306   1.42964   33.336
 5742.00    1.43821   1.42892   33.250
 5743.00    1.43988   1.42905   33.175
 5744.00    1.44516   1.43042   32.920
 5745.00    1.45503   1.43182   32.838
 5746.00    1.45149   1.43167   33.093
 5747.00    1.44277   1.42988   33.388
 5748.00    1.43953   1.42826   33.412
 5749.00    1.44670   1.42781   33.204
 5750.00    1.45532   1.42676   33.204
 5751.00    1.45515   1.42215   33.540
 5752.00    1.43543   1.41373   33.944
 5753.00    1.42219   1.40543   34.191
 5754.00    1.42700   1.40263   34.042
 5755.00    1.43381   1.40784   33.516
 5756.00    1.44932   1.41890   32.930
 5757.00    1.46220   1.43022   32.685
 5758.00    1.45983   1.43681   32.901
 5759.00    1.44897   1.43639   33.310
 5760.00    1.43900   1.42982   33.756
 5761.00    1.43240   1.42010   34.151
 5762.00    1.42929   1.41184   34.157
 5763.00    1.43683   1.40965   33.674
 5764.00    1.44596   1.41541   33.097
 5765.00    1.45596   1.42627   32.789
 5766.00    1.46777   1.43696   32.733
 5767.00    1.46980   1.44362   32.698
 5768.00    1.46290   1.44588   32.668
 5769.00    1.46235   1.44540   32.760
 5770.00    1.46569   1.44333   32.889
 5771.00    1.45921   1.43979   33.086
 5772.00    1.44482   1.43490   33.264
 5773.00    1.43062   1.42978   33.322
 5774.00    1.43574   1.42612   33.334
 5775.00    1.43938   1.42499   33.228
 5776.00    1.44123   1.42565   33.084
 5777.00    1.43072   1.42557   33.102
 5778.00    1.40785   1.42160   33.308
 5779.00    1.38518   1.41234   33.900
 5780.00    1.37433   1.39985   34.618
 5781.00    1.37687   1.38839   34.906
 5782.00    1.38815   1.38148   34.776
 5783.00    1.40243   1.38001   34.641
 5784.00    1.42048   1.38229   34.518
 5785.00    1.41712   1.38666   34.329
 5786.00    1.42385   1.39291   33.899
 5787.00    1.44691   1.40101   -1.000
 5788.00    1.44506   1.40900   33.324
 5789.00    1.44525   1.41382   33.416
 5790.00    1.44504   1.41496   33.529
 5791.00    1.44192   1.41528   33.401
 5792.00    1.44562   1.41809   33.115
 5793.00    1.44609   1.42436   32.903
 5794.00    1.44731   1.43194   32.747
 5795.00    1.44129   1.43765   32.795
 5796.00    1.43311   1.43958   33.017
 5797.00    1.43582   1.43833   33.139
 5798.00    1.44368   1.43691   32.878
 5799.00    1.46110   1.43834   32.428
 5800.00    1.47155   1.44288   32.069
 5801.00    1.47064   1.44774   32.114
 5802.00    1.46998   1.44990   32.412
 5803.00    1.47101   1.44807   32.661
 5804.00    1.46297   1.44345   32.902
 5805.00    1.45071   1.43882   32.982
 5806.00    1.44893   1.43659   32.873
 5807.00    1.44838   1.43721   32.753
 5808.00    1.45387   1.43946   32.681
 5809.00    1.46125   1.44207   32.682
 5810.00    1.46672   1.44432   32.624
 5811.00    1.46735   1.44571   32.498
 5812.00    1.46938   1.44547   32.445
 5813.00    1.47898   1.44311   32.575
 5814.00    1.47235   1.43891   32.838
 5815.00    1.46517   1.43432   32.897
 5816.00    1.46895   1.43177   32.684
 5817.00    1.47682   1.43335   32.467
 5818.00    1.48214   1.43867   32.299
 5819.00    1.48021   1.44480   32.153
 5820.00    1.48358   1.44895   32.090
 5821.00    1.48565   1.45067   32.172
 5822.00    1.48152   1.45100   32.250
 5823.00    1.48699   1.45092   32.176
 5824.00    1.48958   1.45087   32.129
 5825.00    1.48957   1.45111   32.074
 5826.00    1.49301   1.45191   32.056
 5827.00    1.48966   1.45327   32.082
 5828.00    1.49393   1.45459   32.122
 5829.00    1.48858   1.45534   32.060
 5830.00    1.48239   1.45536   32.067
 5831.00    1.48811   1.45482   32.041
 5832.00    1.48649   1.45367   32.155
 5833.00    1.48892   1.45188   32.347
 5834.00    1.48765   1.45001   32.340
 5835.00    1.48073   1.44913   32.229
 5836.00    1.48292   1.44988   32.213
 5837.00    1.49445   1.45161   -1.000
 5838.00    1.48621   1.45311   32.353
 5839.00    1.48187   1.45395   32.198
 5840.00    1.48308   1.45473   31.965
 5841.00    1.47658   1.45570   31.849
 5842.00    1.48395   1.45621   31.898
 5843.00    1.48826   1.45541   32.017
 5844.00    1.48064   1.45299   32.164
 5845.00    1.47812   1.44920   32.377
 5846.00    1.47855   1.44482   32.530
 5847.00    1.47795   1.44109   32.645
 5848.00    1.48100   1.43882   32.607
 5849.00    1.47457   1.43718   32.706
 5850.00    1.46792   1.43419   32.910
 5851.00    1.46070   1.42853   33.146
 5852.00    1.45599   1.42090   33.447
 5853.00    1.45083   1.41303   33.561
 5854.00    1.44734   1.40586   33.605
 5855.00    1.44884   1.39815   -1.000
 5856.00    1.44346   1.38860   -1.000
 5857.00    1.43416   1.37899   -1.000
 5858.00    1.44152   1.37423   -1.000
 5859.00    1.45434   1.37820   -1.000
 5860.00    1.46175   1.38888   -1.000
 5861.00    1.46814   1.40071   -1.000
 5862.00    1.46491   1.41001   -1.000
 5863.00    1.46523   1.41589   -1.000
 5864.00    1.47275   1.41864   -1.000
 5865.00    1.46423   1.41830   -1.000
 5866.00    1.45509   1.41570   33.430
 5867.00    1.46090   1.41388   -1.000
 5868.00    1.47535   1.41589   -1.000
 5869.00    1.48055   1.42198   -1.000
 5870.00    1.47877   1.42940   -1.000
 5871.00    1.48492   1.43439   -1.000
 5872.00    1.48052   1.43519   -1.000
 5873.00    1.48019   1.43262   -1.000
 5874.00    1.47454   1.42876   -1.000
 5875.00    1.47454   1.42516   -1.000
 5876.00    1.47458   1.42224   -1.000
 5877.00    1.47084   1.41950   -1.000
 5878.00    1.46971   1.41631   -1.000
 5879.00    1.46967   1.41239   -1.000
 5880.00    1.46165   1.40789   -1.000
 5881.00    1.45363   1.40290   -1.000
 5882.00    1.45308   1.39717   -1.000
 5883.00    1.45484   1.39042   -1.000
 5884.00    1.44420   1.38242   -1.000
 5885.00    1.43551   1.37106   -1.000
 5886.00    1.39989   1.35052   -1.000
 5887.00    1.31126   1.31374   35.956
 5888.00    1.18129   1.26075   38.421
 5889.00    1.09081   1.20530   -1.000
 5890.00    1.10405   1.16902   40.540
 5891.00    1.20573   1.16369   39.141
 5892.00    1.29931   1.18099   -1.000
 5893.00    1.29481   1.19810   -1.000
 5894.00    1.21728   1.20093   38.069
 5895.00    1.14909   1.19271   38.927
 5896.00    1.17603   1.18875   38.398
 5897.00    1.28175   1.20239   -1.000
 5898.00    1.36909   1.23408   -1.000
 5899.00    1.41120   1.27406   -1.000
 5900.00    1.43221   1.31114   -1.000
 5901.00    1.44098   1.34146   -1.000
 5902.00    1.45432   1.36454   -1.000
 5903.00    1.46205   1.38011   -1.000
 5904.00    1.46459   1.38920   -1.000
 5905.00    1.45931   1.39427   -1.000
 5906.00    1.46229   1.39775   -1.000
 5907.00    1.46570   1.40104   -1.000
 5908.00    1.46693   1.40422   -1.000
 5909.00    1.46322   1.40692   -1.000
 5910.00    1.45780   1.40841   -1.000
 5911.00    1.45879   1.40763   -1.000
 5912.00    1.45373   1.40362   -1.000
 5913.00    1.44147   1.39689   -1.000
 5914.00    1.43404   1.38972   -1.000
 5915.00    1.43077   1.38540   -1.000
 5916.00    1.42770   1.38577   34.231
 5917.00    1.42599   1.39029   34.116
 5918.00    1.43315   1.39701   33.982
 5919.00    1.44412   1.40341   33.900
 5920.00    1.45144   1.40762   -1.000
 5921.00    1.44791   1.40923   33.835
 5922.00    1.43685   1.40950   33.825
 5923.00    1.44533   1.40993   33.675
 5924.00    1.45614   1.41163   -1.000
 5925.00    1.45900   1.41421   -1.000
 5926.00    1.46716   1.41593   -1.000
 5927.00    1.46377   1.41477   -1.000
 5928.00    1.46191   1.41028   -1.000
 5929.00    1.45983   1.40465   -1.000
 5930.00    1.45433   1.40140   -1.000
 5931.00    1.45614   1.40221   -1.000
 5932.00    1.45097   1.40546   -1.000
 5933.00    1.45475   1.40839   -1.000
 5934.00    1.46064   1.40989   -1.000
 5935.00    1.45524   1.41159   -1.000
 5936.00    1.45899   1.41481   -1.000
 5937.00    1.46182   1.41837   -1.000
 5938.00    1.45696   1.42005   33.503
 5939.00    1.45183   1.41857   33.710
 5940.00    1.44299   1.41462   34.044
 5941.00    1.44107   1.41066   34.153
 5942.00    1.44141   1.40887   34.062
 5943.00    1.44505   1.40999   33.843
 5944.00    1.45211   1.41268   33.664
 5945.00    1.44932   1.41480   33.597
 5946.00    1.45110   1.41463   33.772
 5947.00    1.44976   1.41205   34.112
 5948.00    1.44675   1.40858   34.406
 5949.00    1.45004   1.40628   -1.000
 5950.00    1.45599   1.40585   -1.000
 5951.00    1.44542   1.40597   34.129
 5952.00    1.44053   1.40545   34.214
 5953.00    1.44563   1.40435   -1.000
 5954.00    1.44568   1.40361   -1.000
 5955.00    1.43966   1.40319   34.160
 5956.00    1.44595   1.40244   -1.000
 5957.00    1.44190   1.40244   34.282
 5958.00    1.44649   1.40516   -1.000
 5959.00    1.45331   1.41077   -1.000
 5960.00    1.47261   1.41767   -1.000
 5961.00    1.47888   1.42348   -1.000
 5962.00    1.47758   1.42659   -1.000
 5963.00    1.46955   1.42684   -1.000
 5964.00    1.46559   1.42489   -1.000
 5965.00    1.45858   1.42200   33.709
 5966.00    1.46052   1.41980   -1.000
 5967.00    1.46418   1.41951   -1.000
 5968.00    1.46059   1.42139   33.401
 5969.00    1.46088   1.42475   33.365
 5970.00    1.46701   1.42841   33.344
 5971.00    1.46995   1.43117   33.271
 5972.00    1.47104   1.43170   -1.000
 5973.00    1.47153   1.42922   -1.000
 5974.00    1.46369   1.42380   -1.000
 5975.00    1.45108   1.41647   34.048
 5976.00    1.43799   1.40951   34.267
 5977.00    1.43170   1.40574   34.331
 5978.00    1.44276   1.40672   34.103
 5979.00    1.45688   1.41141   -1.000
 5980.00    1.45767   1.41645   -1.000
 5981.00    1.45556   1.41822   33.942
 5982.00    1.45356   1.41500   -1.000
 5983.00    1.44543   1.40843   34.514
 5984.00    1.44145   1.40237   -1.000
 5985.00    1.43945   1.40039   34.373
 5986.00    1.44232   1.40326   34.027
 5987.00    1.44804   1.40891   -1.000
 5988.00    1.44580   1.41463   33.751
 5989.00    1.44802   1.41880   33.632
 5990.00    1.45032   1.42144   33.721
 5991.00    1.45589   1.42367   33.736
 5992.00    1.46400   1.42691   33.508
 5993.00    1.46608   1.43108   33.265
 5994.00    1.47122   1.43431   33.279
 5995.00    1.47266   1.43426   -1.000
 5996.00    1.46794   1.43099   33.755
 5997.00    1.45394   1.42692   33.873
 5998.00    1.44700   1.42413   33.902
 5999.00    1.45229   1.42316   33.850
 6000.00    1.45475   1.42265   33.940
 6001.00    1.45193   1.42115   34.140
 6002.00    1.45614   1.41846   -1.000
 6003.00    1.45711   1.41577   -1.000
 6004.00    1.44769   1.41389   34.087
 6005.00    1.44564   1.41180   34.183
 6006.00    1.43785   1.40788   34.482
 6007.00    1.43355   1.40264   34.750
 6008.00    1.42802   1.39958   34.598
 6009.00    1.43117   1.40168   34.168
 6010.00    1.43728   1.40776   33.919
 6011.00    1.44637   1.41374   34.043
 6012.00    1.45040   1.41616   34.309
 6013.00    1.45320   1.41504   -1.000
 6014.00    1.44843   1.41276   34.213
 6015.00    1.44879   1.41077   -1.000
 6016.00    1.45153   1.40941   -1.000
 6017.00    1.45569   1.40797   -1.000
 6018.00    1.44727   1.40572   -1.000
 6019.00    1.43706   1.40253   34.540
 6020.00    1.43849   1.39923   -1.000
 6021.00    1.44206   1.39728   -1.000
 6022.00    1.44014   1.39770   -1.000
 6023.00    1.43334   1.40053   34.231
 6024.00    1.44413   1.40525   -1.000
 6025.00    1.45224   1.41174   -1.000
 6026.00    1.45423   1.41944   33.833
 6027.00    1.45678   1.42682   33.618
 6028.00    1.46128   1.43286   33.509
 6029.00    1.46625   1.43770   33.487
 6030.00    1.46392   1.44128   33.519
 6031.00    1.46422   1.44364   33.571
 6032.00    1.46932   1.44551   33.467
 6033.00    1.47583   1.44748   33.326
 6034.00    1.47028   1.44924   33.269
 6035.00    1.46866   1.45012   33.250
 6036.00    1.46968   1.44971   33.205
 6037.00    1.47594   1.44811   33.295
 6038.00    1.47349   1.44560   33.472
 6039.00    1.46629   1.44247   33.531
 6040.00    1.46257   1.43940   33.600
 6041.00    1.45457   1.43750   33.510
 6042.00    1.45429   1.43767   33.440
 6043.00    1.46257   1.44002   33.226
 6044.00    1.46819   1.44372   33.024
 6045.00    1.46942   1.44772   33.078
 6046.00    1.47790   1.45131   33.062
 6047.00    1.47732   1.45426   33.023
 6048.00    1.46744   1.45656   33.090
 6049.00    1.46857   1.45785   33.204
 6050.00    1.46895   1.45786   33.260
 6051.00    1.46835   1.45658   33.294
 6052.00    1.47319   1.45382   33.382
 6053.00    1.47104   1.44937   33.518
 6054.00    1.46575   1.44375   33.636
 6055.00    1.46113   1.43866   33.814
 6056.00    1.46051   1.43599   33.862
 6057.00    1.46139   1.43665   33.756
 6058.00    1.46086   1.43989   33.565
 6059.00    1.46553   1.44388   33.450
 6060.00    1.46389   1.44644   33.525
 6061.00    1.46309   1.44588   33.704
 6062.00    1.43699   1.44099   34.285
 6063.00    1.24445   1.43197   -1.000
 6064.00    1.20942   1.42179   -1.000
 6065.00    1.40664   1.41524   28.292
 6066.00    0.96817   1.41609   -1.000
 6067.00    0.46090   1.42435   -1.000
 6068.00    0.85214   1.43583   -1.000
 6069.00    1.45159   1.44615   33.341
 6070.00    1.45440   1.45339   32.467
 6071.00    1.39623   1.45752   32.382
 6072.00    0.89605   1.45967   -1.000
 6073.00    0.59932   1.46075   -1.000
 6074.00    1.48203   1.46076   33.236
 6075.00    1.47715   1.45900   33.375
 6076.00    1.46228   1.45483   33.559
 6077.00    1.45912   1.44871   33.770
 6078.00    1.46143   1.44211   34.027
 6079.00    1.46140   1.43659   34.179
 6080.00    1.44149   1.43281   34.179
 6081.00    1.43768   1.43014   34.233
 6082.00    1.44170   1.42778   34.313
 6083.00    1.44141   1.42611   34.291
 6084.00    1.44684   1.42589   34.263
 6085.00    1.44613   1.42750   34.209
 6086.00    1.44597   1.43063   34.092
 6087.00    1.45054   1.43388   34.003
 6088.00    1.45681   1.43550   34.130
 6089.00    1.44729   1.43471   34.335
 6090.00    1.43842   1.43261   34.430
 6091.00    1.44082   1.43113   34.343
 6092.00    1.44462   1.43166   34.113
 6093.00    1.44760   1.43451   33.946
 6094.00    1.45220   1.43877   33.761
 6095.00    1.44912   1.44326   33.661
 6096.00    1.46059   1.44692   33.709
 6097.00    1.45736   1.44897   33.783
 6098.00    1.44664   1.44798   33.792
 6099.00    1.44905   1.44183   33.894
 6100.00    1.43814   1.42890   34.455
 6101.00    1.41899   1.41077   35.274
 6102.00    1.40524   1.39397   35.591
 6103.00    1.40846   1.38620   35.139
 6104.00    1.42627   1.39093   -1.000
 6105.00    1.44245   1.40452   -1.000
 6106.00    1.44205   1.41954   34.057
 6107.00    1.43991   1.43156   34.198
 6108.00    1.44146   1.43974   34.248
 6109.00    1.44561   1.44480   34.209
 6110.00    1.44754   1.44767   34.110
 6111.00    1.44895   1.44909   33.988
 6112.00    1.45108   1.45024   33.954
 6113.00    1.44469   1.45191   33.776
 6114.00    1.44011   1.45358   33.763
 6115.00    1.44525   1.45434   33.939
 6116.00    1.45065   1.45347   34.127
 6117.00    1.44230   1.45036   34.183
 6118.00    1.43917   1.44389   34.449
 6119.00    1.43182   1.43210   34.973
 6120.00    1.41524   1.41501   35.385
 6121.00    1.40177   1.39657   35.632
 6122.00    1.40072   1.38315   35.472
 6123.00    1.40792   1.38017   34.865
 6124.00    1.42067   1.38750   -1.000
 6125.00    1.43031   1.40028   34.637
 6126.00    1.43046   1.41285   34.795
 6127.00    1.42704   1.42209   34.712
 6128.00    1.42828   1.42881   34.584
 6129.00    1.43507   1.43517   34.266
 6130.00    1.43411   1.44244   34.005
 6131.00    1.44140   1.44916   33.997
 6132.00    1.44884   1.45196   34.139
 6133.00    1.43356   1.44719   34.604
 6134.00    1.41180   1.43252   35.499
 6135.00    1.38851   1.40952   36.536
 6136.00    1.36902   1.38551   37.227
 6137.00    1.36282   1.36930   36.978
 6138.00    1.37085   1.36515   35.920
 6139.00    1.39160   1.37085   35.061
 6140.00    1.40762   1.38088   34.854
 6141.00    1.40703   1.39302   34.955
 6142.00    1.40779   1.40734   34.900
 6143.00    1.41944   1.42178   34.486
 6144.00    1.42532   1.43329   34.163
 6145.00    1.43366   1.43940   34.205
 6146.00    1.44174   1.43985   34.396
 6147.00    1.42866   1.43627   34.627
 6148.00    1.41797   1.43048   34.869
 6149.00    1.41851   1.42457   35.015
 6150.00    1.41619   1.42084   34.962
 6151.00    1.42520   1.42047   34.792
 6152.00    1.43325   1.42254   34.588
 6153.00    1.42809   1.42422   34.656
 6154.00    1.43894   1.42308   34.957
 6155.00    1.43450   1.41974   35.078
 6156.00    1.42472   1.41590   35.119
 6157.00    1.41936   1.41118   35.340
 6158.00    1.41239   1.40224   35.816
 6159.00    1.39498   1.38526   36.635
 6160.00    1.37037   1.35977   37.781
 6161.00    1.34462   1.33129   38.679
 6162.00    1.33579   1.30961   38.724
 6163.00    1.34208   1.30221   -1.000
 6164.00    1.36042   1.30970   -1.000
 6165.00    1.36906   1.32517   -1.000
 6166.00    1.37656   1.33948   -1.000
 6167.00    1.36831   1.34648   36.715
 6168.00    1.35720   1.34610   37.209
 6169.00    1.34684   1.34371   37.398
 6170.00    1.35168   1.34590   36.934
 6171.00    1.37103   1.35544   36.227
 6172.00    1.38163   1.36898   35.890
 6173.00    1.38766   1.38203   35.981
 6174.00    1.39961   1.39194   35.969
 6175.00    1.40205   1.39839   35.873
 6176.00    1.39525   1.40253   35.802
 6177.00    1.39994   1.40578   35.680
 6178.00    1.41076   1.40898   35.506
 6179.00    1.40270   1.41227   35.389
 6180.00    1.40251   1.41584   35.263
 6181.00    1.40700   1.41973   35.112
 6182.00    1.41038   1.42308   35.074
 6183.00    1.41161   1.42438   35.176
 6184.00    1.41169   1.42257   35.345
 6185.00    1.40405   1.41782   35.674
 6186.00    1.40012   1.41112   36.070
 6187.00    1.39753   1.40325   36.430
 6188.00    1.38539   1.39412   36.752
 6189.00    1.37745   1.38335   37.064
 6190.00    1.36988   1.37258   37.517
 6191.00    1.35576   1.36585   37.547
 6192.00    1.36362   1.36701   36.918
 6193.00    1.38449   1.37621   36.032
 6194.00    1.39549   1.38892   35.586
 6195.00    1.39962   1.40044   35.447
 6196.00    1.40047   1.40828   35.482
 6197.00    1.39666   1.41123   35.795
 6198.00    1.39429   1.40984   36.198
 6199.00    1.38739   1.40645   36.388
 6200.00    1.37679   1.40427   36.228
 6201.00    1.37511   1.40572   35.801
 6202.00    1.38914   1.41078   35.438
 6203.00    1.40087   1.41748   35.410
 6204.00    1.40531   1.42380   35.401
 6205.00    1.41489   1.42857   35.347
 6206.00    1.41565   1.43158   35.392
 6207.00    1.41557   1.43299   35.509
 6208.00    1.41433   1.43250   35.526
 6209.00    1.40481   1.42924   35.752
 6210.00    1.39761   1.42231   36.086
 6211.00    1.39447   1.41177   36.377
 6212.00    1.39089   1.39914   36.797
 6213.00    1.37699   1.38716   37.334
 6214.00    1.36892   1.37850   37.608
 6215.00    1.37143   1.37410   37.520
 6216.00    1.37618   1.37253   37.041
 6217.00    1.38612   1.37170   37.034
 6218.00    1.38849   1.37064   37.256
 6219.00    1.37500   1.37033   37.020
 6220.00    1.37486   1.37236   36.870
 6221.00    1.38422   1.37672   37.796
 6222.00    1.39101   1.38195   39.860
 6223.00    1.36190   1.38608   37.847
 6224.00    1.21581   1.38847   -1.000
 6225.00    1.30682   1.38915   36.674
 6226.00    1.41848   1.38727   36.726
 6227.00    1.38869   1.38159   37.037
 6228.00    1.37949   1.37139   37.605
 6229.00    1.36525   1.35846   38.202
 6230.00    1.35240   1.34731   38.499
 6231.00    1.35107   1.34281   38.156
 6232.00    1.36004   1.34704   37.526
 6233.00    1.37806   1.35764   36.826
 6234.00    1.39586   1.36978   36.354
 6235.00    1.40295   1.37864   36.342
 6236.00    1.39426   1.38199   36.661
 6237.00    1.38113   1.38040   37.042
 6238.00    1.37355   1.37615   37.422
 6239.00    1.36859   1.37155   37.761
 6240.00    1.37046   1.36737   37.842
 6241.00    1.36604   1.36304   37.889
 6242.00    1.35719   1.35766   38.198
 6243.00    1.35219   1.35114   38.368
 6244.00    1.34937   1.34489   38.254
 6245.00    1.35824   1.34183   37.953
 6246.00    1.37405   1.34437   37.536
 6247.00    1.38030   1.35300   37.069
 6248.00    1.38396   1.36457   36.786
 6249.00    1.39279   1.37354   36.885
 6250.00    1.38172   1.37527   37.355
 6251.00    1.36109   1.36900   38.024
 6252.00    1.35446   1.35831   38.405
 6253.00    1.34632   1.34807   38.608
 6254.00    1.34395   1.34161   38.668
 6255.00    1.34241   1.33885   38.736
 6256.00    1.33709   1.33819   39.132
 6257.00    1.33539   1.33862   39.338
 6258.00    1.33980   1.34081   39.001
 6259.00    1.34957   1.34619   38.375
 6260.00    1.36697   1.35516   37.819
 6261.00    1.38194   1.36636   37.292
 6262.00    1.38395   1.37706   36.807
 6263.00    1.37876   1.38506   36.791
 6264.00    1.38223   1.38978   37.119
 6265.00    1.38645   1.39264   37.245
 6266.00    1.37212   1.39515   37.008
 6267.00    1.37095   1.39715   36.836
 6268.00    1.37559   1.39774   37.026
 6269.00    1.37300   1.39679   37.152
 6270.00    1.38045   1.39557   37.057
 6271.00    1.38369   1.39524   36.935
 6272.00    1.38041   1.39469   36.901
 6273.00    1.37870   1.39149   37.062
 6274.00    1.37288   1.38366   37.356
 6275.00    1.35383   1.37176   37.735
 6276.00    1.32985   1.35875   38.465
 6277.00    1.31088   1.34753   39.406
 6278.00    1.30141   1.34034   39.962
 6279.00    1.29073   1.33814   40.063
 6280.00    1.28572   1.34116   39.747
 6281.00    1.29461   1.34930   39.060
 6282.00    1.29859   1.36093   38.404
 6283.00    1.29996   1.37361   37.853
 6284.00    1.31206   1.38506   37.447
 6285.00    1.33396   1.39378   37.143
 6286.00    1.35556   1.39952   36.819
 6287.00    1.36511   1.40225   36.619
 6288.00    1.37749   1.40221   36.634
 6289.00    1.37803   1.39990   36.886
 6290.00    1.37726   1.39636   37.199
 6291.00    1.37197   1.39310   37.418
 6292.00    1.36858   1.39087   37.461
 6293.00    1.37196   1.38931   37.508
 6294.00    1.36894   1.38721   37.636
 6295.00    1.36160   1.38341   37.940
 6296.00    1.34543   1.37798   38.133
 6297.00    1.33529   1.37225   38.142
 6298.00    1.33160   1.36772   38.048
 6299.00    1.33017   1.36443   37.876
 6300.00    1.32621   1.36191   37.834
 6301.00    1.32658   1.36117   38.236
 6302.00    1.33765   1.36428   38.482
 6303.00    1.35993   1.37227   38.007
 6304.00    1.37892   1.38339   37.420
 6305.00    1.37986   1.39426   37.014
 6306.00    1.38381   1.40252   36.704
 6307.00    1.38831   1.40758   36.437
 6308.00    1.39304   1.40995   36.463
 6309.00    1.37908   1.41039   36.665
 6310.00    1.38426   1.40966   36.894
 6311.00    1.38617   1.40771   37.026
 6312.00    1.38470   1.40408   37.151
 6313.00    1.37618   1.39885   37.252
 6314.00    1.37100   1.39251   37.577
 6315.00    1.36332   1.38621   37.644
 6316.00    1.35261   1.38115   37.603
 6317.00    1.35180   1.37860   37.591
 6318.00    1.36504   1.37985   37.603
 6319.00    1.37265   1.38508   37.362
 6320.00    1.37549   1.39287   36.904
 6321.00    1.37972   1.40114   36.611
 6322.00    1.38209   1.40861   36.495
 6323.00    1.39192   1.41533   36.352
 6324.00    1.39954   1.42129   36.169
 6325.00    1.39764   1.42548   36.089
 6326.00    1.39813   1.42756   36.035
 6327.00    1.40199   1.42811   35.892
 6328.00    1.40440   1.42811   35.948
 6329.00    1.39352   1.42844   35.969
 6330.00    1.39595   1.42919   35.954
 6331.00    1.40344   1.42947   35.826
 6332.00    1.41104   1.42754   35.816
 6333.00    1.39917   1.42177   35.926
 6334.00    1.38218   1.41253   36.205
 6335.00    1.37417   1.40303   36.932
 6336.00    1.38111   1.39714   36.831
 6337.00    1.37722   1.39717   36.477
 6338.00    1.38580   1.40272   36.094
 6339.00    1.39519   1.41111   35.751
 6340.00    1.39451   1.41928   35.597
 6341.00    1.40214   1.42464   35.472
 6342.00    1.39653   1.42584   35.594
 6343.00    1.38969   1.42381   35.874
 6344.00    1.39370   1.42092   35.858
 6345.00    1.40078   1.41979   35.723
 6346.00    1.39841   1.42209   35.507
 6347.00    1.39986   1.42775   35.282
 6348.00    1.40457   1.43522   35.196
 6349.00    1.41004   1.44205   35.193
 6350.00    1.40952   1.44612   35.135
 6351.00    1.40753   1.44657   35.210
 6352.00    1.40125   1.44362   35.374
 6353.00    1.39367   1.43828   35.599
 6354.00    1.38771   1.43215   36.008
 6355.00    1.38655   1.42644   36.231
 6356.00    1.37948   1.42147   36.244
 6357.00    1.38151   1.41686   36.440
 6358.00    1.37870   1.41225   36.818
 6359.00    1.36716   1.40789   36.870
 6360.00    1.37467   1.40412   36.705
 6361.00    1.38159   1.40109   36.614
 6362.00    1.37408   1.39944   36.563
 6363.00    1.36377   1.40005   36.397
 6364.00    1.37711   1.40318   36.149
 6365.00    1.39316   1.40831   35.930
 6366.00    1.39456   1.41423   35.731
 6367.00    1.39665   1.41947   35.497
 6368.00    1.40170   1.42295   35.297
 6369.00    1.40177   1.42471   35.248
 6370.00    1.39749   1.42606   35.245
 6371.00    1.39968   1.42851   35.107
 6372.00    1.40016   1.43229   35.027
 6373.00    1.39635   1.43617   35.123
 6374.00    1.39319   1.43854   35.155
 6375.00    1.38946   1.43842   35.251
 6376.00    1.38457   1.43606   35.398
 6377.00    1.38916   1.43229   35.598
 6378.00    1.38566   1.42802   35.820
 6379.00    1.38369   1.42392   35.917
 6380.00    1.38057   1.42034   35.944
 6381.00    1.37270   1.41761   35.999
 6382.00    1.36498   1.41622   35.959
 6383.00    1.37068   1.41661   35.923
 6384.00    1.37120   1.41880   36.093
 6385.00    1.36380   1.42204   36.137
 6386.00    1.36069   1.42515   36.134
 6387.00    1.35479   1.42705   36.258
 6388.00    1.35474   1.42731   36.421
 6389.00    1.35373   1.42566   36.735
 6390.00    1.34566   1.42152   37.055
 6391.00    1.33050   1.41498   37.527
 6392.00    1.31732   1.40784   38.048
 6393.00    1.30499   1.40364   38.236
 6394.00    1.29959   1.40470   37.968
 6395.00    1.31128   1.40998   37.494
 6396.00    1.31096   1.41509   37.548
 6397.00    1.31428   1.41550   37.887
 6398.00    1.29960   1.41059   38.564
 6399.00    1.27335   1.40389   39.323
 6400.00    1.25841   1.40099   -1.000
 6401.00    1.26286   1.40499   -1.000
 6402.00    1.28015   1.41455   38.344
 6403.00    1.28094   1.42516   -1.000
 6404.00    1.27752   1.43211   -1.000
 6405.00    1.26853   1.43334   -1.000
 6406.00    1.25804   1.42997   -1.000
 6407.00    1.24616   1.42535   -1.000
 6408.00    1.24480   1.42195   -1.000
 6409.00    1.23940   1.42016   -1.000
 6410.00    1.22198   1.41917   -1.000
 6411.00    1.20602   1.41878   -1.000
 6412.00    1.19308   1.41979   -1.000
 6413.00    1.19373   1.42231   -1.000
 6414.00    1.19634   1.42538   -1.000
 6415.00    1.19321   1.42782   -1.000
 6416.00    1.19272   1.42865   -1.000
 6417.00    1.18259   1.42697   -1.000
 6418.00    1.16414   1.42234   -1.000
 6419.00    1.14681   1.41596   -1.000
 6420.00    1.12669   1.41136   -1.000
 6421.00    1.11745   1.41192   -1.000
 6422.00    1.10924   1.41844   -1.000
 6423.00    1.11140   1.42895   -1.000
 6424.00    1.12183   1.43961   -1.000
 6425.00    1.11745   1.44774   -1.000
 6426.00    1.09733   1.45178   -1.000
 6427.00    1.08211   1.45043   -1.000
 6428.00    1.07773   1.44360   -1.000
