###################################################################
## OUTPUT of StarlightChains_v04.for    [Cid@UFSC - 01/Apr/2007] ##
###################################################################

## Some input info
NGC6171_a_1.cxt                          [arq_obs]
Base.BC03.N                              [arq_base]
NGC6171_a_1.msk                          [arq_masks]
StCv04.C99.config                        [arq_config]
   45                                    [N_base]
    0                                    [N_YAV_components = # of components with extra extinction!]
    0                                    [i_FitPowerLaw (1/0 = Yes/No)]
-9.99                                    [alpha_PowerLaw]
CCM                                      [red_law_option]
 1.458241                                [q_norm = A(l_norm)/A(V)]

## (Re)Sampling Parameters
 3359.00                                 [l_ini (A)]
 6428.00                                 [l_fin (A)]
    1.00                                 [dl    (A)]     (OBS: dl_cushion =    50.00 A)

## Normalization info
 4020.00                                 [l_norm (A) - for base]
 4010.00                                 [llow_norm (A) - window for f_obs]
 4060.00                                 [lupp_norm (A) - window for f_obs]
4.369149E-15                             [fobs_norm (in input units)]

## S/N
 4730.00                                 [llow_SN (A) - window for S/N]
 4780.00                                 [lupp_SN (A) - window for S/N]
  52.314                                 [S/N in S/N window]
  35.378                                 [S/N in norm. window]
 244.302                                 [S/N_err in S/N window]
 165.214                                 [S/N_err in norm. window]
  1.0000                                 [fscale_chi2]

## etc...
  2147483627                             [idum_orig]
  3069                                   [NOl_eff]
   720                                   [Nl_eff]
  2349    NSIGMA                         [Ntot_cliped & clip_method]
  1998640                                [Nglobal_steps]
   7                                     [N_chains]
  11                                     [NEX0s_base = N_base in EX0s-fits]
 0   0   1      258   2.0   3.468E+02    [Clip-Bug, RC-Crash & Burn-In warning-flags, n_censored_weights, wei_nsig_threshold & wei_limit]
    25     25.006     25.006      0.000  [idt_all, wdt_TotTime, wdt_UsrTime & wdt_SysTime (sec)]

## Synthesis Results - Best model ##

 2.70951E+00                             [chi2/Nl_eff]
     1.15513                             [adev (%)]

   100.92538                             [sum-of-x (%)]
 3.20332E-14                             [Flux_tot (units of input spectrum!)]
 5.14788E-10                             [Mini_tot (???)]
 2.70206E-10                             [Mcor_tot (???)]

 -10.96                                  [v0_min  (km/s)]
  50.53                                  [vd_min  (km/s)]
 1.4764                                  [AV_min  (mag)]
 0.0000                                  [YAV_min (mag)]

# j     x_j(%)      Mini_j(%)     Mcor_j(%)     age_j(yr)     Z_j      (L/M)_j    YAV?  Mstars   component_j        a/Fe...       SSP_chi2r SSP_adev(%)   SSP_AV   SSP_x(%)
  1      4.6367     2.5662E-02    4.8891E-02    1.000000E+06  0.00400  1.114E-02    0   1.0000   age020_m42            0.0000     1.9718E+03    22.2681   4.0000    95.2224
  2      4.4931     6.8014E-03    1.2957E-02    3.160000E+06  0.00400  4.073E-02    0   0.9999   age045_m42            0.0000     1.9749E+02     6.2573   3.8360    95.6490
  3      4.4114     1.0733E-02    1.9402E-02    5.010000E+06  0.00400  2.534E-02    0   0.9488   age055_m42            0.0000     3.8021E+02    10.6573   4.0000    94.5361
  4      3.3517     1.6259E-02    2.7451E-02    1.000000E+07  0.00400  1.271E-02    0   0.8862   age070_m42            0.0000     2.7391E+02     8.3338   3.4345    94.0688
  5      0.0000     0.0000E+00    0.0000E+00    2.512000E+07  0.00400  5.070E-03    0   0.8174   age090_m42            0.0000     2.2977E+02     7.5821   3.3089    95.6868
  6      0.0000     0.0000E+00    0.0000E+00    4.000000E+07  0.00400  3.505E-03    0   0.7851   age104_m42            0.0000     1.6092E+02     5.8881   3.0037    98.4324
  7      0.0000     0.0000E+00    0.0000E+00    1.015200E+08  0.00400  2.268E-03    0   0.7207   age116_m42            0.0000     7.7144E+02    11.2853   3.0700   105.1674
  8      0.0000     0.0000E+00    0.0000E+00    2.861200E+08  0.00400  1.079E-03    0   0.6613   age125_m42            0.0000     8.3846E+02    12.1137   2.5831   106.9440
  9      0.0000     0.0000E+00    0.0000E+00    6.405400E+08  0.00400  5.077E-04    0   0.6197   age132_m42            0.0000     8.8874E+02    12.7684   2.2268   110.7494
 10      1.1180     1.9499E-01    2.2379E-01    9.047900E+08  0.00400  3.535E-04    0   0.6024   age135_m42            0.0000     6.2742E+02    10.9104   1.9792   110.3360
 11      0.0000     0.0000E+00    0.0000E+00    1.434000E+09  0.00400  1.910E-04    0   0.5716   age139_m42            0.0000     3.5906E+02     8.7712   1.4485   109.5662
 12     38.5313     2.4197E+01    2.5184E+01    2.500000E+09  0.00400  9.818E-05    0   0.5463   age150_m42            0.0000     1.5031E+02     6.1662   1.1543   105.6888
 13     32.7956     4.2858E+01    4.2687E+01    5.000000E+09  0.00400  4.718E-05    0   0.5228   age161_m42            0.0000     1.0031E+02     5.2186   0.9793   102.8288
 14      0.0000     0.0000E+00    0.0000E+00    1.100000E+10  0.00400  2.205E-05    0   0.4980   age185_m42            0.0000     1.8645E+02     6.5536   0.7179   100.9386
 15      0.0000     0.0000E+00    0.0000E+00    1.300000E+10  0.00400  1.883E-05    0   0.4927   age193_m42            0.0000     2.0074E+02     6.7635   0.6996   100.8703
 16      5.2100     1.6150E-02    3.0769E-02    1.000000E+06  0.02000  1.989E-02    0   1.0000   age020_m62            0.0000     1.8314E+03    21.4312   4.0000    95.5926
 17      0.0000     0.0000E+00    0.0000E+00    3.160000E+06  0.02000  3.772E-02    0   0.9858   age045_m62            0.0000     1.3358E+03    18.9245   4.0000    96.1865
 18      0.0000     0.0000E+00    0.0000E+00    5.010000E+06  0.02000  3.227E-02    0   0.9342   age055_m62            0.0000     2.6040E+02     7.9625   4.0000    94.5634
 19      0.0000     0.0000E+00    0.0000E+00    1.000000E+07  0.02000  1.011E-02    0   0.8751   age070_m62            0.0000     5.3114E+02    12.3929   3.4701    91.2491
 20      0.0000     0.0000E+00    0.0000E+00    2.512000E+07  0.02000  4.206E-03    0   0.8099   age090_m62            0.0000     3.4661E+02    10.1926   3.3984    92.0798
 21      0.0000     0.0000E+00    0.0000E+00    4.000000E+07  0.02000  3.373E-03    0   0.7799   age104_m62            0.0000     2.1769E+02     5.9905   3.2431    99.5279
 22      0.0000     0.0000E+00    0.0000E+00    1.015200E+08  0.02000  1.878E-03    0   0.7221   age116_m62            0.0000     6.7441E+02    10.4624   3.0930   106.0147
 23      0.0000     0.0000E+00    0.0000E+00    2.861200E+08  0.02000  8.869E-04    0   0.6700   age125_m62            0.0000     1.2707E+03    14.8857   2.6091   111.6981
 24      0.0000     0.0000E+00    0.0000E+00    6.405400E+08  0.02000  3.657E-04    0   0.6322   age132_m62            0.0000     9.2896E+02    13.4645   1.9216   115.1694
 25      0.0000     0.0000E+00    0.0000E+00    9.047900E+08  0.02000  2.312E-04    0   0.6152   age135_m62            0.0000     5.9040E+02    11.0631   1.5402   114.5560
 26      0.0000     0.0000E+00    0.0000E+00    1.434000E+09  0.02000  1.168E-04    0   0.5865   age139_m62            0.0000     2.5230E+02     7.6198   1.1140   109.6138
 27      0.0000     0.0000E+00    0.0000E+00    2.500000E+09  0.02000  5.505E-05    0   0.5610   age150_m62            0.0000     2.4766E+02     7.7616   0.7408   107.1313
 28      0.9028     2.1441E+00    2.1866E+00    5.000000E+09  0.02000  2.596E-05    0   0.5353   age161_m62            0.0000     4.4840E+02    10.0320   0.4077   107.4195
 29      3.9540     2.0854E+01    2.0275E+01    1.100000E+10  0.02000  1.169E-05    0   0.5103   age185_m62            0.0000     7.5137E+02    12.6169   0.0485   109.0987
 30      1.5209     9.6765E+00    9.3043E+00    1.300000E+10  0.02000  9.691E-06    0   0.5047   age193_m62            0.0000     8.1171E+02    13.0589   0.0032   109.3880
 31      0.0000     0.0000E+00    0.0000E+00    1.000000E+06  0.05000  2.651E-02    0   0.9998   age020_m72            0.0000     1.8001E+03    21.0075   4.0000    96.5866
 32      0.0000     0.0000E+00    0.0000E+00    3.160000E+06  0.05000  4.817E-02    0   0.9577   age045_m72            0.0000     8.4916E+02    15.0989   4.0000    97.3413
 33      0.0000     0.0000E+00    0.0000E+00    5.010000E+06  0.05000  3.101E-02    0   0.9147   age055_m72            0.0000     3.2645E+02     9.7677   4.0000    93.7455
 34      0.0000     0.0000E+00    0.0000E+00    1.000000E+07  0.05000  8.954E-03    0   0.8524   age070_m72            0.0000     5.9554E+02    12.7254   4.0000    96.8926
 35      0.0000     0.0000E+00    0.0000E+00    2.512000E+07  0.05000  4.207E-03    0   0.7902   age090_m72            0.0000     1.8798E+02     6.2351   3.9283    95.3121
 36      0.0000     0.0000E+00    0.0000E+00    4.000000E+07  0.05000  3.198E-03    0   0.7618   age104_m72            0.0000     4.3667E+02     8.3642   3.4738   102.0407
 37      0.0000     0.0000E+00    0.0000E+00    1.015200E+08  0.05000  1.716E-03    0   0.7092   age116_m72            0.0000     7.9655E+02    11.4697   3.2154   105.6653
 38      0.0000     0.0000E+00    0.0000E+00    2.861200E+08  0.05000  7.047E-04    0   0.6618   age125_m72            0.0000     1.2380E+03    14.9093   2.4241   111.9200
 39      0.0000     0.0000E+00    0.0000E+00    6.405400E+08  0.05000  2.633E-04    0   0.6253   age132_m72            0.0000     7.5670E+02    12.4276   1.5611   114.5250
 40      0.0000     0.0000E+00    0.0000E+00    9.047900E+08  0.05000  1.484E-04    0   0.6088   age135_m72            0.0000     4.0738E+02     9.7682   1.0609   110.2109
 41      0.0000     0.0000E+00    0.0000E+00    1.434000E+09  0.05000  7.827E-05    0   0.5847   age139_m72            0.0000     3.8614E+02     9.6971   0.6684   107.2862
 42      0.0000     0.0000E+00    0.0000E+00    2.500000E+09  0.05000  3.759E-05    0   0.5583   age150_m72            0.0000     5.1668E+02    10.7840   0.3444   106.9728
 43      0.0000     0.0000E+00    0.0000E+00    5.000000E+09  0.05000  1.548E-05    0   0.5320   age161_m72            0.0000     8.1280E+02    12.8947  -0.0350   106.6315
 44      0.0000     0.0000E+00    0.0000E+00    1.100000E+10  0.05000  6.532E-06    0   0.5070   age185_m72            0.0000     1.2448E+03    15.5998  -0.4028   106.4806
 45      0.0000     0.0000E+00    0.0000E+00    1.300000E+10  0.05000  5.316E-06    0   0.5018   age193_m72            0.0000     1.4347E+03    16.7069  -0.5166   106.5403


## Synthesis Results - Average & Chains ##

# j      x_j: min, <> & last-chain-values for 1 ...  7 chains
  1      4.6367      4.7372      4.8303      4.8562      4.7196      4.6972      4.6933      4.7229      4.8496
  2      4.4931      3.8941      4.0450      3.8865      3.9128      3.9379      3.9356      4.2443      3.8857
  3      4.4114      4.4689      4.4604      4.4021      4.5270      4.3688      4.5780      4.4934      4.4741
  4      3.3517      3.5386      3.5440      3.4944      3.5549      3.5728      3.5565      3.5643      3.6593
  5      0.0000      0.0920      0.1390      0.0157      0.2185      0.0000      0.0000      0.0000      0.0000
  6      0.0000      0.0364      0.0000      0.0000      0.0237      0.0000      0.0374      0.0000      0.0000
  7      0.0000      0.0154      0.0149      0.0000      0.0000      0.0000      0.0000      0.0000      0.0000
  8      0.0000      0.0227      0.0354      0.0000      0.0000      0.0303      0.0000      0.0000      0.0000
  9      0.0000      0.1205      0.0191      0.1162      0.1166      0.1753      0.2582      0.1544      0.0916
 10      1.1180      0.3925      0.8965      0.5149      0.4326      0.5789      0.5466      0.5073      0.3600
 11      0.0000      0.1740      0.0000      0.4783      0.2607      0.1114      0.0339      0.0191      0.1423
 12     38.5313     38.9810     39.1930     39.0774     38.9797     39.0468     39.1777     39.3952     39.5626
 13     32.7956     31.7379     31.6597     31.6834     32.1723     31.7428     31.7702     31.3484     32.1106
 14      0.0000      0.0890      0.0563      0.0094      0.0271      0.0000      0.1368      0.1107      0.0185
 15      0.0000      0.0600      0.0000      0.0000      0.1980      0.0000      0.0000      0.1192      0.0000
 16      5.2100      4.1156      4.2110      4.2744      4.0605      4.2400      4.0643      4.2796      4.1843
 17      0.0000      0.7704      0.7303      0.6924      0.8512      0.6915      0.7513      0.6785      0.7790
 18      0.0000      0.0586      0.0000      0.1565      0.0077      0.2119      0.0803      0.0476      0.1131
 19      0.0000      0.0739      0.0304      0.0000      0.0000      0.0000      0.0000      0.0029      0.0000
 20      0.0000      0.0253      0.0000      0.0177      0.0000      0.0065      0.0000      0.0000      0.0000
 21      0.0000      0.0219      0.0000      0.0000      0.0000      0.0000      0.0000      0.0000      0.0114
 22      0.0000      0.0170      0.0000      0.0000      0.0175      0.0000      0.0000      0.0000      0.0000
 23      0.0000      0.0182      0.0000      0.0000      0.0000      0.0000      0.0106      0.0145      0.0000
 24      0.0000      0.0352      0.0000      0.0050      0.0179      0.0665      0.0000      0.0000      0.0568
 25      0.0000      0.0439      0.0000      0.0000      0.0000      0.0653      0.0000      0.0000      0.0477
 26      0.0000      0.0621      0.0000      0.0000      0.0000      0.0000      0.0800      0.0000      0.0000
 27      0.0000      0.0722      0.0674      0.0000      0.0000      0.0423      0.0000      0.1173      0.0000
 28      0.9028      0.8964      0.8619      1.0555      0.8014      0.8776      0.9252      0.9296      0.7835
 29      3.9540      4.0846      4.1427      4.1304      4.1127      4.0193      3.9465      4.0748      4.0558
 30      1.5209      1.8590      1.7718      1.7180      1.6509      1.9556      1.9951      1.7238      1.6885
 31      0.0000      0.0244      0.0000      0.0000      0.0000      0.1103      0.0000      0.0796      0.0000
 32      0.0000      0.0276      0.0000      0.0000      0.0000      0.0000      0.1448      0.0179      0.0000
 33      0.0000      0.1547      0.1096      0.1294      0.1219      0.2832      0.2842      0.1052      0.0756
 34      0.0000      0.0364      0.0000      0.1160      0.1516      0.0000      0.0000      0.0000      0.0000
 35      0.0000      0.0499      0.1513      0.0000      0.0000      0.0717      0.0000      0.0000      0.0000
 36      0.0000      0.0237      0.0224      0.0000      0.0000      0.0000      0.0000      0.0340      0.0000
 37      0.0000      0.0217      0.0000      0.0000      0.0000      0.0000      0.0000      0.0000      0.0000
 38      0.0000      0.0160      0.0000      0.0538      0.0000      0.0000      0.0000      0.0000      0.0000
 39      0.0000      0.0230      0.0000      0.0000      0.0000      0.0203      0.0000      0.0000      0.0000
 40      0.0000      0.0374      0.0000      0.0000      0.0028      0.0000      0.0000      0.0421      0.0000
 41      0.0000      0.0259      0.0000      0.0310      0.0000      0.0000      0.0000      0.0000      0.0000
 42      0.0000      0.0227      0.0000      0.0683      0.0000      0.0000      0.0000      0.1333      0.0000
 43      0.0000      0.0129      0.0000      0.0000      0.0000      0.0000      0.0000      0.0000      0.0000
 44      0.0000      0.0069      0.0000      0.0000      0.0000      0.0779      0.0000      0.0000      0.0000
 45      0.0000      0.0040      0.0000      0.0000      0.0064      0.0000      0.0000      0.0000      0.0000

# j      m_j: min, <> & last-chain-values for 1 ...  7 chains
  1  4.8891E-02  4.8782E-02  5.0153E-02  5.0383E-02  4.8992E-02  4.8246E-02  4.8352E-02  4.9031E-02  5.0616E-02
  2  1.2957E-02  1.0966E-02  1.1486E-02  1.1027E-02  1.1108E-02  1.1061E-02  1.1089E-02  1.2050E-02  1.1091E-02
  3  1.9402E-02  1.9195E-02  1.9317E-02  1.9050E-02  1.9601E-02  1.8717E-02  1.9672E-02  1.9458E-02  1.9478E-02
  4  2.7451E-02  2.8303E-02  2.8581E-02  2.8160E-02  2.8663E-02  2.8503E-02  2.8460E-02  2.8741E-02  2.9665E-02
  5  0.0000E+00  1.7023E-03  2.5927E-03  2.9199E-04  4.0745E-03  0.0000E+00  0.0000E+00  0.0000E+00  0.0000E+00
  6  0.0000E+00  9.3477E-04  0.0000E+00  0.0000E+00  6.1313E-04  0.0000E+00  9.6250E-04  0.0000E+00  0.0000E+00
  7  0.0000E+00  5.6116E-04  5.4611E-04  0.0000E+00  0.0000E+00  0.0000E+00  0.0000E+00  0.0000E+00  0.0000E+00
  8  0.0000E+00  1.5973E-03  2.5117E-03  0.0000E+00  0.0000E+00  2.1240E-03  0.0000E+00  0.0000E+00  0.0000E+00
  9  0.0000E+00  1.6876E-02  2.7025E-03  1.6387E-02  1.6453E-02  2.4477E-02  3.6175E-02  2.1791E-02  1.2998E-02
 10  2.2379E-01  7.6720E-02  1.7671E-01  1.0140E-01  8.5258E-02  1.1287E-01  1.0690E-01  9.9987E-02  7.1331E-02
 11  0.0000E+00  5.9739E-02  0.0000E+00  1.6544E-01  9.0235E-02  3.8151E-02  1.1640E-02  6.6016E-03  4.9512E-02
 12  2.5184E+01  2.4882E+01  2.5224E+01  2.5131E+01  2.5082E+01  2.4860E+01  2.5019E+01  2.5351E+01  2.5595E+01
 13  4.2687E+01  4.0344E+01  4.0578E+01  4.0577E+01  4.1226E+01  4.0247E+01  4.0403E+01  4.0173E+01  4.1370E+01
 14  0.0000E+00  2.3047E-01  1.4718E-01  2.4654E-02  7.0815E-02  0.0000E+00  3.5469E-01  2.8922E-01  4.8602E-02
 15  0.0000E+00  1.8018E-01  0.0000E+00  0.0000E+00  5.9922E-01  0.0000E+00  0.0000E+00  3.6073E-01  0.0000E+00
 16  3.0769E-02  2.3737E-02  2.4488E-02  2.4837E-02  2.3608E-02  2.4391E-02  2.3451E-02  2.4884E-02  2.4460E-02
 17  0.0000E+00  2.3097E-03  2.2077E-03  2.0915E-03  2.5726E-03  2.0679E-03  2.2535E-03  2.0508E-03  2.3672E-03
 18  0.0000E+00  1.9469E-04  0.0000E+00  5.2377E-04  2.5779E-05  7.0181E-04  2.6691E-04  1.5933E-04  3.8061E-04
 19  0.0000E+00  7.3338E-04  3.0436E-04  0.0000E+00  0.0000E+00  0.0000E+00  0.0000E+00  2.9168E-05  0.0000E+00
 20  0.0000E+00  5.5841E-04  0.0000E+00  3.9331E-04  0.0000E+00  1.4390E-04  0.0000E+00  0.0000E+00  0.0000E+00
 21  0.0000E+00  5.8125E-04  0.0000E+00  0.0000E+00  0.0000E+00  0.0000E+00  0.0000E+00  0.0000E+00  3.0773E-04
 22  0.0000E+00  7.5085E-04  0.0000E+00  0.0000E+00  7.7873E-04  0.0000E+00  0.0000E+00  0.0000E+00  0.0000E+00
 23  0.0000E+00  1.5753E-03  0.0000E+00  0.0000E+00  0.0000E+00  0.0000E+00  9.2241E-04  1.2704E-03  0.0000E+00
 24  0.0000E+00  6.9802E-03  0.0000E+00  9.9986E-04  3.5804E-03  1.3153E-02  0.0000E+00  0.0000E+00  1.1407E-02
 25  0.0000E+00  1.3400E-02  0.0000E+00  0.0000E+00  0.0000E+00  1.9880E-02  0.0000E+00  0.0000E+00  1.4757E-02
 26  0.0000E+00  3.5785E-02  0.0000E+00  0.0000E+00  0.0000E+00  0.0000E+00  4.6114E-02  0.0000E+00  0.0000E+00
 27  0.0000E+00  8.4442E-02  7.9478E-02  0.0000E+00  0.0000E+00  4.9303E-02  0.0000E+00  1.3829E-01  0.0000E+00
 28  2.1866E+00  2.1205E+00  2.0557E+00  2.5155E+00  1.9109E+00  2.0706E+00  2.1896E+00  2.2168E+00  1.8783E+00
 29  2.0275E+01  2.0454E+01  2.0917E+01  2.0839E+01  2.0761E+01  2.0075E+01  1.9771E+01  2.0571E+01  2.0585E+01
 30  9.3043E+00  1.1106E+01  1.0673E+01  1.0341E+01  9.9423E+00  1.1653E+01  1.1925E+01  1.0382E+01  1.0224E+01
 31  0.0000E+00  1.0539E-04  0.0000E+00  0.0000E+00  0.0000E+00  4.7580E-04  0.0000E+00  3.4731E-04  0.0000E+00
 32  0.0000E+00  6.3009E-05  0.0000E+00  0.0000E+00  0.0000E+00  0.0000E+00  3.3043E-04  4.1062E-05  0.0000E+00
 33  0.0000E+00  5.2362E-04  3.7398E-04  4.4104E-04  4.1588E-04  9.5586E-04  9.6211E-04  3.5893E-04  2.5915E-04
 34  0.0000E+00  3.9776E-04  0.0000E+00  1.2766E-03  1.6694E-03  0.0000E+00  0.0000E+00  0.0000E+00  0.0000E+00
 35  0.0000E+00  1.0762E-03  3.2860E-03  0.0000E+00  0.0000E+00  1.5420E-03  0.0000E+00  0.0000E+00  0.0000E+00
 36  0.0000E+00  6.4712E-04  6.1715E-04  0.0000E+00  0.0000E+00  0.0000E+00  0.0000E+00  9.3677E-04  0.0000E+00
 37  0.0000E+00  1.0310E-03  0.0000E+00  0.0000E+00  0.0000E+00  0.0000E+00  0.0000E+00  0.0000E+00  0.0000E+00
 38  0.0000E+00  1.7245E-03  0.0000E+00  5.8430E-03  0.0000E+00  0.0000E+00  0.0000E+00  0.0000E+00  0.0000E+00
 39  0.0000E+00  6.2766E-03  0.0000E+00  0.0000E+00  0.0000E+00  5.5280E-03  0.0000E+00  0.0000E+00  0.0000E+00
 40  0.0000E+00  1.7608E-02  0.0000E+00  0.0000E+00  1.3353E-03  0.0000E+00  0.0000E+00  1.9980E-02  0.0000E+00
 41  0.0000E+00  2.2203E-02  0.0000E+00  2.6725E-02  0.0000E+00  0.0000E+00  0.0000E+00  0.0000E+00  0.0000E+00
 42  0.0000E+00  3.8750E-02  0.0000E+00  1.1720E-01  0.0000E+00  0.0000E+00  0.0000E+00  2.2901E-01  0.0000E+00
 43  0.0000E+00  5.0718E-02  0.0000E+00  0.0000E+00  0.0000E+00  0.0000E+00  0.0000E+00  0.0000E+00  0.0000E+00
 44  0.0000E+00  6.1606E-02  0.0000E+00  0.0000E+00  0.0000E+00  6.9187E-01  0.0000E+00  0.0000E+00  0.0000E+00
 45  0.0000E+00  4.3673E-02  0.0000E+00  0.0000E+00  6.9806E-02  0.0000E+00  0.0000E+00  0.0000E+00  0.0000E+00

# AV, chi2 & Mass for <> & i_chain = 1 ...  7 solutions
AV       1.4764      1.4661      1.4725      1.4677      1.4689      1.4681      1.4671      1.4700      1.4690
chi2 2.7095E+00  2.7434E+00  2.7262E+00  2.7314E+00  2.7273E+00  2.7337E+00  2.7312E+00  2.7271E+00  2.7257E+00
Mass 2.7021E-10  2.7286E-10  2.7295E-10  2.7142E-10  2.7171E-10  2.7430E-10  2.7309E-10  2.7206E-10  2.7025E-10
 -10.96                                  [v0_min (km/s) before EX0s...]
  51.11                                  [vd_min (km/s) before EX0s...]


## Synthetic spectrum (Best Model) ##l_obs f_obs f_syn wei
 3070    [Nl_obs]
 3359.00    0.00000   0.50135   -2.000
 3360.00    0.18497   0.48060   -1.000
 3361.00    0.33427   0.48092   -1.000
 3362.00    0.31776   0.50381   -1.000
 3363.00    0.33493   0.53443   -1.000
 3364.00    0.40209   0.55456   -1.000
 3365.00    0.41233   0.55477   -1.000
 3366.00    0.41269   0.53822   -1.000
 3367.00    0.43417   0.51590   -1.000
 3368.00    0.42013   0.50009   -1.000
 3369.00    0.36935   0.49414   -1.000
 3370.00    0.36401   0.49309   -1.000
 3371.00    0.43275   0.48992   -1.000
 3372.00    0.43515   0.48873   -1.000
 3373.00    0.36761   0.49981   -1.000
 3374.00    0.37076   0.52331   -1.000
 3375.00    0.40921   0.55208   -1.000
 3376.00    0.37945   0.56852   -1.000
 3377.00    0.39481   0.56225   -1.000
 3378.00    0.45811   0.54139   -1.000
 3379.00    0.44425   0.51981   -1.000
 3380.00    0.41148   0.51185   -1.000
 3381.00    0.40718   0.51983   -1.000
 3382.00    0.39000   0.53658   -1.000
 3383.00    0.41554   0.55097   -1.000
 3384.00    0.43775   0.56125   -1.000
 3385.00    0.43474   0.57148   -1.000
 3386.00    0.46403   0.57745   -1.000
 3387.00    0.46944   0.57626   -1.000
 3388.00    0.44270   0.57232   -1.000
 3389.00    0.44087   0.56892   -1.000
 3390.00    0.45124   0.56434   -1.000
 3391.00    0.49065   0.55550   -1.000
 3392.00    0.49223   0.54486   57.946
 3393.00    0.45609   0.54190   -1.000
 3394.00    0.46329   0.55259   -1.000
 3395.00    0.47237   0.57127   -1.000
 3396.00    0.44955   0.58969   -1.000
 3397.00    0.46858   0.60357   -1.000
 3398.00    0.54036   0.61000   -1.000
 3399.00    0.54490   0.60713   47.023
 3400.00    0.52107   0.59798   -1.000
 3401.00    0.53927   0.58524   45.909
 3402.00    0.49317   0.57013   -1.000
 3403.00    0.46466   0.55874   -1.000
 3404.00    0.50607   0.55485   49.116
 3405.00    0.49539   0.55313   50.002
 3406.00    0.48525   0.54806   -1.000
 3407.00    0.50074   0.54113   51.343
 3408.00    0.47380   0.53870   -1.000
 3409.00    0.46547   0.54512   -1.000
 3410.00    0.48827   0.55477   -1.000
 3411.00    0.49175   0.55739   -1.000
 3412.00    0.51099   0.55110   50.390
 3413.00    0.51808   0.54199   51.473
 3414.00    0.44003   0.53899   -1.000
 3415.00    0.42938   0.54467   -1.000
 3416.00    0.50014   0.55692   52.495
 3417.00    0.49985   0.57202   -1.000
 3418.00    0.49822   0.58748   -1.000
 3419.00    0.54352   0.59969   45.924
 3420.00    0.55426   0.60375   44.830
 3421.00    0.57990   0.59822   44.591
 3422.00    0.59646   0.58907   44.615
 3423.00    0.55592   0.58180   45.484
 3424.00    0.56276   0.57886   46.657
 3425.00    0.59981   0.57971   46.318
 3426.00    0.57598   0.58421   45.033
 3427.00    0.55294   0.59471   44.391
 3428.00    0.55035   0.61218   -1.000
 3429.00    0.51738   0.62498   -1.000
 3430.00    0.51880   0.62360   -1.000
 3431.00    0.54573   0.60949   -1.000
 3432.00    0.54439   0.59323   -1.000
 3433.00    0.52653   0.58583   -1.000
 3434.00    0.55947   0.58890   44.304
 3435.00    0.58779   0.59613   89.061
 3436.00    0.61087   0.59738   -1.000
 3437.00    0.59920   0.58931   72.792
 3438.00    0.57260   0.57144   45.310
 3439.00    0.53011   0.54647   47.782
 3440.00    0.49838   0.51931   51.180
 3441.00    0.51722   0.50128   54.143
 3442.00    0.52554   0.49900   55.125
 3443.00    0.53405   0.50851   55.020
 3444.00    0.50627   0.52143   53.656
 3445.00    0.48376   0.53490   51.044
 3446.00    0.53430   0.55227   48.226
 3447.00    0.55339   0.57394   46.128
 3448.00    0.54593   0.59498   -1.000
 3449.00    0.58253   0.60650   -1.000
 3450.00    0.59147   0.60173   -1.000
 3451.00    0.58033   0.58548  346.770
 3452.00    0.59196   0.56748   -1.000
 3453.00    0.56772   0.55996  346.770
 3454.00    0.54028   0.56440   -1.000
 3455.00    0.58805   0.57319   -1.000
 3456.00    0.64647   0.57630   -1.000
 3457.00    0.59217   0.56785   -1.000
 3458.00    0.54539   0.55397  346.770
 3459.00    0.58136   0.54120   73.248
 3460.00    0.60453   0.53231   -1.000
 3461.00    0.55892   0.53408   44.722
 3462.00    0.55022   0.54997   89.221
 3463.00    0.57464   0.56750  346.770
 3464.00    0.58151   0.57387  346.770
 3465.00    0.58904   0.57325   -1.000
 3466.00    0.57985   0.57310  346.770
 3467.00    0.58273   0.57902  346.770
 3468.00    0.61586   0.58798   -1.000
 3469.00    0.63256   0.59523   -1.000
 3470.00    0.60952   0.59723   -1.000
 3471.00    0.60017   0.59146   -1.000
 3472.00    0.57665   0.57921  346.770
 3473.00    0.57475   0.56207   -1.000
 3474.00    0.57967   0.54129   -1.000
 3475.00    0.54714   0.52643   74.019
 3476.00    0.53018   0.52645   45.588
 3477.00    0.54689   0.53948   45.767
 3478.00    0.57140   0.55697   89.920
 3479.00    0.60780   0.57179   -1.000
 3480.00    0.64255   0.57954   -1.000
 3481.00    0.63257   0.57902   -1.000
 3482.00    0.61928   0.57154   -1.000
 3483.00    0.64916   0.56377   -1.000
 3484.00    0.66342   0.56483   -1.000
 3485.00    0.63469   0.57812   -1.000
 3486.00    0.62639   0.59549   -1.000
 3487.00    0.62951   0.60084   -1.000
 3488.00    0.63691   0.58949   -1.000
 3489.00    0.63903   0.56900   -1.000
 3490.00    0.58194   0.55437   -1.000
 3491.00    0.55207   0.55446  346.770
 3492.00    0.56741   0.56244  346.770
 3493.00    0.58182   0.56721   -1.000
 3494.00    0.60088   0.56261   -1.000
 3495.00    0.59676   0.55210   -1.000
 3496.00    0.56294   0.54624   -1.000
 3497.00    0.54389   0.55577   -1.000
 3498.00    0.52161   0.57733   -1.000
 3499.00    0.54630   0.59249   -1.000
 3500.00    0.61170   0.59543   -1.000
 3501.00    0.63634   0.59540   -1.000
 3502.00    0.64946   0.59936   -1.000
 3503.00    0.65472   0.60366   -1.000
 3504.00    0.63568   0.59908   -1.000
 3505.00    0.62531   0.58907   -1.000
 3506.00    0.60660   0.58370   -1.000
 3507.00    0.57037   0.58445   -1.000
 3508.00    0.58908   0.58563  346.770
 3509.00    0.61399   0.58126   -1.000
 3510.00    0.58224   0.57270   -1.000
 3511.00    0.53210   0.56457   -1.000
 3512.00    0.53510   0.55708   -1.000
 3513.00    0.57535   0.54994   -1.000
 3514.00    0.59994   0.55190   -1.000
 3515.00    0.60109   0.56709   -1.000
 3516.00    0.60376   0.58983   -1.000
 3517.00    0.60620   0.60822  346.770
 3518.00    0.61407   0.61225  346.770
 3519.00    0.63043   0.60194   -1.000
 3520.00    0.60298   0.58324   -1.000
 3521.00    0.58105   0.56603   -1.000
 3522.00    0.59019   0.55262   -1.000
 3523.00    0.56933   0.53870   -1.000
 3524.00    0.54567   0.52650   74.180
 3525.00    0.54838   0.52182   45.142
 3526.00    0.55805   0.53196   45.702
 3527.00    0.57462   0.55541   89.523
 3528.00    0.56439   0.58071   -1.000
 3529.00    0.58839   0.59693  346.770
 3530.00    0.62385   0.60063   -1.000
 3531.00    0.63417   0.59803   -1.000
 3532.00    0.63532   0.59739   -1.000
 3533.00    0.61037   0.60188  346.770
 3534.00    0.58429   0.60866   -1.000
 3535.00    0.60869   0.61327  346.770
 3536.00    0.63059   0.61540   -1.000
 3537.00    0.61869   0.61906  346.770
 3538.00    0.61762   0.62590   -1.000
 3539.00    0.63095   0.63053  346.770
 3540.00    0.64364   0.62789   -1.000
 3541.00    0.63631   0.62321   -1.000
 3542.00    0.62772   0.62460  346.770
 3543.00    0.62283   0.63096  346.770
 3544.00    0.61155   0.63699   -1.000
 3545.00    0.60831   0.63670   -1.000
 3546.00    0.63595   0.63205  346.770
 3547.00    0.66190   0.62937   -1.000
 3548.00    0.65031   0.63078   -1.000
 3549.00    0.61571   0.63423   -1.000
 3550.00    0.60244   0.63509   -1.000
 3551.00    0.59199   0.63143   -1.000
 3552.00    0.58538   0.62320   -1.000
 3553.00    0.59273   0.61538   -1.000
 3554.00    0.58326   0.61231   -1.000
 3555.00    0.58741   0.61379   -1.000
 3556.00    0.62572   0.61651   -1.000
 3557.00    0.61514   0.61576  346.770
 3558.00    0.57758   0.61147   -1.000
 3559.00    0.58077   0.60906   -1.000
 3560.00    0.58194   0.61417   -1.000
 3561.00    0.57086   0.62580   -1.000
 3562.00    0.58978   0.63301   -1.000
 3563.00    0.60634   0.62161   -1.000
 3564.00    0.58035   0.58943   -1.000
 3565.00    0.55976   0.56016   75.229
 3566.00    0.53690   0.54925   45.709
 3567.00    0.52208   0.54941   46.256
 3568.00    0.51847   0.54737   45.863
 3569.00    0.49369   0.53559   46.601
 3570.00    0.48607   0.52512   47.805
 3571.00    0.52726   0.52784   47.350
 3572.00    0.52905   0.53911   45.495
 3573.00    0.52476   0.54916   86.948
 3574.00    0.56318   0.55384   -1.000
 3575.00    0.55408   0.55623  346.770
 3576.00    0.55143   0.55939  346.770
 3577.00    0.57093   0.55951   -1.000
 3578.00    0.55918   0.55053   -1.000
 3579.00    0.52925   0.53125   78.102
 3580.00    0.51554   0.51161   48.168
 3581.00    0.50926   0.50126   51.377
 3582.00    0.49715   0.50136   52.827
 3583.00    0.48933   0.50449   53.087
 3584.00    0.49238   0.49948   53.918
 3585.00    0.48754   0.48866   55.517
 3586.00    0.46912   0.48368   56.781
 3587.00    0.45440   0.48916   55.511
 3588.00    0.47223   0.50537   52.598
 3589.00    0.51022   0.52918   49.940
 3590.00    0.54185   0.55545   46.348
 3591.00    0.54126   0.57564   85.961
 3592.00    0.55921   0.58467   -1.000
 3593.00    0.60559   0.58627   -1.000
 3594.00    0.60778   0.58946   -1.000
 3595.00    0.62209   0.60000   -1.000
 3596.00    0.65226   0.61358   -1.000
 3597.00    0.66270   0.62563   -1.000
 3598.00    0.64307   0.63557  341.624
 3599.00    0.62507   0.64032   -1.000
 3600.00    0.61769   0.63504   -1.000
 3601.00    0.61099   0.61767  344.873
 3602.00    0.59733   0.59454  346.770
 3603.00    0.57084   0.57532  346.770
 3604.00    0.55576   0.56762   -1.000
 3605.00    0.56161   0.57036  346.770
 3606.00    0.56779   0.57288  346.770
 3607.00    0.57459   0.56766  346.770
 3608.00    0.57609   0.55618   -1.000
 3609.00    0.56017   0.55027   -1.000
 3610.00    0.55026   0.55793  346.770
 3611.00    0.56291   0.56996  346.770
 3612.00    0.58406   0.57882  346.770
 3613.00    0.59583   0.58658   -1.000
 3614.00    0.59006   0.59653  346.770
 3615.00    0.57361   0.60597   -1.000
 3616.00    0.57421   0.60020   -1.000
 3617.00    0.58774   0.57350   -1.000
 3618.00    0.55307   0.54977  346.770
 3619.00    0.51891   0.54864   75.277
 3620.00    0.53620   0.56762   84.843
 3621.00    0.58494   0.59211  346.770
 3622.00    0.61508   0.60987  346.770
 3623.00    0.61967   0.61981  346.770
 3624.00    0.63186   0.63108  345.090
 3625.00    0.64889   0.65071  336.104
 3626.00    0.66489   0.67212  322.640
 3627.00    0.66793   0.68454   -1.000
 3628.00    0.63997   0.67577   -1.000
 3629.00    0.61759   0.64208   -1.000
 3630.00    0.59733   0.60009  346.770
 3631.00    0.55806   0.57137   -1.000
 3632.00    0.53373   0.56690   -1.000
 3633.00    0.55471   0.57978   -1.000
 3634.00    0.57338   0.59564   -1.000
 3635.00    0.57987   0.60451   -1.000
 3636.00    0.59078   0.60937   -1.000
 3637.00    0.60061   0.62050   -1.000
 3638.00    0.65116   0.63803   -1.000
 3639.00    0.66811   0.65493   -1.000
 3640.00    0.65970   0.66042  319.835
 3641.00    0.66272   0.65114   -1.000
 3642.00    0.62810   0.63199  333.853
 3643.00    0.59100   0.61187   -1.000
 3644.00    0.58515   0.59876   -1.000
 3645.00    0.58678   0.59210  346.770
 3646.00    0.57704   0.58631   -1.000
 3647.00    0.56872   0.58203   -1.000
 3648.00    0.58286   0.58309  346.770
 3649.00    0.61520   0.59092   -1.000
 3650.00    0.62356   0.60556   -1.000
 3651.00    0.62439   0.62487  346.770
 3652.00    0.64801   0.64318  335.726
 3653.00    0.64833   0.65630  324.861
 3654.00    0.65263   0.66353   -1.000
 3655.00    0.68163   0.66923   -1.000
 3656.00    0.69950   0.67799   -1.000
 3657.00    0.71990   0.68641   -1.000
 3658.00    0.73938   0.69065   -1.000
 3659.00    0.68861   0.69047  303.737
 3660.00    0.64026   0.68623   -1.000
 3661.00    0.65040   0.67843   -1.000
 3662.00    0.66539   0.66900  309.110
 3663.00    0.66802   0.66114  313.508
 3664.00    0.66286   0.65836  317.299
 3665.00    0.67306   0.65971   -1.000
 3666.00    0.66430   0.65993  314.540
 3667.00    0.64516   0.65383   -1.000
 3668.00    0.64834   0.64265  323.325
 3669.00    0.64706   0.63866  329.259
 3670.00    0.62335   0.64738   -1.000
 3671.00    0.62499   0.66273   -1.000
 3672.00    0.65408   0.67400   -1.000
 3673.00    0.67398   0.67564  311.293
 3674.00    0.66899   0.67031  310.800
 3675.00    0.66931   0.65945  311.164
 3676.00    0.65813   0.64482   -1.000
 3677.00    0.62382   0.62926  326.652
 3678.00    0.61399   0.61606  336.687
 3679.00    0.61596   0.60962  346.021
 3680.00    0.61074   0.61097  346.770
 3681.00    0.62198   0.61906  343.967
 3682.00    0.63918   0.62902   -1.000
 3683.00    0.63835   0.63386  328.234
 3684.00    0.64241   0.62765   -1.000
 3685.00    0.63454   0.61010   -1.000
 3686.00    0.59793   0.59336  346.770
 3687.00    0.57022   0.59002   -1.000
 3688.00    0.58762   0.60442   -1.000
 3689.00    0.63261   0.63012  345.840
 3690.00    0.67274   0.65514   -1.000
 3691.00    0.68350   0.66734   -1.000
 3692.00    0.66496   0.66612  304.808
 3693.00    0.66703   0.66056  310.551
 3694.00    0.66524   0.65525  316.912
 3695.00    0.64905   0.65078  318.098
 3696.00    0.65274   0.64996  315.861
 3697.00    0.67502   0.65855   -1.000
 3698.00    0.68168   0.67778  305.078
 3699.00    0.68508   0.69863   -1.000
 3700.00    0.71437   0.70692  290.664
 3701.00    0.71794   0.69247   -1.000
 3702.00    0.66906   0.65503   -1.000
 3703.00    0.62658   0.60962   -1.000
 3704.00    0.61324   0.57281   -1.000
 3705.00    0.58043   0.55794   -1.000
 3706.00    0.56645   0.56408  346.770
 3707.00    0.60144   0.57758   -1.000
 3708.00    0.61738   0.58875   -1.000
 3709.00    0.63800   0.59520   -1.000
 3710.00    0.65420   0.60053   -1.000
 3711.00    0.64326   0.61294   -1.000
 3712.00    0.66366   0.63824   -1.000
 3713.00    0.69200   0.66834   -1.000
 3714.00    0.69630   0.69330  290.484
 3715.00    0.73610   0.70551   -1.000
 3716.00    0.75316   0.70075   -1.000
 3717.00    0.71035   0.67873   -1.000
 3718.00    0.64274   0.63814  322.595
 3719.00    0.57354   0.58093  346.770
 3720.00    0.52785   0.53132  346.770
 3721.00    0.51444   0.51169   78.272
 3722.00    0.51624   0.52813   84.576
 3723.00    0.56032   0.57182   -1.000
 3724.00    0.61148   0.62121   -1.000
 3725.00    0.60105   0.65015   -1.000
 3726.00    0.56885   0.65499   -1.000
 3727.00    0.54093   0.65560   -1.000
 3728.00    0.51041   0.66136   -1.000
 3729.00    0.49620   0.66540   -1.000
 3730.00    0.53153   0.65417   -1.000
 3731.00    0.59454   0.61775   -1.000
 3732.00    0.58857   0.56402   -1.000
 3733.00    0.52490   0.50987   76.345
 3734.00    0.52350   0.47310   46.777
 3735.00    0.53118   0.46696   -1.000
 3736.00    0.54915   0.49250   49.907
 3737.00    0.58950   0.53958   46.168
 3738.00    0.59649   0.59670   82.206
 3739.00    0.62914   0.64748   -1.000
 3740.00    0.66588   0.67694   -1.000
 3741.00    0.66086   0.68153   -1.000
 3742.00    0.64640   0.66632   -1.000
 3743.00    0.64603   0.63946  346.770
 3744.00    0.64650   0.61147   -1.000
 3745.00    0.63026   0.58669   -1.000
 3746.00    0.59161   0.56085   -1.000
 3747.00    0.55182   0.52794   78.234
 3748.00    0.51843   0.49163   46.225
 3749.00    0.49022   0.47481   47.923
 3750.00    0.50148   0.49413   89.802
 3751.00    0.55718   0.54325   -1.000
 3752.00    0.62903   0.60268   -1.000
 3753.00    0.67507   0.65723   -1.000
 3754.00    0.69432   0.69576  307.009
 3755.00    0.71344   0.70803  296.325
 3756.00    0.70381   0.68918   -1.000
 3757.00    0.67147   0.65273   -1.000
 3758.00    0.65527   0.62269   -1.000
 3759.00    0.64621   0.61520   -1.000
 3760.00    0.62523   0.62643  346.770
 3761.00    0.64015   0.64130  346.770
 3762.00    0.68536   0.65305   -1.000
 3763.00    0.69366   0.66014   -1.000
 3764.00    0.68115   0.65961   -1.000
 3765.00    0.67626   0.64896   -1.000
 3766.00    0.66326   0.63112   -1.000
 3767.00    0.66313   0.61037   -1.000
 3768.00    0.63992   0.58847   -1.000
 3769.00    0.60687   0.56856   -1.000
 3770.00    0.62147   0.56010   -1.000
 3771.00    0.64165   0.57457   -1.000
 3772.00    0.65714   0.60992   -1.000
 3773.00    0.66655   0.64615   -1.000
 3774.00    0.68468   0.67097   -1.000
 3775.00    0.71045   0.68726   -1.000
 3776.00    0.71735   0.70115   -1.000
 3777.00    0.73922   0.71749   -1.000
 3778.00    0.76193   0.73661   -1.000
 3779.00    0.76304   0.75544  294.246
 3780.00    0.75851   0.77015   -1.000
 3781.00    0.76108   0.77903   -1.000
 3782.00    0.80243   0.78346   -1.000
 3783.00    0.82994   0.78164   -1.000
 3784.00    0.80724   0.76821   -1.000
 3785.00    0.76591   0.74193   -1.000
 3786.00    0.73592   0.71176   -1.000
 3787.00    0.71145   0.68834   -1.000
 3788.00    0.68989   0.67665   -1.000
 3789.00    0.67861   0.67452  346.473
 3790.00    0.67689   0.67664  342.979
 3791.00    0.69119   0.67517   -1.000
 3792.00    0.69190   0.66298   -1.000
 3793.00    0.66583   0.64009   -1.000
 3794.00    0.63519   0.60996   -1.000
 3795.00    0.60877   0.57607   -1.000
 3796.00    0.57029   0.53975   -1.000
 3797.00    0.53340   0.50771   -1.000
 3798.00    0.51905   0.50114   -1.000
 3799.00    0.55089   0.53315   -1.000
 3800.00    0.62057   0.58898   -1.000
 3801.00    0.68145   0.64812   -1.000
 3802.00    0.69966   0.69410  326.090
 3803.00    0.70074   0.72099   -1.000
 3804.00    0.71398   0.73017   -1.000
 3805.00    0.72553   0.72411  313.236
 3806.00    0.72953   0.71335   -1.000
 3807.00    0.71991   0.71608  331.132
 3808.00    0.72571   0.73575  329.450
 3809.00    0.75461   0.75997  318.376
 3810.00    0.77188   0.77197  310.591
 3811.00    0.75754   0.76168  312.219
 3812.00    0.73771   0.73300  324.044
 3813.00    0.70771   0.69760   -1.000
 3814.00    0.65446   0.67054   -1.000
 3815.00    0.62408   0.66352   -1.000
 3816.00    0.62676   0.67461   -1.000
 3817.00    0.66094   0.68440   -1.000
 3818.00    0.67386   0.67761  346.770
 3819.00    0.63340   0.65564   -1.000
 3820.00    0.62521   0.63743   -1.000
 3821.00    0.65504   0.63912   -1.000
 3822.00    0.67171   0.64804   -1.000
 3823.00    0.67257   0.64338   -1.000
 3824.00    0.62094   0.62275  346.770
 3825.00    0.58759   0.59959   82.048
 3826.00    0.59920   0.58631   46.761
 3827.00    0.58404   0.58340   47.019
 3828.00    0.56565   0.58385   46.411
 3829.00    0.57808   0.57950   45.649
 3830.00    0.59544   0.56547   45.585
 3831.00    0.57907   0.54006   46.951
 3832.00    0.53525   0.50604   49.949
 3833.00    0.50315   0.47056   52.710
 3834.00    0.50636   0.44682   -1.000
 3835.00    0.51942   0.44308   -1.000
 3836.00    0.52417   0.45577   -1.000
 3837.00    0.51756   0.47528   49.679
 3838.00    0.51880   0.49588   50.845
 3839.00    0.53214   0.52144   50.951
 3840.00    0.55602   0.55798   48.936
 3841.00    0.61290   0.60227   86.992
 3842.00    0.67293   0.64610   -1.000
 3843.00    0.69969   0.68058   -1.000
 3844.00    0.70887   0.70097   -1.000
 3845.00    0.71128   0.71308  346.770
 3846.00    0.72058   0.72386  346.770
 3847.00    0.72319   0.73221  346.770
 3848.00    0.70574   0.73184   -1.000
 3849.00    0.70346   0.72764   -1.000
 3850.00    0.70457   0.72836   -1.000
 3851.00    0.70066   0.73701   -1.000
 3852.00    0.71022   0.74770   -1.000
 3853.00    0.72701   0.74840   -1.000
 3854.00    0.74157   0.73725  346.770
 3855.00    0.71324   0.72310  346.770
 3856.00    0.68108   0.70840   -1.000
 3857.00    0.66751   0.69164   -1.000
 3858.00    0.63249   0.67546   -1.000
 3859.00    0.62350   0.66963   45.187
 3860.00    0.64059   0.68343   46.033
 3861.00    0.67316   0.71188   82.799
 3862.00    0.71392   0.74019   -1.000
 3863.00    0.72894   0.75236   -1.000
 3864.00    0.73739   0.75032   -1.000
 3865.00    0.74997   0.74551  346.770
 3866.00    0.76545   0.74271   -1.000
 3867.00    0.76950   0.74275   -1.000
 3868.00    0.74540   0.74092  346.770
 3869.00    0.71990   0.72953  346.770
 3870.00    0.68226   0.70753   -1.000
 3871.00    0.63464   0.68339   -1.000
 3872.00    0.64359   0.67255   81.219
 3873.00    0.67472   0.68299  346.770
 3874.00    0.69639   0.70946   -1.000
 3875.00    0.71973   0.72719  346.770
 3876.00    0.71586   0.72000  346.731
 3877.00    0.69043   0.69754  346.770
 3878.00    0.65091   0.68026   -1.000
 3879.00    0.63035   0.67687   -1.000
 3880.00    0.65067   0.67916   -1.000
 3881.00    0.66482   0.67758   -1.000
 3882.00    0.65676   0.67172   -1.000
 3883.00    0.65516   0.66308  346.770
 3884.00    0.66874   0.64680   -1.000
 3885.00    0.66019   0.61434   -1.000
 3886.00    0.61578   0.56874   -1.000
 3887.00    0.57380   0.52841   -1.000
 3888.00    0.55080   0.50901   -1.000
 3889.00    0.54600   0.52201   -1.000
 3890.00    0.58240   0.56434   -1.000
 3891.00    0.64511   0.61909   -1.000
 3892.00    0.68170   0.66095   -1.000
 3893.00    0.68638   0.68095  298.440
 3894.00    0.69603   0.68974  301.816
 3895.00    0.72586   0.70132   -1.000
 3896.00    0.74051   0.71802   -1.000
 3897.00    0.74308   0.73038   -1.000
 3898.00    0.74550   0.73497   -1.000
 3899.00    0.74620   0.73914  294.861
 3900.00    0.74750   0.74815  294.687
 3901.00    0.76339   0.75723  291.129
 3902.00    0.76853   0.75864   -1.000
 3903.00    0.74540   0.74894  299.137
 3904.00    0.74502   0.73530   -1.000
 3905.00    0.74571   0.73017   -1.000
 3906.00    0.73694   0.74048  321.048
 3907.00    0.75151   0.76622   -1.000
 3908.00    0.77665   0.79783   -1.000
 3909.00    0.82165   0.82053  276.745
 3910.00    0.85600   0.83239   -1.000
 3911.00    0.83650   0.83773  269.952
 3912.00    0.83661   0.83658  267.875
 3913.00    0.83887   0.82957  268.742
 3914.00    0.81158   0.82032  273.229
 3915.00    0.79028   0.81141   -1.000
 3916.00    0.77514   0.80407   -1.000
 3917.00    0.78009   0.79514   -1.000
 3918.00    0.78023   0.78122  294.247
 3919.00    0.75465   0.76448  305.195
 3920.00    0.74583   0.75078  319.377
 3921.00    0.75578   0.74704   -1.000
 3922.00    0.77140   0.75268   -1.000
 3923.00    0.76558   0.75877   -1.000
 3924.00    0.75643   0.75465  325.437
 3925.00    0.73516   0.73550  335.036
 3926.00    0.67494   0.70267   -1.000
 3927.00    0.61902   0.65893   -1.000
 3928.00    0.56175   0.60986   -1.000
 3929.00    0.51157   0.55704   52.860
 3930.00    0.46087   0.49823   61.919
 3931.00    0.40350   0.43673   72.832
 3932.00    0.33835   0.37945   -1.000
 3933.00    0.29154   0.34745   -1.000
 3934.00    0.29989   0.35944   -1.000
 3935.00    0.34046   0.40961   -1.000
 3936.00    0.39740   0.47640   -1.000
 3937.00    0.47011   0.54614   -1.000
 3938.00    0.53891   0.60827   -1.000
 3939.00    0.59476   0.65846   -1.000
 3940.00    0.64746   0.69396   -1.000
 3941.00    0.68397   0.71209   -1.000
 3942.00    0.68099   0.71788   -1.000
 3943.00    0.67440   0.72027   -1.000
 3944.00    0.70395   0.72882   -1.000
 3945.00    0.74933   0.74612  338.977
 3946.00    0.78278   0.76288   -1.000
 3947.00    0.78158   0.77179   -1.000
 3948.00    0.76726   0.77818  300.581
 3949.00    0.77858   0.78756  293.808
 3950.00    0.80310   0.79473  283.501
 3951.00    0.80201   0.79590  279.595
 3952.00    0.78006   0.79693   -1.000
 3953.00    0.79458   0.80188  281.964
 3954.00    0.81865   0.80493   -1.000
 3955.00    0.80838   0.79774   -1.000
 3956.00    0.79227   0.78582  280.507
 3957.00    0.77940   0.78138  288.041
 3958.00    0.78001   0.78042  287.637
 3959.00    0.78020   0.76648   -1.000
 3960.00    0.73281   0.73185  306.887
 3961.00    0.66549   0.68571   -1.000
 3962.00    0.63410   0.64495   -1.000
 3963.00    0.61084   0.61109  346.770
 3964.00    0.56624   0.57260   83.925
 3965.00    0.50158   0.51679   49.733
 3966.00    0.43026   0.44115   59.749
 3967.00    0.36475   0.36870   73.484
 3968.00    0.30294   0.32574   85.737
 3969.00    0.27369   0.32690   -1.000
 3970.00    0.32608   0.36788   -1.000
 3971.00    0.41262   0.43333   62.086
 3972.00    0.46938   0.50490   51.511
 3973.00    0.54840   0.57388   83.778
 3974.00    0.63180   0.63517  346.770
 3975.00    0.68782   0.68722  341.712
 3976.00    0.74516   0.73145   -1.000
 3977.00    0.79859   0.76935   -1.000
 3978.00    0.82317   0.80516   -1.000
 3979.00    0.84258   0.83306  259.704
 3980.00    0.86194   0.84579   -1.000
 3981.00    0.86127   0.84475   -1.000
 3982.00    0.85602   0.84079   -1.000
 3983.00    0.85524   0.84441  255.690
 3984.00    0.86805   0.85506   -1.000
 3985.00    0.88518   0.86648   -1.000
 3986.00    0.89517   0.87730   -1.000
 3987.00    0.90333   0.88952   -1.000
 3988.00    0.91517   0.90226  234.668
 3989.00    0.92412   0.91132  234.023
 3990.00    0.91901   0.91852  233.745
 3991.00    0.93481   0.92832  230.202
 3992.00    0.96226   0.93806   -1.000
 3993.00    0.96103   0.93973   -1.000
 3994.00    0.95068   0.93070   -1.000
 3995.00    0.93544   0.91484   -1.000
 3996.00    0.93164   0.90032   -1.000
 3997.00    0.94095   0.89731   -1.000
 3998.00    0.93279   0.90881   -1.000
 3999.00    0.93342   0.92854  230.830
 4000.00    0.96982   0.94944   -1.000
 4001.00    0.99321   0.96300   -1.000
 4002.00    1.00239   0.96203   -1.000
 4003.00    0.97777   0.94370   -1.000
 4004.00    0.94420   0.91337   -1.000
 4005.00    0.92638   0.88876   -1.000
 4006.00    0.90466   0.89138   -1.000
 4007.00    0.92856   0.91784  233.201
 4008.00    0.95920   0.94800  221.692
 4009.00    0.94884   0.96758   -1.000
 4010.00    0.97747   0.97543  213.447
 4011.00    0.99181   0.97779  211.950
 4012.00    0.96965   0.97943  212.392
 4013.00    0.98286   0.98288  213.773
 4014.00    1.00011   0.98652  213.534
 4015.00    1.00376   0.98745   -1.000
 4016.00    0.98989   0.98668  210.542
 4017.00    0.98977   0.98839  212.846
 4018.00    1.01268   0.99520   -1.000
 4019.00    1.03037   1.00297   -1.000
 4020.00    1.03459   1.00657   -1.000
 4021.00    1.02633   1.00393   -1.000
 4022.00    0.98766   0.99738  214.072
 4023.00    0.97833   0.98863  215.370
 4024.00    0.99366   0.98201  216.925
 4025.00    1.00000   0.98544  215.025
 4026.00    1.02345   1.00058   -1.000
 4027.00    1.04991   1.01567   -1.000
 4028.00    1.04042   1.01154   -1.000
 4029.00    0.98580   0.98476  206.554
 4030.00    0.93777   0.94933  218.006
 4031.00    0.93091   0.92158  230.288
 4032.00    0.94952   0.91148   -1.000
 4033.00    0.96140   0.91851   -1.000
 4034.00    0.96699   0.94018   -1.000
 4035.00    0.99944   0.97282   -1.000
 4036.00    1.02674   1.01107   -1.000
 4037.00    1.04198   1.04250  201.221
 4038.00    1.05901   1.05279  197.349
 4039.00    1.06382   1.04296   -1.000
 4040.00    1.06547   1.03019   -1.000
 4041.00    1.05440   1.02182   -1.000
 4042.00    1.03373   1.00820   -1.000
 4043.00    1.01830   0.97410   -1.000
 4044.00    0.97084   0.92433   -1.000
 4045.00    0.92240   0.89545   -1.000
 4046.00    0.92001   0.90802   -1.000
 4047.00    0.96027   0.95044  236.385
 4048.00    0.99911   0.99725  217.593
 4049.00    1.01670   1.02797  208.028
 4050.00    1.04028   1.03863  203.958
 4051.00    1.04358   1.03426  203.527
 4052.00    1.02521   1.01925  207.076
 4053.00    1.00098   1.00115  212.707
 4054.00    0.98700   0.98990  217.127
 4055.00    0.99051   0.98347  219.647
 4056.00    0.98594   0.97674  221.238
 4057.00    0.98863   0.97463   -1.000
 4058.00    1.00646   0.98408   -1.000
 4059.00    1.01599   1.00323  217.502
 4060.00    1.03572   1.01272   -1.000
 4061.00    1.03787   0.99508   -1.000
 4062.00    0.98179   0.95897   -1.000
 4063.00    0.92221   0.92656  236.617
 4064.00    0.92056   0.91475  242.975
 4065.00    0.95535   0.92198   -1.000
 4066.00    0.98938   0.93929   -1.000
 4067.00    0.99602   0.96006   -1.000
 4068.00    1.00218   0.97809   -1.000
 4069.00    1.02387   0.98031   -1.000
 4070.00    1.01490   0.96291   -1.000
 4071.00    0.99169   0.94270   -1.000
 4072.00    0.98060   0.93953   -1.000
 4073.00    0.98669   0.95182   -1.000
 4074.00    0.99451   0.95509   -1.000
 4075.00    0.96881   0.93512   -1.000
 4076.00    0.91336   0.90497  234.519
 4077.00    0.87047   0.88805   -1.000
 4078.00    0.88661   0.89956   -1.000
 4079.00    0.94152   0.93493  234.840
 4080.00    1.00192   0.97505   -1.000
 4081.00    1.04539   0.99554   -1.000
 4082.00    1.04172   0.99049   -1.000
 4083.00    1.00023   0.97221   -1.000
 4084.00    0.99423   0.96048   -1.000
 4085.00    1.01632   0.96735   -1.000
 4086.00    1.01860   0.98968   -1.000
 4087.00    1.03819   1.01563   -1.000
 4088.00    1.07325   1.03062   -1.000
 4089.00    1.08851   1.02861   -1.000
 4090.00    1.08529   1.01480   -1.000
 4091.00    1.06086   1.00115   -1.000
 4092.00    1.03922   0.99183   -1.000
 4093.00    1.03811   0.98083   -1.000
 4094.00    1.02599   0.96128   -1.000
 4095.00    1.00005   0.93231   -1.000
 4096.00    0.97875   0.90176   -1.000
 4097.00    0.94842   0.87161   -1.000
 4098.00    0.92216   0.83407   -1.000
 4099.00    0.88105   0.78070   -1.000
 4100.00    0.79138   0.71903   -1.000
 4101.00    0.71524   0.67937   -1.000
 4102.00    0.71292   0.68679   -1.000
 4103.00    0.77496   0.73924   -1.000
 4104.00    0.87001   0.81203   -1.000
 4105.00    0.94104   0.87252   -1.000
 4106.00    0.97612   0.90963   -1.000
 4107.00    0.98727   0.92964   -1.000
 4108.00    0.97695   0.93832   -1.000
 4109.00    0.97954   0.94244   -1.000
 4110.00    0.97976   0.94901   -1.000
 4111.00    0.97875   0.96037   -1.000
 4112.00    1.00416   0.97534   -1.000
 4113.00    1.01839   0.99313   -1.000
 4114.00    1.03769   1.01223   -1.000
 4115.00    1.06727   1.02467   -1.000
 4116.00    1.06277   1.02458   -1.000
 4117.00    1.02746   1.01347  211.037
 4118.00    0.98725   1.00001   -1.000
 4119.00    0.99628   0.99222  221.991
 4120.00    1.03631   0.99282   -1.000
 4121.00    1.03041   0.99801   -1.000
 4122.00    1.00158   1.00418  218.154
 4123.00    1.00501   1.01239  217.157
 4124.00    1.02672   1.02213  214.008
 4125.00    1.04517   1.02685   -1.000
 4126.00    1.03336   1.02131  212.774
 4127.00    1.01428   1.01084  216.573
 4128.00    1.02467   1.00393   -1.000
 4129.00    1.01286   1.00072  221.303
 4130.00    0.99997   0.99163  223.225
 4131.00    0.98348   0.97360  228.137
 4132.00    0.95346   0.95813  235.462
 4133.00    0.97215   0.95965  239.581
 4134.00    1.01231   0.98177   -1.000
 4135.00    1.01742   1.01439  225.791
 4136.00    1.02826   1.04523   -1.000
 4137.00    1.06581   1.06688  211.082
 4138.00    1.08757   1.08119  207.792
 4139.00    1.09146   1.08589  205.731
 4140.00    1.07487   1.07120  207.408
 4141.00    1.02177   1.03582   -1.000
 4142.00    0.95080   0.99511   -1.000
 4143.00    0.92871   0.96974   -1.000
 4144.00    0.95534   0.97662   -1.000
 4145.00    0.99829   1.00693  235.427
 4146.00    1.04652   1.03485  223.805
 4147.00    1.05766   1.04545  218.499
 4148.00    1.03888   1.04210  219.457
 4149.00    1.02853   1.03836  224.744
 4150.00    1.02211   1.04010   -1.000
 4151.00    1.02577   1.04125   -1.000
 4152.00    1.02895   1.03499  228.377
 4153.00    1.05888   1.02195   -1.000
 4154.00    1.28085   1.01080   -1.000
 4155.00    1.33629   1.01018   -1.000
 4156.00    0.86111   1.02062   -1.000
 4157.00    0.71819   1.03703   -1.000
 4158.00    1.06140   1.05508  223.925
 4159.00    1.11448   1.06952   -1.000
 4160.00    1.05191   1.07835   -1.000
 4161.00    1.07166   1.08540   -1.000
 4162.00    1.07599   1.09313   -1.000
 4163.00    1.06364   1.09939   -1.000
 4164.00    1.06040   1.09921   -1.000
 4165.00    1.06144   1.08955   -1.000
 4166.00    1.06074   1.07512   -1.000
 4167.00    1.06583   1.06455  225.165
 4168.00    1.06372   1.06170  226.063
 4169.00    1.06620   1.05651  223.144
 4170.00    1.05847   1.03582   -1.000
 4171.00    1.01494   1.00191  229.871
 4172.00    0.95235   0.97193   -1.000
 4173.00    0.92251   0.96633   -1.000
 4174.00    0.95771   0.98473   -1.000
 4175.00    1.00524   1.00773  238.536
 4176.00    1.01983   1.02008  233.991
 4177.00    1.00103   1.02577   -1.000
 4178.00    0.99318   1.03504   -1.000
 4179.00    1.02038   1.04681   -1.000
 4180.00    1.04010   1.05105  229.580
 4181.00    1.02356   1.04561   -1.000
 4182.00    1.00950   1.04117   -1.000
 4183.00    1.02916   1.04738   -1.000
 4184.00    1.05488   1.05713  219.656
 4185.00    1.05391   1.05640  217.818
 4186.00    1.03241   1.04472  221.617
 4187.00    1.01256   1.03366   -1.000
 4188.00    1.00509   1.03385   -1.000
 4189.00    1.01722   1.04367   -1.000
 4190.00    1.04318   1.05489  223.908
 4191.00    1.04871   1.06652   -1.000
 4192.00    1.05589   1.07902   -1.000
 4193.00    1.08098   1.08385  214.040
 4194.00    1.07544   1.07310  215.594
 4195.00    1.03733   1.04809  224.554
 4196.00    1.00470   1.01828   -1.000
 4197.00    0.97757   0.99421   -1.000
 4198.00    0.96369   0.97955   -1.000
 4199.00    0.98590   0.97461  241.607
 4200.00    0.99683   0.97878   -1.000
 4201.00    0.99778   0.98777  235.957
 4202.00    1.01075   0.99863  234.964
 4203.00    1.01608   1.01395  232.346
 4204.00    1.01991   1.03427   -1.000
 4205.00    1.01885   1.05615   -1.000
 4206.00    1.04741   1.07640   -1.000
 4207.00    1.07311   1.09053   -1.000
 4208.00    1.07383   1.09551   -1.000
 4209.00    1.05365   1.09396   -1.000
 4210.00    1.04457   1.09381   -1.000
 4211.00    1.05089   1.09929   -1.000
 4212.00    1.04867   1.10180   -1.000
 4213.00    1.04228   1.08914   -1.000
 4214.00    1.00345   1.06371   -1.000
 4215.00    0.95485   1.04251   -1.000
 4216.00    0.97270   1.04030   -1.000
 4217.00    1.02971   1.06015   -1.000
 4218.00    1.07940   1.09037  209.468
 4219.00    1.11382   1.11357  201.970
 4220.00    1.12838   1.12114  198.096
 4221.00    1.11860   1.11086  197.928
 4222.00    1.08293   1.07983  202.849
 4223.00    1.03060   1.02714  214.172
 4224.00    0.96552   0.96238  232.287
 4225.00    0.89088   0.90548   -1.000
 4226.00    0.83368   0.88205   -1.000
 4227.00    0.84946   0.90970   -1.000
 4228.00    0.94470   0.97702   -1.000
 4229.00    1.03440   1.04163  229.436
 4230.00    1.08318   1.07642  211.803
 4231.00    1.09690   1.08054   -1.000
 4232.00    1.07007   1.06697  207.116
 4233.00    1.05467   1.05017  212.340
 4234.00    1.05139   1.03752  216.278
 4235.00    1.02513   1.02981  219.736
 4236.00    0.99221   1.02667   -1.000
 4237.00    0.98999   1.03111   -1.000
 4238.00    1.00042   1.04447   -1.000
 4239.00    1.02803   1.06161   -1.000
 4240.00    1.05746   1.07761   -1.000
 4241.00    1.05341   1.08979   -1.000
 4242.00    1.07375   1.09969   -1.000
 4243.00    1.09569   1.10933   -1.000
 4244.00    1.09168   1.11506   -1.000
 4245.00    1.08571   1.10844   -1.000
 4246.00    1.05921   1.08668   -1.000
 4247.00    1.02370   1.05933   -1.000
 4248.00    1.01012   1.03945   -1.000
 4249.00    0.99813   1.03446   -1.000
 4250.00    0.99032   1.04364   -1.000
 4251.00    1.03317   1.05850   -1.000
 4252.00    1.06613   1.06776  217.692
 4253.00    1.05112   1.06200  215.093
 4254.00    1.02974   1.05201   -1.000
 4255.00    1.04395   1.05715   -1.000
 4256.00    1.07540   1.07330  214.668
 4257.00    1.08624   1.07827  209.298
 4258.00    1.06185   1.05928  212.386
 4259.00    1.02919   1.03027  222.574
 4260.00    1.00094   1.01943   -1.000
 4261.00    0.99054   1.04012   -1.000
 4262.00    1.04427   1.08120   -1.000
 4263.00    1.09405   1.11866   -1.000
 4264.00    1.10859   1.13910   -1.000
 4265.00    1.13918   1.14157  196.702
 4266.00    1.13242   1.13207  198.099
 4267.00    1.10609   1.11447  203.048
 4268.00    1.08382   1.08773  209.640
 4269.00    1.05361   1.05108  216.800
 4270.00    1.01551   1.01098  228.014
 4271.00    0.97717   0.97914  242.873
 4272.00    0.96003   0.96700  251.935
 4273.00    0.94963   0.97493   -1.000
 4274.00    0.95845   0.99615   -1.000
 4275.00    0.99684   1.02913   -1.000
 4276.00    1.03903   1.07042   -1.000
 4277.00    1.07788   1.10374   -1.000
 4278.00    1.09600   1.11292   -1.000
 4279.00    1.07922   1.09965   -1.000
 4280.00    1.04775   1.08240   -1.000
 4281.00    1.02946   1.07528   -1.000
 4282.00    1.04802   1.07778   -1.000
 4283.00    1.06101   1.07724   -1.000
 4284.00    1.04417   1.06860   -1.000
 4285.00    1.01684   1.05597   -1.000
 4286.00    1.00324   1.04031   -1.000
 4287.00    0.99617   1.02030   -1.000
 4288.00    0.96479   0.99353   -1.000
 4289.00    0.91635   0.96857   -1.000
 4290.00    0.91245   0.96497   -1.000
 4291.00    0.96021   0.98731   -1.000
 4292.00    1.00457   1.01692  236.460
 4293.00    1.02162   1.03372  226.359
 4294.00    1.01326   1.03131   -1.000
 4295.00    0.99226   1.01615   -1.000
 4296.00    0.97165   0.99251   -1.000
 4297.00    0.93379   0.95828   -1.000
 4298.00    0.89215   0.91512   -1.000
 4299.00    0.86134   0.87854   -1.000
 4300.00    0.83189   0.86126   -1.000
 4301.00    0.81790   0.86302   -1.000
 4302.00    0.82493   0.87444   -1.000
 4303.00    0.85002   0.88946   -1.000
 4304.00    0.87157   0.90306   -1.000
 4305.00    0.87623   0.90453   -1.000
 4306.00    0.85493   0.88843   -1.000
 4307.00    0.82404   0.86490   -1.000
 4308.00    0.80942   0.85200   -1.000
 4309.00    0.81593   0.86293   -1.000
 4310.00    0.84399   0.89310   -1.000
 4311.00    0.88031   0.92658   -1.000
 4312.00    0.91182   0.95896   -1.000
 4313.00    0.94282   0.99803   -1.000
 4314.00    0.99007   1.04943   -1.000
 4315.00    1.06063   1.11137   -1.000
 4316.00    1.12714   1.16710   -1.000
 4317.00    1.17620   1.19988   -1.000
 4318.00    1.19617   1.20493  185.010
 4319.00    1.18625   1.19220  186.567
 4320.00    1.16842   1.17056  190.206
 4321.00    1.12539   1.13782   -1.000
 4322.00    1.08316   1.08936  203.700
 4323.00    1.04136   1.03102  216.186
 4324.00    0.98044   0.98402  234.013
 4325.00    0.95055   0.97150   -1.000
 4326.00    0.98956   1.00285   -1.000
 4327.00    1.06496   1.06315  224.947
 4328.00    1.12308   1.11602  204.576
 4329.00    1.14033   1.14144  195.243
 4330.00    1.12756   1.14486   -1.000
 4331.00    1.12636   1.14368   -1.000
 4332.00    1.14416   1.14661  191.778
 4333.00    1.15792   1.14737  189.004
 4334.00    1.16561   1.13558   -1.000
 4335.00    1.14775   1.10048   -1.000
 4336.00    1.09829   1.03454   -1.000
 4337.00    1.01221   0.94461   -1.000
 4338.00    0.91276   0.85660   -1.000
 4339.00    0.82142   0.79784   -1.000
 4340.00    0.75460   0.78964   -1.000
 4341.00    0.77487   0.83560   -1.000
 4342.00    0.87245   0.91315   -1.000
 4343.00    0.98432   0.98579  218.345
 4344.00    1.06664   1.03951   -1.000
 4345.00    1.10340   1.07941   -1.000
 4346.00    1.11549   1.11203  197.880
 4347.00    1.12738   1.13931   -1.000
 4348.00    1.14871   1.15447  192.627
 4349.00    1.14473   1.14520  191.164
 4350.00    1.10698   1.11067  196.494
 4351.00    1.05668   1.07417   -1.000
 4352.00    1.03538   1.06359   -1.000
 4353.00    1.05185   1.08494   -1.000
 4354.00    1.09840   1.12256   -1.000
 4355.00    1.13489   1.15428   -1.000
 4356.00    1.16031   1.17163  193.579
 4357.00    1.17547   1.17688  191.559
 4358.00    1.15464   1.17562   -1.000
 4359.00    1.13249   1.17672   -1.000
 4360.00    1.13584   1.18827   -1.000
 4361.00    1.16048   1.20732   -1.000
 4362.00    1.19209   1.22363   -1.000
 4363.00    1.21941   1.23535   -1.000
 4364.00    1.21963   1.24276   -1.000
 4365.00    1.21548   1.23822   -1.000
 4366.00    1.20715   1.21896  186.120
 4367.00    1.16970   1.19606   -1.000
 4368.00    1.14850   1.17989   -1.000
 4369.00    1.14984   1.17154   -1.000
 4370.00    1.15799   1.16619  195.709
 4371.00    1.14590   1.15715  195.023
 4372.00    1.13378   1.13926  195.887
 4373.00    1.11822   1.11414  200.745
 4374.00    1.08901   1.09402  209.128
 4375.00    1.08079   1.09599   -1.000
 4376.00    1.09711   1.12344   -1.000
 4377.00    1.13687   1.15767   -1.000
 4378.00    1.16624   1.18018   -1.000
 4379.00    1.16978   1.18215  191.200
 4380.00    1.16697   1.15790  193.569
 4381.00    1.14848   1.10498   -1.000
 4382.00    1.08495   1.03545   -1.000
 4383.00    1.00322   0.97883   -1.000
 4384.00    0.96414   0.97133  255.639
 4385.00    1.00598   1.01370  244.438
 4386.00    1.08532   1.06871   -1.000
 4387.00    1.13038   1.10380   -1.000
 4388.00    1.12199   1.11482  203.437
 4389.00    1.11946   1.11679  204.780
 4390.00    1.13591   1.12175  206.348
 4391.00    1.14331   1.13332  204.724
 4392.00    1.15543   1.14530  200.272
 4393.00    1.15835   1.14802  198.487
 4394.00    1.13913   1.14646  201.503
 4395.00    1.12017   1.15545   -1.000
 4396.00    1.14367   1.17680   -1.000
 4397.00    1.16784   1.19190   -1.000
 4398.00    1.17166   1.18587   -1.000
 4399.00    1.16637   1.16758  194.132
 4400.00    1.13593   1.15427   -1.000
 4401.00    1.14073   1.15226  202.831
 4402.00    1.16502   1.14920  199.524
 4403.00    1.14685   1.13067  200.777
 4404.00    1.10433   1.10640  210.473
 4405.00    1.10477   1.09671  218.072
 4406.00    1.12576   1.10586   -1.000
 4407.00    1.11892   1.12382  209.453
 4408.00    1.12393   1.14494   -1.000
 4409.00    1.16109   1.17621   -1.000
 4410.00    1.20134   1.21607   -1.000
 4411.00    1.23919   1.24376  186.444
 4412.00    1.24446   1.24342  182.123
 4413.00    1.21942   1.21597  183.402
 4414.00    1.17936   1.17450  191.243
 4415.00    1.13314   1.14275  200.659
 4416.00    1.12353   1.14296   -1.000
 4417.00    1.14277   1.17467   -1.000
 4418.00    1.19056   1.21795   -1.000
 4419.00    1.22728   1.25206   -1.000
 4420.00    1.23226   1.26078   -1.000
 4421.00    1.23477   1.24768   -1.000
 4422.00    1.22507   1.23084  190.063
 4423.00    1.20333   1.22309   -1.000
 4424.00    1.19454   1.22353   -1.000
 4425.00    1.20127   1.22323   -1.000
 4426.00    1.18677   1.22097   -1.000
 4427.00    1.17232   1.22303   -1.000
 4428.00    1.16724   1.22804   -1.000
 4429.00    1.16340   1.23219   -1.000
 4430.00    1.18284   1.23459   -1.000
 4431.00    1.20058   1.23435   -1.000
 4432.00    1.18894   1.22726   -1.000
 4433.00    1.17145   1.20748   -1.000
 4434.00    1.14352   1.18294   -1.000
 4435.00    1.12776   1.17695   -1.000
 4436.00    1.16283   1.20246   -1.000
 4437.00    1.22019   1.24668   -1.000
 4438.00    1.26223   1.28223   -1.000
 4439.00    1.25831   1.29057   -1.000
 4440.00    1.23181   1.26865   -1.000
 4441.00    1.20663   1.22970   -1.000
 4442.00    1.17644   1.20036   -1.000
 4443.00    1.15696   1.20061   -1.000
 4444.00    1.17323   1.23001   -1.000
 4445.00    1.22196   1.26703   -1.000
 4446.00    1.25992   1.29159   -1.000
 4447.00    1.27443   1.29917   -1.000
 4448.00    1.27207   1.29763   -1.000
 4449.00    1.25243   1.29436   -1.000
 4450.00    1.24582   1.29045   -1.000
 4451.00    1.25839   1.28296   -1.000
 4452.00    1.25654   1.26461  184.740
 4453.00    1.22255   1.23055  188.654
 4454.00    1.19255   1.19272  196.684
 4455.00    1.17458   1.17110  203.563
 4456.00    1.16984   1.17291  203.991
 4457.00    1.19085   1.18600  200.168
 4458.00    1.19968   1.19535  198.311
 4459.00    1.19130   1.19812  199.001
 4460.00    1.17889   1.20007   -1.000
 4461.00    1.16375   1.20679   -1.000
 4462.00    1.17353   1.22234   -1.000
 4463.00    1.21900   1.24488   -1.000
 4464.00    1.25095   1.26398  189.136
 4465.00    1.25286   1.27172   -1.000
 4466.00    1.24490   1.26719   -1.000
 4467.00    1.23983   1.25534   -1.000
 4468.00    1.21600   1.24383   -1.000
 4469.00    1.20685   1.24222   -1.000
 4470.00    1.22382   1.25645   -1.000
 4471.00    1.25564   1.28295   -1.000
 4472.00    1.28882   1.31260   -1.000
 4473.00    1.33085   1.33651  176.196
 4474.00    1.34648   1.34961  172.979
 4475.00    1.32837   1.35474   -1.000
 4476.00    1.33510   1.35736   -1.000
 4477.00    1.34852   1.35591  170.644
 4478.00    1.33449   1.34239  170.832
 4479.00    1.29128   1.31255   -1.000
 4480.00    1.25683   1.27497   -1.000
 4481.00    1.23023   1.25216   -1.000
 4482.00    1.22282   1.25812   -1.000
 4483.00    1.26384   1.28846   -1.000
 4484.00    1.30552   1.32829   -1.000
 4485.00    1.33419   1.35851   -1.000
 4486.00    1.33560   1.36594   -1.000
 4487.00    1.32255   1.35040   -1.000
 4488.00    1.29972   1.32444   -1.000
 4489.00    1.26483   1.30464   -1.000
 4490.00    1.25088   1.30317   -1.000
 4491.00    1.28774   1.31700   -1.000
 4492.00    1.32566   1.33138  177.406
 4493.00    1.31929   1.33229  177.150
 4494.00    1.28420   1.32123   -1.000
 4495.00    1.25862   1.31479   -1.000
 4496.00    1.26973   1.32166   -1.000
 4497.00    1.29515   1.33648   -1.000
 4498.00    1.31850   1.34965   -1.000
 4499.00    1.33142   1.35509   -1.000
 4500.00    1.31902   1.35360   -1.000
 4501.00    1.30344   1.35663   -1.000
 4502.00    1.31135   1.37354   -1.000
 4503.00    1.34466   1.39910   -1.000
 4504.00    1.38729   1.42222   -1.000
 4505.00    1.40037   1.43215   -1.000
 4506.00    1.37522   1.42789   -1.000
 4507.00    1.36115   1.41721   -1.000
 4508.00    1.37889   1.41055   -1.000
 4509.00    1.39959   1.41152  168.141
 4510.00    1.39651   1.41425   -1.000
 4511.00    1.38542   1.41079   -1.000
 4512.00    1.36877   1.39902   -1.000
 4513.00    1.34321   1.38442   -1.000
 4514.00    1.33544   1.37224   -1.000
 4515.00    1.33841   1.36558   -1.000
 4516.00    1.34285   1.36468   -1.000
 4517.00    1.34927   1.36356   -1.000
 4518.00    1.34206   1.36060   -1.000
 4519.00    1.34124   1.36204   -1.000
 4520.00    1.35171   1.36878   -1.000
 4521.00    1.35102   1.37338   -1.000
 4522.00    1.32398   1.36799   -1.000
 4523.00    1.31013   1.35360   -1.000
 4524.00    1.31806   1.33710   -1.000
 4525.00    1.30955   1.31910  181.988
 4526.00    1.28044   1.29550   -1.000
 4527.00    1.24266   1.26778   -1.000
 4528.00    1.22224   1.24640   -1.000
 4529.00    1.23111   1.24180  196.385
 4530.00    1.25243   1.25233  193.893
 4531.00    1.27806   1.26685  190.347
 4532.00    1.29165   1.27055   -1.000
 4533.00    1.27288   1.26038  189.943
 4534.00    1.23652   1.24977   -1.000
 4535.00    1.22110   1.25719   -1.000
 4536.00    1.26344   1.29076   -1.000
 4537.00    1.32958   1.33813  180.179
 4538.00    1.36988   1.37603  172.164
 4539.00    1.37151   1.38803   -1.000
 4540.00    1.34666   1.37980   -1.000
 4541.00    1.36474   1.36920  175.861
 4542.00    1.28098   1.36710   -1.000
 4543.00    0.67869   1.36957   -1.000
 4544.00    0.07128   1.36666   -1.000
 4545.00    0.17549   1.35773   -1.000
 4546.00    0.73863   1.34815   -1.000
 4547.00    0.87620   1.33664   -1.000
 4548.00    0.73342   1.32039   -1.000
 4549.00    1.25741   1.30672   -1.000
 4550.00    1.28560   1.30758  105.744
 4551.00    1.29181   1.32151   -1.000
 4552.00    1.30449   1.33184   -1.000
 4553.00    1.28730   1.32841   -1.000
 4554.00    1.25894   1.31962   -1.000
 4555.00    1.27754   1.32004   -1.000
 4556.00    1.31197   1.33887   -1.000
 4557.00    1.35704   1.37081   -1.000
 4558.00    1.39099   1.40063  168.364
 4559.00    1.39352   1.42047   -1.000
 4560.00    1.38106   1.43021   -1.000
 4561.00    1.38316   1.43042   -1.000
 4562.00    1.38431   1.41984   -1.000
 4563.00    1.35654   1.39963   -1.000
 4564.00    1.31873   1.37964   -1.000
 4565.00    1.32144   1.37284   -1.000
 4566.00    1.34852   1.38462   -1.000
 4567.00    1.37423   1.40741   -1.000
 4568.00    1.40089   1.42436   -1.000
 4569.00    1.41911   1.42453  167.099
 4570.00    1.39674   1.40844  170.124
 4571.00    1.34621   1.38855   -1.000
 4572.00    1.34082   1.38167   -1.000
 4573.00    1.36953   1.39457   -1.000
 4574.00    1.39208   1.41553   -1.000
 4575.00    1.40574   1.42836   -1.000
 4576.00    1.40781   1.42970   -1.000
 4577.00    1.37767   1.42242   -1.000
 4578.00    1.34582   1.40658   -1.000
 4579.00    1.34617   1.38275   -1.000
 4580.00    1.34185   1.35814   -1.000
 4581.00    1.32547   1.34170   -1.000
 4582.00    1.32417   1.33805   -1.000
 4583.00    1.33199   1.34328  177.892
 4584.00    1.33551   1.35006   -1.000
 4585.00    1.33560   1.35528   -1.000
 4586.00    1.33591   1.36385   -1.000
 4587.00    1.35715   1.37933   -1.000
 4588.00    1.38274   1.39798   -1.000
 4589.00    1.39253   1.41077   -1.000
 4590.00    1.39060   1.41047   -1.000
 4591.00    1.37290   1.39877   -1.000
 4592.00    1.35689   1.38535   -1.000
 4593.00    1.34346   1.37959   -1.000
 4594.00    1.33886   1.38309   -1.000
 4595.00    1.35729   1.39088   -1.000
 4596.00    1.37036   1.39888   -1.000
 4597.00    1.37488   1.40541   -1.000
 4598.00    1.38297   1.40836   -1.000
 4599.00    1.39763   1.40544  173.290
 4600.00    1.39383   1.39819  174.902
 4601.00    1.35838   1.39132   -1.000
 4602.00    1.34685   1.38936   -1.000
 4603.00    1.37112   1.39222   -1.000
 4604.00    1.39319   1.39772  172.451
 4605.00    1.39061   1.40489   -1.000
 4606.00    1.37658   1.41508   -1.000
 4607.00    1.39092   1.42993   -1.000
 4608.00    1.41713   1.44756   -1.000
 4609.00    1.44824   1.46215  162.580
 4610.00    1.45701   1.46561  161.870
 4611.00    1.43592   1.45704   -1.000
 4612.00    1.42533   1.44674   -1.000
 4613.00    1.40713   1.44125   -1.000
 4614.00    1.40635   1.44110   -1.000
 4615.00    1.41931   1.44300   -1.000
 4616.00    1.42472   1.44276   -1.000
 4617.00    1.42138   1.43885   -1.000
 4618.00    1.41613   1.43419   -1.000
 4619.00    1.41294   1.43454   -1.000
 4620.00    1.42961   1.44308   -1.000
 4621.00    1.44348   1.45726   -1.000
 4622.00    1.44903   1.46844   -1.000
 4623.00    1.45304   1.47020   -1.000
 4624.00    1.43921   1.46640   -1.000
 4625.00    1.44045   1.46209   -1.000
 4626.00    1.45551   1.45789  164.885
 4627.00    1.44957   1.45501  165.033
 4628.00    1.43575   1.45333   -1.000
 4629.00    1.42990   1.45302   -1.000
 4630.00    1.43571   1.45582   -1.000
 4631.00    1.43427   1.46212   -1.000
 4632.00    1.43508   1.46570   -1.000
 4633.00    1.43586   1.46041   -1.000
 4634.00    1.44384   1.45021  167.672
 4635.00    1.43885   1.44181  168.629
 4636.00    1.42996   1.43590  169.062
 4637.00    1.40687   1.43038   -1.000
 4638.00    1.38855   1.42739   -1.000
 4639.00    1.38985   1.43033   -1.000
 4640.00    1.41313   1.44081   -1.000
 4641.00    1.43659   1.45617   -1.000
 4642.00    1.45239   1.46900   -1.000
 4643.00    1.46655   1.46961  163.409
 4644.00    1.43926   1.45573   -1.000
 4645.00    1.39330   1.43277   -1.000
 4646.00    1.37223   1.40678   -1.000
 4647.00    1.36642   1.38891   -1.000
 4648.00    1.38948   1.39074  175.818
 4649.00    1.41853   1.40994  172.128
 4650.00    1.41848   1.43358  168.791
 4651.00    1.41529   1.44936   -1.000
 4652.00    1.42019   1.45327   -1.000
 4653.00    1.42227   1.44796   -1.000
 4654.00    1.40424   1.43693   -1.000
 4655.00    1.37676   1.42731   -1.000
 4656.00    1.38145   1.42882   -1.000
 4657.00    1.41751   1.44727   -1.000
 4658.00    1.45648   1.47895   -1.000
 4659.00    1.49159   1.50971   -1.000
 4660.00    1.50489   1.52340   -1.000
 4661.00    1.49843   1.51720   -1.000
 4662.00    1.47393   1.49868   -1.000
 4663.00    1.45085   1.47669   -1.000
 4664.00    1.44762   1.45427  167.043
 4665.00    1.42989   1.42809  168.333
 4666.00    1.39360   1.39594  173.089
 4667.00    1.34841   1.36648   -1.000
 4668.00    1.32593   1.35592   -1.000
 4669.00    1.34800   1.37188   -1.000
 4670.00    1.39965   1.40435  175.642
 4671.00    1.44096   1.43638  169.349
 4672.00    1.44653   1.45646  166.401
 4673.00    1.44011   1.46596   -1.000
 4674.00    1.43570   1.47274   -1.000
 4675.00    1.43941   1.48225   -1.000
 4676.00    1.46746   1.48923   -1.000
 4677.00    1.48169   1.48328  161.571
 4678.00    1.45567   1.46411  163.660
 4679.00    1.42169   1.44146   -1.000
 4680.00    1.41770   1.42589  170.253
 4681.00    1.40898   1.42077  172.550
 4682.00    1.40062   1.42452   -1.000
 4683.00    1.42324   1.43497  169.274
 4684.00    1.44222   1.44688  165.802
 4685.00    1.44393   1.45485  164.877
 4686.00    1.45036   1.45793  165.327
 4687.00    1.45480   1.45911  165.746
 4688.00    1.45218   1.46013  166.329
 4689.00    1.45278   1.46088  166.303
 4690.00    1.45111   1.46058  166.827
 4691.00    1.45334   1.45915  167.713
 4692.00    1.45984   1.46096  167.019
 4693.00    1.47394   1.46866  164.730
 4694.00    1.48528   1.47839  161.729
 4695.00    1.50269   1.48531  158.737
 4696.00    1.51743   1.48612   -1.000
 4697.00    1.49913   1.47660   -1.000
 4698.00    1.46611   1.45777  165.329
 4699.00    1.44381   1.43769  169.036
 4700.00    1.44255   1.42175   -1.000
 4701.00    1.44406   1.40983   -1.000
 4702.00    1.43031   1.40037   -1.000
 4703.00    1.42628   1.39837   -1.000
 4704.00    1.42966   1.40829   -1.000
 4705.00    1.43162   1.42202  169.293
 4706.00    1.43468   1.42576  168.877
 4707.00    1.41408   1.41754  171.865
 4708.00    1.39118   1.40904   -1.000
 4709.00    1.40015   1.41209  175.107
 4710.00    1.42110   1.42670  172.257
 4711.00    1.45352   1.44535  167.177
 4712.00    1.48146   1.45929   -1.000
 4713.00    1.47768   1.46127  163.691
 4714.00    1.44668   1.45617  166.030
 4715.00    1.43030   1.45679   -1.000
 4716.00    1.46138   1.46998  166.354
 4717.00    1.48203   1.49030  162.973
 4718.00    1.49399   1.50677  160.750
 4719.00    1.51740   1.51514  160.015
 4720.00    1.52345   1.51662  159.470
 4721.00    1.50539   1.51504  159.728
 4722.00    1.48442   1.51411   -1.000
 4723.00    1.48119   1.51616   -1.000
 4724.00    1.49647   1.51908   -1.000
 4725.00    1.50619   1.51623  159.022
 4726.00    1.48676   1.50165   -1.000
 4727.00    1.45041   1.47620   -1.000
 4728.00    1.42275   1.45095   -1.000
 4729.00    1.41795   1.43750   -1.000
 4730.00    1.42090   1.43693   -1.000
 4731.00    1.44560   1.44388  170.105
 4732.00    1.46549   1.45512  168.480
 4733.00    1.45588   1.46650  166.660
 4734.00    1.46328   1.47263  165.448
 4735.00    1.48331   1.47288  164.533
 4736.00    1.48100   1.47113  164.743
 4737.00    1.47543   1.47155  165.967
 4738.00    1.47422   1.47707  165.110
 4739.00    1.48772   1.48600  163.812
 4740.00    1.48307   1.49203  164.343
 4741.00    1.46172   1.49390   -1.000
 4742.00    1.48173   1.49722   -1.000
 4743.00    1.49329   1.50360  162.976
 4744.00    1.49722   1.50959  162.063
 4745.00    1.50438   1.51300  162.396
 4746.00    1.50497   1.51596  161.955
 4747.00    1.50746   1.52213  160.510
 4748.00    1.50960   1.53126   -1.000
 4749.00    1.50866   1.54022   -1.000
 4750.00    1.50997   1.54672   -1.000
 4751.00    1.50909   1.54650   -1.000
 4752.00    1.49172   1.53686   -1.000
 4753.00    1.48525   1.52050   -1.000
 4754.00    1.48902   1.50528   -1.000
 4755.00    1.48918   1.49830  165.030
 4756.00    1.47554   1.50020   -1.000
 4757.00    1.45928   1.50775   -1.000
 4758.00    1.45282   1.51777   -1.000
 4759.00    1.46778   1.52680   -1.000
 4760.00    1.47973   1.52808   -1.000
 4761.00    1.46393   1.51588   -1.000
 4762.00    1.43420   1.49106   -1.000
 4763.00    1.41220   1.46466   -1.000
 4764.00    1.41198   1.44903   -1.000
 4765.00    1.42270   1.44499   -1.000
 4766.00    1.42953   1.45026   -1.000
 4767.00    1.44449   1.46597   -1.000
 4768.00    1.47261   1.49140   -1.000
 4769.00    1.49349   1.51633   -1.000
 4770.00    1.49845   1.52877   -1.000
 4771.00    1.48883   1.52768   -1.000
 4772.00    1.47710   1.52401   -1.000
 4773.00    1.49391   1.52832   -1.000
 4774.00    1.50460   1.54236   -1.000
 4775.00    1.50842   1.55740   -1.000
 4776.00    1.51753   1.56533   -1.000
 4777.00    1.51801   1.56473   -1.000
 4778.00    1.52374   1.55827   -1.000
 4779.00    1.50347   1.54998   -1.000
 4780.00    1.48044   1.54289   -1.000
 4781.00    1.47579   1.53742   -1.000
 4782.00    1.46818   1.53054   -1.000
 4783.00    1.46619   1.52226   -1.000
 4784.00    1.47925   1.51529   -1.000
 4785.00    1.47743   1.50996   -1.000
 4786.00    1.46224   1.50572   -1.000
 4787.00    1.46536   1.50376   -1.000
 4788.00    1.45642   1.50572   -1.000
 4789.00    1.45905   1.51115   -1.000
 4790.00    1.47231   1.52031   -1.000
 4791.00    1.48293   1.53443   -1.000
 4792.00    1.49871   1.55359   -1.000
 4793.00    1.52683   1.57500   -1.000
 4794.00    1.54530   1.59400   -1.000
 4795.00    1.54899   1.60515   -1.000
 4796.00    1.53980   1.60345   -1.000
 4797.00    1.52771   1.59048   -1.000
 4798.00    1.50446   1.57320   -1.000
 4799.00    1.48212   1.55953   -1.000
 4800.00    1.47974   1.55724   -1.000
 4801.00    1.51380   1.56788   -1.000
 4802.00    1.53909   1.58272   -1.000
 4803.00    1.52719   1.59015   -1.000
 4804.00    1.50242   1.58635   -1.000
 4805.00    1.48690   1.57559   -1.000
 4806.00    1.48495   1.56581   -1.000
 4807.00    1.48690   1.56078   -1.000
 4808.00    1.50370   1.56099   -1.000
 4809.00    1.51468   1.56673   -1.000
 4810.00    1.50666   1.57481   -1.000
 4811.00    1.51054   1.58091   -1.000
 4812.00    1.51845   1.58524   -1.000
 4813.00    1.52903   1.59037   -1.000
 4814.00    1.53466   1.59711   -1.000
 4815.00    1.52330   1.60556   -1.000
 4816.00    1.53274   1.61456   -1.000
 4817.00    1.55432   1.62139   -1.000
 4818.00    1.56604   1.62452   -1.000
 4819.00    1.55950   1.62544   -1.000
 4820.00    1.54408   1.62352   -1.000
 4821.00    1.54786   1.61282   -1.000
 4822.00    1.54643   1.58990   -1.000
 4823.00    1.51615   1.56149   -1.000
 4824.00    1.49697   1.54367   -1.000
 4825.00    1.50164   1.54810   -1.000
 4826.00    1.51914   1.56612   -1.000
 4827.00    1.52383   1.58001   -1.000
 4828.00    1.51761   1.58225   -1.000
 4829.00    1.51200   1.57758   -1.000
 4830.00    1.50624   1.57164   -1.000
 4831.00    1.51894   1.56317   -1.000
 4832.00    1.52197   1.55470   -1.000
 4833.00    1.52691   1.55318   -1.000
 4834.00    1.53241   1.56029   -1.000
 4835.00    1.53544   1.57107   -1.000
 4836.00    1.52836   1.57801   -1.000
 4837.00    1.52964   1.57701   -1.000
 4838.00    1.52941   1.56804   -1.000
 4839.00    1.51771   1.55362   -1.000
 4840.00    1.49474   1.53986   -1.000
 4841.00    1.49114   1.53300   -1.000
 4842.00    1.49824   1.53453   -1.000
 4843.00    1.50804   1.54009   -1.000
 4844.00    1.52192   1.54757   -1.000
 4845.00    1.53914   1.55859   -1.000
 4846.00    1.55677   1.56720  159.674
 4847.00    1.54147   1.56392   -1.000
 4848.00    1.51939   1.55248   -1.000
 4849.00    1.51661   1.54542   -1.000
 4850.00    1.52266   1.54737   -1.000
 4851.00    1.52375   1.55112   -1.000
 4852.00    1.51233   1.54641   -1.000
 4853.00    1.50406   1.52759   -1.000
 4854.00    1.47079   1.49426   -1.000
 4855.00    1.41777   1.45630   -1.000
 4856.00    1.40693   1.42666   -1.000
 4857.00    1.42900   1.40434   -1.000
 4858.00    1.39460   1.36688   -1.000
 4859.00    1.28171   1.29024  182.858
 4860.00    1.10124   1.18932   -1.000
 4861.00    0.93874   1.11437   -1.000
 4862.00    0.95165   1.10969   -1.000
 4863.00    1.13242   1.17485   -1.000
 4864.00    1.31009   1.26749   -1.000
 4865.00    1.39435   1.35051   -1.000
 4866.00    1.42358   1.41127  173.273
 4867.00    1.43872   1.45190  170.509
 4868.00    1.45163   1.47439   -1.000
 4869.00    1.46881   1.47674  169.509
 4870.00    1.46184   1.45868  172.353
 4871.00    1.42520   1.43103  177.090
 4872.00    1.41950   1.41781  179.077
 4873.00    1.44184   1.43585  175.925
 4874.00    1.45127   1.47288   -1.000
 4875.00    1.46538   1.50384   -1.000
 4876.00    1.48032   1.51702   -1.000
 4877.00    1.49071   1.52275   -1.000
 4878.00    1.50464   1.53580   -1.000
 4879.00    1.52133   1.55679   -1.000
 4880.00    1.52318   1.57441   -1.000
 4881.00    1.50084   1.57792   -1.000
 4882.00    1.48576   1.56933   -1.000
 4883.00    1.47766   1.55955   -1.000
 4884.00    1.47214   1.54978   -1.000
 4885.00    1.47020   1.53703   -1.000
 4886.00    1.47008   1.52501   -1.000
 4887.00    1.47422   1.51885   -1.000
 4888.00    1.48392   1.51534   -1.000
 4889.00    1.47393   1.50407   -1.000
 4890.00    1.43925   1.48440   -1.000
 4891.00    1.42902   1.47409   -1.000
 4892.00    1.47175   1.49417   -1.000
 4893.00    1.51908   1.54784   -1.000
 4894.00    1.55722   1.61068   -1.000
 4895.00    1.59550   1.65457   -1.000
 4896.00    1.61259   1.67453   -1.000
 4897.00    1.61534   1.67680   -1.000
 4898.00    1.60503   1.66730   -1.000
 4899.00    1.58027   1.65148   -1.000
 4900.00    1.54147   1.63651   -1.000
 4901.00    1.53376   1.62631   -1.000
 4902.00    1.55080   1.61857   -1.000
 4903.00    1.53989   1.61055   -1.000
 4904.00    1.53565   1.60998   -1.000
 4905.00    1.56084   1.62506   -1.000
 4906.00    1.59124   1.64534   -1.000
 4907.00    1.60708   1.65189   -1.000
 4908.00    1.59263   1.63730   -1.000
 4909.00    1.54157   1.60760   -1.000
 4910.00    1.49980   1.57878   -1.000
 4911.00    1.50496   1.56689   -1.000
 4912.00    1.52618   1.57794   -1.000
 4913.00    1.55056   1.60250   -1.000
 4914.00    1.57128   1.62764   -1.000
 4915.00    1.57908   1.64456   -1.000
 4916.00    1.58941   1.64220   -1.000
 4917.00    1.57211   1.60936   -1.000
 4918.00    1.52089   1.54973   -1.000
 4919.00    1.46320   1.48454   -1.000
 4920.00    1.42711   1.44234   -1.000
 4921.00    1.44253   1.43952  181.355
 4922.00    1.47499   1.46749  174.994
 4923.00    1.49534   1.50226  170.076
 4924.00    1.52408   1.52877  168.549
 4925.00    1.54175   1.55254  167.669
 4926.00    1.54598   1.58164   -1.000
 4927.00    1.56982   1.61503   -1.000
 4928.00    1.60718   1.64514   -1.000
 4929.00    1.62524   1.66523   -1.000
 4930.00    1.63729   1.67299   -1.000
 4931.00    1.62626   1.66465   -1.000
 4932.00    1.59376   1.63794   -1.000
 4933.00    1.54960   1.60281   -1.000
 4934.00    1.52724   1.57872   -1.000
 4935.00    1.53840   1.57510   -1.000
 4936.00    1.55853   1.57966   -1.000
 4937.00    1.54580   1.56977   -1.000
 4938.00    1.50924   1.54634   -1.000
 4939.00    1.48497   1.53514   -1.000
 4940.00    1.51726   1.55353   -1.000
 4941.00    1.57083   1.59556   -1.000
 4942.00    1.60217   1.63816   -1.000
 4943.00    1.60513   1.66319   -1.000
 4944.00    1.61747   1.66954   -1.000
 4945.00    1.62951   1.66477   -1.000
 4946.00    1.62101   1.65874   -1.000
 4947.00    1.61159   1.66050   -1.000
 4948.00    1.62376   1.67282   -1.000
 4949.00    1.63118   1.68749   -1.000
 4950.00    1.64196   1.69421   -1.000
 4951.00    1.65619   1.69115   -1.000
 4952.00    1.64934   1.68353   -1.000
 4953.00    1.63017   1.67516   -1.000
 4954.00    1.61357   1.66314   -1.000
 4955.00    1.58788   1.63557   -1.000
 4956.00    1.53248   1.58350   -1.000
 4957.00    1.47840   1.52754   -1.000
 4958.00    1.47741   1.50759   -1.000
 4959.00    1.52403   1.53964  171.915
 4960.00    1.58070   1.59922   -1.000
 4961.00    1.59656   1.64716   -1.000
 4962.00    1.58730   1.66845   -1.000
 4963.00    1.58818   1.66947   -1.000
 4964.00    1.58491   1.65749   -1.000
 4965.00    1.57132   1.63777   -1.000
 4966.00    1.55234   1.61792   -1.000
 4967.00    1.55475   1.60478   -1.000
 4968.00    1.56297   1.59992   -1.000
 4969.00    1.54895   1.60285   -1.000
 4970.00    1.54374   1.61337   -1.000
 4971.00    1.57005   1.62924   -1.000
 4972.00    1.59936   1.64661   -1.000
 4973.00    1.62494   1.66212   -1.000
 4974.00    1.62523   1.67258   -1.000
 4975.00    1.62699   1.67511   -1.000
 4976.00    1.61585   1.66966   -1.000
 4977.00    1.58977   1.65736   -1.000
 4978.00    1.57029   1.64090   -1.000
 4979.00    1.55946   1.62218   -1.000
 4980.00    1.54184   1.59776   -1.000
 4981.00    1.52116   1.56102   -1.000
 4982.00    1.48737   1.51477   -1.000
 4983.00    1.46564   1.47813  182.768
 4984.00    1.47435   1.47287  181.344
 4985.00    1.49979   1.50261  177.220
 4986.00    1.52851   1.54958   -1.000
 4987.00    1.56305   1.59279   -1.000
 4988.00    1.58262   1.61861   -1.000
 4989.00    1.57669   1.62165   -1.000
 4990.00    1.55738   1.60989   -1.000
 4991.00    1.56056   1.59838   -1.000
 4992.00    1.59375   1.59653  168.255
 4993.00    1.59777   1.60296  167.016
 4994.00    1.58737   1.61221   -1.000
 4995.00    1.59512   1.62167   -1.000
 4996.00    1.60283   1.63003   -1.000
 4997.00    1.59487   1.63187   -1.000
 4998.00    1.57295   1.62000   -1.000
 4999.00    1.54397   1.59413   -1.000
 5000.00    1.52263   1.56461   -1.000
 5001.00    1.53218   1.54554  173.725
 5002.00    1.54220   1.54374  173.141
 5003.00    1.54036   1.55112  171.648
 5004.00    1.54274   1.55048  171.854
 5005.00    1.52793   1.53310  175.110
 5006.00    1.49984   1.51281  178.340
 5007.00    1.50260   1.51444  177.237
 5008.00    1.53940   1.54269  172.381
 5009.00    1.57993   1.57710  168.374
 5010.00    1.58369   1.59229  168.122
 5011.00    1.54337   1.57691   -1.000
 5012.00    1.50762   1.54030   -1.000
 5013.00    1.48342   1.50359   -1.000
 5014.00    1.45940   1.48564   -1.000
 5015.00    1.47122   1.48827   -1.000
 5016.00    1.49990   1.50017  178.978
 5017.00    1.51157   1.50986  176.346
 5018.00    1.52432   1.51711  175.952
 5019.00    1.53428   1.52951  175.243
 5020.00    1.54971   1.54561  173.412
 5021.00    1.55617   1.55655  172.815
 5022.00    1.55743   1.56015  173.486
 5023.00    1.57114   1.56510  173.349
 5024.00    1.58106   1.58018  172.012
 5025.00    1.59056   1.59674  170.418
 5026.00    1.58777   1.59993  170.011
 5027.00    1.57536   1.59323   -1.000
 5028.00    1.57459   1.59039  170.801
 5029.00    1.58541   1.59855  168.565
 5030.00    1.60083   1.61684  165.638
 5031.00    1.62615   1.63984  163.168
 5032.00    1.64682   1.66058  160.793
 5033.00    1.65136   1.66984   -1.000
 5034.00    1.62534   1.65777   -1.000
 5035.00    1.58964   1.62673   -1.000
 5036.00    1.54964   1.59415   -1.000
 5037.00    1.54053   1.57344   -1.000
 5038.00    1.53754   1.55791   -1.000
 5039.00    1.49792   1.52776   -1.000
 5040.00    1.44385   1.48478   -1.000
 5041.00    1.41790   1.45944   -1.000
 5042.00    1.45577   1.47689   -1.000
 5043.00    1.55831   1.53409   -1.000
 5044.00    1.34648   1.60270   -1.000
 5045.00    0.51303   1.65482   -1.000
 5046.00    0.00653   1.67999   -1.000
 5047.00    0.25057   1.67688   -1.000
 5048.00    1.14113   1.65001   -1.000
 5049.00    1.66667   1.61211   -1.000
 5050.00    1.56022   1.58119   -1.000
 5051.00    1.55256   1.57011   -1.000
 5052.00    1.57194   1.58248  170.942
 5053.00    1.60413   1.61239  166.845
 5054.00    1.63919   1.64471  163.055
 5055.00    1.66685   1.66627  160.635
 5056.00    1.66751   1.67864  159.510
 5057.00    1.66611   1.68781   -1.000
 5058.00    1.67378   1.69621   -1.000
 5059.00    1.66519   1.70367   -1.000
 5060.00    1.67556   1.70888   -1.000
 5061.00    1.68404   1.71072   -1.000
 5062.00    1.65993   1.70421   -1.000
 5063.00    1.64143   1.68062   -1.000
 5064.00    1.60340   1.64421   -1.000
 5065.00    1.56716   1.61399   -1.000
 5066.00    1.56651   1.60289   -1.000
 5067.00    1.58384   1.60786   -1.000
 5068.00    1.60953   1.61631  168.529
 5069.00    1.61362   1.62279  167.947
 5070.00    1.62317   1.62804  167.025
 5071.00    1.63086   1.62842  166.812
 5072.00    1.61733   1.62158  168.218
 5073.00    1.62446   1.61536  168.290
 5074.00    1.64390   1.61840   -1.000
 5075.00    1.63899   1.62792  165.521
 5076.00    1.62894   1.63353  165.361
 5077.00    1.62484   1.62560  165.866
 5078.00    1.59991   1.59938  169.034
 5079.00    1.56925   1.56195  175.843
 5080.00    1.53731   1.53466  181.997
 5081.00    1.53704   1.53140  181.723
 5082.00    1.56251   1.54656  177.719
 5083.00    1.57787   1.56802  174.442
 5084.00    1.59872   1.59052  171.781
 5085.00    1.62078   1.61570  168.616
 5086.00    1.63907   1.63956  166.353
 5087.00    1.66034   1.65532  165.561
 5088.00    1.66268   1.66346  165.136
 5089.00    1.66527   1.66872  164.152
 5090.00    1.67804   1.67447  163.057
 5091.00    1.68952   1.68272  162.186
 5092.00    1.70108   1.69424  160.965
 5093.00    1.70793   1.70551  159.227
 5094.00    1.71217   1.70749  158.857
 5095.00    1.70745   1.69167  161.068
 5096.00    1.66312   1.65893  164.537
 5097.00    1.62086   1.62022  168.256
 5098.00    1.61146   1.58968   -1.000
 5099.00    1.59933   1.57889   -1.000
 5100.00    1.60891   1.59213  173.307
 5101.00    1.64136   1.62215   -1.000
 5102.00    1.67086   1.65010   -1.000
 5103.00    1.66594   1.66164  164.490
 5104.00    1.65391   1.65747  165.964
 5105.00    1.64234   1.64330  168.160
 5106.00    1.62875   1.62360  170.261
 5107.00    1.60749   1.60365  172.363
 5108.00    1.57947   1.59052  173.646
 5109.00    1.58661   1.58909  172.999
 5110.00    1.61566   1.60004  171.817
 5111.00    1.64310   1.62110   -1.000
 5112.00    1.66527   1.64591   -1.000
 5113.00    1.66766   1.66690  165.730
 5114.00    1.67647   1.68277  163.901
 5115.00    1.69191   1.69605  162.658
 5116.00    1.70364   1.70828  161.493
 5117.00    1.71279   1.71728  159.888
 5118.00    1.71904   1.71949  159.219
 5119.00    1.70803   1.71245  160.329
 5120.00    1.68899   1.69587  162.597
 5121.00    1.66590   1.67289  165.143
 5122.00    1.63279   1.64711  168.429
 5123.00    1.60519   1.62064  173.090
 5124.00    1.59170   1.59793  176.893
 5125.00    1.58802   1.58624  176.973
 5126.00    1.61241   1.58609   -1.000
 5127.00    1.61674   1.59035   -1.000
 5128.00    1.61427   1.59313   -1.000
 5129.00    1.61555   1.59622   -1.000
 5130.00    1.61916   1.60417  173.287
 5131.00    1.63740   1.61774   -1.000
 5132.00    1.66620   1.63292   -1.000
 5133.00    1.68422   1.64592   -1.000
 5134.00    1.68958   1.65596   -1.000
 5135.00    1.69403   1.66131   -1.000
 5136.00    1.67499   1.65663  165.102
 5137.00    1.64352   1.63902  168.571
 5138.00    1.63109   1.61524  172.209
 5139.00    1.62077   1.59689   -1.000
 5140.00    1.61247   1.59076   -1.000
 5141.00    1.61807   1.59277   -1.000
 5142.00    1.61320   1.59622  174.848
 5143.00    1.61085   1.60106  176.351
 5144.00    1.61491   1.60936  174.480
 5145.00    1.61766   1.61651  172.321
 5146.00    1.62246   1.61458  172.599
 5147.00    1.63238   1.60669   -1.000
 5148.00    1.63866   1.60617   -1.000
 5149.00    1.64588   1.61407   -1.000
 5150.00    1.63865   1.61694   -1.000
 5151.00    1.61668   1.60954  174.301
 5152.00    1.59434   1.59854  176.794
 5153.00    1.60831   1.59231  177.141
 5154.00    1.62819   1.59728   -1.000
 5155.00    1.66156   1.61662   -1.000
 5156.00    1.70485   1.64664   -1.000
 5157.00    1.72711   1.67730   -1.000
 5158.00    1.73969   1.70024   -1.000
 5159.00    1.74331   1.71197   -1.000
 5160.00    1.75446   1.71335   -1.000
 5161.00    1.73117   1.70547   -1.000
 5162.00    1.70714   1.68832  162.302
 5163.00    1.71258   1.66195   -1.000
 5164.00    1.68414   1.62106   -1.000
 5165.00    1.60408   1.55295   -1.000
 5166.00    1.49747   1.45974   -1.000
 5167.00    1.40751   1.37415   -1.000
 5168.00    1.37074   1.33971   -1.000
 5169.00    1.41103   1.36404   -1.000
 5170.00    1.46531   1.39494   -1.000
 5171.00    1.44298   1.38506   -1.000
 5172.00    1.37863   1.34974   -1.000
 5173.00    1.37194   1.34505   -1.000
 5174.00    1.45357   1.40746   -1.000
 5175.00    1.56345   1.50783   -1.000
 5176.00    1.63829   1.59356   -1.000
 5177.00    1.68001   1.64280   -1.000
 5178.00    1.70018   1.66053   -1.000
 5179.00    1.70241   1.65631   -1.000
 5180.00    1.67383   1.62437   -1.000
 5181.00    1.59899   1.55348   -1.000
 5182.00    1.48377   1.45334   -1.000
 5183.00    1.37375   1.36546  219.220
 5184.00    1.36100   1.34244   -1.000
 5185.00    1.45707   1.39838   -1.000
 5186.00    1.57473   1.49601   -1.000
 5187.00    1.64136   1.57953   -1.000
 5188.00    1.66558   1.62230   -1.000
 5189.00    1.67744   1.63715   -1.000
 5190.00    1.66946   1.63522   -1.000
 5191.00    1.62659   1.61627  173.369
 5192.00    1.58990   1.59075  178.785
 5193.00    1.60307   1.57712   -1.000
 5194.00    1.62352   1.58172   -1.000
 5195.00    1.62993   1.59707   -1.000
 5196.00    1.64468   1.61465   -1.000
 5197.00    1.65549   1.63615   -1.000
 5198.00    1.66421   1.66365  167.447
 5199.00    1.65552   1.69006   -1.000
 5200.00    1.65037   1.70612   -1.000
 5201.00    1.65529   1.70617   -1.000
 5202.00    1.67262   1.68739  166.673
 5203.00    1.67590   1.65109   -1.000
 5204.00    1.65101   1.60414   -1.000
 5205.00    1.60573   1.55891   -1.000
 5206.00    1.58286   1.52799   -1.000
 5207.00    1.57228   1.51571   -1.000
 5208.00    1.59250   1.51783   -1.000
 5209.00    1.61887   1.53354   -1.000
 5210.00    1.63358   1.56728   -1.000
 5211.00    1.68301   1.61866   -1.000
 5212.00    1.74504   1.67465   -1.000
 5213.00    1.76454   1.71353   -1.000
 5214.00    1.75486   1.72067   -1.000
 5215.00    1.72861   1.70013   -1.000
 5216.00    1.69916   1.67591   -1.000
 5217.00    1.70487   1.67243   -1.000
 5218.00    1.73958   1.69523   -1.000
 5219.00    1.75542   1.73108   -1.000
 5220.00    1.76364   1.76208  159.855
 5221.00    1.79094   1.77828  158.884
 5222.00    1.79676   1.77527   -1.000
 5223.00    1.77001   1.75109  162.383
 5224.00    1.72229   1.70339   -1.000
 5225.00    1.64232   1.63632  175.440
 5226.00    1.59271   1.57440   -1.000
 5227.00    1.60132   1.55123   -1.000
 5228.00    1.64636   1.57998   -1.000
 5229.00    1.72488   1.63948   -1.000
 5230.00    1.76742   1.68973   -1.000
 5231.00    1.76380   1.70787   -1.000
 5232.00    1.75504   1.69663   -1.000
 5233.00    1.73794   1.67480   -1.000
 5234.00    1.72836   1.66647   -1.000
 5235.00    1.74556   1.68457   -1.000
 5236.00    1.77070   1.72120   -1.000
 5237.00    1.79929   1.75816   -1.000
 5238.00    1.80950   1.78237   -1.000
 5239.00    1.80350   1.79137  157.535
 5240.00    1.80762   1.79080  157.785
 5241.00    1.80937   1.78641   -1.000
 5242.00    1.80988   1.78289   -1.000
 5243.00    1.80903   1.78522   -1.000
 5244.00    1.80930   1.79163  156.461
 5245.00    1.79628   1.78970  157.403
 5246.00    1.75867   1.77077  161.352
 5247.00    1.73140   1.74187  166.047
 5248.00    1.73230   1.71746  168.630
 5249.00    1.73696   1.70491   -1.000
 5250.00    1.72313   1.70150   -1.000
 5251.00    1.69770   1.70473  169.908
 5252.00    1.70837   1.71359  168.456
 5253.00    1.74679   1.72223   -1.000
 5254.00    1.75306   1.72603   -1.000
 5255.00    1.75099   1.73257  164.938
 5256.00    1.78161   1.75224   -1.000
 5257.00    1.81413   1.78200   -1.000
 5258.00    1.83561   1.80664   -1.000
 5259.00    1.84042   1.81015   -1.000
 5260.00    1.81298   1.78544   -1.000
 5261.00    1.75892   1.73549   -1.000
 5262.00    1.70012   1.67127   -1.000
 5263.00    1.64615   1.60755   -1.000
 5264.00    1.60161   1.55825   -1.000
 5265.00    1.58658   1.53486   -1.000
 5266.00    1.61658   1.53839   -1.000
 5267.00    1.65435   1.55029   -1.000
 5268.00    1.65031   1.54658   -1.000
 5269.00    1.60568   1.52400   -1.000
 5270.00    1.57727   1.51081   -1.000
 5271.00    1.61636   1.53815   -1.000
 5272.00    1.69782   1.59456   -1.000
 5273.00    1.74080   1.64326   -1.000
 5274.00    1.74158   1.66864   -1.000
 5275.00    1.73823   1.68297   -1.000
 5276.00    1.76154   1.70640   -1.000
 5277.00    1.80773   1.74443   -1.000
 5278.00    1.85132   1.78253   -1.000
 5279.00    1.85216   1.79861   -1.000
 5280.00    1.82972   1.78371   -1.000
 5281.00    1.80215   1.75021   -1.000
 5282.00    1.77029   1.71678   -1.000
 5283.00    1.75290   1.69859   -1.000
 5284.00    1.75671   1.70761   -1.000
 5285.00    1.80114   1.74542   -1.000
 5286.00    1.84998   1.79513   -1.000
 5287.00    1.87619   1.83357   -1.000
 5288.00    1.87478   1.85127   -1.000
 5289.00    1.87745   1.85686  153.538
 5290.00    1.88571   1.85983   -1.000
 5291.00    1.89432   1.86005   -1.000
 5292.00    1.88136   1.85686   -1.000
 5293.00    1.86085   1.85137  153.701
 5294.00    1.84675   1.83935  155.386
 5295.00    1.83752   1.81307   -1.000
 5296.00    1.79485   1.77006   -1.000
 5297.00    1.72847   1.72377  168.977
 5298.00    1.70775   1.69883  171.452
 5299.00    1.74848   1.70529   -1.000
 5300.00    1.77720   1.72994   -1.000
 5301.00    1.78429   1.75456   -1.000
 5302.00    1.80013   1.77449   -1.000
 5303.00    1.82964   1.79858   -1.000
 5304.00    1.86194   1.82662   -1.000
 5305.00    1.88851   1.84544   -1.000
 5306.00    1.89392   1.84862   -1.000
 5307.00    1.87800   1.84313   -1.000
 5308.00    1.87824   1.84244   -1.000
 5309.00    1.89233   1.85323   -1.000
 5310.00    1.90009   1.86854   -1.000
 5311.00    1.90672   1.87783   -1.000
 5312.00    1.89648   1.87625  152.171
 5313.00    1.88317   1.86524  152.994
 5314.00    1.88289   1.84803   -1.000
 5315.00    1.87578   1.82666   -1.000
 5316.00    1.85720   1.80702   -1.000
 5317.00    1.84918   1.80016   -1.000
 5318.00    1.85680   1.81114   -1.000
 5319.00    1.86968   1.83000   -1.000
 5320.00    1.87097   1.83950   -1.000
 5321.00    1.87293   1.83213   -1.000
 5322.00    1.85956   1.81055   -1.000
 5323.00    1.83652   1.78099   -1.000
 5324.00    1.81409   1.75196   -1.000
 5325.00    1.81095   1.72633   -1.000
 5326.00    1.78777   1.69409   -1.000
 5327.00    1.71162   1.64618   -1.000
 5328.00    1.65674   1.60312   -1.000
 5329.00    1.66665   1.60178   -1.000
 5330.00    1.73858   1.65060   -1.000
 5331.00    1.82748   1.71910   -1.000
 5332.00    1.85844   1.76918   -1.000
 5333.00    1.86240   1.79430   -1.000
 5334.00    1.86249   1.81067   -1.000
 5335.00    1.88093   1.82396   -1.000
 5336.00    1.86738   1.82846   -1.000
 5337.00    1.85185   1.82127   -1.000
 5338.00    1.84537   1.80214   -1.000
 5339.00    1.83906   1.77241   -1.000
 5340.00    1.80161   1.74293   -1.000
 5341.00    1.80092   1.73268   -1.000
 5342.00    1.84010   1.75088   -1.000
 5343.00    1.87245   1.78352   -1.000
 5344.00    1.87334   1.80516   -1.000
 5345.00    1.84645   1.80573   -1.000
 5346.00    1.84417   1.79325   -1.000
 5347.00    1.85049   1.77966   -1.000
 5348.00    1.84879   1.77197   -1.000
 5349.00    1.85042   1.77312   -1.000
 5350.00    1.85971   1.78594   -1.000
 5351.00    1.87711   1.80949   -1.000
 5352.00    1.89233   1.83505   -1.000
 5353.00    1.89262   1.85376   -1.000
 5354.00    1.89538   1.86767   -1.000
 5355.00    1.92764   1.88265   -1.000
 5356.00    1.96094   1.89722   -1.000
 5357.00    1.96425   1.90626   -1.000
 5358.00    1.95946   1.90792   -1.000
 5359.00    1.94944   1.90389   -1.000
 5360.00    1.93065   1.89371   -1.000
 5361.00    1.91173   1.87537   -1.000
 5362.00    1.89123   1.85132   -1.000
 5363.00    1.88854   1.82723   -1.000
 5364.00    1.87548   1.80805   -1.000
 5365.00    1.85400   1.79700   -1.000
 5366.00    1.85170   1.79403   -1.000
 5367.00    1.85999   1.79307   -1.000
 5368.00    1.85573   1.78285   -1.000
 5369.00    1.84086   1.75593   -1.000
 5370.00    1.79447   1.71856   -1.000
 5371.00    1.76468   1.69264   -1.000
 5372.00    1.79114   1.70048   -1.000
 5373.00    1.84622   1.74510   -1.000
 5374.00    1.90674   1.80472   -1.000
 5375.00    1.94155   1.85087   -1.000
 5376.00    1.95127   1.87291   -1.000
 5377.00    1.95845   1.87688   -1.000
 5378.00    1.95126   1.87251   -1.000
 5379.00    1.93711   1.86472   -1.000
 5380.00    1.91450   1.85418   -1.000
 5381.00    1.88840   1.84143   -1.000
 5382.00    1.87151   1.82908   -1.000
 5383.00    1.87236   1.82271   -1.000
 5384.00    1.89172   1.82834   -1.000
 5385.00    1.91807   1.84565   -1.000
 5386.00    1.91772   1.86446   -1.000
 5387.00    1.92211   1.87286   -1.000
 5388.00    1.92519   1.86699   -1.000
 5389.00    1.90202   1.85041   -1.000
 5390.00    1.87491   1.82996   -1.000
 5391.00    1.86817   1.81159   -1.000
 5392.00    1.86505   1.79765   -1.000
 5393.00    1.86045   1.78919   -1.000
 5394.00    1.85056   1.78327   -1.000
 5395.00    1.83815   1.77092   -1.000
 5396.00    1.82037   1.74975   -1.000
 5397.00    1.80683   1.73141   -1.000
 5398.00    1.83523   1.73322   -1.000
 5399.00    1.88001   1.75929   -1.000
 5400.00    1.91632   1.79219   -1.000
 5401.00    1.91290   1.81251   -1.000
 5402.00    1.87938   1.81108   -1.000
 5403.00    1.84822   1.78409   -1.000
 5404.00    1.80173   1.73903   -1.000
 5405.00    1.76767   1.70019   -1.000
 5406.00    1.77700   1.68973   -1.000
 5407.00    1.80245   1.70747   -1.000
 5408.00    1.83109   1.73115   -1.000
 5409.00    1.82945   1.74040   -1.000
 5410.00    1.82366   1.74216   -1.000
 5411.00    1.84319   1.75552   -1.000
 5412.00    1.89394   1.78307   -1.000
 5413.00    1.91255   1.80989   -1.000
 5414.00    1.91548   1.82398   -1.000
 5415.00    1.91143   1.83213   -1.000
 5416.00    1.90767   1.84553   -1.000
 5417.00    1.91587   1.86180   -1.000
 5418.00    1.91191   1.87195   -1.000
 5419.00    1.90281   1.87209   -1.000
 5420.00    1.89683   1.86655   -1.000
 5421.00    1.90231   1.86030   -1.000
 5422.00    1.90443   1.85110   -1.000
 5423.00    1.89687   1.83709   -1.000
 5424.00    1.88160   1.82588   -1.000
 5425.00    1.87236   1.83003   -1.000
 5426.00    1.90079   1.84982   -1.000
 5427.00    1.92453   1.86132   -1.000
 5428.00    1.89665   1.84323   -1.000
 5429.00    1.84735   1.80600   -1.000
 5430.00    1.82448   1.77896   -1.000
 5431.00    1.84038   1.77814   -1.000
 5432.00    1.86808   1.78803   -1.000
 5433.00    1.85839   1.78611   -1.000
 5434.00    1.82692   1.77385   -1.000
 5435.00    1.82055   1.77012   -1.000
 5436.00    1.84835   1.78991   -1.000
 5437.00    1.88109   1.83017   -1.000
 5438.00    1.92081   1.87377   -1.000
 5439.00    1.97041   1.90488   -1.000
 5440.00    2.00059   1.92075   -1.000
 5441.00    1.98969   1.92825   -1.000
 5442.00    1.97090   1.92881   -1.000
 5443.00    1.96807   1.91600   -1.000
 5444.00    1.93640   1.88263   -1.000
 5445.00    1.88284   1.83201   -1.000
 5446.00    1.81961   1.78393   -1.000
 5447.00    1.79507   1.76321   -1.000
 5448.00    1.84423   1.78136   -1.000
 5449.00    1.89883   1.82422   -1.000
 5450.00    1.93341   1.86482   -1.000
 5451.00    1.93692   1.88678   -1.000
 5452.00    1.91696   1.88585   -1.000
 5453.00    1.88999   1.86262   -1.000
 5454.00    1.86689   1.82413   -1.000
 5455.00    1.82678   1.78845   -1.000
 5456.00    1.83134   1.78090   -1.000
 5457.00    1.86610   1.81048   -1.000
 5458.00    1.90825   1.85592   -1.000
 5459.00    1.94734   1.88780   -1.000
 5460.00    1.92761   1.89210   -1.000
 5461.00    1.90851   1.87303   -1.000
 5462.00    1.90716   1.84535   -1.000
 5463.00    1.88165   1.82656   -1.000
 5464.00    1.88079   1.82728   -1.000
 5465.00    1.90286   1.84434   -1.000
 5466.00    1.91775   1.86531   -1.000
 5467.00    1.92348   1.88112   -1.000
 5468.00    1.92687   1.89099   -1.000
 5469.00    1.91908   1.89482   -1.000
 5470.00    1.91741   1.89138   -1.000
 5471.00    1.92753   1.88274   -1.000
 5472.00    1.90972   1.87168   -1.000
 5473.00    1.88966   1.85747   -1.000
 5474.00    1.87706   1.83627   -1.000
 5475.00    1.84272   1.80637   -1.000
 5476.00    1.81458   1.77753   -1.000
 5477.00    1.81865   1.76782   -1.000
 5478.00    1.83481   1.78574   -1.000
 5479.00    1.87561   1.81803   -1.000
 5480.00    1.89725   1.83972   -1.000
 5481.00    1.87255   1.84302   -1.000
 5482.00    1.86852   1.84302   -1.000
 5483.00    1.88741   1.85452   -1.000
 5484.00    1.91563   1.87655   -1.000
 5485.00    1.93765   1.89453   -1.000
 5486.00    1.93498   1.89612   -1.000
 5487.00    1.89820   1.88379  159.571
 5488.00    1.87494   1.87110  161.456
 5489.00    1.88227   1.86944  161.988
 5490.00    1.89404   1.87766  161.570
 5491.00    1.91632   1.88726   -1.000
 5492.00    1.93989   1.89276   -1.000
 5493.00    1.93745   1.89427   -1.000
 5494.00    1.93648   1.89380   -1.000
 5495.00    1.93166   1.89025   -1.000
 5496.00    1.93315   1.88206   -1.000
 5497.00    1.90907   1.87316   -1.000
 5498.00    1.90977   1.87005   -1.000
 5499.00    1.92970   1.87286   -1.000
 5500.00    1.92432   1.87156   -1.000
 5501.00    1.90595   1.85949   -1.000
 5502.00    1.90613   1.84743   -1.000
 5503.00    1.93574   1.84622   -1.000
 5504.00    1.93525   1.84944   -1.000
 5505.00    1.89912   1.84566   -1.000
 5506.00    1.87656   1.83443   -1.000
 5507.00    1.88567   1.82905   -1.000
 5508.00    1.90992   1.83916   -1.000
 5509.00    1.92503   1.85636   -1.000
 5510.00    1.92286   1.86466   -1.000
 5511.00    1.90395   1.85594   -1.000
 5512.00    1.87588   1.83581   -1.000
 5513.00    1.87144   1.81895   -1.000
 5514.00    1.87005   1.81775   -1.000
 5515.00    1.89818   1.83301   -1.000
 5516.00    1.93825   1.85691   -1.000
 5517.00    1.95778   1.88216   -1.000
 5518.00    1.96537   1.90454   -1.000
 5519.00    1.98580   1.92029   -1.000
 5520.00    1.98934   1.92721   -1.000
 5521.00    1.97954   1.92751   -1.000
 5522.00    1.98417   1.92583   -1.000
 5523.00    1.98037   1.92343   -1.000
 5524.00    1.95731   1.91515   -1.000
 5525.00    1.93178   1.89471   -1.000
 5526.00    1.90455   1.86156   -1.000
 5527.00    1.86263   1.82548   -1.000
 5528.00    1.84026   1.80430   -1.000
 5529.00    1.86413   1.81255   -1.000
 5530.00    1.91261   1.84654   -1.000
 5531.00    1.94331   1.88293   -1.000
 5532.00    1.95755   1.90107   -1.000
 5533.00    1.93608   1.89909   -1.000
 5534.00    1.90749   1.88809   -1.000
 5535.00    1.91025   1.88069   -1.000
 5536.00    1.92424   1.88366   -1.000
 5537.00    1.92892   1.89404   -1.000
 5538.00    1.94496   1.90439   -1.000
 5539.00    1.96452   1.91328   -1.000
 5540.00    1.99637   1.92303   -1.000
 5541.00    2.00817   1.92924   -1.000
 5542.00    1.98762   1.92561   -1.000
 5543.00    1.96882   1.91480   -1.000
 5544.00    1.96640   1.90626   -1.000
 5545.00    1.96862   1.90606   -1.000
 5546.00    1.96035   1.91242   -1.000
 5547.00    1.97004   1.92233   -1.000
 5548.00    1.98739   1.93561   -1.000
 5549.00    2.01109   1.94871   -1.000
 5550.00    2.00927   1.95577   -1.000
 5551.00    2.00405   1.95502   -1.000
 5552.00    1.99867   1.94750   -1.000
 5553.00    1.96163   1.93621   -1.000
 5554.00    1.94688   1.92717   -1.000
 5555.00    1.96668   1.92522   -1.000
 5556.00    1.99034   1.92886   -1.000
 5557.00    1.98863   1.93319   -1.000
 5558.00    1.98646   1.93659   -1.000
 5559.00    1.98825   1.93914   -1.000
 5560.00    1.99106   1.93817   -1.000
 5561.00    1.98207   1.93048   -1.000
 5562.00    1.97444   1.91779   -1.000
 5563.00    1.96429   1.90599   -1.000
 5564.00    1.94260   1.89850   -1.000
 5565.00    1.92813   1.89412   -1.000
 5566.00    1.93682   1.89072   -1.000
 5567.00    1.95371   1.88775   -1.000
 5568.00    1.94204   1.88535   -1.000
 5569.00    1.93855   1.88363   -1.000
 5570.00    1.94887   1.88198   -1.000
 5571.00    1.93398   1.87897   -1.000
 5572.00    1.91665   1.87419   -1.000
 5573.00    1.92975   1.87206   -1.000
 5574.00    1.92291   1.87835   -1.000
 5575.00    1.85541   1.88982   -1.000
 5576.00    1.82012   1.89960   -1.000
 5577.00    1.62055   1.90843   -1.000
 5578.00    1.33765   1.91892   -1.000
 5579.00    2.59688   1.92806   -1.000
 5580.00    4.79809   1.93172   -1.000
 5581.00    5.00792   1.93039   -1.000
 5582.00    3.20377   1.92755   -1.000
 5583.00    2.10405   1.92445   -1.000
 5584.00    1.99525   1.91696   -1.000
 5585.00    1.96076   1.89551   -1.000
 5586.00    1.93080   1.85548   -1.000
 5587.00    1.89163   1.81059   -1.000
 5588.00    1.85019   1.78191   -1.000
 5589.00    1.85485   1.77975   -1.000
 5590.00    1.87518   1.80015   -1.000
 5591.00    1.91321   1.82965   -1.000
 5592.00    1.92844   1.85258   -1.000
 5593.00    1.92577   1.86275   -1.000
 5594.00    1.91636   1.86757   -1.000
 5595.00    1.93402   1.87655   -1.000
 5596.00    1.94283   1.88826   -1.000
 5597.00    1.94457   1.89058   -1.000
 5598.00    1.92710   1.87808   -1.000
 5599.00    1.90749   1.86147   -1.000
 5600.00    1.89425   1.84866   -1.000
 5601.00    1.89006   1.83745   -1.000
 5602.00    1.89536   1.83316   -1.000
 5603.00    1.90913   1.84773   -1.000
 5604.00    1.94210   1.88296   -1.000
 5605.00    1.98565   1.92664   -1.000
 5606.00    2.02339   1.96248   -1.000
 5607.00    2.03117   1.98291   -1.000
 5608.00    2.02635   1.99081   -1.000
 5609.00    2.01848   1.99260   -1.000
 5610.00    2.01720   1.99366   -1.000
 5611.00    2.01422   1.99447   -1.000
 5612.00    2.02038   1.98679   -1.000
 5613.00    2.01488   1.95957   -1.000
 5614.00    1.96836   1.91320   -1.000
 5615.00    1.91478   1.86582   -1.000
 5616.00    1.90566   1.84525   -1.000
 5617.00    1.94140   1.86067   -1.000
 5618.00    1.96576   1.89256   -1.000
 5619.00    1.96887   1.91923   -1.000
 5620.00    1.97804   1.93577   -1.000
 5621.00    1.99898   1.94439   -1.000
 5622.00    1.98524   1.94319   -1.000
 5623.00    1.95276   1.92877   -1.000
 5624.00    1.92871   1.90797   -1.000
 5625.00    1.95252   1.89695   -1.000
 5626.00    1.96346   1.90495   -1.000
 5627.00    1.98329   1.92689   -1.000
 5628.00    2.01258   1.95115   -1.000
 5629.00    2.02485   1.97036   -1.000
 5630.00    2.03928   1.98281   -1.000
 5631.00    2.02480   1.98693   -1.000
 5632.00    2.02011   1.98206   -1.000
 5633.00    2.01094   1.97189   -1.000
 5634.00    2.01347   1.96021   -1.000
 5635.00    2.00524   1.94854   -1.000
 5636.00    1.98312   1.93822   -1.000
 5637.00    1.97148   1.93109   -1.000
 5638.00    1.98292   1.92886   -1.000
 5639.00    1.98519   1.93044   -1.000
 5640.00    1.97653   1.93075   -1.000
 5641.00    1.96978   1.92844   -1.000
 5642.00    1.98065   1.92845   -1.000
 5643.00    1.98919   1.93301   -1.000
 5644.00    1.99852   1.93967   -1.000
 5645.00    2.01704   1.94672   -1.000
 5646.00    2.02245   1.95299   -1.000
 5647.00    2.01215   1.95624   -1.000
 5648.00    2.00227   1.95553   -1.000
 5649.00    2.01754   1.95270   -1.000
 5650.00    2.01516   1.95203   -1.000
 5651.00    2.00513   1.95525   -1.000
 5652.00    2.03326   1.95817   -1.000
 5653.00    2.03965   1.95555   -1.000
 5654.00    2.02450   1.94645   -1.000
 5655.00    2.01308   1.93230   -1.000
 5656.00    1.99443   1.91212   -1.000
 5657.00    1.95353   1.88514   -1.000
 5658.00    1.90920   1.86085   -1.000
 5659.00    1.89093   1.85447   -1.000
 5660.00    1.91993   1.86719   -1.000
 5661.00    1.95618   1.88531   -1.000
 5662.00    1.95108   1.89823   -1.000
 5663.00    1.95604   1.90862   -1.000
 5664.00    1.97595   1.92373   -1.000
 5665.00    1.99253   1.94023   -1.000
 5666.00    1.99155   1.94774   -1.000
 5667.00    1.98546   1.94488   -1.000
 5668.00    1.98564   1.93990   -1.000
 5669.00    1.98811   1.94011   -1.000
 5670.00    1.98886   1.94686   -1.000
 5671.00    2.01015   1.95791   -1.000
 5672.00    2.03267   1.96985   -1.000
 5673.00    2.05114   1.97961   -1.000
 5674.00    2.04430   1.98474   -1.000
 5675.00    2.02629   1.98564   -1.000
 5676.00    2.03601   1.98574   -1.000
 5677.00    2.04229   1.98685   -1.000
 5678.00    2.03350   1.98625   -1.000
 5679.00    2.02934   1.98050   -1.000
 5680.00    2.03673   1.96814   -1.000
 5681.00    2.03595   1.94985   -1.000
 5682.00    2.00086   1.93007   -1.000
 5683.00    1.98925   1.91663   -1.000
 5684.00    2.00359   1.91514   -1.000
 5685.00    2.00233   1.92189   -1.000
 5686.00    2.01073   1.92599   -1.000
 5687.00    2.00080   1.92240   -1.000
 5688.00    1.98391   1.91722   -1.000
 5689.00    1.99856   1.92026   -1.000
 5690.00    2.02236   1.93511   -1.000
 5691.00    2.04886   1.95562   -1.000
 5692.00    2.05176   1.97288   -1.000
 5693.00    2.04835   1.98300   -1.000
 5694.00    2.04326   1.98772   -1.000
 5695.00    2.03978   1.98911   -1.000
 5696.00    2.03309   1.98753   -1.000
 5697.00    2.03651   1.98167   -1.000
 5698.00    2.01802   1.97048   -1.000
 5699.00    1.99890   1.95594   -1.000
 5700.00    1.99749   1.94188   -1.000
 5701.00    1.99380   1.93253   -1.000
 5702.00    2.00334   1.93078   -1.000
 5703.00    2.00262   1.93594   -1.000
 5704.00    2.00542   1.94166   -1.000
 5705.00    2.00448   1.93976   -1.000
 5706.00    1.99026   1.92745   -1.000
 5707.00    1.96830   1.90764   -1.000
 5708.00    1.93628   1.88458   -1.000
 5709.00    1.92493   1.86512   -1.000
 5710.00    1.91763   1.85771   -1.000
 5711.00    1.92377   1.86613   -1.000
 5712.00    1.95108   1.88923   -1.000
 5713.00    1.99413   1.92120   -1.000
 5714.00    2.01984   1.95180   -1.000
 5715.00    2.03290   1.97184   -1.000
 5716.00    2.04899   1.98179   -1.000
 5717.00    2.05192   1.98810   -1.000
 5718.00    2.05702   1.99518   -1.000
 5719.00    2.06101   2.00393   -1.000
 5720.00    2.06366   2.01393   -1.000
 5721.00    2.07849   2.02354   -1.000
 5722.00    2.06760   2.03073   -1.000
 5723.00    2.05480   2.03419   -1.000
 5724.00    2.08450   2.03310   -1.000
 5725.00    2.09100   2.02586   -1.000
 5726.00    2.07416   2.01358   -1.000
 5727.00    2.05462   2.00281   -1.000
 5728.00    2.06080   1.99959   -1.000
 5729.00    2.07043   2.00285   -1.000
 5730.00    2.06307   2.00558   -1.000
 5731.00    2.06069   2.00426   -1.000
 5732.00    2.05799   2.00357   -1.000
 5733.00    2.06582   2.00943   -1.000
 5734.00    2.05491   2.02037   -1.000
 5735.00    2.05488   2.02911   -1.000
 5736.00    2.05093   2.03124   -1.000
 5737.00    2.04907   2.02892   -1.000
 5738.00    2.05324   2.02689   -1.000
 5739.00    2.07770   2.02689   -1.000
 5740.00    2.09405   2.02694   -1.000
 5741.00    2.09876   2.02453   -1.000
 5742.00    2.09043   2.02139   -1.000
 5743.00    2.08421   2.02161   -1.000
 5744.00    2.07890   2.02632   -1.000
 5745.00    2.07285   2.03081   -1.000
 5746.00    2.07104   2.02953   -1.000
 5747.00    2.06373   2.02343   -1.000
 5748.00    2.04926   2.01963   -1.000
 5749.00    2.05952   2.02190   -1.000
 5750.00    2.07307   2.02382   -1.000
 5751.00    2.06500   2.01579   -1.000
 5752.00    2.04362   1.99754   -1.000
 5753.00    2.02929   1.97939   -1.000
 5754.00    2.03436   1.97466   -1.000
 5755.00    2.05267   1.98803   -1.000
 5756.00    2.07019   2.01203   -1.000
 5757.00    2.08990   2.03356   -1.000
 5758.00    2.10304   2.04364   -1.000
 5759.00    2.09279   2.04028   -1.000
 5760.00    2.06433   2.02637   -1.000
 5761.00    2.04315   2.00698   -1.000
 5762.00    2.03788   1.99168   -1.000
 5763.00    2.04120   1.99090   -1.000
 5764.00    2.05989   2.00720   -1.000
 5765.00    2.09005   2.03151   -1.000
 5766.00    2.10634   2.05079   -1.000
 5767.00    2.09786   2.05914   -1.000
 5768.00    2.10013   2.05926   -1.000
 5769.00    2.09256   2.05592   -1.000
 5770.00    2.08607   2.05127   -1.000
 5771.00    2.09044   2.04508   -1.000
 5772.00    2.08106   2.03693   -1.000
 5773.00    2.07742   2.02911   -1.000
 5774.00    2.06774   2.02466   -1.000
 5775.00    2.05415   2.02522   -1.000
 5776.00    2.06939   2.02994   -1.000
 5777.00    2.07070   2.03306   -1.000
 5778.00    2.05615   2.02619   -1.000
 5779.00    2.01450   2.00707  157.513
 5780.00    1.96577   1.98178  160.374
 5781.00    1.93249   1.96054   -1.000
 5782.00    1.93229   1.95056  164.890
 5783.00    1.97077   1.95133   -1.000
 5784.00    2.01353   1.95662   -1.000
 5785.00    2.02911   1.96294   -1.000
 5786.00    2.04051   1.97396   -1.000
 5787.00    2.06614   1.99139   -1.000
 5788.00    2.07569   2.00787   -1.000
 5789.00    2.07313   2.01486   -1.000
 5790.00    2.06453   2.01233   -1.000
 5791.00    2.06051   2.00913   -1.000
 5792.00    2.08994   2.01389   -1.000
 5793.00    2.09628   2.02668   -1.000
 5794.00    2.09258   2.04125   -1.000
 5795.00    2.09080   2.05115   -1.000
 5796.00    2.07843   2.05210   -1.000
 5797.00    2.07423   2.04558   -1.000
 5798.00    2.06184   2.04089   -1.000
 5799.00    2.08405   2.04563   -1.000
 5800.00    2.11812   2.05723   -1.000
 5801.00    2.11844   2.06750   -1.000
 5802.00    2.11257   2.07058   -1.000
 5803.00    2.11064   2.06499   -1.000
 5804.00    2.10782   2.05391   -1.000
 5805.00    2.10488   2.04436   -1.000
 5806.00    2.10589   2.04173   -1.000
 5807.00    2.09696   2.04542   -1.000
 5808.00    2.10844   2.05098   -1.000
 5809.00    2.13525   2.05620   -1.000
 5810.00    2.12640   2.06151   -1.000
 5811.00    2.12266   2.06592   -1.000
 5812.00    2.13518   2.06665   -1.000
 5813.00    2.13447   2.06263   -1.000
 5814.00    2.11949   2.05424   -1.000
 5815.00    2.11095   2.04405   -1.000
 5816.00    2.10587   2.03887   -1.000
 5817.00    2.12291   2.04485   -1.000
 5818.00    2.14348   2.05912   -1.000
 5819.00    2.14383   2.07214   -1.000
 5820.00    2.15155   2.07797   -1.000
 5821.00    2.15311   2.07834   -1.000
 5822.00    2.14766   2.07773   -1.000
 5823.00    2.15478   2.07809   -1.000
 5824.00    2.14954   2.07846   -1.000
 5825.00    2.15912   2.07861   -1.000
 5826.00    2.15403   2.07969   -1.000
 5827.00    2.15644   2.08226   -1.000
 5828.00    2.15579   2.08483   -1.000
 5829.00    2.15921   2.08598   -1.000
 5830.00    2.15003   2.08586   -1.000
 5831.00    2.15548   2.08499   -1.000
 5832.00    2.16447   2.08289   -1.000
 5833.00    2.16780   2.07887   -1.000
 5834.00    2.15834   2.07444   -1.000
 5835.00    2.15675   2.07280   -1.000
 5836.00    2.16441   2.07548   -1.000
 5837.00    2.15391   2.07985   -1.000
 5838.00    2.16955   2.08293   -1.000
 5839.00    2.16424   2.08493   -1.000
 5840.00    2.18356   2.08796   -1.000
 5841.00    2.19978   2.09158   -1.000
 5842.00    2.17779   2.09306   -1.000
 5843.00    2.17587   2.09098   -1.000
 5844.00    2.17314   2.08586   -1.000
 5845.00    2.14827   2.07806   -1.000
 5846.00    2.13180   2.06904   -1.000
 5847.00    2.13101   2.06256   -1.000
 5848.00    2.12576   2.06149   -1.000
 5849.00    2.12745   2.06280   -1.000
 5850.00    2.13223   2.06040   -1.000
 5851.00    2.12358   2.05072   -1.000
 5852.00    2.11778   2.03638   -1.000
 5853.00    2.10840   2.02297   -1.000
 5854.00    2.10129   2.01332   -1.000
 5855.00    2.09924   2.00382   -1.000
 5856.00    2.09018   1.98731   -1.000
 5857.00    2.07207   1.96705   -1.000
 5858.00    2.06815   1.95884   -1.000
 5859.00    2.09248   1.97078   -1.000
 5860.00    2.11233   1.99382   -1.000
 5861.00    2.12065   2.01431   -1.000
 5862.00    2.11639   2.02717   -1.000
 5863.00    2.12178   2.03593   -1.000
 5864.00    2.13203   2.04164   -1.000
 5865.00    2.12935   2.04064   -1.000
 5866.00    2.12525   2.03387   -1.000
 5867.00    2.13672   2.02933   -1.000
 5868.00    2.14146   2.03452   -1.000
 5869.00    2.13760   2.04870   -1.000
 5870.00    2.15511   2.06370   -1.000
 5871.00    2.15951   2.07122   -1.000
 5872.00    2.16786   2.06970   -1.000
 5873.00    2.15609   2.06339   -1.000
 5874.00    2.16581   2.05716   -1.000
 5875.00    2.16718   2.05263   -1.000
 5876.00    2.14577   2.04899   -1.000
 5877.00    2.14688   2.04495   -1.000
 5878.00    2.14533   2.03958   -1.000
 5879.00    2.11093   2.03308   -1.000
 5880.00    2.10462   2.02688   -1.000
 5881.00    2.10873   2.02131   -1.000
 5882.00    2.12854   2.01454   -1.000
 5883.00    2.11995   2.00550   -1.000
 5884.00    2.10424   1.99591   -1.000
 5885.00    2.10026   1.98547   -1.000
 5886.00    2.08480   1.96174   -1.000
 5887.00    2.02824   1.90381   -1.000
 5888.00    1.90396   1.80630   -1.000
 5889.00    1.76130   1.69889   -1.000
 5890.00    1.68544   1.63895   -1.000
 5891.00    1.80033   1.65259   -1.000
 5892.00    1.96607   1.70631   -1.000
 5893.00    2.03840   1.74418   -1.000
 5894.00    1.97133   1.73931   -1.000
 5895.00    1.84488   1.70818   -1.000
 5896.00    1.78345   1.69222   -1.000
 5897.00    1.84310   1.72246   -1.000
 5898.00    1.99264   1.78845   -1.000
 5899.00    2.05886   1.85721   -1.000
 5900.00    2.07243   1.91164   -1.000
 5901.00    2.07836   1.95350   -1.000
 5902.00    2.08944   1.98409   -1.000
 5903.00    2.10414   2.00255   -1.000
 5904.00    2.10083   2.01105   -1.000
 5905.00    2.11502   2.01495   -1.000
 5906.00    2.11028   2.01901   -1.000
 5907.00    2.10899   2.02479   -1.000
 5908.00    2.11653   2.03097   -1.000
 5909.00    2.12791   2.03630   -1.000
 5910.00    2.12429   2.03980   -1.000
 5911.00    2.10443   2.03964   -1.000
 5912.00    2.09817   2.03229   -1.000
 5913.00    2.09155   2.01759   -1.000
 5914.00    2.07434   2.00235   -1.000
 5915.00    2.07073   1.99479   -1.000
 5916.00    2.09620   1.99766   -1.000
 5917.00    2.10718   2.00845   -1.000
 5918.00    2.10462   2.02254   -1.000
 5919.00    2.10164   2.03411   -1.000
 5920.00    2.09696   2.03983   -1.000
 5921.00    2.09660   2.04027   -1.000
 5922.00    2.09208   2.03885   -1.000
 5923.00    2.08625   2.03905   -1.000
 5924.00    2.09625   2.04310   -1.000
 5925.00    2.11059   2.04994   -1.000
 5926.00    2.12159   2.05482   -1.000
 5927.00    2.13526   2.05208   -1.000
 5928.00    2.13370   2.04100   -1.000
 5929.00    2.10473   2.02821   -1.000
 5930.00    2.08454   2.02252   -1.000
 5931.00    2.10438   2.02758   -1.000
 5932.00    2.12436   2.03685   -1.000
 5933.00    2.13346   2.04101   -1.000
 5934.00    2.13723   2.04026   -1.000
 5935.00    2.12631   2.04217   -1.000
 5936.00    2.11550   2.04977   -1.000
 5937.00    2.12229   2.05841   -1.000
 5938.00    2.13394   2.06195   -1.000
 5939.00    2.14030   2.05806   -1.000
 5940.00    2.13157   2.04892   -1.000
 5941.00    2.12423   2.04055   -1.000
 5942.00    2.11490   2.03808   -1.000
 5943.00    2.09325   2.04219   -1.000
 5944.00    2.10278   2.04916   -1.000
 5945.00    2.12260   2.05406   -1.000
 5946.00    2.11996   2.05293   -1.000
 5947.00    2.10616   2.04558   -1.000
 5948.00    2.08015   2.03730   -1.000
 5949.00    2.07581   2.03438   -1.000
 5950.00    2.08862   2.03759   -1.000
 5951.00    2.11456   2.04036   -1.000
 5952.00    2.09865   2.03801   -1.000
 5953.00    2.08808   2.03508   -1.000
 5954.00    2.11827   2.03620   -1.000
 5955.00    2.14510   2.03729   -1.000
 5956.00    2.13197   2.03492   -1.000
 5957.00    2.11305   2.03323   -1.000
 5958.00    2.10962   2.03799   -1.000
 5959.00    2.12530   2.04964   -1.000
 5960.00    2.15045   2.06316   -1.000
 5961.00    2.17259   2.07300   -1.000
 5962.00    2.16549   2.07715   -1.000
 5963.00    2.16788   2.07626   -1.000
 5964.00    2.16385   2.07168   -1.000
 5965.00    2.14892   2.06596   -1.000
 5966.00    2.12854   2.06256   -1.000
 5967.00    2.13073   2.06358   -1.000
 5968.00    2.13477   2.06796   -1.000
 5969.00    2.14337   2.07413   -1.000
 5970.00    2.16858   2.08090   -1.000
 5971.00    2.17014   2.08618   -1.000
 5972.00    2.15811   2.08762   -1.000
 5973.00    2.15845   2.08357   -1.000
 5974.00    2.16485   2.07332   -1.000
 5975.00    2.14112   2.05848   -1.000
 5976.00    2.11802   2.04434   -1.000
 5977.00    2.10520   2.03783   -1.000
 5978.00    2.10459   2.04196   -1.000
 5979.00    2.11853   2.05367   -1.000
 5980.00    2.12301   2.06530   -1.000
 5981.00    2.13160   2.06876   -1.000
 5982.00    2.13867   2.06011   -1.000
 5983.00    2.12258   2.04369   -1.000
 5984.00    2.10938   2.03028   -1.000
 5985.00    2.12462   2.02828   -1.000
 5986.00    2.13700   2.03703   -1.000
 5987.00    2.13226   2.04950   -1.000
 5988.00    2.14443   2.06007   -1.000
 5989.00    2.15306   2.06628   -1.000
 5990.00    2.15229   2.06850   -1.000
 5991.00    2.16458   2.06972   -1.000
 5992.00    2.18314   2.07504   -1.000
 5993.00    2.19188   2.08485   -1.000
 5994.00    2.17827   2.09189   -1.000
 5995.00    2.16531   2.09005   -1.000
 5996.00    2.14550   2.08092   -1.000
 5997.00    2.14389   2.07142   -1.000
 5998.00    2.14891   2.06698   -1.000
 5999.00    2.15655   2.06811   -1.000
 6000.00    2.15132   2.07046   -1.000
 6001.00    2.15806   2.06934   -1.000
 6002.00    2.15391   2.06415   -1.000
 6003.00    2.15584   2.05943   -1.000
 6004.00    2.14529   2.05855   -1.000
 6005.00    2.13759   2.05724   -1.000
 6006.00    2.12677   2.04868   -1.000
 6007.00    2.12774   2.03535   -1.000
 6008.00    2.13272   2.02868   -1.000
 6009.00    2.13657   2.03645   -1.000
 6010.00    2.14848   2.05278   -1.000
 6011.00    2.15743   2.06379   -1.000
 6012.00    2.14143   2.06372   -1.000
 6013.00    2.13272   2.05795   -1.000
 6014.00    2.14522   2.05364   -1.000
 6015.00    2.14821   2.05222   -1.000
 6016.00    2.16118   2.05173   -1.000
 6017.00    2.15416   2.05065   -1.000
 6018.00    2.14431   2.04768   -1.000
 6019.00    2.15120   2.04120   -1.000
 6020.00    2.12965   2.03305   -1.000
 6021.00    2.13297   2.02930   -1.000
 6022.00    2.14398   2.03227   -1.000
 6023.00    2.14780   2.03851   -1.000
 6024.00    2.15005   2.04694   -1.000
 6025.00    2.15381   2.05934   -1.000
 6026.00    2.17179   2.07301   -1.000
 6027.00    2.19458   2.08403   -1.000
 6028.00    2.17952   2.09313   -1.000
 6029.00    2.16009   2.10162   -1.000
 6030.00    2.16942   2.10783   -1.000
 6031.00    2.16717   2.11114   -1.000
 6032.00    2.16532   2.11384   -1.000
 6033.00    2.18517   2.11813   -1.000
 6034.00    2.20223   2.12319   -1.000
 6035.00    2.20925   2.12601   -1.000
 6036.00    2.20618   2.12527   -1.000
 6037.00    2.17946   2.12172   -1.000
 6038.00    2.18188   2.11624   -1.000
 6039.00    2.18878   2.10951   -1.000
 6040.00    2.18162   2.10350   -1.000
 6041.00    2.18792   2.10061   -1.000
 6042.00    2.18262   2.10195   -1.000
 6043.00    2.19080   2.10701   -1.000
 6044.00    2.20619   2.11372   -1.000
 6045.00    2.20115   2.11943   -1.000
 6046.00    2.20961   2.12389   -1.000
 6047.00    2.21769   2.12849   -1.000
 6048.00    2.20538   2.13304   -1.000
 6049.00    2.20813   2.13583   -1.000
 6050.00    2.20630   2.13598   -1.000
 6051.00    2.19175   2.13373   -1.000
 6052.00    2.20085   2.12846   -1.000
 6053.00    2.20618   2.11972   -1.000
 6054.00    2.19896   2.10859   -1.000
 6055.00    2.19822   2.09901   -1.000
 6056.00    2.19189   2.09544   -1.000
 6057.00    2.19310   2.09960   -1.000
 6058.00    2.19250   2.10833   -1.000
 6059.00    2.18604   2.11666   -1.000
 6060.00    2.14996   2.12100   -1.000
 6061.00    2.24466   2.11930   -1.000
 6062.00    2.18112   2.10993   -1.000
 6063.00    1.26226   2.09294   -1.000
 6064.00    1.38444   2.07325   -1.000
 6065.00    2.45684   2.06246   -1.000
 6066.00    2.19579   2.06930   -1.000
 6067.00    2.12755   2.08908   56.446
 6068.00    2.02136   2.11023   -1.000
 6069.00    1.26642   2.12563   -1.000
 6070.00    0.96444   2.13462   -1.000
 6071.00    2.28197   2.13910   -1.000
 6072.00    2.24255   2.14168   -1.000
 6073.00    2.23833   2.14351   -1.000
 6074.00    2.20936   2.14361   -1.000
 6075.00    2.20251   2.14017   -1.000
 6076.00    2.20878   2.13242   -1.000
 6077.00    2.18380   2.12060   -1.000
 6078.00    2.18141   2.10803   -1.000
 6079.00    2.18634   2.09995   -1.000
 6080.00    2.18070   2.09687   -1.000
 6081.00    2.17189   2.09448   -1.000
 6082.00    2.15829   2.09107   -1.000
 6083.00    2.15271   2.08820   -1.000
 6084.00    2.15978   2.08722   -1.000
 6085.00    2.16776   2.08960   -1.000
 6086.00    2.18059   2.09609   -1.000
 6087.00    2.19085   2.10343   -1.000
 6088.00    2.19189   2.10630   -1.000
 6089.00    2.17637   2.10304   -1.000
 6090.00    2.15302   2.09713   -1.000
 6091.00    2.16750   2.09376   -1.000
 6092.00    2.16923   2.09569   -1.000
 6093.00    2.19347   2.10239   -1.000
 6094.00    2.21119   2.11109   -1.000
 6095.00    2.22094   2.11904   -1.000
 6096.00    2.20549   2.12509   -1.000
 6097.00    2.20157   2.12920   -1.000
 6098.00    2.20837   2.12990   -1.000
 6099.00    2.20033   2.12195   -1.000
 6100.00    2.19193   2.09955   -1.000
 6101.00    2.16290   2.06419   -1.000
 6102.00    2.11882   2.03091   -1.000
 6103.00    2.12196   2.02062   -1.000
 6104.00    2.14333   2.03838   -1.000
 6105.00    2.17365   2.06866   -1.000
 6106.00    2.18424   2.09426   -1.000
 6107.00    2.18507   2.11062   -1.000
 6108.00    2.18041   2.12134   -1.000
 6109.00    2.18586   2.12855   -1.000
 6110.00    2.19108   2.13172   -1.000
 6111.00    2.20194   2.13203   -1.000
 6112.00    2.19730   2.13294   -1.000
 6113.00    2.19415   2.13596   -1.000
 6114.00    2.19625   2.13900   -1.000
 6115.00    2.18304   2.13935   -1.000
 6116.00    2.17965   2.13716   -1.000
 6117.00    2.18288   2.13366   -1.000
 6118.00    2.18224   2.12613   -1.000
 6119.00    2.16680   2.10888   -1.000
 6120.00    2.14336   2.07956   -1.000
 6121.00    2.11264   2.04628   -1.000
 6122.00    2.10673   2.02530   -1.000
 6123.00    2.12913   2.02710   -1.000
 6124.00    2.14689   2.04729   -1.000
 6125.00    2.16720   2.07187   -1.000
 6126.00    2.16067   2.09004   -1.000
 6127.00    2.15203   2.09967   -1.000
 6128.00    2.15407   2.10600   -1.000
 6129.00    2.16515   2.11464   -1.000
 6130.00    2.17731   2.12657   -1.000
 6131.00    2.17785   2.13843   -1.000
 6132.00    2.18506   2.14495   -1.000
 6133.00    2.17165   2.13821   -1.000
 6134.00    2.13761   2.11081   -1.000
 6135.00    2.10078   2.06445   -1.000
 6136.00    2.05614   2.01672   -1.000
 6137.00    2.02092   1.99224   -1.000
 6138.00    2.04548   1.99785   -1.000
 6139.00    2.09622   2.01618   -1.000
 6140.00    2.12220   2.03293   -1.000
 6141.00    2.11335   2.05050   -1.000
 6142.00    2.07476   2.07406  165.151
 6143.00    2.10274   2.09990  164.906
 6144.00    2.14649   2.11956   -1.000
 6145.00    2.16155   2.12781   -1.000
 6146.00    2.16190   2.12582   -1.000
 6147.00    2.16656   2.11795   -1.000
 6148.00    2.16453   2.10795   -1.000
 6149.00    2.15242   2.09866   -1.000
 6150.00    2.15911   2.09363   -1.000
 6151.00    2.15422   2.09617   -1.000
 6152.00    2.14920   2.10338   -1.000
 6153.00    2.15845   2.10658   -1.000
 6154.00    2.16146   2.10192   -1.000
 6155.00    2.15432   2.09454   -1.000
 6156.00    2.14915   2.09005   -1.000
 6157.00    2.14557   2.08690   -1.000
 6158.00    2.11661   2.07697   -1.000
 6159.00    2.08514   2.05027   -1.000
 6160.00    2.04568   2.00404   -1.000
 6161.00    2.01170   1.95084   -1.000
 6162.00    1.97254   1.91452   -1.000
 6163.00    1.98660   1.91125   -1.000
 6164.00    2.02205   1.93602   -1.000
 6165.00    2.04387   1.97049   -1.000
 6166.00    2.07345   1.99662   -1.000
 6167.00    2.05349   2.00340   -1.000
 6168.00    2.04050   1.99177   -1.000
 6169.00    2.02505   1.97910   -1.000
 6170.00    2.01838   1.98347   -1.000
 6171.00    2.07109   2.00539   -1.000
 6172.00    2.08968   2.03217   -1.000
 6173.00    2.08004   2.05397   -1.000
 6174.00    2.09701   2.06806   -1.000
 6175.00    2.09034   2.07546   -1.000
 6176.00    2.08994   2.07993  169.496
 6177.00    2.09713   2.08483  169.161
 6178.00    2.11141   2.09021   -1.000
 6179.00    2.10410   2.09477  167.765
 6180.00    2.10668   2.09976  167.210
 6181.00    2.10425   2.10682  166.619
 6182.00    2.11301   2.11383  165.898
 6183.00    2.11516   2.11633  165.712
 6184.00    2.12387   2.11243  166.192
 6185.00    2.11416   2.10347  166.978
 6186.00    2.10046   2.09193  168.527
 6187.00    2.09145   2.08015  170.399
 6188.00    2.07300   2.06774  172.104
 6189.00    2.05023   2.05047  173.630
 6190.00    2.03134   2.02877  175.087
 6191.00    2.02293   2.01545  177.246
 6192.00    2.03817   2.02275   -1.000
 6193.00    2.07344   2.04616   -1.000
 6194.00    2.11102   2.07191   -1.000
 6195.00    2.12613   2.09154   -1.000
 6196.00    2.11248   2.10276  167.479
 6197.00    2.11055   2.10449  167.628
 6198.00    2.10803   2.09773  169.094
 6199.00    2.08635   2.08825  171.009
 6200.00    2.08226   2.08456  171.929
 6201.00    2.07685   2.09028  171.197
 6202.00    2.08058   2.10221   -1.000
 6203.00    2.10077   2.11512  167.437
 6204.00    2.10319   2.12577   -1.000
 6205.00    2.12348   2.13278  167.268
 6206.00    2.12049   2.13664  167.007
 6207.00    2.11978   2.13830  167.206
 6208.00    2.13640   2.13749  167.773
 6209.00    2.12764   2.13253  167.839
 6210.00    2.11028   2.12134  168.894
 6211.00    2.08496   2.10270  170.477
 6212.00    2.06904   2.07896  171.842
 6213.00    2.04787   2.05681  173.812
 6214.00    2.03422   2.04333  176.369
 6215.00    2.04553   2.04026  177.686
 6216.00    2.05486   2.04302  177.322
 6217.00    2.04596   2.04432  175.019
 6218.00    2.04755   2.04132  174.950
 6219.00    2.04556   2.03828  176.046
 6220.00    2.02117   2.04167  174.934
 6221.00    1.91581   2.05191   -1.000
 6222.00    2.02178   2.06306   -1.000
 6223.00    2.10649   2.07063   -1.000
 6224.00    2.08936   2.07474   -1.000
 6225.00    2.09348   2.07681   -1.000
 6226.00    2.10452   2.07563   -1.000
 6227.00    2.09116   2.06704   -1.000
 6228.00    2.07884   2.04743   -1.000
 6229.00    2.06057   2.02010   -1.000
 6230.00    1.99908   1.99663  180.453
 6231.00    1.98366   1.98947  181.922
 6232.00    2.01065   2.00243  180.336
 6233.00    2.03432   2.02832  177.373
 6234.00    2.06993   2.05399   -1.000
 6235.00    2.10938   2.06903   -1.000
 6236.00    2.10849   2.07046   -1.000
 6237.00    2.09688   2.06254   -1.000
 6238.00    2.09033   2.05199   -1.000
 6239.00    2.06969   2.04355   -1.000
 6240.00    2.05563   2.03787   -1.000
 6241.00    2.04507   2.03241   -1.000
 6242.00    2.03665   2.02393   -1.000
 6243.00    2.03044   2.01201   -1.000
 6244.00    2.01998   2.00002   -1.000
 6245.00    2.02539   1.99377   -1.000
 6246.00    2.04349   1.99933   -1.000
 6247.00    2.04953   2.01804   -1.000
 6248.00    2.05434   2.04249  175.184
 6249.00    2.06496   2.05948  173.803
 6250.00    2.05494   2.05953  174.232
 6251.00    2.04464   2.04303  176.415
 6252.00    2.03273   2.01966   -1.000
 6253.00    1.99893   2.00099  181.429
 6254.00    1.98430   1.99215  182.405
 6255.00    2.01335   1.99016   -1.000
 6256.00    2.01871   1.98958   -1.000
 6257.00    2.00145   1.98947   -1.000
 6258.00    1.98954   1.99345  185.893
 6259.00    2.01030   2.00515  184.348
 6260.00    2.05344   2.02398   -1.000
 6261.00    2.05588   2.04597  178.747
 6262.00    2.06908   2.06505  176.267
 6263.00    2.09201   2.07606   -1.000
 6264.00    2.09175   2.07922  173.790
 6265.00    2.08088   2.08049  175.351
 6266.00    2.07722   2.08470  176.004
 6267.00    2.06062   2.08991   -1.000
 6268.00    2.04946   2.09092   -1.000
 6269.00    2.05467   2.08741   -1.000
 6270.00    2.05309   2.08467   -1.000
 6271.00    2.06056   2.08637   -1.000
 6272.00    2.07112   2.08964  174.518
 6273.00    2.08751   2.08714  174.332
 6274.00    2.07393   2.07446  175.073
 6275.00    2.06659   2.05381  176.460
 6276.00    2.03225   2.03164  178.209
 6277.00    1.98414   2.01343   -1.000
 6278.00    1.93567   2.00108   -1.000
 6279.00    1.89992   1.99552   -1.000
 6280.00    1.88997   1.99942   -1.000
 6281.00    1.87143   2.01396   -1.000
 6282.00    1.89609   2.03601   -1.000
 6283.00    1.92616   2.05947   -1.000
 6284.00    1.91184   2.07889   -1.000
 6285.00    1.92571   2.09213   -1.000
 6286.00    1.96298   2.10049   -1.000
 6287.00    2.01709   2.10511   -1.000
 6288.00    2.05204   2.10474   -1.000
 6289.00    2.07485   2.09869   -1.000
 6290.00    2.05966   2.09008   -1.000
 6291.00    2.03771   2.08346   -1.000
 6292.00    2.02619   2.08069   -1.000
 6293.00    2.02470   2.08045   -1.000
 6294.00    2.00222   2.07910   -1.000
 6295.00    1.98924   2.07262   -1.000
 6296.00    1.91029   2.06104   -1.000
 6297.00    1.75558   2.04971   -1.000
 6298.00    1.46483   2.04315   -1.000
 6299.00    1.08342   2.03924   -1.000
 6300.00    0.59058   2.03374   -1.000
 6301.00    0.08677   2.02933   -1.000
 6302.00    0.49725   2.03448   -1.000
 6303.00    1.87653   2.05188   -1.000
 6304.00    2.74862   2.07444   -1.000
 6305.00    2.51804   2.09377   -1.000
 6306.00    2.25354   2.10672   -1.000
 6307.00    2.11659   2.11350  173.469
 6308.00    2.09592   2.11534  172.159
 6309.00    2.09475   2.11415  172.250
 6310.00    2.07869   2.11132   -1.000
 6311.00    2.04488   2.10713   -1.000
 6312.00    2.03952   2.10063   -1.000
 6313.00    2.03219   2.09084   -1.000
 6314.00    2.03049   2.07907   -1.000
 6315.00    2.02508   2.06794   -1.000
 6316.00    2.01167   2.05889   -1.000
 6317.00    1.99882   2.05346   -1.000
 6318.00    1.99697   2.05563   -1.000
 6319.00    2.00884   2.06765   -1.000
 6320.00    2.04179   2.08467   -1.000
 6321.00    2.05303   2.09934   -1.000
 6322.00    2.07074   2.11094   -1.000
 6323.00    2.07061   2.12286   -1.000
 6324.00    2.08415   2.13435   -1.000
 6325.00    2.08837   2.14159   -1.000
 6326.00    2.07980   2.14349   -1.000
 6327.00    2.08223   2.14255   -1.000
 6328.00    2.09221   2.14150   -1.000
 6329.00    2.09889   2.14149   -1.000
 6330.00    2.09499   2.14287   -1.000
 6331.00    2.09826   2.14478   -1.000
 6332.00    2.10732   2.14287   -1.000
 6333.00    2.09928   2.13166   -1.000
 6334.00    2.07538   2.11124   -1.000
 6335.00    2.04142   2.09028   -1.000
 6336.00    2.03223   2.07988   -1.000
 6337.00    2.04769   2.08384   -1.000
 6338.00    2.07138   2.09757   -1.000
 6339.00    2.08648   2.11491   -1.000
 6340.00    2.09016   2.13047   -1.000
 6341.00    2.08917   2.13883   -1.000
 6342.00    2.08577   2.13783   -1.000
 6343.00    2.08776   2.13122   -1.000
 6344.00    2.08254   2.12538   -1.000
 6345.00    2.06460   2.12472   -1.000
 6346.00    2.06957   2.13075   -1.000
 6347.00    2.08380   2.14273   -1.000
 6348.00    2.10749   2.15717   -1.000
 6349.00    2.10159   2.16902   -1.000
 6350.00    2.10921   2.17502   -1.000
 6351.00    2.09265   2.17440   -1.000
 6352.00    2.08309   2.16754   -1.000
 6353.00    2.06249   2.15631   -1.000
 6354.00    2.05360   2.14486   -1.000
 6355.00    2.05465   2.13662   -1.000
 6356.00    2.05017   2.13036   -1.000
 6357.00    2.05025   2.12273   -1.000
 6358.00    2.02686   2.11399   -1.000
 6359.00    2.00528   2.10658   -1.000
 6360.00    1.95201   2.10036   -1.000
 6361.00    1.89598   2.09467   -1.000
 6362.00    1.84304   2.09185   -1.000
 6363.00    1.70441   2.09485   -1.000
 6364.00    1.50377   2.10348   -1.000
 6365.00    1.47694   2.11528   -1.000
 6366.00    1.72598   2.12786   -1.000
 6367.00    1.97710   2.13856   -1.000
 6368.00    2.12824   2.14437  167.762
 6369.00    2.09172   2.14533   -1.000
 6370.00    2.07243   2.14581   -1.000
 6371.00    2.07695   2.15010   -1.000
 6372.00    2.07649   2.15789   -1.000
 6373.00    2.06104   2.16509   -1.000
 6374.00    2.06209   2.16820   -1.000
 6375.00    2.03821   2.16651   -1.000
 6376.00    2.03389   2.16117   -1.000
 6377.00    2.01759   2.15425   -1.000
 6378.00    2.01867   2.14772   -1.000
 6379.00    2.02231   2.14244   -1.000
 6380.00    2.02257   2.13846   -1.000
 6381.00    2.00451   2.13592   -1.000
 6382.00    2.00825   2.13505   -1.000
 6383.00    2.01874   2.13646   -1.000
 6384.00    2.02513   2.14096   -1.000
 6385.00    2.00916   2.14794   -1.000
 6386.00    1.99429   2.15440   -1.000
 6387.00    1.99584   2.15764   -1.000
 6388.00    1.98368   2.15775   -1.000
 6389.00    1.97008   2.15520   -1.000
 6390.00    1.96392   2.14751   -1.000
 6391.00    1.93912   2.13254   -1.000
 6392.00    1.91846   2.11501   -1.000
 6393.00    1.89320   2.10538   -1.000
 6394.00    1.87882   2.11044   -1.000
 6395.00    1.89970   2.12609   -1.000
 6396.00    1.92639   2.13968   -1.000
 6397.00    1.90884   2.13950   -1.000
 6398.00    1.88690   2.12445   -1.000
 6399.00    1.85192   2.10651   -1.000
 6400.00    1.81402   2.10098   -1.000
 6401.00    1.81995   2.11306   -1.000
 6402.00    1.85373   2.13535   -1.000
 6403.00    1.86811   2.15604   -1.000
 6404.00    1.84890   2.16625   -1.000
 6405.00    1.84561   2.16301   -1.000
 6406.00    1.84326   2.15086   -1.000
 6407.00    1.80241   2.13959   -1.000
 6408.00    1.77164   2.13570   -1.000
 6409.00    1.77146   2.13636   -1.000
 6410.00    1.76321   2.13573   -1.000
 6411.00    1.74894   2.13442   -1.000
 6412.00    1.72672   2.13698   -1.000
 6413.00    1.71132   2.14366   -1.000
 6414.00    1.70957   2.15080   -1.000
 6415.00    1.70788   2.15609   -1.000
 6416.00    1.71270   2.15859   -1.000
 6417.00    1.68756   2.15588   -1.000
 6418.00    1.66511   2.14586   -1.000
 6419.00    1.64197   2.13123   -1.000
 6420.00    1.60723   2.12059   -1.000
 6421.00    1.57261   2.12324   -1.000
 6422.00    1.57366   2.14007   -1.000
 6423.00    1.58531   2.16213   -1.000
 6424.00    1.59314   2.18070   -1.000
 6425.00    1.58584   2.19359   -1.000
 6426.00    1.56749   2.20046   -1.000
 6427.00    1.54154   2.19836   -1.000
 6428.00    1.51732   2.18444   -1.000
