###################################################################
## OUTPUT of StarlightChains_v04.for    [Cid@UFSC - 01/Apr/2007] ##
###################################################################

## Some input info
NGC7078_a_1.cxt                          [arq_obs]
Base.BC03.N                              [arq_base]
NGC7078_a_1.msk                          [arq_masks]
StCv04.C99.config                        [arq_config]
   45                                    [N_base]
    0                                    [N_YAV_components = # of components with extra extinction!]
    0                                    [i_FitPowerLaw (1/0 = Yes/No)]
-9.99                                    [alpha_PowerLaw]
CCM                                      [red_law_option]
 1.458241                                [q_norm = A(l_norm)/A(V)]

## (Re)Sampling Parameters
 3359.00                                 [l_ini (A)]
 6428.00                                 [l_fin (A)]
    1.00                                 [dl    (A)]     (OBS: dl_cushion =    50.00 A)

## Normalization info
 4020.00                                 [l_norm (A) - for base]
 4010.00                                 [llow_norm (A) - window for f_obs]
 4060.00                                 [lupp_norm (A) - window for f_obs]
6.411706E-14                             [fobs_norm (in input units)]

## S/N
 4730.00                                 [llow_SN (A) - window for S/N]
 4780.00                                 [lupp_SN (A) - window for S/N]
 192.615                                 [S/N in S/N window]
 195.031                                 [S/N in norm. window]
 239.554                                 [S/N_err in S/N window]
 242.560                                 [S/N_err in norm. window]
  1.0000                                 [fscale_chi2]

## etc...
  2147483588                             [idum_orig]
  3068                                   [NOl_eff]
  1097                                   [Nl_eff]
  1971    NSIGMA                         [Ntot_cliped & clip_method]
  1243200                                [Nglobal_steps]
   7                                     [N_chains]
   5                                     [NEX0s_base = N_base in EX0s-fits]
 0   0   1      255   2.0   5.108E+02    [Clip-Bug, RC-Crash & Burn-In warning-flags, n_censored_weights, wei_nsig_threshold & wei_limit]
    23     22.808     22.796      0.012  [idt_all, wdt_TotTime, wdt_UsrTime & wdt_SysTime (sec)]

## Synthesis Results - Best model ##

 2.24065E+00                             [chi2/Nl_eff]
     0.61089                             [adev (%)]

   103.80090                             [sum-of-x (%)]
 3.53257E-13                             [Flux_tot (units of input spectrum!)]
 5.69468E-10                             [Mini_tot (???)]
 3.30870E-10                             [Mcor_tot (???)]

 -56.66                                  [v0_min  (km/s)]
 143.99                                  [vd_min  (km/s)]
 1.2428                                  [AV_min  (mag)]
 0.0000                                  [YAV_min (mag)]

# j     x_j(%)      Mini_j(%)     Mcor_j(%)     age_j(yr)     Z_j      (L/M)_j    YAV?  Mstars   component_j        a/Fe...       SSP_chi2r SSP_adev(%)   SSP_AV   SSP_x(%)
  1      0.0000     0.0000E+00    0.0000E+00    1.000000E+06  0.00400  1.114E-02    0   1.0000   age020_m42            0.0000     1.0884E+03     9.7312   3.2372    80.9393
  2     35.9008     5.2676E-01    9.0652E-01    3.160000E+06  0.00400  4.073E-02    0   0.9999   age045_m42            0.0000     1.6554E+02     3.7118   2.2669    95.6639
  3      0.0000     0.0000E+00    0.0000E+00    5.010000E+06  0.00400  2.534E-02    0   0.9488   age055_m42            0.0000     5.1335E+02     6.7149   2.6740    89.0565
  4      0.0000     0.0000E+00    0.0000E+00    1.000000E+07  0.00400  1.271E-02    0   0.8862   age070_m42            0.0000     4.1767E+02     6.6376   1.8810    92.7004
  5      0.0000     0.0000E+00    0.0000E+00    2.512000E+07  0.00400  5.070E-03    0   0.8174   age090_m42            0.0000     3.5827E+02     6.0275   1.7517    94.2203
  6      0.0000     0.0000E+00    0.0000E+00    4.000000E+07  0.00400  3.505E-03    0   0.7851   age104_m42            0.0000     1.9203E+02     4.1324   1.4375    97.1608
  7     42.7492     1.1264E+01    1.3972E+01    1.015200E+08  0.00400  2.268E-03    0   0.7207   age116_m42            0.0000     2.0301E+02     3.8047   1.4538   106.7767
  8      0.0000     0.0000E+00    0.0000E+00    2.861200E+08  0.00400  1.079E-03    0   0.6613   age125_m42            0.0000     2.7516E+02     4.7758   0.9669   108.6416
  9      0.0000     0.0000E+00    0.0000E+00    6.405400E+08  0.00400  5.077E-04    0   0.6197   age132_m42            0.0000     3.4489E+02     5.1300   0.5984   113.0153
 10     12.1987     2.0623E+01    2.1382E+01    9.047900E+08  0.00400  3.535E-04    0   0.6024   age135_m42            0.0000     2.1192E+02     4.4117   0.3592   112.0166
 11      0.0000     0.0000E+00    0.0000E+00    1.434000E+09  0.00400  1.910E-04    0   0.5716   age139_m42            0.0000     2.0720E+02     4.9097  -0.1645   110.0350
 12     10.9914     6.6903E+01    6.2906E+01    2.500000E+09  0.00400  9.818E-05    0   0.5463   age150_m42            0.0000     2.9242E+02     4.8040  -0.4392   104.9771
 13      0.0000     0.0000E+00    0.0000E+00    5.000000E+09  0.00400  4.718E-05    0   0.5228   age161_m42            0.0000     4.1499E+02     5.0978  -0.6034   101.2772
 14      0.0000     0.0000E+00    0.0000E+00    1.100000E+10  0.00400  2.205E-05    0   0.4980   age185_m42            0.0000     6.9230E+02     6.5390  -0.8587    98.6001
 15      0.0000     0.0000E+00    0.0000E+00    1.300000E+10  0.00400  1.883E-05    0   0.4927   age193_m42            0.0000     7.3531E+02     6.6817  -0.8749    98.3633
 16      0.0000     0.0000E+00    0.0000E+00    1.000000E+06  0.02000  1.989E-02    0   1.0000   age020_m62            0.0000     1.0952E+03     9.7549   3.1982    81.7583
 17      0.0000     0.0000E+00    0.0000E+00    3.160000E+06  0.02000  3.772E-02    0   0.9858   age045_m62            0.0000     9.5716E+02     9.2140   3.0557    83.9829
 18      0.0000     0.0000E+00    0.0000E+00    5.010000E+06  0.02000  3.227E-02    0   0.9342   age055_m62            0.0000     2.9654E+02     5.0704   2.5351    92.0671
 19      0.0000     0.0000E+00    0.0000E+00    1.000000E+07  0.02000  1.011E-02    0   0.8751   age070_m62            0.0000     1.0758E+03    10.8539   1.9024    88.5211
 20      0.0000     0.0000E+00    0.0000E+00    2.512000E+07  0.02000  4.206E-03    0   0.8099   age090_m62            0.0000     7.7458E+02     8.8154   1.8403    89.5556
 21      0.0000     0.0000E+00    0.0000E+00    4.000000E+07  0.02000  3.373E-03    0   0.7799   age104_m62            0.0000     1.1757E+02     3.4416   1.6571    98.6499
 22      0.0000     0.0000E+00    0.0000E+00    1.015200E+08  0.02000  1.878E-03    0   0.7221   age116_m62            0.0000     1.1923E+02     2.6914   1.4767   107.0757
 23      0.0000     0.0000E+00    0.0000E+00    2.861200E+08  0.02000  8.869E-04    0   0.6700   age125_m62            0.0000     5.8842E+02     6.5635   0.9632   114.1889
 24      0.0000     0.0000E+00    0.0000E+00    6.405400E+08  0.02000  3.657E-04    0   0.6322   age132_m62            0.0000     5.0596E+02     7.3022   0.2805   117.4095
 25      0.0000     0.0000E+00    0.0000E+00    9.047900E+08  0.02000  2.312E-04    0   0.6152   age135_m62            0.0000     3.7090E+02     6.7531  -0.0939   116.1513
 26      0.0000     0.0000E+00    0.0000E+00    1.434000E+09  0.02000  1.168E-04    0   0.5865   age139_m62            0.0000     3.4818E+02     5.7337  -0.5063   109.6135
 27      0.0000     0.0000E+00    0.0000E+00    2.500000E+09  0.02000  5.505E-05    0   0.5610   age150_m62            0.0000     5.8628E+02     6.7917  -0.8757   106.1510
 28      0.0000     0.0000E+00    0.0000E+00    5.000000E+09  0.02000  2.596E-05    0   0.5353   age161_m62            0.0000     1.1131E+03     7.8394  -1.0000   100.2376
 29      0.0000     0.0000E+00    0.0000E+00    1.100000E+10  0.02000  1.169E-05    0   0.5103   age185_m62            0.0000     2.1874E+03    11.8937  -1.0000    91.0178
 30      0.0000     0.0000E+00    0.0000E+00    1.300000E+10  0.02000  9.691E-06    0   0.5047   age193_m62            0.0000     2.3826E+03    12.4989  -1.0000    89.8283
 31      0.0000     0.0000E+00    0.0000E+00    1.000000E+06  0.05000  2.651E-02    0   0.9998   age020_m72            0.0000     1.0181E+03     9.1942   3.2041    82.6783
 32      0.0000     0.0000E+00    0.0000E+00    3.160000E+06  0.05000  4.817E-02    0   0.9577   age045_m72            0.0000     6.4654E+02     7.2593   2.9179    87.4403
 33      0.0000     0.0000E+00    0.0000E+00    5.010000E+06  0.05000  3.101E-02    0   0.9147   age055_m72            0.0000     5.7809E+02     7.1599   2.5565    90.0679
 34      0.0000     0.0000E+00    0.0000E+00    1.000000E+07  0.05000  8.954E-03    0   0.8524   age070_m72            0.0000     6.3474E+02     7.1100   2.8041    88.5547
 35      0.0000     0.0000E+00    0.0000E+00    2.512000E+07  0.05000  4.207E-03    0   0.7902   age090_m72            0.0000     2.5269E+02     4.3669   2.3688    94.2081
 36      0.0000     0.0000E+00    0.0000E+00    4.000000E+07  0.05000  3.198E-03    0   0.7618   age104_m72            0.0000     3.5781E+01     1.8603   1.8558   102.5186
 37      1.9609     6.8289E-01    8.3355E-01    1.015200E+08  0.05000  1.716E-03    0   0.7092   age116_m72            0.0000     1.8848E+02     3.5868   1.5685   107.2697
 38      0.0000     0.0000E+00    0.0000E+00    2.861200E+08  0.05000  7.047E-04    0   0.6618   age125_m72            0.0000     6.2669E+02     7.2299   0.7568   114.5361
 39      0.0000     0.0000E+00    0.0000E+00    6.405400E+08  0.05000  2.633E-04    0   0.6253   age132_m72            0.0000     4.8458E+02     7.5524  -0.0978   116.4598
 40      0.0000     0.0000E+00    0.0000E+00    9.047900E+08  0.05000  1.484E-04    0   0.6088   age135_m72            0.0000     4.7264E+02     7.0752  -0.5747   110.5633
 41      0.0000     0.0000E+00    0.0000E+00    1.434000E+09  0.05000  7.827E-05    0   0.5847   age139_m72            0.0000     7.5022E+02     8.0418  -0.9591   106.4289
 42      0.0000     0.0000E+00    0.0000E+00    2.500000E+09  0.05000  3.759E-05    0   0.5583   age150_m72            0.0000     1.2755E+03     8.6400  -1.0000    97.7578
 43      0.0000     0.0000E+00    0.0000E+00    5.000000E+09  0.05000  1.548E-05    0   0.5320   age161_m72            0.0000     2.5549E+03    13.4126  -1.0000    85.5920
 44      0.0000     0.0000E+00    0.0000E+00    1.100000E+10  0.05000  6.532E-06    0   0.5070   age185_m72            0.0000     4.2398E+03    17.4882  -1.0000    74.8149
 45      0.0000     0.0000E+00    0.0000E+00    1.300000E+10  0.05000  5.316E-06    0   0.5018   age193_m72            0.0000     4.8487E+03    18.6287  -1.0000    71.6908


## Synthesis Results - Average & Chains ##

# j      x_j: min, <> & last-chain-values for 1 ...  7 chains
  1      0.0000      0.0163      0.0261      0.0000      0.0000      0.0000      0.0037      0.0000      0.0000
  2     35.9008     34.7077     34.9937     34.9516     34.7993     34.5566     35.2983     34.9937     34.7874
  3      0.0000      0.0440      0.0000      0.0540      0.0000      0.0315      0.0000      0.0348      0.0000
  4      0.0000      0.1381      0.2045      0.3114      0.0905      0.2547      0.0000      0.0000      0.3394
  5      0.0000      0.0954      0.0000      0.1572      0.4223      0.1740      0.0000      0.1465      0.0000
  6      0.0000      0.0505      0.0000      0.0000      0.0000      0.0000      0.0000      0.0000      0.0000
  7     42.7492     43.9974     44.0858     43.9435     43.8863     43.9198     44.0259     44.2240     44.2064
  8      0.0000      0.1340      0.0000      0.0000      0.0000      0.0116      0.0709      0.0000      0.2234
  9      0.0000      0.2567      0.1374      0.4646      0.0000      0.5019      0.2016      0.3827      0.4164
 10     12.1987     11.7697     11.7360     11.8406     12.1088     11.8916     11.8624     11.7003     11.5583
 11      0.0000      0.0168      0.0000      0.0791      0.0201      0.0000      0.0000      0.0675      0.0000
 12     10.9914     11.2463     11.3036     11.1562     11.2029     11.1355     11.3453     11.2643     11.2595
 13      0.0000      0.0114      0.0504      0.0330      0.0000      0.0166      0.0159      0.0000      0.0000
 14      0.0000      0.0058      0.0000      0.0000      0.0000      0.0000      0.0000      0.0000      0.0000
 15      0.0000      0.0030      0.0000      0.0000      0.0000      0.0000      0.0005      0.0000      0.0000
 16      0.0000      0.0098      0.0000      0.0000      0.0000      0.0000      0.0000      0.0000      0.0000
 17      0.0000      0.0132      0.0000      0.0000      0.0000      0.0081      0.0000      0.0000      0.0000
 18      0.0000      0.0984      0.1125      0.1077      0.1650      0.3676      0.1834      0.3381      0.0681
 19      0.0000      0.0632      0.0000      0.0031      0.0000      0.0979      0.0266      0.0380      0.0000
 20      0.0000      0.0466      0.0000      0.0000      0.0000      0.0000      0.0000      0.0023      0.0000
 21      0.0000      0.1151      0.0886      0.0018      0.2212      0.0086      0.1744      0.0000      0.0343
 22      0.0000      0.1022      0.0395      0.0000      0.0138      0.0000      0.0000      0.0000      0.0000
 23      0.0000      0.0379      0.0000      0.0231      0.0000      0.0000      0.0000      0.0000      0.0000
 24      0.0000      0.0137      0.0000      0.0000      0.0000      0.0000      0.0000      0.0000      0.0000
 25      0.0000      0.0092      0.0000      0.0000      0.0000      0.0000      0.0000      0.0000      0.0000
 26      0.0000      0.0094      0.0000      0.0000      0.0000      0.0000      0.0000      0.0000      0.0000
 27      0.0000      0.0084      0.0000      0.0413      0.0141      0.0000      0.0000      0.0000      0.0185
 28      0.0000      0.0040      0.0000      0.0000      0.0100      0.0000      0.0181      0.0000      0.0000
 29      0.0000      0.0027      0.0151      0.0000      0.0000      0.0048      0.0000      0.0000      0.0000
 30      0.0000      0.0027      0.0000      0.0000      0.0000      0.0000      0.0000      0.0000      0.0000
 31      0.0000      0.0109      0.0169      0.0026      0.0000      0.0007      0.0000      0.0000      0.0000
 32      0.0000      0.0186      0.0000      0.0000      0.0000      0.0000      0.0000      0.0000      0.0000
 33      0.0000      0.0502      0.0000      0.0293      0.0000      0.0000      0.0030      0.0000      0.2294
 34      0.0000      0.0120      0.0000      0.0000      0.0000      0.0000      0.0021      0.0000      0.0000
 35      0.0000      0.0265      0.0505      0.0000      0.0000      0.0000      0.0204      0.0000      0.0697
 36      0.0000      0.1314      0.0751      0.0453      0.0417      0.1560      0.0000      0.1115      0.1694
 37      1.9609      0.4643      0.8681      0.5773      0.8185      0.6146      0.5422      0.4371      0.3528
 38      0.0000      0.0423      0.0000      0.0000      0.0000      0.0214      0.0000      0.0000      0.0270
 39      0.0000      0.0135      0.0000      0.0000      0.0000      0.0000      0.0000      0.0000      0.0000
 40      0.0000      0.0068      0.0000      0.0000      0.0000      0.0000      0.0000      0.0000      0.0000
 41      0.0000      0.0039      0.0000      0.0000      0.0000      0.0000      0.0000      0.0226      0.0000
 42      0.0000      0.0018      0.0000      0.0000      0.0000      0.0080      0.0083      0.0000      0.0000
 43      0.0000      0.0026      0.0000      0.0000      0.0000      0.0000      0.0000      0.0202      0.0171
 44      0.0000      0.0030      0.0277      0.0000      0.0000      0.0000      0.0187      0.0220      0.0000
 45      0.0000      0.0028      0.0000      0.0000      0.0000      0.0340      0.0000      0.0000      0.0361

# j      m_j: min, <> & last-chain-values for 1 ...  7 chains
  1  0.0000E+00  1.4668E-03  2.3010E-03  0.0000E+00  0.0000E+00  0.0000E+00  3.2797E-04  0.0000E+00  0.0000E+00
  2  9.0652E-01  8.5290E-01  8.4436E-01  8.6682E-01  8.6587E-01  8.3373E-01  8.5878E-01  8.5046E-01  8.3448E-01
  3  0.0000E+00  1.6484E-03  0.0000E+00  2.0433E-03  0.0000E+00  1.1598E-03  0.0000E+00  1.2902E-03  0.0000E+00
  4  0.0000E+00  9.6400E-03  1.4016E-02  2.1936E-02  6.3980E-03  1.7454E-02  0.0000E+00  0.0000E+00  2.3126E-02
  5  0.0000E+00  1.5401E-02  0.0000E+00  2.5602E-02  6.9004E-02  2.7577E-02  0.0000E+00  2.3376E-02  0.0000E+00
  6  0.0000E+00  1.1324E-02  0.0000E+00  0.0000E+00  0.0000E+00  0.0000E+00  0.0000E+00  0.0000E+00  0.0000E+00
  7  1.3972E+01  1.3995E+01  1.3769E+01  1.4107E+01  1.4134E+01  1.3716E+01  1.3865E+01  1.3912E+01  1.3726E+01
  8  0.0000E+00  8.2210E-02  0.0000E+00  0.0000E+00  0.0000E+00  7.0044E-03  4.3058E-02  0.0000E+00  1.3381E-01
  9  0.0000E+00  3.1368E-01  1.6488E-01  5.7285E-01  0.0000E+00  6.0207E-01  2.4385E-01  4.6238E-01  4.9666E-01
 10  2.1382E+01  2.0077E+01  1.9657E+01  2.0384E+01  2.0914E+01  1.9915E+01  2.0033E+01  1.9738E+01  1.9246E+01
 11  0.0000E+00  5.0383E-02  0.0000E+00  2.3928E-01  6.0916E-02  0.0000E+00  0.0000E+00  1.9984E-01  0.0000E+00
 12  6.2906E+01  6.2639E+01  6.1819E+01  6.2711E+01  6.3180E+01  6.0893E+01  6.2562E+01  6.2049E+01  6.1218E+01
 13  0.0000E+00  1.2674E-01  5.4916E-01  3.6943E-01  0.0000E+00  1.8114E-01  1.7443E-01  0.0000E+00  0.0000E+00
 14  0.0000E+00  1.3023E-01  0.0000E+00  0.0000E+00  0.0000E+00  0.0000E+00  0.0000E+00  0.0000E+00  0.0000E+00
 15  0.0000E+00  7.9514E-02  0.0000E+00  0.0000E+00  0.0000E+00  0.0000E+00  1.3083E-02  0.0000E+00  0.0000E+00
 16  0.0000E+00  4.9319E-04  0.0000E+00  0.0000E+00  0.0000E+00  0.0000E+00  0.0000E+00  0.0000E+00  0.0000E+00
 17  0.0000E+00  3.4424E-04  0.0000E+00  0.0000E+00  0.0000E+00  2.0805E-04  0.0000E+00  0.0000E+00  0.0000E+00
 18  0.0000E+00  2.8503E-03  3.2007E-03  3.1508E-03  4.8406E-03  1.0458E-02  5.2620E-03  9.6888E-03  1.9266E-03
 19  0.0000E+00  5.4742E-03  0.0000E+00  2.7406E-04  0.0000E+00  8.3306E-03  2.2851E-03  3.2596E-03  0.0000E+00
 20  0.0000E+00  8.9853E-03  0.0000E+00  0.0000E+00  0.0000E+00  0.0000E+00  0.0000E+00  4.3669E-04  0.0000E+00
 21  0.0000E+00  2.6638E-02  2.0145E-02  4.2322E-04  5.1838E-02  1.9534E-03  3.9970E-02  0.0000E+00  7.7404E-03
 22  0.0000E+00  3.9346E-02  1.4941E-02  0.0000E+00  5.3883E-03  0.0000E+00  0.0000E+00  0.0000E+00  0.0000E+00
 23  0.0000E+00  2.8675E-02  0.0000E+00  1.7634E-02  0.0000E+00  0.0000E+00  0.0000E+00  0.0000E+00  0.0000E+00
 24  0.0000E+00  2.3631E-02  0.0000E+00  0.0000E+00  0.0000E+00  0.0000E+00  0.0000E+00  0.0000E+00  0.0000E+00
 25  0.0000E+00  2.4451E-02  0.0000E+00  0.0000E+00  0.0000E+00  0.0000E+00  0.0000E+00  0.0000E+00  0.0000E+00
 26  0.0000E+00  4.7193E-02  0.0000E+00  0.0000E+00  0.0000E+00  0.0000E+00  0.0000E+00  0.0000E+00  0.0000E+00
 27  0.0000E+00  8.5300E-02  0.0000E+00  4.2569E-01  1.4579E-01  0.0000E+00  0.0000E+00  0.0000E+00  1.8408E-01
 28  0.0000E+00  8.1695E-02  0.0000E+00  0.0000E+00  2.0849E-01  0.0000E+00  3.7050E-01  0.0000E+00  0.0000E+00
 29  0.0000E+00  1.1958E-01  6.4639E-01  0.0000E+00  0.0000E+00  2.0749E-01  0.0000E+00  0.0000E+00  0.0000E+00
 30  0.0000E+00  1.4216E-01  0.0000E+00  0.0000E+00  0.0000E+00  0.0000E+00  0.0000E+00  0.0000E+00  0.0000E+00
 31  0.0000E+00  4.1155E-04  6.2485E-04  9.8733E-05  0.0000E+00  2.4415E-05  0.0000E+00  0.0000E+00  0.0000E+00
 32  0.0000E+00  3.7055E-04  0.0000E+00  0.0000E+00  0.0000E+00  0.0000E+00  0.0000E+00  0.0000E+00  0.0000E+00
 33  0.0000E+00  1.4813E-03  0.0000E+00  8.7383E-04  0.0000E+00  0.0000E+00  8.6601E-05  0.0000E+00  6.6124E-03
 34  0.0000E+00  1.1399E-03  0.0000E+00  0.0000E+00  0.0000E+00  0.0000E+00  2.0229E-04  0.0000E+00  0.0000E+00
 35  0.0000E+00  4.9851E-03  9.3226E-03  0.0000E+00  0.0000E+00  0.0000E+00  3.7934E-03  0.0000E+00  1.2788E-02
 36  0.0000E+00  3.1337E-02  1.7594E-02  1.0909E-02  1.0068E-02  3.6529E-02  0.0000E+00  2.6297E-02  3.9422E-02
 37  8.3355E-01  1.9206E-01  3.5261E-01  2.4103E-01  3.4287E-01  2.4962E-01  2.2206E-01  1.7882E-01  1.4248E-01
 38  0.0000E+00  3.9807E-02  0.0000E+00  0.0000E+00  0.0000E+00  1.9751E-02  0.0000E+00  0.0000E+00  2.4794E-02
 39  0.0000E+00  3.2074E-02  0.0000E+00  0.0000E+00  0.0000E+00  0.0000E+00  0.0000E+00  0.0000E+00  0.0000E+00
 40  0.0000E+00  2.7902E-02  0.0000E+00  0.0000E+00  0.0000E+00  0.0000E+00  0.0000E+00  0.0000E+00  0.0000E+00
 41  0.0000E+00  2.8861E-02  0.0000E+00  0.0000E+00  0.0000E+00  0.0000E+00  0.0000E+00  1.6700E-01  0.0000E+00
 42  0.0000E+00  2.6954E-02  0.0000E+00  0.0000E+00  0.0000E+00  1.1656E-01  1.2227E-01  0.0000E+00  0.0000E+00
 43  0.0000E+00  9.0345E-02  0.0000E+00  0.0000E+00  0.0000E+00  0.0000E+00  0.0000E+00  6.8862E-01  5.7335E-01
 44  0.0000E+00  2.3192E-01  2.1160E+00  0.0000E+00  0.0000E+00  0.0000E+00  1.4399E+00  1.6894E+00  0.0000E+00
 45  0.0000E+00  2.6757E-01  0.0000E+00  0.0000E+00  0.0000E+00  3.1549E+00  0.0000E+00  0.0000E+00  3.3287E+00

# AV, chi2 & Mass for <> & i_chain = 1 ...  7 solutions
AV       1.2428      1.2296      1.2303      1.2304      1.2319      1.2302      1.2290      1.2302      1.2300
chi2 2.2406E+00  2.2682E+00  2.2636E+00  2.2598E+00  2.2591E+00  2.2566E+00  2.2607E+00  2.2581E+00  2.2608E+00
Mass 3.3087E-10  3.3402E-10  3.4048E-10  3.3132E-10  3.3088E-10  3.4047E-10  3.3711E-10  3.3800E-10  3.4236E-10
 -56.10                                  [v0_min (km/s) before EX0s...]
 143.31                                  [vd_min (km/s) before EX0s...]


## Synthetic spectrum (Best Model) ##l_obs f_obs f_syn wei
 3070    [Nl_obs]
 3359.00    0.00000   0.58811   -2.000
 3360.00    0.05313   0.58460   -1.000
 3361.00    0.27294   0.58512   -1.000
 3362.00    0.28884   0.58893   -1.000
 3363.00    0.30809   0.59275   -1.000
 3364.00    0.31991   0.59386   -1.000
 3365.00    0.32217   0.59135   -1.000
 3366.00    0.32905   0.58645   -1.000
 3367.00    0.33949   0.58144   -1.000
 3368.00    0.33392   0.57791   -1.000
 3369.00    0.32318   0.57603   -1.000
 3370.00    0.31753   0.57528   -1.000
 3371.00    0.32130   0.57555   -1.000
 3372.00    0.33347   0.57772   -1.000
 3373.00    0.34597   0.58276   -1.000
 3374.00    0.35661   0.58934   -1.000
 3375.00    0.38091   0.59439   -1.000
 3376.00    0.38760   0.59534   -1.000
 3377.00    0.39812   0.59250   -1.000
 3378.00    0.38980   0.58919   -1.000
 3379.00    0.38747   0.58865   -1.000
 3380.00    0.38582   0.59211   -1.000
 3381.00    0.39539   0.59807   -1.000
 3382.00    0.39794   0.60431   -1.000
 3383.00    0.41070   0.60931   -1.000
 3384.00    0.40844   0.61269   -1.000
 3385.00    0.40791   0.61486   -1.000
 3386.00    0.41335   0.61585   -1.000
 3387.00    0.42919   0.61583   -1.000
 3388.00    0.43703   0.61530   -1.000
 3389.00    0.44295   0.61455   -1.000
 3390.00    0.44974   0.61396   -1.000
 3391.00    0.44756   0.61351   -1.000
 3392.00    0.44017   0.61399   -1.000
 3393.00    0.44594   0.61575   -1.000
 3394.00    0.45385   0.61891   -1.000
 3395.00    0.45735   0.62196   -1.000
 3396.00    0.46500   0.62334   -1.000
 3397.00    0.46481   0.62149   -1.000
 3398.00    0.47465   0.61657   -1.000
 3399.00    0.47960   0.60984   -1.000
 3400.00    0.47639   0.60338   -1.000
 3401.00    0.46899   0.59892   -1.000
 3402.00    0.46719   0.59640   -1.000
 3403.00    0.46539   0.59536   -1.000
 3404.00    0.46556   0.59448   -1.000
 3405.00    0.45770   0.59322   -1.000
 3406.00    0.45337   0.59204   -1.000
 3407.00    0.45238   0.59187   -1.000
 3408.00    0.44902   0.59326   -1.000
 3409.00    0.44838   0.59538   -1.000
 3410.00    0.46218   0.59766   -1.000
 3411.00    0.46448   0.59968   -1.000
 3412.00    0.47004   0.60166   -1.000
 3413.00    0.46563   0.60356   -1.000
 3414.00    0.46474   0.60553   -1.000
 3415.00    0.47856   0.60784   -1.000
 3416.00    0.48160   0.61110   -1.000
 3417.00    0.47627   0.61512   -1.000
 3418.00    0.48623   0.61886   -1.000
 3419.00    0.49787   0.62121   -1.000
 3420.00    0.49611   0.62160   -1.000
 3421.00    0.49185   0.62061   -1.000
 3422.00    0.48710   0.61918   -1.000
 3423.00    0.49377   0.61800   -1.000
 3424.00    0.48460   0.61763   -1.000
 3425.00    0.49683   0.61840   -1.000
 3426.00    0.51067   0.62073   -1.000
 3427.00    0.50761   0.62389   -1.000
 3428.00    0.50758   0.62649   -1.000
 3429.00    0.51555   0.62700   -1.000
 3430.00    0.52018   0.62495   -1.000
 3431.00    0.51732   0.62176   -1.000
 3432.00    0.51806   0.61884   -1.000
 3433.00    0.50277   0.61764   -1.000
 3434.00    0.50569   0.61774   -1.000
 3435.00    0.52159   0.61818   -1.000
 3436.00    0.52011   0.61677   -1.000
 3437.00    0.51159   0.61255   -1.000
 3438.00    0.50876   0.60519   -1.000
 3439.00    0.49660   0.59662   -1.000
 3440.00    0.49069   0.58917   -1.000
 3441.00    0.48651   0.58504   -1.000
 3442.00    0.48663   0.58457   -1.000
 3443.00    0.48809   0.58687   -1.000
 3444.00    0.50453   0.59095   -1.000
 3445.00    0.50521   0.59650   -1.000
 3446.00    0.50644   0.60330   -1.000
 3447.00    0.52559   0.60979   -1.000
 3448.00    0.53260   0.61321   -1.000
 3449.00    0.53335   0.61196   -1.000
 3450.00    0.52201   0.60616   -1.000
 3451.00    0.53091   0.59899   -1.000
 3452.00    0.53081   0.59337   -1.000
 3453.00    0.52457   0.59066   -1.000
 3454.00    0.53257   0.59044   -1.000
 3455.00    0.54282   0.59058   -1.000
 3456.00    0.55203   0.58981   -1.000
 3457.00    0.54557   0.58755   -1.000
 3458.00    0.53767   0.58474   -1.000
 3459.00    0.54200   0.58282   -1.000
 3460.00    0.54734   0.58307   65.147
 3461.00    0.54421   0.58622   65.805
 3462.00    0.55294   0.59054   77.385
 3463.00    0.56122   0.59509   -1.000
 3464.00    0.56062   0.59777   -1.000
 3465.00    0.55321   0.59961   -1.000
 3466.00    0.56148   0.60095   -1.000
 3467.00    0.56200   0.60246   -1.000
 3468.00    0.56242   0.60388   -1.000
 3469.00    0.57490   0.60441   -1.000
 3470.00    0.57733   0.60334   -1.000
 3471.00    0.58095   0.60010   -1.000
 3472.00    0.56976   0.59506   -1.000
 3473.00    0.56510   0.58919   -1.000
 3474.00    0.55600   0.58393   -1.000
 3475.00    0.54223   0.58072   -1.000
 3476.00    0.55020   0.58001   65.945
 3477.00    0.56185   0.58144   67.763
 3478.00    0.56823   0.58388   78.247
 3479.00    0.57784   0.58640   -1.000
 3480.00    0.58593   0.58797  510.825
 3481.00    0.57454   0.58854   -1.000
 3482.00    0.57839   0.58899   -1.000
 3483.00    0.57585   0.59088   -1.000
 3484.00    0.57818   0.59482   -1.000
 3485.00    0.58126   0.59970   -1.000
 3486.00    0.58755   0.60323   -1.000
 3487.00    0.58661   0.60369   -1.000
 3488.00    0.57616   0.60133   -1.000
 3489.00    0.56660   0.59782   -1.000
 3490.00    0.56103   0.59516   -1.000
 3491.00    0.55865   0.59388   -1.000
 3492.00    0.57023   0.59306   -1.000
 3493.00    0.57701   0.59153   -1.000
 3494.00    0.57381   0.58947   -1.000
 3495.00    0.57955   0.58838   -1.000
 3496.00    0.57478   0.58953   -1.000
 3497.00    0.56695   0.59241   -1.000
 3498.00    0.57204   0.59522   -1.000
 3499.00    0.57979   0.59633   -1.000
 3500.00    0.58217   0.59599   -1.000
 3501.00    0.58351   0.59504   -1.000
 3502.00    0.58192   0.59385   -1.000
 3503.00    0.57882   0.59188   -1.000
 3504.00    0.59250   0.58920  505.709
 3505.00    0.58524   0.58665  510.825
 3506.00    0.58641   0.58523  510.825
 3507.00    0.59184   0.58485   -1.000
 3508.00    0.59374   0.58466   -1.000
 3509.00    0.59039   0.58377   -1.000
 3510.00    0.58484   0.58202  510.825
 3511.00    0.57848   0.57973  510.825
 3512.00    0.57349   0.57824  510.825
 3513.00    0.57055   0.57850   -1.000
 3514.00    0.57158   0.58140   -1.000
 3515.00    0.58291   0.58627  510.825
 3516.00    0.59142   0.59145  510.825
 3517.00    0.59718   0.59523  510.825
 3518.00    0.59413   0.59642  510.825
 3519.00    0.58503   0.59514   -1.000
 3520.00    0.58427   0.59222   -1.000
 3521.00    0.58299   0.58864  510.825
 3522.00    0.56693   0.58533   -1.000
 3523.00    0.56066   0.58256   -1.000
 3524.00    0.55898   0.58142   -1.000
 3525.00    0.55529   0.58223   65.328
 3526.00    0.55301   0.58547   67.254
 3527.00    0.56573   0.59002   77.740
 3528.00    0.57669   0.59453   -1.000
 3529.00    0.58977   0.59789   -1.000
 3530.00    0.58994   0.59980   -1.000
 3531.00    0.59723   0.60075  510.825
 3532.00    0.59906   0.60102  510.825
 3533.00    0.59579   0.60110  510.825
 3534.00    0.60282   0.60104  510.825
 3535.00    0.60628   0.60142  510.825
 3536.00    0.58697   0.60259   -1.000
 3537.00    0.59620   0.60451   -1.000
 3538.00    0.61175   0.60700  510.825
 3539.00    0.60522   0.60917  510.825
 3540.00    0.59259   0.61076   -1.000
 3541.00    0.59469   0.61165   -1.000
 3542.00    0.59789   0.61238   -1.000
 3543.00    0.60601   0.61302   -1.000
 3544.00    0.60004   0.61365   -1.000
 3545.00    0.59591   0.61413   -1.000
 3546.00    0.59757   0.61453   -1.000
 3547.00    0.59525   0.61494   -1.000
 3548.00    0.59540   0.61520   -1.000
 3549.00    0.60053   0.61511   -1.000
 3550.00    0.60165   0.61444   -1.000
 3551.00    0.59743   0.61315   -1.000
 3552.00    0.59564   0.61123   -1.000
 3553.00    0.58474   0.60911   -1.000
 3554.00    0.58500   0.60724   -1.000
 3555.00    0.58846   0.60611   -1.000
 3556.00    0.58868   0.60571   -1.000
 3557.00    0.58345   0.60578   -1.000
 3558.00    0.58810   0.60630   -1.000
 3559.00    0.58786   0.60749   -1.000
 3560.00    0.58778   0.60913   -1.000
 3561.00    0.58691   0.61035   -1.000
 3562.00    0.60064   0.60923   -1.000
 3563.00    0.59374   0.60531   -1.000
 3564.00    0.57088   0.59942   -1.000
 3565.00    0.56141   0.59377   -1.000
 3566.00    0.56103   0.58961   66.016
 3567.00    0.56746   0.58609   68.211
 3568.00    0.56344   0.58212   67.451
 3569.00    0.56110   0.57685   67.469
 3570.00    0.55120   0.57167   69.652
 3571.00    0.55020   0.56784   70.395
 3572.00    0.55829   0.56629   68.007
 3573.00    0.56212   0.56638   75.240
 3574.00    0.56948   0.56703  510.825
 3575.00    0.57670   0.56751   -1.000
 3576.00    0.57120   0.56733  510.825
 3577.00    0.57198   0.56601   -1.000
 3578.00    0.56783   0.56364  510.825
 3579.00    0.57176   0.56057   -1.000
 3580.00    0.56963   0.55779   68.567
 3581.00    0.55999   0.55593   73.827
 3582.00    0.56418   0.55479   77.341
 3583.00    0.56093   0.55383   77.778
 3584.00    0.54616   0.55257   78.331
 3585.00    0.54299   0.55141   80.420
 3586.00    0.53830   0.55133   82.869
 3587.00    0.54271   0.55297   83.212
 3588.00    0.55591   0.55654   78.913
 3589.00    0.56147   0.56121   74.762
 3590.00    0.57881   0.56618   70.672
 3591.00    0.58571   0.57042   74.632
 3592.00    0.58359   0.57382   -1.000
 3593.00    0.57804   0.57695  510.825
 3594.00    0.57421   0.58033  510.825
 3595.00    0.57797   0.58413  510.825
 3596.00    0.58524   0.58788  510.825
 3597.00    0.59231   0.59088  510.825
 3598.00    0.59413   0.59246  506.715
 3599.00    0.59365   0.59197  494.165
 3600.00    0.58976   0.58959  488.094
 3601.00    0.58444   0.58573  496.564
 3602.00    0.58204   0.58180  510.825
 3603.00    0.58544   0.57884   -1.000
 3604.00    0.57540   0.57739  510.825
 3605.00    0.57241   0.57722  510.825
 3606.00    0.58236   0.57739  510.825
 3607.00    0.57713   0.57731  510.825
 3608.00    0.56819   0.57704   -1.000
 3609.00    0.56637   0.57675   -1.000
 3610.00    0.56811   0.57693   -1.000
 3611.00    0.57585   0.57742  510.825
 3612.00    0.57570   0.57856  510.825
 3613.00    0.56857   0.58032   -1.000
 3614.00    0.57585   0.58239   -1.000
 3615.00    0.58638   0.58376  510.825
 3616.00    0.59049   0.58387   -1.000
 3617.00    0.58331   0.58285  510.825
 3618.00    0.57356   0.58245   -1.000
 3619.00    0.57084   0.58397   -1.000
 3620.00    0.57787   0.58783   73.492
 3621.00    0.58735   0.59296  510.825
 3622.00    0.58465   0.59831   -1.000
 3623.00    0.59273   0.60321   -1.000
 3624.00    0.59269   0.60770   -1.000
 3625.00    0.59147   0.61174   -1.000
 3626.00    0.60280   0.61401   -1.000
 3627.00    0.61278   0.61293  463.348
 3628.00    0.59522   0.60814   -1.000
 3629.00    0.58715   0.60099   -1.000
 3630.00    0.57841   0.59461   -1.000
 3631.00    0.57153   0.59115   -1.000
 3632.00    0.57634   0.59116   -1.000
 3633.00    0.58476   0.59288   -1.000
 3634.00    0.59393   0.59445  510.825
 3635.00    0.60275   0.59519   -1.000
 3636.00    0.60070   0.59556  510.825
 3637.00    0.60258   0.59680   -1.000
 3638.00    0.60781   0.59823   -1.000
 3639.00    0.60791   0.59868   -1.000
 3640.00    0.60698   0.59702   -1.000
 3641.00    0.59959   0.59344   -1.000
 3642.00    0.59148   0.58904  483.361
 3643.00    0.58183   0.58512  501.053
 3644.00    0.58202   0.58252  510.825
 3645.00    0.58737   0.58138   -1.000
 3646.00    0.59159   0.58129   -1.000
 3647.00    0.58783   0.58215   -1.000
 3648.00    0.59407   0.58403   -1.000
 3649.00    0.59819   0.58696   -1.000
 3650.00    0.59465   0.59067  510.825
 3651.00    0.60590   0.59469   -1.000
 3652.00    0.60912   0.59841   -1.000
 3653.00    0.60629   0.60161  481.542
 3654.00    0.61341   0.60411   -1.000
 3655.00    0.62278   0.60617   -1.000
 3656.00    0.62633   0.60792   -1.000
 3657.00    0.62275   0.60896   -1.000
 3658.00    0.62282   0.60879   -1.000
 3659.00    0.61700   0.60715   -1.000
 3660.00    0.60889   0.60448  446.033
 3661.00    0.61061   0.60175   -1.000
 3662.00    0.60965   0.59974   -1.000
 3663.00    0.62488   0.59871   -1.000
 3664.00    0.62274   0.59832   -1.000
 3665.00    0.62502   0.59787   -1.000
 3666.00    0.61785   0.59721   -1.000
 3667.00    0.61656   0.59669   -1.000
 3668.00    0.61357   0.59692   -1.000
 3669.00    0.61389   0.59841   -1.000
 3670.00    0.61038   0.60075   -1.000
 3671.00    0.61805   0.60285   -1.000
 3672.00    0.62456   0.60374   -1.000
 3673.00    0.62146   0.60255   -1.000
 3674.00    0.62470   0.59955   -1.000
 3675.00    0.62515   0.59541   -1.000
 3676.00    0.62377   0.59136   -1.000
 3677.00    0.60932   0.58860   -1.000
 3678.00    0.59845   0.58781   -1.000
 3679.00    0.60605   0.58900   -1.000
 3680.00    0.60701   0.59093   -1.000
 3681.00    0.61077   0.59244   -1.000
 3682.00    0.60985   0.59226   -1.000
 3683.00    0.61091   0.59018   -1.000
 3684.00    0.60637   0.58728   -1.000
 3685.00    0.59682   0.58531   -1.000
 3686.00    0.59499   0.58638   -1.000
 3687.00    0.60482   0.59107   -1.000
 3688.00    0.61839   0.59792   -1.000
 3689.00    0.62893   0.60435   -1.000
 3690.00    0.62888   0.60920   -1.000
 3691.00    0.62679   0.61225   -1.000
 3692.00    0.63369   0.61432   -1.000
 3693.00    0.64288   0.61527   -1.000
 3694.00    0.64582   0.61447   -1.000
 3695.00    0.63192   0.61354   -1.000
 3696.00    0.62192   0.61463   -1.000
 3697.00    0.62174   0.61976  460.884
 3698.00    0.64031   0.62739   -1.000
 3699.00    0.66467   0.63270   -1.000
 3700.00    0.67671   0.63057   -1.000
 3701.00    0.66210   0.61933   -1.000
 3702.00    0.64102   0.60290   -1.000
 3703.00    0.61250   0.58809   -1.000
 3704.00    0.59901   0.58107   -1.000
 3705.00    0.61317   0.58326   -1.000
 3706.00    0.62676   0.59104   -1.000
 3707.00    0.65124   0.59777   -1.000
 3708.00    0.65392   0.59925   -1.000
 3709.00    0.63134   0.59525   -1.000
 3710.00    0.61441   0.59047   -1.000
 3711.00    0.60465   0.59158   -1.000
 3712.00    0.62178   0.60202   -1.000
 3713.00    0.65562   0.62091   -1.000
 3714.00    0.69105   0.64271   -1.000
 3715.00    0.71585   0.66002   -1.000
 3716.00    0.72773   0.66582   -1.000
 3717.00    0.71806   0.65696   -1.000
 3718.00    0.68528   0.63475   -1.000
 3719.00    0.63482   0.60611   -1.000
 3720.00    0.58486   0.58160  510.825
 3721.00    0.56389   0.57148  326.116
 3722.00    0.57872   0.57975   73.162
 3723.00    0.62467   0.60382   -1.000
 3724.00    0.67475   0.63614   -1.000
 3725.00    0.71155   0.66756   -1.000
 3726.00    0.72052   0.69110   -1.000
 3727.00    0.72690   0.70422   -1.000
 3728.00    0.73403   0.70476   -1.000
 3729.00    0.72470   0.69110   -1.000
 3730.00    0.70597   0.66345   -1.000
 3731.00    0.67265   0.62600   -1.000
 3732.00    0.60911   0.58762   -1.000
 3733.00    0.55840   0.55964  309.111
 3734.00    0.54163   0.55002   65.510
 3735.00    0.55708   0.56256   72.905
 3736.00    0.59414   0.59432   74.865
 3737.00    0.65251   0.63761   70.671
 3738.00    0.71335   0.68246   71.435
 3739.00    0.74618   0.72040   -1.000
 3740.00    0.75968   0.74465   -1.000
 3741.00    0.76000   0.75409  484.368
 3742.00    0.75765   0.74949   -1.000
 3743.00    0.74294   0.73265   -1.000
 3744.00    0.71849   0.70537   -1.000
 3745.00    0.69174   0.66930   -1.000
 3746.00    0.66587   0.62770   -1.000
 3747.00    0.62407   0.58770   -1.000
 3748.00    0.57422   0.55771   66.087
 3749.00    0.54010   0.54591   70.029
 3750.00    0.55537   0.55694   77.837
 3751.00    0.61106   0.58778   -1.000
 3752.00    0.66658   0.63053   -1.000
 3753.00    0.72455   0.67532   -1.000
 3754.00    0.75554   0.71319   -1.000
 3755.00    0.77678   0.73882   -1.000
 3756.00    0.77380   0.75191   -1.000
 3757.00    0.76403   0.75504   -1.000
 3758.00    0.75651   0.75414  510.825
 3759.00    0.75140   0.75391  510.825
 3760.00    0.76755   0.75572   -1.000
 3761.00    0.77735   0.75766   -1.000
 3762.00    0.78058   0.75646   -1.000
 3763.00    0.78460   0.74766   -1.000
 3764.00    0.76815   0.72905   -1.000
 3765.00    0.75252   0.70031   -1.000
 3766.00    0.72449   0.66388   -1.000
 3767.00    0.68475   0.62460   -1.000
 3768.00    0.64366   0.58924   -1.000
 3769.00    0.59941   0.56609   -1.000
 3770.00    0.57860   0.56122   -1.000
 3771.00    0.60651   0.57647   -1.000
 3772.00    0.66455   0.60807   -1.000
 3773.00    0.71106   0.64863   -1.000
 3774.00    0.74107   0.69131   -1.000
 3775.00    0.76053   0.73316   -1.000
 3776.00    0.79627   0.77179   -1.000
 3777.00    0.81617   0.80642   -1.000
 3778.00    0.84174   0.83564  445.458
 3779.00    0.86237   0.85821  438.220
 3780.00    0.86873   0.87424  423.719
 3781.00    0.86723   0.88385   -1.000
 3782.00    0.86464   0.88782   -1.000
 3783.00    0.85879   0.88643   -1.000
 3784.00    0.85634   0.88021   -1.000
 3785.00    0.85086   0.86992   -1.000
 3786.00    0.84595   0.85695   -1.000
 3787.00    0.83771   0.84330  478.450
 3788.00    0.82546   0.82984  500.661
 3789.00    0.81947   0.81492  508.692
 3790.00    0.82263   0.79576   -1.000
 3791.00    0.81119   0.76923   -1.000
 3792.00    0.78506   0.73313   -1.000
 3793.00    0.75225   0.68868   -1.000
 3794.00    0.70178   0.63937   -1.000
 3795.00    0.64907   0.59244   -1.000
 3796.00    0.59765   0.55742   -1.000
 3797.00    0.55792   0.54215   -1.000
 3798.00    0.56751   0.55182   -1.000
 3799.00    0.62872   0.58493   -1.000
 3800.00    0.68997   0.63349   -1.000
 3801.00    0.74390   0.68701   -1.000
 3802.00    0.78989   0.73685   -1.000
 3803.00    0.81511   0.77756   -1.000
 3804.00    0.82181   0.80902   -1.000
 3805.00    0.82656   0.83313   -1.000
 3806.00    0.84247   0.85321   -1.000
 3807.00    0.85801   0.87215   -1.000
 3808.00    0.87369   0.88942   -1.000
 3809.00    0.88534   0.90204   -1.000
 3810.00    0.89036   0.90687   -1.000
 3811.00    0.88239   0.90286   -1.000
 3812.00    0.87182   0.89239   -1.000
 3813.00    0.86439   0.88115   -1.000
 3814.00    0.85520   0.87351   -1.000
 3815.00    0.85971   0.87074   -1.000
 3816.00    0.88514   0.87008   -1.000
 3817.00    0.88394   0.86813   -1.000
 3818.00    0.88526   0.86344   -1.000
 3819.00    0.87085   0.85726   -1.000
 3820.00    0.85318   0.85134  510.825
 3821.00    0.86246   0.84586   -1.000
 3822.00    0.86211   0.83902   -1.000
 3823.00    0.86085   0.82812   -1.000
 3824.00    0.83250   0.81306   -1.000
 3825.00    0.81159   0.79605   -1.000
 3826.00    0.80461   0.77815   68.013
 3827.00    0.79351   0.75864   69.277
 3828.00    0.78580   0.73456   -1.000
 3829.00    0.77695   0.70355   -1.000
 3830.00    0.76175   0.66469   -1.000
 3831.00    0.70963   0.61954   -1.000
 3832.00    0.65174   0.57378   -1.000
 3833.00    0.60332   0.53498   -1.000
 3834.00    0.55819   0.51145   -1.000
 3835.00    0.55214   0.50856   -1.000
 3836.00    0.58285   0.52613   -1.000
 3837.00    0.64293   0.56036   -1.000
 3838.00    0.69110   0.60496   -1.000
 3839.00    0.72491   0.65386   -1.000
 3840.00    0.75921   0.70312   -1.000
 3841.00    0.78906   0.74934   75.255
 3842.00    0.82045   0.79012   -1.000
 3843.00    0.84953   0.82441   -1.000
 3844.00    0.86881   0.85143   -1.000
 3845.00    0.88282   0.87183   -1.000
 3846.00    0.88826   0.88605  510.825
 3847.00    0.89254   0.89541  510.825
 3848.00    0.89386   0.90158   -1.000
 3849.00    0.89360   0.90654   -1.000
 3850.00    0.89390   0.91141   -1.000
 3851.00    0.90574   0.91615   -1.000
 3852.00    0.92211   0.91924  510.825
 3853.00    0.92749   0.91940   -1.000
 3854.00    0.91582   0.91731  510.825
 3855.00    0.91068   0.91423  510.825
 3856.00    0.91418   0.91162  510.825
 3857.00    0.90524   0.91089  510.825
 3858.00    0.89307   0.91202   -1.000
 3859.00    0.88215   0.91438   64.588
 3860.00    0.90095   0.91721   68.272
 3861.00    0.93114   0.91955   71.658
 3862.00    0.95085   0.92046   -1.000
 3863.00    0.94981   0.92031   -1.000
 3864.00    0.93734   0.92093   -1.000
 3865.00    0.93741   0.92258   -1.000
 3866.00    0.93728   0.92481   -1.000
 3867.00    0.93663   0.92632   -1.000
 3868.00    0.93727   0.92478   -1.000
 3869.00    0.92820   0.91902   -1.000
 3870.00    0.91080   0.91048  510.825
 3871.00    0.89210   0.90219   -1.000
 3872.00    0.87625   0.89685   69.761
 3873.00    0.87841   0.89469   -1.000
 3874.00    0.89266   0.89311  510.825
 3875.00    0.89490   0.88835   -1.000
 3876.00    0.87706   0.87893  501.726
 3877.00    0.85031   0.86621   -1.000
 3878.00    0.84138   0.85216   -1.000
 3879.00    0.83855   0.83716  510.825
 3880.00    0.83223   0.81946   -1.000
 3881.00    0.82384   0.79594   -1.000
 3882.00    0.80695   0.76505   -1.000
 3883.00    0.78997   0.72637   -1.000
 3884.00    0.76476   0.68034   -1.000
 3885.00    0.71591   0.63069   -1.000
 3886.00    0.65752   0.58425   -1.000
 3887.00    0.60124   0.55083   -1.000
 3888.00    0.56522   0.53880   -1.000
 3889.00    0.58610   0.55061   -1.000
 3890.00    0.64819   0.58313   -1.000
 3891.00    0.71479   0.62808   -1.000
 3892.00    0.75930   0.67562   -1.000
 3893.00    0.78073   0.71945   -1.000
 3894.00    0.79386   0.75705   -1.000
 3895.00    0.80412   0.78751   -1.000
 3896.00    0.83338   0.81197   -1.000
 3897.00    0.84471   0.83147   -1.000
 3898.00    0.85065   0.84746  421.919
 3899.00    0.84871   0.86170   -1.000
 3900.00    0.85519   0.87520   -1.000
 3901.00    0.87539   0.88749   -1.000
 3902.00    0.88419   0.89725   -1.000
 3903.00    0.89579   0.90426   -1.000
 3904.00    0.88912   0.91080   -1.000
 3905.00    0.88628   0.91958   -1.000
 3906.00    0.89769   0.93142   -1.000
 3907.00    0.91559   0.94587   -1.000
 3908.00    0.93795   0.95977   -1.000
 3909.00    0.94285   0.96875   -1.000
 3910.00    0.95402   0.97125   -1.000
 3911.00    0.94026   0.96820   -1.000
 3912.00    0.92845   0.96204   -1.000
 3913.00    0.93735   0.95600   -1.000
 3914.00    0.93789   0.95259   -1.000
 3915.00    0.93454   0.95213   -1.000
 3916.00    0.93507   0.95280   -1.000
 3917.00    0.94026   0.95295   -1.000
 3918.00    0.93142   0.95214   -1.000
 3919.00    0.92081   0.95043   -1.000
 3920.00    0.93345   0.94882   -1.000
 3921.00    0.93410   0.94781   -1.000
 3922.00    0.92655   0.94652   -1.000
 3923.00    0.93622   0.94358   -1.000
 3924.00    0.94797   0.93746   -1.000
 3925.00    0.92851   0.92665  481.112
 3926.00    0.90911   0.91046  507.137
 3927.00    0.88058   0.88863   -1.000
 3928.00    0.85033   0.86121   -1.000
 3929.00    0.80230   0.82836   72.528
 3930.00    0.74227   0.79191   -1.000
 3931.00    0.65263   0.75819   -1.000
 3932.00    0.53239   0.73480   -1.000
 3933.00    0.45246   0.72882   -1.000
 3934.00    0.48850   0.74405   -1.000
 3935.00    0.60172   0.77525   -1.000
 3936.00    0.71884   0.81327   -1.000
 3937.00    0.82443   0.85036  100.689
 3938.00    0.87631   0.88127   82.811
 3939.00    0.89570   0.90446   74.261
 3940.00    0.91109   0.91963   -1.000
 3941.00    0.91344   0.92751   -1.000
 3942.00    0.90987   0.93054   -1.000
 3943.00    0.90255   0.93119   -1.000
 3944.00    0.91334   0.93153   -1.000
 3945.00    0.93035   0.93254  510.825
 3946.00    0.93969   0.93378   -1.000
 3947.00    0.93955   0.93406  446.828
 3948.00    0.92958   0.93301  442.503
 3949.00    0.93121   0.93121  438.547
 3950.00    0.93137   0.92967  422.209
 3951.00    0.92737   0.92876  409.316
 3952.00    0.92785   0.92787  411.779
 3953.00    0.92257   0.92596  417.213
 3954.00    0.92672   0.92149  409.337
 3955.00    0.91850   0.91383  399.794
 3956.00    0.90310   0.90339  405.061
 3957.00    0.89966   0.89064   -1.000
 3958.00    0.89613   0.87488   -1.000
 3959.00    0.87847   0.85456   -1.000
 3960.00    0.85617   0.82868   -1.000
 3961.00    0.82463   0.79654   -1.000
 3962.00    0.80758   0.75833   -1.000
 3963.00    0.77618   0.71283   -1.000
 3964.00    0.73888   0.65861   -1.000
 3965.00    0.66195   0.59843   -1.000
 3966.00    0.55320   0.53813   80.223
 3967.00    0.42786   0.48758   -1.000
 3968.00    0.34917   0.45743   -1.000
 3969.00    0.35729   0.45370   -1.000
 3970.00    0.44313   0.47642   -1.000
 3971.00    0.55971   0.51990   -1.000
 3972.00    0.66135   0.57535   -1.000
 3973.00    0.73620   0.63451   -1.000
 3974.00    0.78158   0.69134   -1.000
 3975.00    0.81856   0.74215   -1.000
 3976.00    0.84698   0.78573   -1.000
 3977.00    0.86753   0.82125   -1.000
 3978.00    0.88191   0.84929   -1.000
 3979.00    0.89609   0.87055   -1.000
 3980.00    0.91047   0.88630   -1.000
 3981.00    0.90551   0.89877  366.754
 3982.00    0.91132   0.90990  369.721
 3983.00    0.92290   0.92098  376.558
 3984.00    0.93810   0.93155  373.320
 3985.00    0.94570   0.94086  365.408
 3986.00    0.95347   0.94865  358.271
 3987.00    0.94832   0.95588  352.464
 3988.00    0.95186   0.96386   -1.000
 3989.00    0.96757   0.97199  342.803
 3990.00    0.96903   0.97975   -1.000
 3991.00    0.97632   0.98618   -1.000
 3992.00    0.98338   0.99022  333.347
 3993.00    0.97594   0.99117   -1.000
 3994.00    0.96744   0.98927   -1.000
 3995.00    0.96809   0.98608   -1.000
 3996.00    0.95618   0.98341   -1.000
 3997.00    0.96702   0.98262   -1.000
 3998.00    0.96964   0.98375   -1.000
 3999.00    0.98265   0.98553  346.153
 4000.00    0.99946   0.98627   -1.000
 4001.00    0.99495   0.98497   -1.000
 4002.00    1.00037   0.98176   -1.000
 4003.00    0.98381   0.97826  310.401
 4004.00    0.97933   0.97652  317.496
 4005.00    0.98105   0.97766  339.533
 4006.00    0.98613   0.98254  356.066
 4007.00    0.99504   0.98940  351.893
 4008.00    0.99838   0.99554  331.221
 4009.00    1.00146   0.99959  318.673
 4010.00    0.98580   1.00166   -1.000
 4011.00    0.99785   1.00278  311.469
 4012.00    0.99116   1.00420   -1.000
 4013.00    0.99429   1.00692   -1.000
 4014.00    0.99721   1.01104   -1.000
 4015.00    0.99467   1.01589   -1.000
 4016.00    1.00055   1.02091   -1.000
 4017.00    0.99699   1.02519   -1.000
 4018.00    1.00695   1.02781   -1.000
 4019.00    1.00994   1.02758   -1.000
 4020.00    1.00076   1.02353   -1.000
 4021.00    1.00174   1.01573   -1.000
 4022.00    1.00721   1.00603  313.369
 4023.00    0.99924   0.99717  315.128
 4024.00    0.99357   0.99142  317.217
 4025.00    1.00000   0.98994   -1.000
 4026.00    1.00517   0.99199   -1.000
 4027.00    1.00411   0.99481  299.860
 4028.00    1.00356   0.99647  294.263
 4029.00    0.99160   0.99741  297.551
 4030.00    0.98824   0.99858   -1.000
 4031.00    0.99347   1.00107  331.916
 4032.00    0.97879   1.00561   -1.000
 4033.00    0.98445   1.01200   -1.000
 4034.00    0.99171   1.01977   -1.000
 4035.00    1.00074   1.02785   -1.000
 4036.00    1.00944   1.03511   -1.000
 4037.00    1.01659   1.04055   -1.000
 4038.00    1.00789   1.04302   -1.000
 4039.00    1.00300   1.04207   -1.000
 4040.00    1.00591   1.03818   -1.000
 4041.00    1.00129   1.03160   -1.000
 4042.00    0.99580   1.02307   -1.000
 4043.00    0.99752   1.01437   -1.000
 4044.00    0.97642   1.00785   -1.000
 4045.00    0.95639   1.00623   -1.000
 4046.00    0.97277   1.01009   -1.000
 4047.00    0.99677   1.01753   -1.000
 4048.00    1.00319   1.02454   -1.000
 4049.00    1.01500   1.02826   -1.000
 4050.00    1.00514   1.02828   -1.000
 4051.00    1.01017   1.02570   -1.000
 4052.00    1.00974   1.02234   -1.000
 4053.00    0.99494   1.01987   -1.000
 4054.00    0.99528   1.01966   -1.000
 4055.00    1.00056   1.02162   -1.000
 4056.00    0.99670   1.02429   -1.000
 4057.00    0.99348   1.02597   -1.000
 4058.00    1.00054   1.02529   -1.000
 4059.00    1.00468   1.02143   -1.000
 4060.00    1.00162   1.01387   -1.000
 4061.00    0.99002   1.00372   -1.000
 4062.00    0.96960   0.99385   -1.000
 4063.00    0.97315   0.98594   -1.000
 4064.00    0.97391   0.98125  359.557
 4065.00    0.98081   0.97992  352.668
 4066.00    0.98623   0.98110  335.081
 4067.00    0.98903   0.98212  327.160
 4068.00    0.98773   0.98152  318.216
 4069.00    0.98686   0.97892  308.034
 4070.00    0.98055   0.97474  304.730
 4071.00    0.97077   0.97051  317.425
 4072.00    0.96916   0.96713  331.660
 4073.00    0.97720   0.96367   -1.000
 4074.00    0.98019   0.95890   -1.000
 4075.00    0.96697   0.95320   -1.000
 4076.00    0.95473   0.94912  331.569
 4077.00    0.95019   0.94934  360.051
 4078.00    0.95156   0.95461  369.716
 4079.00    0.96301   0.96271  356.413
 4080.00    0.96528   0.96959  331.442
 4081.00    0.97160   0.97225  308.898
 4082.00    0.96877   0.97061  300.245
 4083.00    0.96376   0.96635  305.933
 4084.00    0.95167   0.96180   -1.000
 4085.00    0.94613   0.95848   -1.000
 4086.00    0.95543   0.95630  315.707
 4087.00    0.95912   0.95401  304.765
 4088.00    0.94892   0.94984  293.017
 4089.00    0.94231   0.94257  283.883
 4090.00    0.93407   0.93144  285.628
 4091.00    0.92566   0.91651  291.723
 4092.00    0.91750   0.89721   -1.000
 4093.00    0.91017   0.87256   -1.000
 4094.00    0.88838   0.84195   -1.000
 4095.00    0.87563   0.80487   -1.000
 4096.00    0.84870   0.76178   -1.000
 4097.00    0.82212   0.71377   -1.000
 4098.00    0.77604   0.66456   -1.000
 4099.00    0.71656   0.62097   -1.000
 4100.00    0.64104   0.59130   -1.000
 4101.00    0.59662   0.58327   -1.000
 4102.00    0.62967   0.59956   -1.000
 4103.00    0.70844   0.63617   -1.000
 4104.00    0.77808   0.68360   -1.000
 4105.00    0.82107   0.73195   -1.000
 4106.00    0.84609   0.77474   -1.000
 4107.00    0.86052   0.81038   -1.000
 4108.00    0.87343   0.83926   -1.000
 4109.00    0.88915   0.86332   -1.000
 4110.00    0.90367   0.88457   -1.000
 4111.00    0.91900   0.90418   -1.000
 4112.00    0.93301   0.92232   -1.000
 4113.00    0.94509   0.93805  317.901
 4114.00    0.95457   0.95058  312.510
 4115.00    0.95544   0.95898  307.750
 4116.00    0.95077   0.96324   -1.000
 4117.00    0.95283   0.96430   -1.000
 4118.00    0.94939   0.96390   -1.000
 4119.00    0.95298   0.96384   -1.000
 4120.00    0.95324   0.96511   -1.000
 4121.00    0.95827   0.96752   -1.000
 4122.00    0.96762   0.97042  319.924
 4123.00    0.97737   0.97325  320.333
 4124.00    0.97774   0.97496  316.715
 4125.00    0.97962   0.97425  311.051
 4126.00    0.97601   0.97079  310.237
 4127.00    0.97941   0.96587   -1.000
 4128.00    0.98225   0.96173   -1.000
 4129.00    0.97474   0.95998   -1.000
 4130.00    0.96969   0.96111  325.656
 4131.00    0.96636   0.96489  329.946
 4132.00    0.95723   0.97152   -1.000
 4133.00    0.96008   0.98105   -1.000
 4134.00    0.97136   0.99241   -1.000
 4135.00    0.97753   1.00358   -1.000
 4136.00    0.98980   1.01311   -1.000
 4137.00    0.99917   1.01949   -1.000
 4138.00    0.99607   1.02187   -1.000
 4139.00    0.99824   1.01946   -1.000
 4140.00    0.99456   1.01276   -1.000
 4141.00    0.98030   1.00382   -1.000
 4142.00    0.96802   0.99587   -1.000
 4143.00    0.95828   0.99166   -1.000
 4144.00    0.97226   0.99265   -1.000
 4145.00    0.98574   0.99751   -1.000
 4146.00    0.98859   1.00299   -1.000
 4147.00    0.99330   1.00699   -1.000
 4148.00    0.99302   1.00917   -1.000
 4149.00    0.99089   1.01036   -1.000
 4150.00    0.98920   1.01116   -1.000
 4151.00    0.99152   1.01151   -1.000
 4152.00    0.98991   1.01118   -1.000
 4153.00    0.98597   1.01062   -1.000
 4154.00    0.98216   1.01080   -1.000
 4155.00    0.96969   1.01246   -1.000
 4156.00    0.98302   1.01544   -1.000
 4157.00    1.02454   1.01867  331.424
 4158.00    1.00569   1.02116   -1.000
 4159.00    0.98465   1.02212   -1.000
 4160.00    0.99960   1.02186   -1.000
 4161.00    1.00165   1.02162   -1.000
 4162.00    0.99654   1.02238   -1.000
 4163.00    0.99171   1.02394   -1.000
 4164.00    0.98826   1.02559   -1.000
 4165.00    0.99292   1.02633   -1.000
 4166.00    0.99309   1.02465   -1.000
 4167.00    0.98918   1.01984   -1.000
 4168.00    0.99297   1.01216   -1.000
 4169.00    0.99755   1.00188  330.231
 4170.00    0.98697   0.99018  324.357
 4171.00    0.97883   0.97971  328.162
 4172.00    0.97204   0.97324  348.546
 4173.00    0.96460   0.97188  369.841
 4174.00    0.97200   0.97416  370.078
 4175.00    0.97729   0.97738  356.173
 4176.00    0.97834   0.97957  343.296
 4177.00    0.97169   0.98110   -1.000
 4178.00    0.97441   0.98389   -1.000
 4179.00    0.99045   0.98894  343.975
 4180.00    1.00031   0.99503  338.395
 4181.00    0.99144   1.00029   -1.000
 4182.00    0.98953   1.00376   -1.000
 4183.00    0.98269   1.00554   -1.000
 4184.00    0.98584   1.00615   -1.000
 4185.00    0.98143   1.00568   -1.000
 4186.00    0.97188   1.00445   -1.000
 4187.00    0.97355   1.00316   -1.000
 4188.00    0.97993   1.00300   -1.000
 4189.00    0.98073   1.00391   -1.000
 4190.00    0.98224   1.00515   -1.000
 4191.00    0.98535   1.00616   -1.000
 4192.00    0.98934   1.00608   -1.000
 4193.00    0.99775   1.00359  316.026
 4194.00    0.98973   0.99786  311.940
 4195.00    0.99167   0.98954  321.643
 4196.00    0.98855   0.98046  339.021
 4197.00    0.96778   0.97250  349.968
 4198.00    0.96486   0.96696  355.926
 4199.00    0.97336   0.96475   -1.000
 4200.00    0.97263   0.96568  352.380
 4201.00    0.97426   0.96887  346.623
 4202.00    0.98146   0.97404  345.881
 4203.00    0.98855   0.98082  343.590
 4204.00    0.97726   0.98822   -1.000
 4205.00    0.97406   0.99516   -1.000
 4206.00    0.98218   1.00106   -1.000
 4207.00    0.99067   1.00537   -1.000
 4208.00    0.99250   1.00788   -1.000
 4209.00    0.98980   1.00912   -1.000
 4210.00    0.98458   1.00945   -1.000
 4211.00    0.99437   1.00841   -1.000
 4212.00    0.99080   1.00551   -1.000
 4213.00    0.98109   1.00127   -1.000
 4214.00    0.97312   0.99717   -1.000
 4215.00    0.95694   0.99546   -1.000
 4216.00    0.95893   0.99761   -1.000
 4217.00    0.96816   1.00292   -1.000
 4218.00    0.98563   1.00847   -1.000
 4219.00    0.99086   1.01111   -1.000
 4220.00    0.99998   1.00920  292.133
 4221.00    0.98882   1.00224   -1.000
 4222.00    0.98619   0.99084  291.994
 4223.00    0.97910   0.97740  304.451
 4224.00    0.96104   0.96563  326.257
 4225.00    0.93813   0.95919   -1.000
 4226.00    0.92143   0.96032   -1.000
 4227.00    0.93612   0.96847   -1.000
 4228.00    0.96496   0.97994   -1.000
 4229.00    0.98257   0.98911  354.633
 4230.00    0.98181   0.99244   -1.000
 4231.00    0.98116   0.99006  302.587
 4232.00    0.97241   0.98500   -1.000
 4233.00    0.96455   0.98116   -1.000
 4234.00    0.97020   0.98091   -1.000
 4235.00    0.96728   0.98382   -1.000
 4236.00    0.96718   0.98853   -1.000
 4237.00    0.96513   0.99367   -1.000
 4238.00    0.97200   0.99854   -1.000
 4239.00    0.98344   1.00261   -1.000
 4240.00    0.98675   1.00574   -1.000
 4241.00    0.97879   1.00750   -1.000
 4242.00    0.98777   1.00768   -1.000
 4243.00    0.98802   1.00614   -1.000
 4244.00    0.98283   1.00253   -1.000
 4245.00    0.97279   0.99710   -1.000
 4246.00    0.96389   0.99131   -1.000
 4247.00    0.95642   0.98726   -1.000
 4248.00    0.95525   0.98603   -1.000
 4249.00    0.94611   0.98684   -1.000
 4250.00    0.94904   0.98850   -1.000
 4251.00    0.96954   0.99055   -1.000
 4252.00    0.95991   0.99255   -1.000
 4253.00    0.96774   0.99366   -1.000
 4254.00    0.96566   0.99375   -1.000
 4255.00    0.97159   0.99293   -1.000
 4256.00    0.97898   0.99078   -1.000
 4257.00    0.97720   0.98752   -1.000
 4258.00    0.96668   0.98451   -1.000
 4259.00    0.96621   0.98400   -1.000
 4260.00    0.96254   0.98742   -1.000
 4261.00    0.96312   0.99459   -1.000
 4262.00    0.98004   1.00392   -1.000
 4263.00    0.98820   1.01228   -1.000
 4264.00    0.98694   1.01715   -1.000
 4265.00    0.98524   1.01716   -1.000
 4266.00    0.98350   1.01226   -1.000
 4267.00    0.97801   1.00326   -1.000
 4268.00    0.96779   0.99169   -1.000
 4269.00    0.96092   0.97955   -1.000
 4270.00    0.94148   0.96911   -1.000
 4271.00    0.93314   0.96248   -1.000
 4272.00    0.93535   0.96127   -1.000
 4273.00    0.94665   0.96550   -1.000
 4274.00    0.95908   0.97338   -1.000
 4275.00    0.95968   0.98292   -1.000
 4276.00    0.96877   0.99211   -1.000
 4277.00    0.97790   0.99881   -1.000
 4278.00    0.97501   1.00209   -1.000
 4279.00    0.96625   1.00244   -1.000
 4280.00    0.96037   1.00116   -1.000
 4281.00    0.95447   0.99909   -1.000
 4282.00    0.95554   0.99654   -1.000
 4283.00    0.95847   0.99310   -1.000
 4284.00    0.95659   0.98805   -1.000
 4285.00    0.95610   0.98082   -1.000
 4286.00    0.95183   0.97156   -1.000
 4287.00    0.94710   0.96192   -1.000
 4288.00    0.92598   0.95396   -1.000
 4289.00    0.91138   0.94917   -1.000
 4290.00    0.91323   0.94810   -1.000
 4291.00    0.93173   0.94953   -1.000
 4292.00    0.93683   0.95059   -1.000
 4293.00    0.94146   0.94906  335.279
 4294.00    0.93485   0.94488   -1.000
 4295.00    0.93743   0.93906  332.606
 4296.00    0.93465   0.93151  338.187
 4297.00    0.92190   0.92225  345.993
 4298.00    0.89962   0.91198   -1.000
 4299.00    0.88759   0.90288   -1.000
 4300.00    0.88002   0.89749   -1.000
 4301.00    0.88344   0.89712   -1.000
 4302.00    0.89659   0.90093  416.903
 4303.00    0.89870   0.90679   -1.000
 4304.00    0.90386   0.91221   -1.000
 4305.00    0.90450   0.91514   -1.000
 4306.00    0.88449   0.91567   -1.000
 4307.00    0.87584   0.91566   -1.000
 4308.00    0.87878   0.91674   -1.000
 4309.00    0.88467   0.91921   -1.000
 4310.00    0.89928   0.92189   -1.000
 4311.00    0.90065   0.92431   -1.000
 4312.00    0.92049   0.92754  388.360
 4313.00    0.91852   0.93402   -1.000
 4314.00    0.91196   0.94492   -1.000
 4315.00    0.93700   0.95902   -1.000
 4316.00    0.95560   0.97214   -1.000
 4317.00    0.96363   0.98032   -1.000
 4318.00    0.95990   0.98196   -1.000
 4319.00    0.95079   0.97736   -1.000
 4320.00    0.94689   0.96828   -1.000
 4321.00    0.94359   0.95673   -1.000
 4322.00    0.93254   0.94445   -1.000
 4323.00    0.92128   0.93317   -1.000
 4324.00    0.90868   0.92474   -1.000
 4325.00    0.89656   0.92103   -1.000
 4326.00    0.90136   0.92181   -1.000
 4327.00    0.92032   0.92406  348.947
 4328.00    0.92684   0.92339  311.468
 4329.00    0.92173   0.91787  289.331
 4330.00    0.91895   0.90738  284.118
 4331.00    0.90753   0.89216   -1.000
 4332.00    0.89796   0.87101   -1.000
 4333.00    0.88888   0.84182   -1.000
 4334.00    0.87311   0.80341   -1.000
 4335.00    0.84768   0.75648   -1.000
 4336.00    0.80773   0.70503   -1.000
 4337.00    0.75377   0.65596   -1.000
 4338.00    0.68448   0.61847   -1.000
 4339.00    0.62073   0.60003   -1.000
 4340.00    0.60446   0.60413  388.354
 4341.00    0.66373   0.62956   -1.000
 4342.00    0.74336   0.67001   -1.000
 4343.00    0.79516   0.71692   -1.000
 4344.00    0.83639   0.76339   -1.000
 4345.00    0.86180   0.80499   -1.000
 4346.00    0.87762   0.83900   -1.000
 4347.00    0.89098   0.86420   -1.000
 4348.00    0.90176   0.88062   -1.000
 4349.00    0.90702   0.89065   -1.000
 4350.00    0.90279   0.89796  281.122
 4351.00    0.90220   0.90668  297.149
 4352.00    0.90774   0.91893   -1.000
 4353.00    0.92155   0.93371   -1.000
 4354.00    0.93248   0.94829   -1.000
 4355.00    0.94333   0.96039   -1.000
 4356.00    0.95249   0.96946   -1.000
 4357.00    0.95683   0.97612   -1.000
 4358.00    0.95383   0.98175   -1.000
 4359.00    0.95145   0.98762   -1.000
 4360.00    0.96165   0.99406   -1.000
 4361.00    0.96762   1.00024   -1.000
 4362.00    0.96815   1.00493   -1.000
 4363.00    0.96565   1.00713   -1.000
 4364.00    0.97064   1.00607   -1.000
 4365.00    0.96607   1.00165   -1.000
 4366.00    0.96630   0.99478   -1.000
 4367.00    0.96236   0.98729   -1.000
 4368.00    0.95845   0.98081   -1.000
 4369.00    0.96511   0.97559   -1.000
 4370.00    0.96861   0.97084  288.094
 4371.00    0.97016   0.96582  286.338
 4372.00    0.96893   0.96078  286.116
 4373.00    0.95978   0.95718  289.049
 4374.00    0.94306   0.95708   -1.000
 4375.00    0.94532   0.96144   -1.000
 4376.00    0.96134   0.96867  313.104
 4377.00    0.96703   0.97479  299.891
 4378.00    0.97101   0.97596  284.734
 4379.00    0.97321   0.97021  279.867
 4380.00    0.97399   0.95799   -1.000
 4381.00    0.96649   0.94164   -1.000
 4382.00    0.94263   0.92535   -1.000
 4383.00    0.93090   0.91392   -1.000
 4384.00    0.93642   0.91092   -1.000
 4385.00    0.95155   0.91620   -1.000
 4386.00    0.96535   0.92621   -1.000
 4387.00    0.97470   0.93697   -1.000
 4388.00    0.97293   0.94560   -1.000
 4389.00    0.97225   0.95101   -1.000
 4390.00    0.97237   0.95322   -1.000
 4391.00    0.96498   0.95312   -1.000
 4392.00    0.96788   0.95170   -1.000
 4393.00    0.96405   0.94961   -1.000
 4394.00    0.94959   0.94828  292.601
 4395.00    0.95191   0.94907  299.234
 4396.00    0.96358   0.95146   -1.000
 4397.00    0.97167   0.95356   -1.000
 4398.00    0.97171   0.95432   -1.000
 4399.00    0.96795   0.95457   -1.000
 4400.00    0.96449   0.95570  290.515
 4401.00    0.97386   0.95779   -1.000
 4402.00    0.97855   0.95950   -1.000
 4403.00    0.97139   0.96002   -1.000
 4404.00    0.96209   0.96019  300.519
 4405.00    0.95981   0.96117  318.368
 4406.00    0.97176   0.96315  320.760
 4407.00    0.97669   0.96571   -1.000
 4408.00    0.98055   0.96856   -1.000
 4409.00    0.98207   0.97126   -1.000
 4410.00    0.98308   0.97263  290.889
 4411.00    0.98145   0.97101  278.376
 4412.00    0.98457   0.96558   -1.000
 4413.00    0.97900   0.95716   -1.000
 4414.00    0.96460   0.94840   -1.000
 4415.00    0.95331   0.94313   -1.000
 4416.00    0.95530   0.94388   -1.000
 4417.00    0.96830   0.95052   -1.000
 4418.00    0.97296   0.96053   -1.000
 4419.00    0.97828   0.97054  275.204
 4420.00    0.98289   0.97775  267.483
 4421.00    0.97395   0.98157  269.154
 4422.00    0.97353   0.98350  276.401
 4423.00    0.97957   0.98481  281.375
 4424.00    0.97758   0.98577  279.719
 4425.00    0.96917   0.98619   -1.000
 4426.00    0.96916   0.98620   -1.000
 4427.00    0.96975   0.98615   -1.000
 4428.00    0.96867   0.98610   -1.000
 4429.00    0.96936   0.98583   -1.000
 4430.00    0.97851   0.98519  280.492
 4431.00    0.97792   0.98424  281.421
 4432.00    0.97476   0.98339  278.051
 4433.00    0.97331   0.98342  275.872
 4434.00    0.96575   0.98515   -1.000
 4435.00    0.96540   0.98903   -1.000
 4436.00    0.97666   0.99409   -1.000
 4437.00    0.98886   0.99787  290.326
 4438.00    0.98799   0.99794  272.308
 4439.00    0.98030   0.99341   -1.000
 4440.00    0.97872   0.98571  260.223
 4441.00    0.97351   0.97804  268.593
 4442.00    0.95686   0.97400   -1.000
 4443.00    0.95043   0.97553   -1.000
 4444.00    0.96508   0.98220   -1.000
 4445.00    0.98025   0.99109   -1.000
 4446.00    0.98489   0.99843   -1.000
 4447.00    0.98190   1.00240   -1.000
 4448.00    0.97958   1.00329   -1.000
 4449.00    0.98022   1.00229   -1.000
 4450.00    0.97656   1.00052   -1.000
 4451.00    0.97798   0.99847   -1.000
 4452.00    0.97911   0.99596   -1.000
 4453.00    0.97329   0.99273   -1.000
 4454.00    0.96989   0.98968   -1.000
 4455.00    0.97384   0.98811   -1.000
 4456.00    0.97853   0.98850   -1.000
 4457.00    0.98384   0.98995  296.417
 4458.00    0.98852   0.99134  291.113
 4459.00    0.98124   0.99217   -1.000
 4460.00    0.97601   0.99225   -1.000
 4461.00    0.97323   0.99179   -1.000
 4462.00    0.97677   0.99086   -1.000
 4463.00    0.99044   0.98910  292.648
 4464.00    0.98353   0.98597  281.058
 4465.00    0.98021   0.98127  274.435
 4466.00    0.97301   0.97542  274.041
 4467.00    0.96700   0.96972  274.238
 4468.00    0.96244   0.96629  277.377
 4469.00    0.96630   0.96715  282.770
 4470.00    0.96961   0.97264  284.484
 4471.00    0.98539   0.98158  280.505
 4472.00    0.99603   0.99190  271.648
 4473.00    1.00157   1.00152  262.237
 4474.00    0.99616   1.00844   -1.000
 4475.00    0.99698   1.01119   -1.000
 4476.00    0.99787   1.00919   -1.000
 4477.00    0.99952   1.00292  251.193
 4478.00    0.99718   0.99387  249.717
 4479.00    0.99634   0.98486  251.965
 4480.00    0.98371   0.97938  261.328
 4481.00    0.97908   0.98016  273.259
 4482.00    0.97746   0.98734  281.016
 4483.00    0.98580   0.99746   -1.000
 4484.00    0.98696   1.00608   -1.000
 4485.00    0.99725   1.01020   -1.000
 4486.00    0.99759   1.00924   -1.000
 4487.00    0.99329   1.00483   -1.000
 4488.00    0.99395   0.99993  256.648
 4489.00    0.98664   0.99722  266.548
 4490.00    0.98754   0.99759  272.733
 4491.00    0.98458   1.00018   -1.000
 4492.00    0.98480   1.00357   -1.000
 4493.00    0.99600   1.00663  258.376
 4494.00    0.98631   1.00882   -1.000
 4495.00    0.98559   1.01022   -1.000
 4496.00    0.98878   1.01066   -1.000
 4497.00    0.99453   1.00987   -1.000
 4498.00    0.99864   1.00806  263.793
 4499.00    0.99371   1.00619   -1.000
 4500.00    0.97292   1.00581   -1.000
 4501.00    0.96557   1.00827   -1.000
 4502.00    0.98420   1.01339   -1.000
 4503.00    0.99141   1.01914   -1.000
 4504.00    0.99654   1.02315   -1.000
 4505.00    0.99974   1.02428   -1.000
 4506.00    0.99731   1.02327   -1.000
 4507.00    0.99795   1.02166   -1.000
 4508.00    1.00063   1.02095   -1.000
 4509.00    1.00200   1.02151   -1.000
 4510.00    0.99807   1.02210   -1.000
 4511.00    0.99819   1.02116   -1.000
 4512.00    0.99355   1.01821   -1.000
 4513.00    0.99239   1.01384   -1.000
 4514.00    0.99171   1.00918   -1.000
 4515.00    0.99141   1.00527   -1.000
 4516.00    0.99444   1.00249  255.799
 4517.00    0.99501   1.00020  255.590
 4518.00    0.99533   0.99762  258.677
 4519.00    0.99803   0.99478  260.227
 4520.00    0.99826   0.99212  255.890
 4521.00    0.99192   0.99009  250.819
 4522.00    0.98565   0.98881  251.485
 4523.00    0.98556   0.98811  257.402
 4524.00    0.99024   0.98737  262.662
 4525.00    0.98877   0.98581  264.961
 4526.00    0.98364   0.98309  269.370
 4527.00    0.97971   0.97975  277.592
 4528.00    0.97317   0.97663  285.468
 4529.00    0.97370   0.97435  288.983
 4530.00    0.98005   0.97284  286.974
 4531.00    0.98633   0.97168   -1.000
 4532.00    0.97644   0.97094  276.798
 4533.00    0.96498   0.97188  275.363
 4534.00    0.96649   0.97605  282.928
 4535.00    0.97448   0.98332  292.571
 4536.00    0.98491   0.99155  289.061
 4537.00    0.99753   0.99787  272.775
 4538.00    1.00109   1.00068  256.640
 4539.00    1.00197   1.00006  249.544
 4540.00    1.00124   0.99767  251.767
 4541.00    0.99363   0.99540  257.822
 4542.00    1.03359   0.99433   -1.000
 4543.00    0.80647   0.99405   -1.000
 4544.00    0.07134   0.99337   -1.000
 4545.00   -0.04725   0.99123    0.000
 4546.00    0.16025   0.98721   -1.000
 4547.00    0.65789   0.98169   -1.000
 4548.00    0.22073   0.97597   -1.000
 4549.00    0.84722   0.97172   -1.000
 4550.00    0.98035   0.97009  123.075
 4551.00    0.97731   0.97052  261.676
 4552.00    0.97573   0.97117  268.183
 4553.00    0.97041   0.97133  267.142
 4554.00    0.97376   0.97221  271.253
 4555.00    0.98197   0.97544  273.822
 4556.00    0.98646   0.98156  269.890
 4557.00    0.99423   0.98946  260.155
 4558.00    0.99966   0.99705  249.672
 4559.00    0.99778   1.00258  245.112
 4560.00    1.00137   1.00508  246.314
 4561.00    0.99136   1.00441   -1.000
 4562.00    0.98575   1.00150   -1.000
 4563.00    0.98061   0.99845   -1.000
 4564.00    0.98384   0.99758   -1.000
 4565.00    0.99346   0.99950  262.679
 4566.00    0.99795   1.00283  260.029
 4567.00    0.99662   1.00552  253.512
 4568.00    0.99595   1.00597  246.790
 4569.00    0.99753   1.00398  244.174
 4570.00    0.98231   1.00065   -1.000
 4571.00    0.97370   0.99767   -1.000
 4572.00    0.98167   0.99660   -1.000
 4573.00    0.98686   0.99792   -1.000
 4574.00    0.99552   1.00012  250.343
 4575.00    0.99223   1.00131  246.605
 4576.00    0.99383   1.00058  246.628
 4577.00    0.99181   0.99758  247.743
 4578.00    0.99207   0.99223  249.176
 4579.00    0.99551   0.98487  253.346
 4580.00    0.99137   0.97679   -1.000
 4581.00    0.98663   0.96983   -1.000
 4582.00    0.98251   0.96565   -1.000
 4583.00    0.98032   0.96508   -1.000
 4584.00    0.98106   0.96835   -1.000
 4585.00    0.98457   0.97378  260.843
 4586.00    0.99276   0.97900   -1.000
 4587.00    0.99796   0.98253   -1.000
 4588.00    0.99367   0.98438  252.341
 4589.00    0.98963   0.98545  246.912
 4590.00    0.99309   0.98669  246.346
 4591.00    0.98778   0.98874  249.815
 4592.00    0.98312   0.99168  254.461
 4593.00    0.99531   0.99534  258.947
 4594.00    0.99827   0.99925  259.377
 4595.00    0.99360   1.00275  257.252
 4596.00    0.99400   1.00535   -1.000
 4597.00    0.99747   1.00673  254.475
 4598.00    0.99815   1.00680  253.938
 4599.00    0.98914   1.00585   -1.000
 4600.00    0.98903   1.00454   -1.000
 4601.00    0.98861   1.00346   -1.000
 4602.00    0.98193   1.00310   -1.000
 4603.00    0.98545   1.00364   -1.000
 4604.00    0.98887   1.00503   -1.000
 4605.00    0.98933   1.00716   -1.000
 4606.00    0.98942   1.00983   -1.000
 4607.00    0.98978   1.01250   -1.000
 4608.00    0.99345   1.01455   -1.000
 4609.00    0.99434   1.01557   -1.000
 4610.00    0.99798   1.01548   -1.000
 4611.00    1.00699   1.01437  238.173
 4612.00    0.99723   1.01241   -1.000
 4613.00    0.99616   1.00963   -1.000
 4614.00    0.99234   1.00606   -1.000
 4615.00    0.98935   1.00172   -1.000
 4616.00    0.99523   0.99724  242.497
 4617.00    0.99787   0.99382  241.464
 4618.00    0.99668   0.99250  242.965
 4619.00    0.99781   0.99394  244.776
 4620.00    0.99518   0.99791  244.645
 4621.00    0.99610   1.00331  242.396
 4622.00    0.99704   1.00846  238.595
 4623.00    0.99547   1.01172   -1.000
 4624.00    0.99643   1.01227   -1.000
 4625.00    0.99565   1.01032   -1.000
 4626.00    0.99441   1.00666   -1.000
 4627.00    0.98741   1.00258   -1.000
 4628.00    0.98584   0.99937   -1.000
 4629.00    0.99559   0.99792  243.586
 4630.00    0.98961   0.99827  244.169
 4631.00    0.99461   0.99943  243.026
 4632.00    0.99100   1.00024  240.280
 4633.00    0.99289   1.00037  241.150
 4634.00    0.99546   1.00051  244.582
 4635.00    0.99736   1.00171  247.342
 4636.00    0.99685   1.00424  247.265
 4637.00    0.99869   1.00762  249.143
 4638.00    0.99694   1.01140   -1.000
 4639.00    0.99470   1.01500   -1.000
 4640.00    0.99603   1.01788   -1.000
 4641.00    1.00127   1.01937   -1.000
 4642.00    1.00179   1.01901   -1.000
 4643.00    0.99957   1.01663   -1.000
 4644.00    0.99488   1.01280   -1.000
 4645.00    0.99079   1.00869   -1.000
 4646.00    0.98857   1.00553   -1.000
 4647.00    0.99333   1.00426  258.531
 4648.00    0.99592   1.00527  259.969
 4649.00    0.99709   1.00788  255.639
 4650.00    1.00054   1.01074  249.697
 4651.00    0.99721   1.01254   -1.000
 4652.00    0.99257   1.01258   -1.000
 4653.00    0.99030   1.01119   -1.000
 4654.00    0.98703   1.00949   -1.000
 4655.00    0.99066   1.00885   -1.000
 4656.00    0.99287   1.01021   -1.000
 4657.00    0.98966   1.01358   -1.000
 4658.00    0.99481   1.01777   -1.000
 4659.00    1.00094   1.02093   -1.000
 4660.00    1.00232   1.02150   -1.000
 4661.00    0.99895   1.01908   -1.000
 4662.00    1.00209   1.01416  234.035
 4663.00    1.00413   1.00762  239.655
 4664.00    1.00291   1.00034  244.468
 4665.00    1.00013   0.99334  245.279
 4666.00    0.99101   0.98761  249.090
 4667.00    0.98594   0.98450  259.463
 4668.00    0.97896   0.98487  270.347
 4669.00    0.98344   0.98849  271.288
 4670.00    0.98827   0.99428  263.393
 4671.00    0.99901   1.00097  252.459
 4672.00    0.99348   1.00712   -1.000
 4673.00    0.99336   1.01167   -1.000
 4674.00    1.00065   1.01411   -1.000
 4675.00    0.99993   1.01447   -1.000
 4676.00    1.00180   1.01291  240.541
 4677.00    0.99545   1.00986   -1.000
 4678.00    0.99559   1.00616  237.825
 4679.00    0.99647   1.00276  242.792
 4680.00    0.99644   1.00038  247.653
 4681.00    0.99468   0.99912  251.794
 4682.00    1.00066   0.99870  254.334
 4683.00    0.99996   0.99884  251.502
 4684.00    1.00584   0.99929  245.296
 4685.00    1.00713   0.99999  241.880
 4686.00    1.00904   1.00103  242.472
 4687.00    1.00697   1.00239  242.634
 4688.00    1.00746   1.00389  243.941
 4689.00    1.00370   1.00525  244.048
 4690.00    1.00333   1.00630  244.062
 4691.00    0.99824   1.00703  245.718
 4692.00    0.99786   1.00751  246.320
 4693.00    0.99741   1.00763  243.604
 4694.00    1.00131   1.00705  240.000
 4695.00    1.00662   1.00551  234.746
 4696.00    1.00153   1.00294  231.596
 4697.00    1.00103   0.99948  232.485
 4698.00    1.00415   0.99554  238.863
 4699.00    0.99669   0.99175  246.114
 4700.00    0.99196   0.98847  249.293
 4701.00    0.98582   0.98597  247.582
 4702.00    0.98063   0.98447  249.153
 4703.00    0.98440   0.98405  253.435
 4704.00    0.99018   0.98431  254.985
 4705.00    0.99681   0.98451  250.530
 4706.00    0.99167   0.98420  246.726
 4707.00    0.98377   0.98365  249.692
 4708.00    0.98571   0.98357  254.664
 4709.00    0.98646   0.98451  257.316
 4710.00    0.98785   0.98621  256.214
 4711.00    0.98949   0.98802  249.047
 4712.00    0.98911   0.98961  242.142
 4713.00    0.99088   0.99113  239.456
 4714.00    0.99133   0.99301  241.450
 4715.00    0.99185   0.99553  245.909
 4716.00    0.99172   0.99852  246.260
 4717.00    0.99465   1.00140  241.673
 4718.00    0.99889   1.00359  236.985
 4719.00    0.99983   1.00506  235.302
 4720.00    0.99497   1.00598  234.443
 4721.00    0.98975   1.00654   -1.000
 4722.00    0.99439   1.00668   -1.000
 4723.00    0.99288   1.00611   -1.000
 4724.00    0.99452   1.00443  235.982
 4725.00    0.99815   1.00133  233.481
 4726.00    0.99390   0.99690  233.625
 4727.00    0.98846   0.99172  238.936
 4728.00    0.98968   0.98680  247.852
 4729.00    0.99222   0.98315  253.729
 4730.00    0.99130   0.98133  253.256
 4731.00    0.98573   0.98133  250.744
 4732.00    0.98242   0.98271  248.719
 4733.00    0.99679   0.98457  245.795
 4734.00    0.98093   0.98604  243.595
 4735.00    0.98272   0.98681  242.163
 4736.00    0.98590   0.98726  240.815
 4737.00    0.98616   0.98794  243.115
 4738.00    0.98787   0.98915  243.627
 4739.00    0.99237   0.99078  240.709
 4740.00    0.99341   0.99260  240.546
 4741.00    0.99518   0.99438  241.875
 4742.00    0.99048   0.99602  242.284
 4743.00    0.99332   0.99755  240.505
 4744.00    0.99074   0.99906  237.911
 4745.00    0.98740   1.00065   -1.000
 4746.00    0.99140   1.00236  238.402
 4747.00    0.99157   1.00410   -1.000
 4748.00    0.99309   1.00563   -1.000
 4749.00    0.99178   1.00647   -1.000
 4750.00    0.99203   1.00630   -1.000
 4751.00    0.99165   1.00504   -1.000
 4752.00    0.99278   1.00292  235.822
 4753.00    0.98595   1.00056   -1.000
 4754.00    0.98160   0.99867   -1.000
 4755.00    0.98700   0.99770  242.178
 4756.00    0.98970   0.99753  241.918
 4757.00    0.99248   0.99747  242.737
 4758.00    0.99443   0.99650  244.484
 4759.00    0.98681   0.99381  244.885
 4760.00    0.98223   0.98937  243.024
 4761.00    0.98568   0.98390  242.438
 4762.00    0.98211   0.97894  245.889
 4763.00    0.97434   0.97610  251.900
 4764.00    0.97347   0.97638  255.425
 4765.00    0.98086   0.97952  256.030
 4766.00    0.98793   0.98438  255.556
 4767.00    0.98815   0.98954  253.857
 4768.00    0.98525   0.99400  250.475
 4769.00    0.98550   0.99726   -1.000
 4770.00    0.98976   0.99939  241.348
 4771.00    0.98728   1.00083   -1.000
 4772.00    0.98205   1.00213   -1.000
 4773.00    0.98639   1.00348   -1.000
 4774.00    0.99177   1.00457   -1.000
 4775.00    0.99145   1.00483   -1.000
 4776.00    0.99274   1.00392  236.143
 4777.00    0.98889   1.00204   -1.000
 4778.00    0.98601   0.99981   -1.000
 4779.00    0.97990   0.99802   -1.000
 4780.00    0.98132   0.99711   -1.000
 4781.00    0.99018   0.99690  242.479
 4782.00    0.98469   0.99664   -1.000
 4783.00    0.98290   0.99586   -1.000
 4784.00    0.98547   0.99468  246.196
 4785.00    0.98566   0.99360  246.287
 4786.00    0.98198   0.99319  247.020
 4787.00    0.98214   0.99381   -1.000
 4788.00    0.98184   0.99555   -1.000
 4789.00    0.98929   0.99814  250.788
 4790.00    0.99240   1.00128  249.630
 4791.00    0.99404   1.00469  248.112
 4792.00    0.98765   1.00793   -1.000
 4793.00    0.98884   1.01053   -1.000
 4794.00    0.99039   1.01189   -1.000
 4795.00    0.99467   1.01172   -1.000
 4796.00    0.99077   1.01015   -1.000
 4797.00    0.98802   1.00782   -1.000
 4798.00    0.98921   1.00565   -1.000
 4799.00    0.98645   1.00422   -1.000
 4800.00    0.99013   1.00348   -1.000
 4801.00    0.98864   1.00281   -1.000
 4802.00    0.98983   1.00169  238.831
 4803.00    0.98755   1.00010   -1.000
 4804.00    0.98629   0.99863   -1.000
 4805.00    0.98098   0.99800   -1.000
 4806.00    0.98507   0.99851   -1.000
 4807.00    0.98745   0.99977   -1.000
 4808.00    0.98792   1.00106   -1.000
 4809.00    0.98991   1.00194   -1.000
 4810.00    0.98815   1.00248   -1.000
 4811.00    0.98755   1.00312   -1.000
 4812.00    0.98918   1.00432   -1.000
 4813.00    0.99192   1.00624   -1.000
 4814.00    0.98966   1.00855   -1.000
 4815.00    0.98647   1.01065   -1.000
 4816.00    0.98759   1.01203   -1.000
 4817.00    0.99116   1.01230   -1.000
 4818.00    0.99185   1.01113   -1.000
 4819.00    0.98924   1.00826   -1.000
 4820.00    0.98916   1.00369   -1.000
 4821.00    0.98466   0.99789   -1.000
 4822.00    0.98005   0.99201  233.036
 4823.00    0.98131   0.98752  238.805
 4824.00    0.98316   0.98555  243.578
 4825.00    0.98836   0.98617  243.631
 4826.00    0.99007   0.98823  239.668
 4827.00    0.98867   0.99019  235.878
 4828.00    0.99180   0.99101  236.383
 4829.00    0.98903   0.99046  239.033
 4830.00    0.98978   0.98897  240.676
 4831.00    0.99108   0.98709  240.765
 4832.00    0.98991   0.98532  242.749
 4833.00    0.98153   0.98397  243.374
 4834.00    0.98148   0.98303  239.904
 4835.00    0.98116   0.98221  236.616
 4836.00    0.98131   0.98119  235.507
 4837.00    0.97527   0.97975  235.776
 4838.00    0.97983   0.97775  236.835
 4839.00    0.97867   0.97527  239.860
 4840.00    0.97601   0.97256  244.074
 4841.00    0.96937   0.96981  244.687
 4842.00    0.97294   0.96694  244.208
 4843.00    0.97762   0.96357   -1.000
 4844.00    0.97700   0.95927   -1.000
 4845.00    0.96909   0.95385   -1.000
 4846.00    0.96775   0.94737   -1.000
 4847.00    0.96161   0.94009   -1.000
 4848.00    0.95562   0.93239   -1.000
 4849.00    0.94945   0.92420   -1.000
 4850.00    0.94453   0.91463   -1.000
 4851.00    0.93616   0.90219   -1.000
 4852.00    0.93259   0.88552   -1.000
 4853.00    0.92524   0.86407   -1.000
 4854.00    0.91173   0.83801   -1.000
 4855.00    0.90250   0.80784   -1.000
 4856.00    0.88623   0.77419   -1.000
 4857.00    0.85418   0.73789   -1.000
 4858.00    0.80690   0.70111   -1.000
 4859.00    0.72934   0.66823   -1.000
 4860.00    0.65211   0.64520  279.237
 4861.00    0.64077   0.63758  311.275
 4862.00    0.70339   0.64769   -1.000
 4863.00    0.78694   0.67348   -1.000
 4864.00    0.84541   0.70913   -1.000
 4865.00    0.87784   0.74802   -1.000
 4866.00    0.89673   0.78458   -1.000
 4867.00    0.91179   0.81539   -1.000
 4868.00    0.92191   0.83915   -1.000
 4869.00    0.92784   0.85644   -1.000
 4870.00    0.93060   0.86907   -1.000
 4871.00    0.92886   0.87922   -1.000
 4872.00    0.93235   0.88870   -1.000
 4873.00    0.94129   0.89838   -1.000
 4874.00    0.95523   0.90821   -1.000
 4875.00    0.95618   0.91785   -1.000
 4876.00    0.95397   0.92704   -1.000
 4877.00    0.95505   0.93569   -1.000
 4878.00    0.95916   0.94347   -1.000
 4879.00    0.96893   0.94970   -1.000
 4880.00    0.96895   0.95374   -1.000
 4881.00    0.96882   0.95557  240.937
 4882.00    0.96768   0.95583  244.735
 4883.00    0.97149   0.95551   -1.000
 4884.00    0.97599   0.95540   -1.000
 4885.00    0.97527   0.95567   -1.000
 4886.00    0.97306   0.95591   -1.000
 4887.00    0.97183   0.95571   -1.000
 4888.00    0.97135   0.95524   -1.000
 4889.00    0.96395   0.95536  250.719
 4890.00    0.95785   0.95736  253.909
 4891.00    0.96250   0.96225  259.356
 4892.00    0.96953   0.97005  258.637
 4893.00    0.98062   0.97947  249.300
 4894.00    0.98353   0.98848  237.817
 4895.00    0.98722   0.99524  230.256
 4896.00    0.98682   0.99888  225.631
 4897.00    0.98325   0.99955   -1.000
 4898.00    0.98447   0.99809   -1.000
 4899.00    0.98585   0.99574  228.724
 4900.00    0.98331   0.99375  234.130
 4901.00    0.97991   0.99298   -1.000
 4902.00    0.98282   0.99363  236.463
 4903.00    0.98676   0.99532  236.567
 4904.00    0.98789   0.99733  239.161
 4905.00    0.98923   0.99873  237.334
 4906.00    0.98670   0.99849  232.528
 4907.00    0.98823   0.99607  230.262
 4908.00    0.98776   0.99196  231.868
 4909.00    0.98900   0.98750  237.026
 4910.00    0.98881   0.98432  243.779
 4911.00    0.98250   0.98345  247.460
 4912.00    0.98575   0.98475  245.062
 4913.00    0.98748   0.98676  240.737
 4914.00    0.98414   0.98733  237.281
 4915.00    0.98741   0.98463  234.174
 4916.00    0.98616   0.97784  231.963
 4917.00    0.98079   0.96754   -1.000
 4918.00    0.97245   0.95559   -1.000
 4919.00    0.95892   0.94444   -1.000
 4920.00    0.95320   0.93630   -1.000
 4921.00    0.95944   0.93251   -1.000
 4922.00    0.96738   0.93345   -1.000
 4923.00    0.96764   0.93878   -1.000
 4924.00    0.97298   0.94770   -1.000
 4925.00    0.98227   0.95900   -1.000
 4926.00    0.98836   0.97082   -1.000
 4927.00    0.99348   0.98097  238.617
 4928.00    0.98857   0.98791  234.042
 4929.00    0.99155   0.99092  231.564
 4930.00    0.99429   0.99015  229.903
 4931.00    0.98881   0.98657  228.490
 4932.00    0.98089   0.98169  230.205
 4933.00    0.97466   0.97707  235.920
 4934.00    0.97104   0.97384  244.247
 4935.00    0.97800   0.97231  246.123
 4936.00    0.98642   0.97218   -1.000
 4937.00    0.98350   0.97310  241.547
 4938.00    0.97463   0.97523  247.608
 4939.00    0.98209   0.97890  254.588
 4940.00    0.98510   0.98387  253.770
 4941.00    0.98297   0.98926  245.982
 4942.00    0.99036   0.99399  237.969
 4943.00    0.99314   0.99737  233.090
 4944.00    0.99661   0.99941  230.645
 4945.00    0.99380   1.00061  230.478
 4946.00    0.99116   1.00153  231.918
 4947.00    0.99436   1.00244  232.608
 4948.00    0.99431   1.00321  230.895
 4949.00    0.99215   1.00345  228.231
 4950.00    0.98972   1.00275   -1.000
 4951.00    0.99067   1.00076  226.324
 4952.00    0.99307   0.99721  227.176
 4953.00    0.99444   0.99197  228.695
 4954.00    0.99170   0.98539  231.184
 4955.00    0.97797   0.97854  234.045
 4956.00    0.96068   0.97320  239.785
 4957.00    0.95855   0.97118   -1.000
 4958.00    0.96762   0.97340  261.954
 4959.00    0.97871   0.97899  259.128
 4960.00    0.98631   0.98575  245.584
 4961.00    0.99313   0.99130  236.194
 4962.00    0.99864   0.99429  233.406
 4963.00    0.99351   0.99462  234.076
 4964.00    0.98679   0.99303  235.843
 4965.00    0.98749   0.99064  238.500
 4966.00    0.98965   0.98847  243.230
 4967.00    0.98841   0.98723  246.733
 4968.00    0.98906   0.98721  247.283
 4969.00    0.99316   0.98842  246.667
 4970.00    0.99889   0.99063  245.012
 4971.00    0.99703   0.99342  242.509
 4972.00    0.99333   0.99618  239.904
 4973.00    0.99577   0.99828  237.078
 4974.00    0.99584   0.99920  234.742
 4975.00    0.99267   0.99859  233.586
 4976.00    0.99688   0.99629  234.802
 4977.00    0.99923   0.99224  237.160
 4978.00    0.99004   0.98644  240.276
 4979.00    0.99377   0.97918   -1.000
 4980.00    0.99090   0.97122   -1.000
 4981.00    0.97702   0.96382   -1.000
 4982.00    0.97292   0.95855   -1.000
 4983.00    0.97044   0.95667   -1.000
 4984.00    0.97636   0.95848   -1.000
 4985.00    0.98174   0.96305   -1.000
 4986.00    0.98871   0.96865   -1.000
 4987.00    0.99243   0.97348   -1.000
 4988.00    0.98951   0.97644   -1.000
 4989.00    0.99142   0.97748   -1.000
 4990.00    0.98559   0.97738  244.507
 4991.00    0.98424   0.97721  247.233
 4992.00    0.98585   0.97773  247.744
 4993.00    0.98743   0.97900  245.898
 4994.00    0.98843   0.98046  244.652
 4995.00    0.99078   0.98116  244.392
 4996.00    0.99057   0.98026  243.325
 4997.00    0.99122   0.97741   -1.000
 4998.00    0.98968   0.97294   -1.000
 4999.00    0.98552   0.96771   -1.000
 5000.00    0.98480   0.96271   -1.000
 5001.00    0.98526   0.95868   -1.000
 5002.00    0.98670   0.95577   -1.000
 5003.00    0.98611   0.95379   -1.000
 5004.00    0.98277   0.95260   -1.000
 5005.00    0.97710   0.95233   -1.000
 5006.00    0.97446   0.95316   -1.000
 5007.00    0.97486   0.95480   -1.000
 5008.00    0.98113   0.95630   -1.000
 5009.00    0.98757   0.95641   -1.000
 5010.00    0.98092   0.95434   -1.000
 5011.00    0.97308   0.95018   -1.000
 5012.00    0.96925   0.94479   -1.000
 5013.00    0.96939   0.93917   -1.000
 5014.00    0.97089   0.93406   -1.000
 5015.00    0.97371   0.92982   -1.000
 5016.00    0.97029   0.92681   -1.000
 5017.00    0.96384   0.92567   -1.000
 5018.00    0.96629   0.92715   -1.000
 5019.00    0.97127   0.93161   -1.000
 5020.00    0.97727   0.93846   -1.000
 5021.00    0.98004   0.94633   -1.000
 5022.00    0.98491   0.95382   -1.000
 5023.00    0.98706   0.96000   -1.000
 5024.00    0.98530   0.96457   -1.000
 5025.00    0.98907   0.96752   -1.000
 5026.00    0.98840   0.96909   -1.000
 5027.00    0.98563   0.96977   -1.000
 5028.00    0.98491   0.97020   -1.000
 5029.00    0.98706   0.97087   -1.000
 5030.00    0.98654   0.97190   -1.000
 5031.00    0.98859   0.97301   -1.000
 5032.00    0.98591   0.97357  237.722
 5033.00    0.98163   0.97284  234.782
 5034.00    0.98196   0.97036  234.626
 5035.00    0.97661   0.96611  240.900
 5036.00    0.97830   0.96055   -1.000
 5037.00    0.97325   0.95438   -1.000
 5038.00    0.97365   0.94861   -1.000
 5039.00    0.96938   0.94452   -1.000
 5040.00    0.95664   0.94347   -1.000
 5041.00    0.95700   0.94634   -1.000
 5042.00    0.96617   0.95287   -1.000
 5043.00    0.97615   0.96146   -1.000
 5044.00    1.00132   0.96969   -1.000
 5045.00    0.74688   0.97534   -1.000
 5046.00    0.37423   0.97716   -1.000
 5047.00    0.07882   0.97518   -1.000
 5048.00    0.38365   0.97052   -1.000
 5049.00    0.81941   0.96500   -1.000
 5050.00    0.90008   0.96060   -1.000
 5051.00    0.96469   0.95882  274.720
 5052.00    0.97846   0.96024   -1.000
 5053.00    0.98475   0.96443   -1.000
 5054.00    0.98833   0.97022   -1.000
 5055.00    0.98578   0.97624  237.396
 5056.00    0.98172   0.98168  234.781
 5057.00    0.98169   0.98629  233.773
 5058.00    0.98349   0.98985  234.002
 5059.00    0.98382   0.99200  234.445
 5060.00    0.98440   0.99235  234.446
 5061.00    0.98652   0.99071  233.109
 5062.00    0.98674   0.98732  232.920
 5063.00    0.98323   0.98285  235.533
 5064.00    0.98300   0.97818  241.764
 5065.00    0.98609   0.97414   -1.000
 5066.00    0.98471   0.97114   -1.000
 5067.00    0.98327   0.96915   -1.000
 5068.00    0.98358   0.96783   -1.000
 5069.00    0.98196   0.96685   -1.000
 5070.00    0.98357   0.96605   -1.000
 5071.00    0.98309   0.96549   -1.000
 5072.00    0.98822   0.96528   -1.000
 5073.00    0.98532   0.96537   -1.000
 5074.00    0.98673   0.96546   -1.000
 5075.00    0.98832   0.96501   -1.000
 5076.00    0.98441   0.96356   -1.000
 5077.00    0.98084   0.96113   -1.000
 5078.00    0.97726   0.95830   -1.000
 5079.00    0.97186   0.95601   -1.000
 5080.00    0.96926   0.95509   -1.000
 5081.00    0.97161   0.95597   -1.000
 5082.00    0.97679   0.95846   -1.000
 5083.00    0.98310   0.96201   -1.000
 5084.00    0.98611   0.96601   -1.000
 5085.00    0.98835   0.96999   -1.000
 5086.00    0.99263   0.97373   -1.000
 5087.00    0.99133   0.97716   -1.000
 5088.00    0.98663   0.98029  242.841
 5089.00    0.98615   0.98305  241.789
 5090.00    0.99250   0.98521  240.126
 5091.00    0.99421   0.98640  238.722
 5092.00    0.99524   0.98619  237.474
 5093.00    0.99584   0.98423  235.002
 5094.00    0.99145   0.98047  232.767
 5095.00    0.98727   0.97536  234.122
 5096.00    0.98608   0.96987   -1.000
 5097.00    0.98407   0.96521   -1.000
 5098.00    0.98062   0.96244   -1.000
 5099.00    0.98358   0.96196   -1.000
 5100.00    0.98827   0.96341   -1.000
 5101.00    0.99556   0.96584   -1.000
 5102.00    0.99684   0.96813   -1.000
 5103.00    0.99265   0.96938   -1.000
 5104.00    0.99157   0.96927   -1.000
 5105.00    0.98381   0.96808   -1.000
 5106.00    0.97951   0.96653   -1.000
 5107.00    0.97639   0.96547  251.169
 5108.00    0.97155   0.96555  254.311
 5109.00    0.97282   0.96704  254.587
 5110.00    0.97717   0.96979  253.148
 5111.00    0.98712   0.97336   -1.000
 5112.00    0.99457   0.97721   -1.000
 5113.00    0.99188   0.98082  244.911
 5114.00    0.99102   0.98382  241.928
 5115.00    0.99493   0.98596  239.605
 5116.00    0.99500   0.98702  238.166
 5117.00    0.99870   0.98679  235.883
 5118.00    0.99766   0.98513  233.801
 5119.00    0.99131   0.98206  234.005
 5120.00    0.99120   0.97787   -1.000
 5121.00    0.98967   0.97306   -1.000
 5122.00    0.98628   0.96820   -1.000
 5123.00    0.98110   0.96378   -1.000
 5124.00    0.98355   0.96010   -1.000
 5125.00    0.98842   0.95727   -1.000
 5126.00    0.98448   0.95532   -1.000
 5127.00    0.97871   0.95431   -1.000
 5128.00    0.98419   0.95435   -1.000
 5129.00    0.98708   0.95547   -1.000
 5130.00    0.98938   0.95753   -1.000
 5131.00    0.98580   0.96014   -1.000
 5132.00    0.98104   0.96275   -1.000
 5133.00    0.98531   0.96479   -1.000
 5134.00    0.99045   0.96581   -1.000
 5135.00    0.98975   0.96560   -1.000
 5136.00    0.98494   0.96428   -1.000
 5137.00    0.97661   0.96225   -1.000
 5138.00    0.96894   0.96012  249.976
 5139.00    0.96917   0.95842  254.388
 5140.00    0.97364   0.95739   -1.000
 5141.00    0.97764   0.95698   -1.000
 5142.00    0.97919   0.95692   -1.000
 5143.00    0.97950   0.95695   -1.000
 5144.00    0.98291   0.95689   -1.000
 5145.00    0.98571   0.95670   -1.000
 5146.00    0.99015   0.95639   -1.000
 5147.00    0.99363   0.95591   -1.000
 5148.00    0.98807   0.95512   -1.000
 5149.00    0.98144   0.95390   -1.000
 5150.00    0.98111   0.95237   -1.000
 5151.00    0.97947   0.95102   -1.000
 5152.00    0.98298   0.95066   -1.000
 5153.00    0.98550   0.95204   -1.000
 5154.00    0.98403   0.95542   -1.000
 5155.00    0.98639   0.96031   -1.000
 5156.00    0.99262   0.96565   -1.000
 5157.00    1.00009   0.97020   -1.000
 5158.00    0.99733   0.97291   -1.000
 5159.00    0.99438   0.97316   -1.000
 5160.00    0.99322   0.97053   -1.000
 5161.00    0.98898   0.96457   -1.000
 5162.00    0.98947   0.95480   -1.000
 5163.00    0.99044   0.94105   -1.000
 5164.00    0.98039   0.92402   -1.000
 5165.00    0.95564   0.90563   -1.000
 5166.00    0.93354   0.88862   -1.000
 5167.00    0.91815   0.87561   -1.000
 5168.00    0.92208   0.86810   -1.000
 5169.00    0.93762   0.86628   -1.000
 5170.00    0.94278   0.86948   -1.000
 5171.00    0.93749   0.87704   -1.000
 5172.00    0.93890   0.88844   -1.000
 5173.00    0.95067   0.90287   -1.000
 5174.00    0.97213   0.91875   -1.000
 5175.00    0.99077   0.93365   -1.000
 5176.00    0.99618   0.94494   -1.000
 5177.00    0.99713   0.95058   -1.000
 5178.00    0.99871   0.94959   -1.000
 5179.00    0.99694   0.94233   -1.000
 5180.00    0.99278   0.93056   -1.000
 5181.00    0.98294   0.91728   -1.000
 5182.00    0.96022   0.90600   -1.000
 5183.00    0.94355   0.89970   -1.000
 5184.00    0.95480   0.89961   -1.000
 5185.00    0.97455   0.90481   -1.000
 5186.00    0.98159   0.91291   -1.000
 5187.00    0.98317   0.92121   -1.000
 5188.00    0.98260   0.92783   -1.000
 5189.00    0.98047   0.93207   -1.000
 5190.00    0.97452   0.93419   -1.000
 5191.00    0.96811   0.93491   -1.000
 5192.00    0.97080   0.93500   -1.000
 5193.00    0.97231   0.93508   -1.000
 5194.00    0.97162   0.93559   -1.000
 5195.00    0.97924   0.93687   -1.000
 5196.00    0.98377   0.93913   -1.000
 5197.00    0.98577   0.94230   -1.000
 5198.00    0.98949   0.94577   -1.000
 5199.00    0.98760   0.94852   -1.000
 5200.00    0.98819   0.94939   -1.000
 5201.00    0.98072   0.94767   -1.000
 5202.00    0.97700   0.94344   -1.000
 5203.00    0.96976   0.93762   -1.000
 5204.00    0.96675   0.93160   -1.000
 5205.00    0.96894   0.92679   -1.000
 5206.00    0.96966   0.92423   -1.000
 5207.00    0.96708   0.92443   -1.000
 5208.00    0.96770   0.92739   -1.000
 5209.00    0.97755   0.93259   -1.000
 5210.00    0.98732   0.93906   -1.000
 5211.00    0.98732   0.94553   -1.000
 5212.00    0.99117   0.95081   -1.000
 5213.00    0.99322   0.95425   -1.000
 5214.00    0.99054   0.95605   -1.000
 5215.00    0.98653   0.95714   -1.000
 5216.00    0.98587   0.95860   -1.000
 5217.00    0.98600   0.96103   -1.000
 5218.00    0.99199   0.96412   -1.000
 5219.00    1.00022   0.96677   -1.000
 5220.00    0.99968   0.96752   -1.000
 5221.00    0.99961   0.96513   -1.000
 5222.00    0.99725   0.95919   -1.000
 5223.00    0.98992   0.95040   -1.000
 5224.00    0.98196   0.94061   -1.000
 5225.00    0.96555   0.93225   -1.000
 5226.00    0.95179   0.92740   -1.000
 5227.00    0.95829   0.92673   -1.000
 5228.00    0.97502   0.92923   -1.000
 5229.00    0.98658   0.93281   -1.000
 5230.00    0.99340   0.93549   -1.000
 5231.00    0.98719   0.93646   -1.000
 5232.00    0.97949   0.93635   -1.000
 5233.00    0.98350   0.93664   -1.000
 5234.00    0.98729   0.93864   -1.000
 5235.00    0.98982   0.94278   -1.000
 5236.00    0.99340   0.94856   -1.000
 5237.00    0.99548   0.95496   -1.000
 5238.00    0.99941   0.96098   -1.000
 5239.00    1.00081   0.96601   -1.000
 5240.00    0.99821   0.96981   -1.000
 5241.00    1.00141   0.97236   -1.000
 5242.00    1.00114   0.97358   -1.000
 5243.00    0.99998   0.97340   -1.000
 5244.00    0.99785   0.97177   -1.000
 5245.00    0.99357   0.96891   -1.000
 5246.00    0.99282   0.96534   -1.000
 5247.00    0.99018   0.96172   -1.000
 5248.00    0.98908   0.95868   -1.000
 5249.00    0.98879   0.95663   -1.000
 5250.00    0.98765   0.95565   -1.000
 5251.00    0.98664   0.95561   -1.000
 5252.00    0.99242   0.95636   -1.000
 5253.00    0.99536   0.95779   -1.000
 5254.00    0.99582   0.95982   -1.000
 5255.00    0.99241   0.96209   -1.000
 5256.00    0.99435   0.96381   -1.000
 5257.00    0.99921   0.96385   -1.000
 5258.00    0.99747   0.96113   -1.000
 5259.00    0.99595   0.95512   -1.000
 5260.00    0.99169   0.94614   -1.000
 5261.00    0.98497   0.93539   -1.000
 5262.00    0.97981   0.92450   -1.000
 5263.00    0.97621   0.91502   -1.000
 5264.00    0.97207   0.90789   -1.000
 5265.00    0.96776   0.90329   -1.000
 5266.00    0.96483   0.90082   -1.000
 5267.00    0.96349   0.89998   -1.000
 5268.00    0.95646   0.90062   -1.000
 5269.00    0.94724   0.90280   -1.000
 5270.00    0.95168   0.90650   -1.000
 5271.00    0.96639   0.91125   -1.000
 5272.00    0.98093   0.91637   -1.000
 5273.00    0.98762   0.92151   -1.000
 5274.00    0.98548   0.92673   -1.000
 5275.00    0.98754   0.93232   -1.000
 5276.00    0.99389   0.93815   -1.000
 5277.00    0.99953   0.94349   -1.000
 5278.00    1.00038   0.94733   -1.000
 5279.00    0.99730   0.94904   -1.000
 5280.00    0.99640   0.94893   -1.000
 5281.00    0.99311   0.94817   -1.000
 5282.00    0.98699   0.94830   -1.000
 5283.00    0.98129   0.95052   -1.000
 5284.00    0.95905   0.95515  245.287
 5285.00    0.98184   0.96150   -1.000
 5286.00    0.99579   0.96828   -1.000
 5287.00    0.99800   0.97422   -1.000
 5288.00    1.00029   0.97853   -1.000
 5289.00    1.00237   0.98095   -1.000
 5290.00    1.00071   0.98155   -1.000
 5291.00    0.99816   0.98049   -1.000
 5292.00    0.99991   0.97795   -1.000
 5293.00    0.99955   0.97415   -1.000
 5294.00    0.99579   0.96941   -1.000
 5295.00    0.99520   0.96435   -1.000
 5296.00    0.99347   0.95979   -1.000
 5297.00    0.99377   0.95656   -1.000
 5298.00    0.99596   0.95519   -1.000
 5299.00    0.99466   0.95568   -1.000
 5300.00    0.99141   0.95763   -1.000
 5301.00    0.99418   0.96042   -1.000
 5302.00    0.99874   0.96343   -1.000
 5303.00    0.99763   0.96617   -1.000
 5304.00    0.99744   0.96832   -1.000
 5305.00    0.99811   0.96985   -1.000
 5306.00    0.99752   0.97097   -1.000
 5307.00    0.99622   0.97194   -1.000
 5308.00    0.99778   0.97278   -1.000
 5309.00    0.99793   0.97313   -1.000
 5310.00    0.99778   0.97242   -1.000
 5311.00    1.00154   0.97015   -1.000
 5312.00    1.00220   0.96623   -1.000
 5313.00    0.99947   0.96120   -1.000
 5314.00    0.99487   0.95615   -1.000
 5315.00    0.99143   0.95238   -1.000
 5316.00    0.99020   0.95091   -1.000
 5317.00    0.99158   0.95189   -1.000
 5318.00    0.99523   0.95437   -1.000
 5319.00    0.99616   0.95669   -1.000
 5320.00    0.99703   0.95725   -1.000
 5321.00    0.99313   0.95515   -1.000
 5322.00    0.98596   0.95040   -1.000
 5323.00    0.98886   0.94375   -1.000
 5324.00    0.98756   0.93639   -1.000
 5325.00    0.97960   0.92962   -1.000
 5326.00    0.96616   0.92469   -1.000
 5327.00    0.95718   0.92266   -1.000
 5328.00    0.95516   0.92411   -1.000
 5329.00    0.96874   0.92868   -1.000
 5330.00    0.98654   0.93505   -1.000
 5331.00    0.99502   0.94146   -1.000
 5332.00    0.99488   0.94646   -1.000
 5333.00    0.99586   0.94938   -1.000
 5334.00    0.99459   0.95029   -1.000
 5335.00    0.98958   0.94968   -1.000
 5336.00    0.98796   0.94826   -1.000
 5337.00    0.99336   0.94671   -1.000
 5338.00    0.99264   0.94562   -1.000
 5339.00    0.98895   0.94547   -1.000
 5340.00    0.98636   0.94645   -1.000
 5341.00    0.98513   0.94838   -1.000
 5342.00    0.99022   0.95067   -1.000
 5343.00    0.99407   0.95253   -1.000
 5344.00    0.99173   0.95352   -1.000
 5345.00    0.99232   0.95374   -1.000
 5346.00    0.99620   0.95370   -1.000
 5347.00    0.99749   0.95405   -1.000
 5348.00    0.99804   0.95524   -1.000
 5349.00    1.00100   0.95742   -1.000
 5350.00    1.00282   0.96042   -1.000
 5351.00    1.00293   0.96390   -1.000
 5352.00    1.00324   0.96745   -1.000
 5353.00    1.00305   0.97076   -1.000
 5354.00    1.00469   0.97357   -1.000
 5355.00    1.00781   0.97556   -1.000
 5356.00    1.00758   0.97637   -1.000
 5357.00    1.00567   0.97565   -1.000
 5358.00    1.00441   0.97320   -1.000
 5359.00    1.00135   0.96915   -1.000
 5360.00    1.00029   0.96395   -1.000
 5361.00    1.00327   0.95840   -1.000
 5362.00    1.00359   0.95340   -1.000
 5363.00    0.99831   0.94955   -1.000
 5364.00    0.99424   0.94690   -1.000
 5365.00    0.99622   0.94497   -1.000
 5366.00    0.99607   0.94310   -1.000
 5367.00    0.99761   0.94090   -1.000
 5368.00    0.99585   0.93858   -1.000
 5369.00    0.98524   0.93690   -1.000
 5370.00    0.97807   0.93689   -1.000
 5371.00    0.97741   0.93930   -1.000
 5372.00    0.98965   0.94405   -1.000
 5373.00    0.99795   0.95019   -1.000
 5374.00    0.99841   0.95621   -1.000
 5375.00    1.00221   0.96074   -1.000
 5376.00    1.00363   0.96301   -1.000
 5377.00    1.00422   0.96296   -1.000
 5378.00    1.00061   0.96120   -1.000
 5379.00    0.99900   0.95868   -1.000
 5380.00    0.99827   0.95642   -1.000
 5381.00    0.99680   0.95523   -1.000
 5382.00    0.99437   0.95544   -1.000
 5383.00    0.99487   0.95689   -1.000
 5384.00    1.00008   0.95900   -1.000
 5385.00    1.00400   0.96095   -1.000
 5386.00    1.00403   0.96200   -1.000
 5387.00    1.00659   0.96170   -1.000
 5388.00    1.00905   0.96003   -1.000
 5389.00    1.00552   0.95729   -1.000
 5390.00    1.00216   0.95387   -1.000
 5391.00    1.00069   0.95015   -1.000
 5392.00    0.99733   0.94638   -1.000
 5393.00    0.99426   0.94276   -1.000
 5394.00    0.99340   0.93951   -1.000
 5395.00    0.98633   0.93696   -1.000
 5396.00    0.97869   0.93551   -1.000
 5397.00    0.98306   0.93535   -1.000
 5398.00    0.99067   0.93617   -1.000
 5399.00    0.99561   0.93717   -1.000
 5400.00    0.99864   0.93734   -1.000
 5401.00    1.00119   0.93604   -1.000
 5402.00    0.99887   0.93329   -1.000
 5403.00    0.98981   0.92974   -1.000
 5404.00    0.98070   0.92638   -1.000
 5405.00    0.97640   0.92404   -1.000
 5406.00    0.98487   0.92309   -1.000
 5407.00    0.99092   0.92334   -1.000
 5408.00    0.99041   0.92435   -1.000
 5409.00    0.99089   0.92580   -1.000
 5410.00    0.99630   0.92764   -1.000
 5411.00    0.99811   0.92991   -1.000
 5412.00    0.99584   0.93259   -1.000
 5413.00    0.99911   0.93559   -1.000
 5414.00    0.99402   0.93882   -1.000
 5415.00    0.98946   0.94213   -1.000
 5416.00    0.99020   0.94516   -1.000
 5417.00    0.98965   0.94748   -1.000
 5418.00    0.99208   0.94883   -1.000
 5419.00    0.99899   0.94916   -1.000
 5420.00    0.99672   0.94866   -1.000
 5421.00    0.99254   0.94767   -1.000
 5422.00    0.98919   0.94654   -1.000
 5423.00    0.98767   0.94562   -1.000
 5424.00    0.99349   0.94505   -1.000
 5425.00    0.99290   0.94469   -1.000
 5426.00    0.98996   0.94414   -1.000
 5427.00    0.98790   0.94294   -1.000
 5428.00    0.98022   0.94105   -1.000
 5429.00    0.97708   0.93893   -1.000
 5430.00    0.98278   0.93718   -1.000
 5431.00    0.98815   0.93631   -1.000
 5432.00    0.98947   0.93656   -1.000
 5433.00    0.98625   0.93813   -1.000
 5434.00    0.97873   0.94120   -1.000
 5435.00    0.98155   0.94565   -1.000
 5436.00    0.99169   0.95095   -1.000
 5437.00    0.99756   0.95621   -1.000
 5438.00    1.00210   0.96049   -1.000
 5439.00    1.00181   0.96302   -1.000
 5440.00    1.00006   0.96341   -1.000
 5441.00    0.99837   0.96164   -1.000
 5442.00    0.99327   0.95800   -1.000
 5443.00    0.99005   0.95316   -1.000
 5444.00    0.98815   0.94816   -1.000
 5445.00    0.98155   0.94422   -1.000
 5446.00    0.97536   0.94237   -1.000
 5447.00    0.98074   0.94292   -1.000
 5448.00    0.98795   0.94529   -1.000
 5449.00    0.99386   0.94817   -1.000
 5450.00    0.99566   0.95019   -1.000
 5451.00    0.99751   0.95054   -1.000
 5452.00    0.99489   0.94924   -1.000
 5453.00    0.98525   0.94712   -1.000
 5454.00    0.97831   0.94539   -1.000
 5455.00    0.97612   0.94506   -1.000
 5456.00    0.98005   0.94645   -1.000
 5457.00    0.98726   0.94898   -1.000
 5458.00    0.99332   0.95148   -1.000
 5459.00    0.99560   0.95293   -1.000
 5460.00    0.98989   0.95299   -1.000
 5461.00    0.99114   0.95203   -1.000
 5462.00    0.99070   0.95084   -1.000
 5463.00    0.98871   0.95022   -1.000
 5464.00    0.98913   0.95055   -1.000
 5465.00    0.99283   0.95173   -1.000
 5466.00    0.99568   0.95327   -1.000
 5467.00    0.99484   0.95460   -1.000
 5468.00    0.99486   0.95530   -1.000
 5469.00    0.99716   0.95501   -1.000
 5470.00    0.99688   0.95353   -1.000
 5471.00    0.99534   0.95088   -1.000
 5472.00    0.99344   0.94726   -1.000
 5473.00    0.99161   0.94311   -1.000
 5474.00    0.99028   0.93906   -1.000
 5475.00    0.98492   0.93586   -1.000
 5476.00    0.97854   0.93422   -1.000
 5477.00    0.97837   0.93446   -1.000
 5478.00    0.98345   0.93637   -1.000
 5479.00    0.99053   0.93926   -1.000
 5480.00    0.99189   0.94239   -1.000
 5481.00    0.98830   0.94530   -1.000
 5482.00    0.98837   0.94786   -1.000
 5483.00    0.98874   0.94994   -1.000
 5484.00    0.99183   0.95141   -1.000
 5485.00    0.99452   0.95214   -1.000
 5486.00    0.98881   0.95221   -1.000
 5487.00    0.98692   0.95192   -1.000
 5488.00    0.98653   0.95168   -1.000
 5489.00    0.98700   0.95172   -1.000
 5490.00    0.99006   0.95208   -1.000
 5491.00    0.98813   0.95260   -1.000
 5492.00    0.98742   0.95307   -1.000
 5493.00    0.98904   0.95325   -1.000
 5494.00    0.98839   0.95304   -1.000
 5495.00    0.98588   0.95241   -1.000
 5496.00    0.98073   0.95139   -1.000
 5497.00    0.97895   0.95013   -1.000
 5498.00    0.97972   0.94873   -1.000
 5499.00    0.98149   0.94717   -1.000
 5500.00    0.98010   0.94542   -1.000
 5501.00    0.98093   0.94352   -1.000
 5502.00    0.98527   0.94170   -1.000
 5503.00    0.98853   0.94015   -1.000
 5504.00    0.98729   0.93887   -1.000
 5505.00    0.97958   0.93792   -1.000
 5506.00    0.97345   0.93737   -1.000
 5507.00    0.97844   0.93731   -1.000
 5508.00    0.98442   0.93770   -1.000
 5509.00    0.98768   0.93828   -1.000
 5510.00    0.98956   0.93891   -1.000
 5511.00    0.98682   0.93967   -1.000
 5512.00    0.98516   0.94083   -1.000
 5513.00    0.98676   0.94264   -1.000
 5514.00    0.99058   0.94521   -1.000
 5515.00    0.99310   0.94837   -1.000
 5516.00    0.98953   0.95171   -1.000
 5517.00    0.99043   0.95479   -1.000
 5518.00    0.99690   0.95713   -1.000
 5519.00    0.99786   0.95835   -1.000
 5520.00    0.99210   0.95813   -1.000
 5521.00    0.99003   0.95636   -1.000
 5522.00    0.99211   0.95308   -1.000
 5523.00    0.99123   0.94854   -1.000
 5524.00    0.98879   0.94324   -1.000
 5525.00    0.98483   0.93800   -1.000
 5526.00    0.97890   0.93384   -1.000
 5527.00    0.97482   0.93162   -1.000
 5528.00    0.97516   0.93167   -1.000
 5529.00    0.97847   0.93350   -1.000
 5530.00    0.98333   0.93611   -1.000
 5531.00    0.98644   0.93846   -1.000
 5532.00    0.98503   0.93998   -1.000
 5533.00    0.98263   0.94085   -1.000
 5534.00    0.98057   0.94166   -1.000
 5535.00    0.98527   0.94299   -1.000
 5536.00    0.98762   0.94499   -1.000
 5537.00    0.98556   0.94737   -1.000
 5538.00    0.98698   0.94956   -1.000
 5539.00    0.98782   0.95116   -1.000
 5540.00    0.98941   0.95198   -1.000
 5541.00    0.98904   0.95207   -1.000
 5542.00    0.98819   0.95166   -1.000
 5543.00    0.98761   0.95121   -1.000
 5544.00    0.98778   0.95116   -1.000
 5545.00    0.98525   0.95174   -1.000
 5546.00    0.98415   0.95290   -1.000
 5547.00    0.98760   0.95432   -1.000
 5548.00    0.98966   0.95566   -1.000
 5549.00    0.98863   0.95663   -1.000
 5550.00    0.99000   0.95708   -1.000
 5551.00    0.99162   0.95703   -1.000
 5552.00    0.98915   0.95666   -1.000
 5553.00    0.98304   0.95618   -1.000
 5554.00    0.97985   0.95579   -1.000
 5555.00    0.98195   0.95561   -1.000
 5556.00    0.98526   0.95555   -1.000
 5557.00    0.98524   0.95537   -1.000
 5558.00    0.98554   0.95486   -1.000
 5559.00    0.98909   0.95392   -1.000
 5560.00    0.98925   0.95257   -1.000
 5561.00    0.98472   0.95095   -1.000
 5562.00    0.98210   0.94924   -1.000
 5563.00    0.98395   0.94764   -1.000
 5564.00    0.98388   0.94621   -1.000
 5565.00    0.98293   0.94488   -1.000
 5566.00    0.98217   0.94357   -1.000
 5567.00    0.98012   0.94225   -1.000
 5568.00    0.97750   0.94093   -1.000
 5569.00    0.97677   0.93975   -1.000
 5570.00    0.97617   0.93890   -1.000
 5571.00    0.97217   0.93854   -1.000
 5572.00    0.97262   0.93876   -1.000
 5573.00    0.97708   0.93962   -1.000
 5574.00    0.97797   0.94100   -1.000
 5575.00    0.97721   0.94264   -1.000
 5576.00    0.98460   0.94427   -1.000
 5577.00    1.00630   0.94575   -1.000
 5578.00    1.02825   0.94690   -1.000
 5579.00    1.02118   0.94747   -1.000
 5580.00    0.97478   0.94724   -1.000
 5581.00    0.93757   0.94602  239.882
 5582.00    0.94321   0.94370  238.281
 5583.00    0.96122   0.94021   -1.000
 5584.00    0.96942   0.93568   -1.000
 5585.00    0.97026   0.93058   -1.000
 5586.00    0.96690   0.92567   -1.000
 5587.00    0.96235   0.92194   -1.000
 5588.00    0.96165   0.92012   -1.000
 5589.00    0.96715   0.92027   -1.000
 5590.00    0.97501   0.92196   -1.000
 5591.00    0.98049   0.92450   -1.000
 5592.00    0.97570   0.92724   -1.000
 5593.00    0.96960   0.92971   -1.000
 5594.00    0.97034   0.93169   -1.000
 5595.00    0.97232   0.93302   -1.000
 5596.00    0.97180   0.93354   -1.000
 5597.00    0.96984   0.93325   -1.000
 5598.00    0.96974   0.93244   -1.000
 5599.00    0.97442   0.93170   -1.000
 5600.00    0.97335   0.93162   -1.000
 5601.00    0.97283   0.93265   -1.000
 5602.00    0.97369   0.93516   -1.000
 5603.00    0.97295   0.93917   -1.000
 5604.00    0.97256   0.94412   -1.000
 5605.00    0.97423   0.94916   -1.000
 5606.00    0.97506   0.95346   -1.000
 5607.00    0.97770   0.95647   -1.000
 5608.00    0.98100   0.95797   -1.000
 5609.00    0.98085   0.95785   -1.000
 5610.00    0.97591   0.95616   -1.000
 5611.00    0.97427   0.95307   -1.000
 5612.00    0.97606   0.94894   -1.000
 5613.00    0.96777   0.94442   -1.000
 5614.00    0.95816   0.94049   -1.000
 5615.00    0.96030   0.93812   -1.000
 5616.00    0.96675   0.93779   -1.000
 5617.00    0.97161   0.93925   -1.000
 5618.00    0.97610   0.94145   -1.000
 5619.00    0.97544   0.94348   -1.000
 5620.00    0.97154   0.94477   -1.000
 5621.00    0.97318   0.94517   -1.000
 5622.00    0.97450   0.94482   -1.000
 5623.00    0.97456   0.94418   -1.000
 5624.00    0.97505   0.94386   -1.000
 5625.00    0.97176   0.94439   -1.000
 5626.00    0.96799   0.94583   -1.000
 5627.00    0.97157   0.94786   -1.000
 5628.00    0.97450   0.94992   -1.000
 5629.00    0.97506   0.95144   -1.000
 5630.00    0.97384   0.95209   -1.000
 5631.00    0.97525   0.95176   -1.000
 5632.00    0.97385   0.95056   -1.000
 5633.00    0.96883   0.94879   -1.000
 5634.00    0.96916   0.94675   -1.000
 5635.00    0.97074   0.94469   -1.000
 5636.00    0.97012   0.94276   -1.000
 5637.00    0.97249   0.94107   -1.000
 5638.00    0.96845   0.93973   -1.000
 5639.00    0.96838   0.93884   -1.000
 5640.00    0.97061   0.93847   -1.000
 5641.00    0.96580   0.93871   -1.000
 5642.00    0.96466   0.93955   -1.000
 5643.00    0.96730   0.94070   -1.000
 5644.00    0.96991   0.94188   -1.000
 5645.00    0.97087   0.94291   -1.000
 5646.00    0.97381   0.94368   -1.000
 5647.00    0.97390   0.94409   -1.000
 5648.00    0.97083   0.94411   -1.000
 5649.00    0.96858   0.94372   -1.000
 5650.00    0.96686   0.94287   -1.000
 5651.00    0.96813   0.94142   -1.000
 5652.00    0.96856   0.93910   -1.000
 5653.00    0.96711   0.93578   -1.000
 5654.00    0.96668   0.93158   -1.000
 5655.00    0.96490   0.92696   -1.000
 5656.00    0.96214   0.92264   -1.000
 5657.00    0.95954   0.91938   -1.000
 5658.00    0.95708   0.91787   -1.000
 5659.00    0.95882   0.91830   -1.000
 5660.00    0.96328   0.92011   -1.000
 5661.00    0.96483   0.92253   -1.000
 5662.00    0.96426   0.92506   -1.000
 5663.00    0.96324   0.92750   -1.000
 5664.00    0.96395   0.92962   -1.000
 5665.00    0.96563   0.93123   -1.000
 5666.00    0.96364   0.93235   -1.000
 5667.00    0.95855   0.93334   -1.000
 5668.00    0.95573   0.93463   -1.000
 5669.00    0.95902   0.93640   -1.000
 5670.00    0.96271   0.93856   -1.000
 5671.00    0.96505   0.94077   -1.000
 5672.00    0.96563   0.94269   -1.000
 5673.00    0.95984   0.94402   -1.000
 5674.00    0.95684   0.94469  230.497
 5675.00    0.96110   0.94465   -1.000
 5676.00    0.96118   0.94395   -1.000
 5677.00    0.95974   0.94258   -1.000
 5678.00    0.96466   0.94056   -1.000
 5679.00    0.96469   0.93798   -1.000
 5680.00    0.96030   0.93506   -1.000
 5681.00    0.95636   0.93212   -1.000
 5682.00    0.95523   0.92956   -1.000
 5683.00    0.95502   0.92776   -1.000
 5684.00    0.95351   0.92689   -1.000
 5685.00    0.95553   0.92694   -1.000
 5686.00    0.95640   0.92765   -1.000
 5687.00    0.95670   0.92882   -1.000
 5688.00    0.95821   0.93046   -1.000
 5689.00    0.95803   0.93251   -1.000
 5690.00    0.95777   0.93479   -1.000
 5691.00    0.95465   0.93697   -1.000
 5692.00    0.95364   0.93878   -1.000
 5693.00    0.95479   0.94007   -1.000
 5694.00    0.95501   0.94068   -1.000
 5695.00    0.95371   0.94055   -1.000
 5696.00    0.95323   0.93965   -1.000
 5697.00    0.95456   0.93816   -1.000
 5698.00    0.95466   0.93626   -1.000
 5699.00    0.95136   0.93423   -1.000
 5700.00    0.95009   0.93228   -1.000
 5701.00    0.95205   0.93049   -1.000
 5702.00    0.95278   0.92883   -1.000
 5703.00    0.95218   0.92714   -1.000
 5704.00    0.95255   0.92520   -1.000
 5705.00    0.95255   0.92291   -1.000
 5706.00    0.94856   0.92050   -1.000
 5707.00    0.94533   0.91837   -1.000
 5708.00    0.94468   0.91698   -1.000
 5709.00    0.94524   0.91673   -1.000
 5710.00    0.94774   0.91790   -1.000
 5711.00    0.94952   0.92042   -1.000
 5712.00    0.95075   0.92390   -1.000
 5713.00    0.95178   0.92780   -1.000
 5714.00    0.95143   0.93154   -1.000
 5715.00    0.95096   0.93481   -1.000
 5716.00    0.95233   0.93753   -1.000
 5717.00    0.95310   0.93980   -1.000
 5718.00    0.95262   0.94170  232.246
 5719.00    0.95146   0.94328  231.206
 5720.00    0.95163   0.94451  229.788
 5721.00    0.94870   0.94528  228.589
 5722.00    0.94650   0.94553  227.918
 5723.00    0.94754   0.94526  227.533
 5724.00    0.94925   0.94451  227.244
 5725.00    0.94695   0.94346  227.566
 5726.00    0.94497   0.94231  229.146
 5727.00    0.94731   0.94135  231.496
 5728.00    0.95024   0.94080  233.523
 5729.00    0.94737   0.94067  233.092
 5730.00    0.94279   0.94090  231.603
 5731.00    0.94597   0.94138  231.689
 5732.00    0.94816   0.94209  232.811
 5733.00    0.95024   0.94295  232.518
 5734.00    0.94814   0.94379  230.536
 5735.00    0.94411   0.94446  228.812
 5736.00    0.94303   0.94482  228.600
 5737.00    0.94325   0.94491  228.918
 5738.00    0.94373   0.94479  229.492
 5739.00    0.94319   0.94456  229.826
 5740.00    0.94329   0.94433  230.211
 5741.00    0.94906   0.94411  230.616
 5742.00    0.94982   0.94390  231.081
 5743.00    0.94462   0.94371  230.838
 5744.00    0.93979   0.94349  230.481
 5745.00    0.94073   0.94315  229.207
 5746.00    0.94560   0.94260  227.778
 5747.00    0.94460   0.94185  228.360
 5748.00    0.94271   0.94096  230.461
 5749.00    0.94252   0.93993  231.772
 5750.00    0.94212   0.93876  230.964
 5751.00    0.94406   0.93751  229.985
 5752.00    0.94693   0.93654  231.129
 5753.00    0.94450   0.93626  233.780
 5754.00    0.93894   0.93683  236.299
 5755.00    0.93840   0.93802  236.902
 5756.00    0.94161   0.93934  234.606
 5757.00    0.94336   0.94030  230.504
 5758.00    0.94439   0.94061  227.297
 5759.00    0.94611   0.94039  227.107
 5760.00    0.94713   0.93995  229.272
 5761.00    0.94319   0.93968  232.228
 5762.00    0.94189   0.93992  235.385
 5763.00    0.94546   0.94081  237.147
 5764.00    0.94254   0.94214  235.556
 5765.00    0.94039   0.94346  231.661
 5766.00    0.94193   0.94436  228.405
 5767.00    0.94316   0.94465  227.163
 5768.00    0.94173   0.94433  226.876
 5769.00    0.93727   0.94347  226.543
 5770.00    0.93946   0.94217  226.756
 5771.00    0.94526   0.94057  227.464
 5772.00    0.94074   0.93881  228.593
 5773.00    0.93296   0.93699  229.995
 5774.00    0.93128   0.93513  230.819
 5775.00    0.93398   0.93312  231.149
 5776.00    0.93903   0.93087  230.879
 5777.00    0.93969   0.92828  229.879
 5778.00    0.93686   0.92540  229.364
 5779.00    0.93425   0.92258  229.859
 5780.00    0.93063   0.92044  232.477
 5781.00    0.92291   0.91943  237.312
 5782.00    0.92049   0.91967  241.151
 5783.00    0.92722   0.92093  241.658
 5784.00    0.93527   0.92285  240.728
 5785.00    0.93472   0.92504  239.840
 5786.00    0.93289   0.92724  238.972
 5787.00    0.93732   0.92932  236.823
 5788.00    0.93941   0.93105  233.745
 5789.00    0.93976   0.93235  231.554
 5790.00    0.93876   0.93336  231.263
 5791.00    0.93599   0.93424  232.156
 5792.00    0.93420   0.93515  232.247
 5793.00    0.93251   0.93602  230.728
 5794.00    0.93532   0.93677  228.994
 5795.00    0.93952   0.93732  227.577
 5796.00    0.93634   0.93776  227.061
 5797.00    0.93389   0.93819  228.019
 5798.00    0.93248   0.93875  229.513
 5799.00    0.93400   0.93943  229.184
 5800.00    0.93924   0.94002  226.695
 5801.00    0.94277   0.94039  223.580
 5802.00    0.94124   0.94051  222.285
 5803.00    0.94016   0.94042  223.538
 5804.00    0.94019   0.94026  225.410
 5805.00    0.93899   0.94025  227.212
 5806.00    0.94105   0.94046  228.488
 5807.00    0.94192   0.94085  228.394
 5808.00    0.94120   0.94127  227.574
 5809.00    0.94177   0.94161  226.834
 5810.00    0.94340   0.94181  226.629
 5811.00    0.94354   0.94183  226.500
 5812.00    0.94288   0.94169  225.824
 5813.00    0.94535   0.94151  225.078
 5814.00    0.94485   0.94150  225.198
 5815.00    0.94299   0.94174  226.688
 5816.00    0.94221   0.94228  228.049
 5817.00    0.94214   0.94313  227.515
 5818.00    0.94233   0.94419  225.981
 5819.00    0.94040   0.94527  224.642
 5820.00    0.93832   0.94623  223.512
 5821.00    0.94002   0.94700  222.661
 5822.00    0.94383   0.94761  222.697
 5823.00    0.94210   0.94809  223.403
 5824.00    0.94253   0.94847  223.380
 5825.00    0.94283   0.94875  222.977
 5826.00    0.94087   0.94893  222.596
 5827.00    0.94236   0.94901  222.316
 5828.00    0.94234   0.94898  222.303
 5829.00    0.94144   0.94878  222.646
 5830.00    0.94254   0.94843  222.491
 5831.00    0.94054   0.94799  222.356
 5832.00    0.93855   0.94750  222.187
 5833.00    0.94221   0.94701  222.382
 5834.00    0.94470   0.94664  223.592
 5835.00    0.94313   0.94645  224.349
 5836.00    0.94186   0.94646  223.888
 5837.00    0.93931   0.94656  223.314
 5838.00    0.93861   0.94656  223.698
 5839.00    0.93818   0.94637  224.325
 5840.00    0.93939   0.94598  223.972
 5841.00    0.94095   0.94538  222.552
 5842.00    0.93926   0.94457  221.208
 5843.00    0.93728   0.94357  220.911
 5844.00    0.93863   0.94244  221.485
 5845.00    0.94018   0.94120  222.333
 5846.00    0.93758   0.93988  223.633
 5847.00    0.93683   0.93849  224.895
 5848.00    0.93816   0.93695  225.990
 5849.00    0.93722   0.93509  226.165
 5850.00    0.93453   0.93283  226.276
 5851.00    0.93021   0.93023  227.320
 5852.00    0.92766   0.92746  228.743
 5853.00    0.92788   0.92480  230.751
 5854.00    0.92993   0.92257  232.262
 5855.00    0.93155   0.92093  232.825
 5856.00    0.93302   0.91985   -1.000
 5857.00    0.93325   0.91947   -1.000
 5858.00    0.93293   0.92014   -1.000
 5859.00    0.93426   0.92175  236.713
 5860.00    0.93379   0.92377  233.982
 5861.00    0.93163   0.92575  231.698
 5862.00    0.92977   0.92737  230.627
 5863.00    0.93279   0.92855  229.756
 5864.00    0.93605   0.92931  229.216
 5865.00    0.93523   0.92966  229.583
 5866.00    0.93520   0.92985  230.370
 5867.00    0.93506   0.93005  231.404
 5868.00    0.93218   0.93023  231.617
 5869.00    0.92894   0.93023  229.964
 5870.00    0.93041   0.92981  227.871
 5871.00    0.93208   0.92881  226.609
 5872.00    0.93251   0.92727  226.307
 5873.00    0.93162   0.92541  226.750
 5874.00    0.93355   0.92356  226.989
 5875.00    0.93471   0.92198  226.734
 5876.00    0.92999   0.92080  227.068
 5877.00    0.92771   0.91992  228.001
 5878.00    0.92855   0.91895  228.548
 5879.00    0.92434   0.91755  229.848
 5880.00    0.92206   0.91543  231.509
 5881.00    0.92317   0.91228  231.974
 5882.00    0.91882   0.90768  231.458
 5883.00    0.91541   0.90114   -1.000
 5884.00    0.91417   0.89247   -1.000
 5885.00    0.91016   0.88186   -1.000
 5886.00    0.90338   0.86979   -1.000
 5887.00    0.88983   0.85695   -1.000
 5888.00    0.86072   0.84478   -1.000
 5889.00    0.82288   0.83531   -1.000
 5890.00    0.78369   0.83026   -1.000
 5891.00    0.77211   0.82969   -1.000
 5892.00    0.78810   0.83149   -1.000
 5893.00    0.81088   0.83400   -1.000
 5894.00    0.82157   0.83701   -1.000
 5895.00    0.81909   0.84156   -1.000
 5896.00    0.81028   0.84896   -1.000
 5897.00    0.80849   0.85923   -1.000
 5898.00    0.82527   0.87079   -1.000
 5899.00    0.84937   0.88182   -1.000
 5900.00    0.87458   0.89149   -1.000
 5901.00    0.89066   0.89957  240.134
 5902.00    0.89715   0.90585  235.546
 5903.00    0.90281   0.91033  233.384
 5904.00    0.90836   0.91339  232.958
 5905.00    0.91391   0.91540  232.874
 5906.00    0.91715   0.91664  233.118
 5907.00    0.91764   0.91726  233.175
 5908.00    0.91829   0.91728  232.808
 5909.00    0.91551   0.91671  232.276
 5910.00    0.91204   0.91564  232.645
 5911.00    0.91045   0.91419  233.204
 5912.00    0.91142   0.91257  233.443
 5913.00    0.91283   0.91104  234.121
 5914.00    0.91204   0.91003  236.753
 5915.00    0.91153   0.90981  239.192
 5916.00    0.91205   0.91027  239.345
 5917.00    0.91236   0.91121  238.133
 5918.00    0.91016   0.91248  237.072
 5919.00    0.90267   0.91390  236.154
 5920.00    0.89706   0.91518   -1.000
 5921.00    0.90033   0.91620   -1.000
 5922.00    0.90344   0.91690   -1.000
 5923.00    0.90254   0.91734   -1.000
 5924.00    0.90136   0.91753   -1.000
 5925.00    0.89887   0.91740   -1.000
 5926.00    0.89791   0.91692   -1.000
 5927.00    0.90284   0.91616   -1.000
 5928.00    0.90975   0.91526  232.755
 5929.00    0.91425   0.91455  234.083
 5930.00    0.91716   0.91429  235.942
 5931.00    0.91574   0.91447  236.382
 5932.00    0.91505   0.91486  234.609
 5933.00    0.91369   0.91513  233.037
 5934.00    0.91397   0.91527  233.944
 5935.00    0.91708   0.91535  235.746
 5936.00    0.91760   0.91533  236.490
 5937.00    0.91706   0.91509  235.520
 5938.00    0.91678   0.91451  233.588
 5939.00    0.91866   0.91364  232.344
 5940.00    0.91779   0.91275  232.700
 5941.00    0.90814   0.91204  234.699
 5942.00    0.89921   0.91166   -1.000
 5943.00    0.89304   0.91151   -1.000
 5944.00    0.89307   0.91144   -1.000
 5945.00    0.89612   0.91132   -1.000
 5946.00    0.89823   0.91115   -1.000
 5947.00    0.89719   0.91096   -1.000
 5948.00    0.89532   0.91079   -1.000
 5949.00    0.89926   0.91080  237.441
 5950.00    0.90290   0.91088  238.620
 5951.00    0.90128   0.91088  237.851
 5952.00    0.90414   0.91075  236.785
 5953.00    0.91152   0.91061  236.947
 5954.00    0.91358   0.91059  237.088
 5955.00    0.91278   0.91067  236.667
 5956.00    0.91479   0.91095  236.554
 5957.00    0.91329   0.91162  237.262
 5958.00    0.90849   0.91264  237.856
 5959.00    0.90791   0.91384  237.295
 5960.00    0.90668   0.91492  235.077
 5961.00    0.90959   0.91566  232.580
 5962.00    0.91226   0.91601  231.278
 5963.00    0.91426   0.91600  230.876
 5964.00    0.91801   0.91573  231.182
 5965.00    0.91774   0.91543  232.267
 5966.00    0.91650   0.91532  233.247
 5967.00    0.91657   0.91546  234.039
 5968.00    0.91293   0.91574  233.959
 5969.00    0.90562   0.91603  232.491
 5970.00    0.90562   0.91614  231.476
 5971.00    0.91018   0.91583  231.331
 5972.00    0.91000   0.91505  230.981
 5973.00    0.91156   0.91390  230.616
 5974.00    0.91545   0.91253  231.399
 5975.00    0.91386   0.91121  233.138
 5976.00    0.91157   0.91020  234.962
 5977.00    0.91051   0.90958  236.668
 5978.00    0.90661   0.90930  237.932
 5979.00    0.90502   0.90921  237.527
 5980.00    0.91061   0.90907  235.694
 5981.00    0.91674   0.90870  234.394
 5982.00    0.91524   0.90816  234.548
 5983.00    0.91272   0.90771  236.094
 5984.00    0.91437   0.90761  238.192
 5985.00    0.91474   0.90798  239.669
 5986.00    0.91397   0.90870  239.433
 5987.00    0.91372   0.90952  237.356
 5988.00    0.91254   0.91032  235.506
 5989.00    0.91170   0.91105  234.587
 5990.00    0.91300   0.91164  233.582
 5991.00    0.91399   0.91223  233.420
 5992.00    0.91337   0.91285  233.995
 5993.00    0.91360   0.91344  233.398
 5994.00    0.91502   0.91374  231.612
 5995.00    0.91648   0.91362  230.502
 5996.00    0.91473   0.91320  231.431
 5997.00    0.91276   0.91266  233.163
 5998.00    0.91369   0.91212  234.368
 5999.00    0.91286   0.91153  235.007
 6000.00    0.91055   0.91085  234.866
 6001.00    0.91176   0.91005  234.827
 6002.00    0.91417   0.90910  235.881
 6003.00    0.91238   0.90812  236.935
 6004.00    0.91321   0.90722  237.095
 6005.00    0.91390   0.90645  236.593
 6006.00    0.91342   0.90576  236.454
 6007.00    0.91405   0.90529  237.693
 6008.00    0.91363   0.90525  239.949
 6009.00    0.91361   0.90564  240.780
 6010.00    0.91311   0.90626  238.786
 6011.00    0.91301   0.90674  236.088
 6012.00    0.91166   0.90688  235.366
 6013.00    0.91222   0.90683  236.743
 6014.00    0.91497   0.90666  238.265
 6015.00    0.91476   0.90637  237.857
 6016.00    0.91370   0.90592  237.301
 6017.00    0.91271   0.90534  238.068
 6018.00    0.91092   0.90472  238.781
 6019.00    0.91155   0.90416  238.488
 6020.00    0.91302   0.90380  238.701
 6021.00    0.91398   0.90383  240.047
 6022.00    0.91262   0.90438  239.997
 6023.00    0.90826   0.90530  238.458
 6024.00    0.90978   0.90653  237.549
 6025.00    0.91267   0.90809  237.241
 6026.00    0.91304   0.90979  236.197
 6027.00    0.91416   0.91144  235.184
 6028.00    0.91394   0.91305  234.016
 6029.00    0.91520   0.91449  232.782
 6030.00    0.91732   0.91563  232.261
 6031.00    0.91505   0.91653  232.225
 6032.00    0.90903   0.91719  232.621
 6033.00    0.90835   0.91756  232.558
 6034.00    0.91128   0.91761  231.669
 6035.00    0.91571   0.91731  230.901
 6036.00    0.91945   0.91664  230.664
 6037.00    0.91622   0.91573  230.368
 6038.00    0.90992   0.91473  230.360
 6039.00    0.90791   0.91374  231.357
 6040.00    0.91125   0.91292  232.180
 6041.00    0.91203   0.91250  232.765
 6042.00    0.90867   0.91250  232.723
 6043.00    0.90723   0.91290  232.266
 6044.00    0.90923   0.91358  231.400
 6045.00    0.91157   0.91424  229.723
 6046.00    0.90940   0.91469  229.139
 6047.00    0.90909   0.91492  229.344
 6048.00    0.91261   0.91482  229.091
 6049.00    0.91285   0.91428  229.085
 6050.00    0.91114   0.91354  229.728
 6051.00    0.91149   0.91295  230.374
 6052.00    0.91238   0.91224  230.667
 6053.00    0.91145   0.91142  231.013
 6054.00    0.91116   0.91070  231.800
 6055.00    0.91463   0.91021  232.621
 6056.00    0.91527   0.91001  233.692
 6057.00    0.91160   0.90998  234.649
 6058.00    0.91036   0.90992  234.600
 6059.00    0.92395   0.90951   -1.000
 6060.00    0.79968   0.90870   -1.000
 6061.00    0.64408   0.90753   -1.000
 6062.00    0.77837   0.90620   -1.000
 6063.00    0.86439   0.90503   -1.000
 6064.00    0.58224   0.90430   -1.000
 6065.00    0.37493   0.90433   -1.000
 6066.00    0.65158   0.90537   -1.000
 6067.00    0.90904   0.90709  110.016
 6068.00    0.92866   0.90900  116.858
 6069.00    0.92235   0.91081  248.677
 6070.00    0.91553   0.91226  232.591
 6071.00    0.90874   0.91319  228.804
 6072.00    0.90667   0.91355  224.312
 6073.00    0.91147   0.91339  226.501
 6074.00    0.91087   0.91274  229.734
 6075.00    0.90597   0.91163  230.193
 6076.00    0.90307   0.91018  230.734
 6077.00    0.90654   0.90858  231.821
 6078.00    0.90800   0.90698  233.123
 6079.00    0.90530   0.90565  234.768
 6080.00    0.90676   0.90461  236.376
 6081.00    0.90620   0.90373  236.959
 6082.00    0.90296   0.90305  237.071
 6083.00    0.90362   0.90273  237.600
 6084.00    0.90357   0.90280  237.866
 6085.00    0.90211   0.90321  237.704
 6086.00    0.90408   0.90382  237.478
 6087.00    0.90671   0.90440  236.944
 6088.00    0.90640   0.90483  236.060
 6089.00    0.90622   0.90516  235.988
 6090.00    0.90619   0.90553  237.151
 6091.00    0.90556   0.90601  238.363
 6092.00    0.90663   0.90661  238.629
 6093.00    0.90696   0.90718  237.555
 6094.00    0.90505   0.90756  236.171
 6095.00    0.90478   0.90750  234.923
 6096.00    0.90536   0.90676  233.774
 6097.00    0.90506   0.90530  233.470
 6098.00    0.90228   0.90317  233.930
 6099.00    0.89784   0.90067  234.263
 6100.00    0.89571   0.89812  234.301
 6101.00    0.89730   0.89600  236.052
 6102.00    0.89935   0.89492  240.898
 6103.00    0.90205   0.89538  245.709
 6104.00    0.90405   0.89728  245.937
 6105.00    0.90332   0.89978  242.020
 6106.00    0.89766   0.90226  237.885
 6107.00    0.89546   0.90441  236.092
 6108.00    0.89738   0.90609  236.491
 6109.00    0.89855   0.90731  237.273
 6110.00    0.90221   0.90803  237.403
 6111.00    0.89947   0.90832  237.010
 6112.00    0.89687   0.90829  236.146
 6113.00    0.89926   0.90803  235.695
 6114.00    0.89901   0.90746  234.957
 6115.00    0.89701   0.90636  234.051
 6116.00    0.89439   0.90461  234.449
 6117.00    0.89500   0.90225  235.838
 6118.00    0.89669   0.89940  236.665
 6119.00    0.89542   0.89628  237.425
 6120.00    0.89200   0.89330  240.054
 6121.00    0.88766   0.89076  243.445
 6122.00    0.88570   0.88908  246.048
 6123.00    0.88754   0.88858  247.025
 6124.00    0.89122   0.88907  244.495
 6125.00    0.89506   0.89011  240.817
 6126.00    0.89659   0.89130  239.657
 6127.00    0.89770   0.89254  240.653
 6128.00    0.89974   0.89350  241.068
 6129.00    0.90032   0.89487  240.517
 6130.00    0.89851   0.89675  239.103
 6131.00    0.89609   0.89740  236.877
 6132.00    0.89628   0.89634  235.706
 6133.00    0.89556   0.89397  235.897
 6134.00    0.88842   0.89037  237.486
 6135.00    0.87838   0.88610  241.750
 6136.00    0.87402   0.88208  248.446
 6137.00    0.87632   0.87938  255.226
 6138.00    0.88018   0.87847  258.097
 6139.00    0.88288   0.87882  254.069
 6140.00    0.88259   0.87974  246.833
 6141.00    0.88059   0.88139  242.454
 6142.00    0.88146   0.88374  241.911
 6143.00    0.88610   0.88606  242.465
 6144.00    0.89058   0.88762  241.091
 6145.00    0.89276   0.88820  238.211
 6146.00    0.89192   0.88812  236.875
 6147.00    0.89014   0.88776  237.550
 6148.00    0.89179   0.88750  238.966
 6149.00    0.89234   0.88758  240.633
 6150.00    0.89083   0.88794  242.182
 6151.00    0.89328   0.88813  242.722
 6152.00    0.89587   0.88792  242.104
 6153.00    0.89432   0.88706  240.678
 6154.00    0.89184   0.88532  239.800
 6155.00    0.89028   0.88273  241.016
 6156.00    0.88849   0.87952  242.702
 6157.00    0.88782   0.87590  243.226
 6158.00    0.88884   0.87215   -1.000
 6159.00    0.88369   0.86849   -1.000
 6160.00    0.87293   0.86514  249.859
 6161.00    0.86787   0.86260  256.458
 6162.00    0.87231   0.86144  264.216
 6163.00    0.87849   0.86187   -1.000
 6164.00    0.88320   0.86336   -1.000
 6165.00    0.88593   0.86517   -1.000
 6166.00    0.88438   0.86688   -1.000
 6167.00    0.88281   0.86832   -1.000
 6168.00    0.88025   0.86958  253.330
 6169.00    0.87999   0.87103  255.685
 6170.00    0.88121   0.87316  258.726
 6171.00    0.88027   0.87568  258.519
 6172.00    0.88261   0.87821  254.444
 6173.00    0.88280   0.88056  250.203
 6174.00    0.88279   0.88262  249.080
 6175.00    0.88402   0.88434  249.506
 6176.00    0.88179   0.88578  249.173
 6177.00    0.88212   0.88706  248.600
 6178.00    0.88263   0.88818  248.020
 6179.00    0.88103   0.88913  246.993
 6180.00    0.88255   0.88988  245.938
 6181.00    0.88234   0.89039  245.138
 6182.00    0.88215   0.89053  244.138
 6183.00    0.88005   0.89012  243.293
 6184.00    0.88178   0.88905  243.385
 6185.00    0.88534   0.88736  244.164
 6186.00    0.88173   0.88529  245.701
 6187.00    0.88089   0.88312  248.181
 6188.00    0.87863   0.88114  250.845
 6189.00    0.87492   0.87959  253.295
 6190.00    0.87053   0.87860  255.342
 6191.00    0.86614   0.87854   -1.000
 6192.00    0.87315   0.87966  260.514
 6193.00    0.88145   0.88140  259.264
 6194.00    0.88289   0.88314  253.919
 6195.00    0.88192   0.88464  248.744
 6196.00    0.88337   0.88580  246.390
 6197.00    0.88404   0.88663  245.704
 6198.00    0.88089   0.88715  246.586
 6199.00    0.87680   0.88754  249.088
 6200.00    0.87532   0.88815   -1.000
 6201.00    0.87749   0.88911   -1.000
 6202.00    0.87650   0.89033   -1.000
 6203.00    0.87268   0.89161   -1.000
 6204.00    0.87208   0.89268   -1.000
 6205.00    0.86986   0.89337   -1.000
 6206.00    0.86854   0.89354   -1.000
 6207.00    0.87218   0.89309   -1.000
 6208.00    0.87532   0.89199   -1.000
 6209.00    0.87704   0.89027   -1.000
 6210.00    0.87645   0.88808  246.708
 6211.00    0.87487   0.88564  248.602
 6212.00    0.87440   0.88311  250.745
 6213.00    0.87205   0.88076  252.970
 6214.00    0.87014   0.87888  256.329
 6215.00    0.87321   0.87767  259.535
 6216.00    0.87249   0.87698  260.877
 6217.00    0.86721   0.87667  258.961
 6218.00    0.86842   0.87661  256.608
 6219.00    0.86915   0.87683  257.482
 6220.00    0.87045   0.87733  257.872
 6221.00    0.80364   0.87800   -1.000
 6222.00    0.76954   0.87841   -1.000
 6223.00    0.84270   0.87820   -1.000
 6224.00    0.87394   0.87734  272.126
 6225.00    0.86487   0.87583   -1.000
 6226.00    0.86384   0.87384  253.694
 6227.00    0.86428   0.87163  254.273
 6228.00    0.86537   0.86946  255.125
 6229.00    0.86139   0.86766  257.885
 6230.00    0.85854   0.86659  261.992
 6231.00    0.85933   0.86636  265.784
 6232.00    0.86037   0.86672  266.403
 6233.00    0.86398   0.86729  263.368
 6234.00    0.86402   0.86770  258.729
 6235.00    0.86041   0.86763  254.184
 6236.00    0.86023   0.86694  251.864
 6237.00    0.86187   0.86573  252.575
 6238.00    0.86180   0.86438  254.946
 6239.00    0.86363   0.86310  257.568
 6240.00    0.86434   0.86186  260.259
 6241.00    0.86032   0.86048  262.044
 6242.00    0.85964   0.85903  262.315
 6243.00    0.86269   0.85772  263.352
 6244.00    0.86404   0.85694  265.316
 6245.00    0.85943   0.85678  265.895
 6246.00    0.85286   0.85732  264.704
 6247.00    0.85323   0.85857  262.380
 6248.00    0.85575   0.86023  259.288
 6249.00    0.85479   0.86169  256.298
 6250.00    0.85294   0.86237  255.086
 6251.00    0.85204   0.86219  256.512
 6252.00    0.85226   0.86150  260.435
 6253.00    0.85302   0.86084  264.460
 6254.00    0.85270   0.86055  266.742
 6255.00    0.85360   0.86070  267.861
 6256.00    0.85432   0.86129  268.048
 6257.00    0.85437   0.86236  269.376
 6258.00    0.85290   0.86392   -1.000
 6259.00    0.85114   0.86581   -1.000
 6260.00    0.85545   0.86791   -1.000
 6261.00    0.85464   0.86990   -1.000
 6262.00    0.84913   0.87162   -1.000
 6263.00    0.84866   0.87279   -1.000
 6264.00    0.85238   0.87326   -1.000
 6265.00    0.85583   0.87320   -1.000
 6266.00    0.85394   0.87278   -1.000
 6267.00    0.85256   0.87194   -1.000
 6268.00    0.85271   0.87046   -1.000
 6269.00    0.85159   0.86828   -1.000
 6270.00    0.84998   0.86561   -1.000
 6271.00    0.84863   0.86259   -1.000
 6272.00    0.84864   0.85924  256.682
 6273.00    0.84840   0.85538  255.938
 6274.00    0.84746   0.85117  256.089
 6275.00    0.84299   0.84715  257.525
 6276.00    0.83577   0.84389  259.583
 6277.00    0.82417   0.84182   -1.000
 6278.00    0.80526   0.84122   -1.000
 6279.00    0.78695   0.84196   -1.000
 6280.00    0.77705   0.84402   -1.000
 6281.00    0.78078   0.84700   -1.000
 6282.00    0.79667   0.85040   -1.000
 6283.00    0.80696   0.85370   -1.000
 6284.00    0.80799   0.85668   -1.000
 6285.00    0.81062   0.85920   -1.000
 6286.00    0.81745   0.86109   -1.000
 6287.00    0.82622   0.86229   -1.000
 6288.00    0.83084   0.86282   -1.000
 6289.00    0.83301   0.86272   -1.000
 6290.00    0.83359   0.86228   -1.000
 6291.00    0.83155   0.86165   -1.000
 6292.00    0.82981   0.86088   -1.000
 6293.00    0.82891   0.86003   -1.000
 6294.00    0.82797   0.85905   -1.000
 6295.00    0.82824   0.85785   -1.000
 6296.00    0.82716   0.85655   -1.000
 6297.00    0.82498   0.85551   -1.000
 6298.00    0.82534   0.85497   -1.000
 6299.00    0.82707   0.85496   -1.000
 6300.00    0.82834   0.85544   -1.000
 6301.00    0.83268   0.85644   -1.000
 6302.00    0.83549   0.85810   -1.000
 6303.00    0.82834   0.86022   -1.000
 6304.00    0.82272   0.86230   -1.000
 6305.00    0.82328   0.86406   -1.000
 6306.00    0.82799   0.86540   -1.000
 6307.00    0.83236   0.86621   -1.000
 6308.00    0.83186   0.86641   -1.000
 6309.00    0.83166   0.86610   -1.000
 6310.00    0.83292   0.86542   -1.000
 6311.00    0.83368   0.86438   -1.000
 6312.00    0.83318   0.86301   -1.000
 6313.00    0.83377   0.86151   -1.000
 6314.00    0.83325   0.86023   -1.000
 6315.00    0.83219   0.85943   -1.000
 6316.00    0.82956   0.85917   -1.000
 6317.00    0.82667   0.85959   -1.000
 6318.00    0.82714   0.86089   -1.000
 6319.00    0.82952   0.86307   -1.000
 6320.00    0.83257   0.86564   -1.000
 6321.00    0.83020   0.86809   -1.000
 6322.00    0.82786   0.87031   -1.000
 6323.00    0.82923   0.87231   -1.000
 6324.00    0.83178   0.87387   -1.000
 6325.00    0.83516   0.87483   -1.000
 6326.00    0.83863   0.87527   -1.000
 6327.00    0.84061   0.87534   -1.000
 6328.00    0.84121   0.87510   -1.000
 6329.00    0.83956   0.87444   -1.000
 6330.00    0.83827   0.87343   -1.000
 6331.00    0.84033   0.87226   -1.000
 6332.00    0.83818   0.87102   -1.000
 6333.00    0.84434   0.86972   -1.000
 6334.00    0.84516   0.86857   -1.000
 6335.00    0.83290   0.86777   -1.000
 6336.00    0.83179   0.86765   -1.000
 6337.00    0.83470   0.86810   -1.000
 6338.00    0.83654   0.86869   -1.000
 6339.00    0.83868   0.86907   -1.000
 6340.00    0.83990   0.86901   -1.000
 6341.00    0.84153   0.86830   -1.000
 6342.00    0.83925   0.86717   -1.000
 6343.00    0.83504   0.86605   -1.000
 6344.00    0.83386   0.86519   -1.000
 6345.00    0.83402   0.86483   -1.000
 6346.00    0.83567   0.86515   -1.000
 6347.00    0.83363   0.86659   -1.000
 6348.00    0.83196   0.86891   -1.000
 6349.00    0.83587   0.87125   -1.000
 6350.00    0.83859   0.87301   -1.000
 6351.00    0.83747   0.87408   -1.000
 6352.00    0.83235   0.87447   -1.000
 6353.00    0.83013   0.87418   -1.000
 6354.00    0.83100   0.87338   -1.000
 6355.00    0.82909   0.87236   -1.000
 6356.00    0.82715   0.87125   -1.000
 6357.00    0.82825   0.87004   -1.000
 6358.00    0.82882   0.86883   -1.000
 6359.00    0.82960   0.86783   -1.000
 6360.00    0.82837   0.86706   -1.000
 6361.00    0.82628   0.86643   -1.000
 6362.00    0.82823   0.86593   -1.000
 6363.00    0.82974   0.86554   -1.000
 6364.00    0.82551   0.86512   -1.000
 6365.00    0.82185   0.86453   -1.000
 6366.00    0.82450   0.86390   -1.000
 6367.00    0.82467   0.86345   -1.000
 6368.00    0.81999   0.86315   -1.000
 6369.00    0.81869   0.86308   -1.000
 6370.00    0.81876   0.86347   -1.000
 6371.00    0.81658   0.86455   -1.000
 6372.00    0.81859   0.86623   -1.000
 6373.00    0.81923   0.86798   -1.000
 6374.00    0.81343   0.86923   -1.000
 6375.00    0.80924   0.86992   -1.000
 6376.00    0.80867   0.87008   -1.000
 6377.00    0.80773   0.86983   -1.000
 6378.00    0.80466   0.86939   -1.000
 6379.00    0.80267   0.86892   -1.000
 6380.00    0.80087   0.86859   -1.000
 6381.00    0.79753   0.86847   -1.000
 6382.00    0.79567   0.86860   -1.000
 6383.00    0.79514   0.86896   -1.000
 6384.00    0.79259   0.86951   -1.000
 6385.00    0.78963   0.87016   -1.000
 6386.00    0.78980   0.87063   -1.000
 6387.00    0.78869   0.87064   -1.000
 6388.00    0.78476   0.87014   -1.000
 6389.00    0.77943   0.86936   -1.000
 6390.00    0.77327   0.86850   -1.000
 6391.00    0.77028   0.86748   -1.000
 6392.00    0.76894   0.86641   -1.000
 6393.00    0.76663   0.86541   -1.000
 6394.00    0.76552   0.86478   -1.000
 6395.00    0.76467   0.86450   -1.000
 6396.00    0.76406   0.86427   -1.000
 6397.00    0.75681   0.86397   -1.000
 6398.00    0.74624   0.86366   -1.000
 6399.00    0.74400   0.86362   -1.000
 6400.00    0.74544   0.86404   -1.000
 6401.00    0.74115   0.86484   -1.000
 6402.00    0.73581   0.86564   -1.000
 6403.00    0.73593   0.86617   -1.000
 6404.00    0.73352   0.86629   -1.000
 6405.00    0.72668   0.86586   -1.000
 6406.00    0.72058   0.86499   -1.000
 6407.00    0.71790   0.86412   -1.000
 6408.00    0.71590   0.86350   -1.000
 6409.00    0.71095   0.86290   -1.000
 6410.00    0.70395   0.86201   -1.000
 6411.00    0.69648   0.86129   -1.000
 6412.00    0.69411   0.86091   -1.000
 6413.00    0.69289   0.86069   -1.000
 6414.00    0.68569   0.86019   -1.000
 6415.00    0.67723   0.85949   -1.000
 6416.00    0.67236   0.85973   -1.000
 6417.00    0.66741   0.86043   -1.000
 6418.00    0.66195   0.86117   -1.000
 6419.00    0.65785   0.86214   -1.000
 6420.00    0.65152   0.86347   -1.000
 6421.00    0.64577   0.86532   -1.000
 6422.00    0.64110   0.86746   -1.000
 6423.00    0.63302   0.86926   -1.000
 6424.00    0.62710   0.87022   -1.000
 6425.00    0.62315   0.87041   -1.000
 6426.00    0.61715   0.86978   -1.000
 6427.00    0.60924   0.86853   -1.000
 6428.00    0.59941   0.86682   -1.000
