###################################################################
## OUTPUT of StarlightChains_v04.for    [Cid@UFSC - 01/Apr/2007] ##
###################################################################

## Some input info
NGC7089_a_1.cxt                          [arq_obs]
Base.BC03.N                              [arq_base]
NGC7089_a_1.msk                          [arq_masks]
StCv04.C99.config                        [arq_config]
   45                                    [N_base]
    0                                    [N_YAV_components = # of components with extra extinction!]
    0                                    [i_FitPowerLaw (1/0 = Yes/No)]
-9.99                                    [alpha_PowerLaw]
CCM                                      [red_law_option]
 1.458241                                [q_norm = A(l_norm)/A(V)]

## (Re)Sampling Parameters
 3359.00                                 [l_ini (A)]
 6428.00                                 [l_fin (A)]
    1.00                                 [dl    (A)]     (OBS: dl_cushion =    50.00 A)

## Normalization info
 4020.00                                 [l_norm (A) - for base]
 4010.00                                 [llow_norm (A) - window for f_obs]
 4060.00                                 [lupp_norm (A) - window for f_obs]
7.608305E-14                             [fobs_norm (in input units)]

## S/N
 4730.00                                 [llow_SN (A) - window for S/N]
 4780.00                                 [lupp_SN (A) - window for S/N]
 117.458                                 [S/N in S/N window]
 112.425                                 [S/N in norm. window]
 300.443                                 [S/N_err in S/N window]
 287.568                                 [S/N_err in norm. window]
  1.0000                                 [fscale_chi2]

## etc...
  2147483586                             [idum_orig]
  3067                                   [NOl_eff]
   630                                   [Nl_eff]
  2437    NSIGMA                         [Ntot_cliped & clip_method]
  1134560                                [Nglobal_steps]
   7                                     [N_chains]
   5                                     [NEX0s_base = N_base in EX0s-fits]
 0   0   1      249   2.0   6.084E+02    [Clip-Bug, RC-Crash & Burn-In warning-flags, n_censored_weights, wei_nsig_threshold & wei_limit]
    20     20.220     20.212      0.008  [idt_all, wdt_TotTime, wdt_UsrTime & wdt_SysTime (sec)]

## Synthesis Results - Best model ##

 2.84099E+00                             [chi2/Nl_eff]
     0.65432                             [adev (%)]

   103.52969                             [sum-of-x (%)]
 1.26912E-13                             [Flux_tot (units of input spectrum!)]
 7.38301E-10                             [Mini_tot (???)]
 4.08441E-10                             [Mcor_tot (???)]

 -11.56                                  [v0_min  (km/s)]
  98.42                                  [vd_min  (km/s)]
 0.3551                                  [AV_min  (mag)]
 0.0000                                  [YAV_min (mag)]

# j     x_j(%)      Mini_j(%)     Mcor_j(%)     age_j(yr)     Z_j      (L/M)_j    YAV?  Mstars   component_j        a/Fe...       SSP_chi2r SSP_adev(%)   SSP_AV   SSP_x(%)
  1      0.0000     0.0000E+00    0.0000E+00    1.000000E+06  0.00400  1.114E-02    0   1.0000   age020_m42            0.0000     2.1320E+03    14.3753   3.5528    77.3399
  2     16.8491     6.8686E-02    1.2414E-01    3.160000E+06  0.00400  4.073E-02    0   0.9999   age045_m42            0.0000     4.1125E+02     6.7530   2.5108    92.2289
  3      0.0000     0.0000E+00    0.0000E+00    5.010000E+06  0.00400  2.534E-02    0   0.9488   age055_m42            0.0000     1.0629E+03    10.5332   2.9585    85.2949
  4      0.0000     0.0000E+00    0.0000E+00    1.000000E+07  0.00400  1.271E-02    0   0.8862   age070_m42            0.0000     9.0945E+02    10.2411   2.1641    88.7683
  5      0.0000     0.0000E+00    0.0000E+00    2.512000E+07  0.00400  5.070E-03    0   0.8174   age090_m42            0.0000     7.8101E+02     9.4951   2.0244    90.4014
  6      0.0000     0.0000E+00    0.0000E+00    4.000000E+07  0.00400  3.505E-03    0   0.7851   age104_m42            0.0000     4.4607E+02     7.1402   1.6836    93.6240
  7     16.6702     1.2204E+00    1.5899E+00    1.015200E+08  0.00400  2.268E-03    0   0.7207   age116_m42            0.0000     8.2055E+02     5.7520   1.5707   105.1867
  8      0.0000     0.0000E+00    0.0000E+00    2.861200E+08  0.00400  1.079E-03    0   0.6613   age125_m42            0.0000     9.2085E+02     6.7909   1.0578   107.8200
  9      0.0000     0.0000E+00    0.0000E+00    6.405400E+08  0.00400  5.077E-04    0   0.6197   age132_m42            0.0000     1.0355E+03     7.2424   0.6839   112.2863
 10     12.4665     5.8554E+00    6.3760E+00    9.047900E+08  0.00400  3.535E-04    0   0.6024   age135_m42            0.0000     5.5048E+02     5.5629   0.4497   111.2598
 11      5.4265     4.7173E+00    4.8740E+00    1.434000E+09  0.00400  1.910E-04    0   0.5716   age139_m42            0.0000     1.9922E+02     4.3970  -0.0988   109.8548
 12     52.1173     8.8138E+01    8.7036E+01    2.500000E+09  0.00400  9.818E-05    0   0.5463   age150_m42            0.0000     2.1131E+02     4.0205  -0.3626   104.6280
 13      0.0000     0.0000E+00    0.0000E+00    5.000000E+09  0.00400  4.718E-05    0   0.5228   age161_m42            0.0000     4.2928E+02     4.8308  -0.5152   100.7904
 14      0.0000     0.0000E+00    0.0000E+00    1.100000E+10  0.00400  2.205E-05    0   0.4980   age185_m42            0.0000     9.0073E+02     6.8545  -0.7969    98.6738
 15      0.0000     0.0000E+00    0.0000E+00    1.300000E+10  0.00400  1.883E-05    0   0.4927   age193_m42            0.0000     9.8065E+02     7.1136  -0.8142    98.4923
 16      0.0000     0.0000E+00    0.0000E+00    1.000000E+06  0.02000  1.989E-02    0   1.0000   age020_m62            0.0000     2.1581E+03    14.3182   3.5144    78.0312
 17      0.0000     0.0000E+00    0.0000E+00    3.160000E+06  0.02000  3.772E-02    0   0.9858   age045_m62            0.0000     1.9093E+03    13.5855   3.3637    80.1909
 18      0.0000     0.0000E+00    0.0000E+00    5.010000E+06  0.02000  3.227E-02    0   0.9342   age055_m62            0.0000     6.8556E+02     8.6143   2.7959    88.3890
 19      0.0000     0.0000E+00    0.0000E+00    1.000000E+07  0.02000  1.011E-02    0   0.8751   age070_m62            0.0000     2.1879E+03    15.4109   2.2167    84.3465
 20      0.0000     0.0000E+00    0.0000E+00    2.512000E+07  0.02000  4.206E-03    0   0.8099   age090_m62            0.0000     1.6127E+03    12.9858   2.1331    85.5438
 21      0.0000     0.0000E+00    0.0000E+00    4.000000E+07  0.02000  3.373E-03    0   0.7799   age104_m62            0.0000     3.9672E+02     6.7100   1.8832    95.2785
 22      0.0000     0.0000E+00    0.0000E+00    1.015200E+08  0.02000  1.878E-03    0   0.7221   age116_m62            0.0000     6.6751E+02     5.2551   1.6170   104.9702
 23      0.0000     0.0000E+00    0.0000E+00    2.861200E+08  0.02000  8.869E-04    0   0.6700   age125_m62            0.0000     1.8322E+03     9.5111   1.0236   113.6926
 24      0.0000     0.0000E+00    0.0000E+00    6.405400E+08  0.02000  3.657E-04    0   0.6322   age132_m62            0.0000     1.0782E+03     8.7640   0.2876   118.2310
 25      0.0000     0.0000E+00    0.0000E+00    9.047900E+08  0.02000  2.312E-04    0   0.6152   age135_m62            0.0000     5.3394E+02     6.9511  -0.0792   116.7708
 26      0.0000     0.0000E+00    0.0000E+00    1.434000E+09  0.02000  1.168E-04    0   0.5865   age139_m62            0.0000     2.8360E+02     5.0061  -0.4633   109.6502
 27      0.0000     0.0000E+00    0.0000E+00    2.500000E+09  0.02000  5.505E-05    0   0.5610   age150_m62            0.0000     6.7393E+02     6.6538  -0.8483   106.4998
 28      0.0000     0.0000E+00    0.0000E+00    5.000000E+09  0.02000  2.596E-05    0   0.5353   age161_m62            0.0000     1.6199E+03     9.3000  -1.0000   102.9899
 29      0.0000     0.0000E+00    0.0000E+00    1.100000E+10  0.02000  1.169E-05    0   0.5103   age185_m62            0.0000     3.5921E+03    15.1870  -1.0000    96.5306
 30      0.0000     0.0000E+00    0.0000E+00    1.300000E+10  0.02000  9.691E-06    0   0.5047   age193_m62            0.0000     3.9703E+03    16.0723  -1.0000    95.6501
 31      0.0000     0.0000E+00    0.0000E+00    1.000000E+06  0.05000  2.651E-02    0   0.9998   age020_m72            0.0000     2.0059E+03    13.6269   3.5144    78.9061
 32      0.0000     0.0000E+00    0.0000E+00    3.160000E+06  0.05000  4.817E-02    0   0.9577   age045_m72            0.0000     1.3157E+03    11.2840   3.2059    83.6075
 33      0.0000     0.0000E+00    0.0000E+00    5.010000E+06  0.05000  3.101E-02    0   0.9147   age055_m72            0.0000     1.2136E+03    11.1161   2.8375    86.1408
 34      0.0000     0.0000E+00    0.0000E+00    1.000000E+07  0.05000  8.954E-03    0   0.8524   age070_m72            0.0000     1.2925E+03    11.0800   3.0768    84.7417
 35      0.0000     0.0000E+00    0.0000E+00    2.512000E+07  0.05000  4.207E-03    0   0.7902   age090_m72            0.0000     5.8078E+02     7.6572   2.6009    90.8103
 36      0.0000     0.0000E+00    0.0000E+00    4.000000E+07  0.05000  3.198E-03    0   0.7618   age104_m72            0.0000     3.3375E+02     3.9862   2.0075   100.2251
 37      0.0000     0.0000E+00    0.0000E+00    1.015200E+08  0.05000  1.716E-03    0   0.7092   age116_m72            0.0000     8.6112E+02     5.9718   1.6864   105.5252
 38      0.0000     0.0000E+00    0.0000E+00    2.861200E+08  0.05000  7.047E-04    0   0.6618   age125_m72            0.0000     1.7281E+03     9.7472   0.7823   114.7573
 39      0.0000     0.0000E+00    0.0000E+00    6.405400E+08  0.05000  2.633E-04    0   0.6253   age132_m72            0.0000     7.8925E+02     8.1696  -0.1128   117.8119
 40      0.0000     0.0000E+00    0.0000E+00    9.047900E+08  0.05000  1.484E-04    0   0.6088   age135_m72            0.0000     4.6935E+02     6.8234  -0.5812   111.7687
 41      0.0000     0.0000E+00    0.0000E+00    1.434000E+09  0.05000  7.827E-05    0   0.5847   age139_m72            0.0000     9.0786E+02     8.2327  -0.9794   107.7941
 42      0.0000     0.0000E+00    0.0000E+00    2.500000E+09  0.05000  3.759E-05    0   0.5583   age150_m72            0.0000     1.8815E+03    10.3360  -1.0000   101.1805
 43      0.0000     0.0000E+00    0.0000E+00    5.000000E+09  0.05000  1.548E-05    0   0.5320   age161_m72            0.0000     4.1667E+03    16.8364  -1.0000    91.8463
 44      0.0000     0.0000E+00    0.0000E+00    1.100000E+10  0.05000  6.532E-06    0   0.5070   age185_m72            0.0000     7.4500E+03    23.0843  -1.0000    82.4584
 45      0.0000     0.0000E+00    0.0000E+00    1.300000E+10  0.05000  5.316E-06    0   0.5018   age193_m72            0.0000     8.7105E+03    24.9059  -1.0000    79.5582


## Synthesis Results - Average & Chains ##

# j      x_j: min, <> & last-chain-values for 1 ...  7 chains
  1      0.0000      0.0043      0.0000      0.0000      0.0157      0.0000      0.0000      0.0000      0.0051
  2     16.8491     16.9478     17.1037     17.0132     16.9721     17.1164     17.0058     17.0729     17.0766
  3      0.0000      0.0138      0.0000      0.0504      0.0000      0.0000      0.0000      0.0000      0.0000
  4      0.0000      0.0255      0.0000      0.0000      0.0626      0.0000      0.0000      0.0000      0.0000
  5      0.0000      0.0198      0.0000      0.0000      0.0000      0.0000      0.0173      0.0180      0.0000
  6      0.0000      0.0304      0.0000      0.0000      0.0000      0.0000      0.0000      0.0000      0.0000
  7     16.6702     15.2903     15.3907     15.5745     15.6843     15.5962     15.7816     15.4360     15.6078
  8      0.0000      0.0617      0.0000      0.0492      0.0000      0.0444      0.0008      0.0000      0.0000
  9      0.0000      0.0815      0.0231      0.2238      0.1348      0.0178      0.0205      0.0642      0.0000
 10     12.4665     12.9328     13.2807     12.5229     12.5938     12.7353     12.8876     12.7977     13.0222
 11      5.4265      7.3879      7.1528      7.4708      7.4694      6.9414      6.9118      7.4751      7.2030
 12     52.1173     49.8386     49.9668     50.2885     50.2603     50.4423     50.2395     50.2638     50.2791
 13      0.0000      0.0971      0.1134      0.1048      0.0000      0.0000      0.1628      0.0616      0.2057
 14      0.0000      0.0467      0.0000      0.0000      0.1090      0.1097      0.0000      0.0392      0.0000
 15      0.0000      0.0543      0.2189      0.0000      0.0000      0.0000      0.0000      0.0000      0.0000
 16      0.0000      0.0034      0.0000      0.0000      0.0000      0.0000      0.0000      0.0000      0.0000
 17      0.0000      0.0064      0.0000      0.0000      0.0000      0.0000      0.0217      0.0000      0.0092
 18      0.0000      0.0342      0.0000      0.0000      0.0000      0.0000      0.0000      0.0544      0.0000
 19      0.0000      0.0086      0.0000      0.0000      0.0000      0.0000      0.0000      0.0000      0.0000
 20      0.0000      0.0064      0.0000      0.0000      0.0000      0.0000      0.0000      0.0000      0.0000
 21      0.0000      0.0224      0.0000      0.0000      0.0000      0.0054      0.0000      0.0000      0.0000
 22      0.0000      0.0351      0.0099      0.0000      0.0179      0.1739      0.0000      0.0000      0.0000
 23      0.0000      0.0236      0.0000      0.0000      0.0142      0.0000      0.0133      0.0000      0.0000
 24      0.0000      0.0258      0.0000      0.0000      0.0000      0.0249      0.0000      0.0001      0.0000
 25      0.0000      0.0684      0.0000      0.1417      0.0000      0.0019      0.1203      0.0808      0.0000
 26      0.0000      0.0406      0.0000      0.0000      0.0000      0.0000      0.0379      0.0000      0.0014
 27      0.0000      0.0333      0.0000      0.0000      0.0000      0.0000      0.0000      0.0000      0.0715
 28      0.0000      0.0235      0.0000      0.0000      0.0000      0.0061      0.0210      0.0000      0.0000
 29      0.0000      0.0045      0.0000      0.0000      0.0000      0.0000      0.0000      0.0000      0.0000
 30      0.0000      0.0070      0.0173      0.0000      0.0000      0.0000      0.0000      0.0000      0.0000
 31      0.0000      0.0034      0.0000      0.0247      0.0000      0.0000      0.0000      0.0000      0.0000
 32      0.0000      0.0056      0.0000      0.0000      0.0000      0.0000      0.0000      0.0000      0.0000
 33      0.0000      0.0088      0.0000      0.0000      0.0000      0.0000      0.0392      0.0000      0.0000
 34      0.0000      0.0048      0.0000      0.0000      0.0103      0.0000      0.0000      0.0000      0.0000
 35      0.0000      0.0081      0.0000      0.0000      0.0000      0.0000      0.0000      0.0000      0.0000
 36      0.0000      0.0237      0.0388      0.0000      0.0000      0.0000      0.0000      0.0000      0.0000
 37      0.0000      0.0449      0.0000      0.0000      0.0396      0.0000      0.0000      0.0000      0.0279
 38      0.0000      0.0373      0.0000      0.0000      0.0000      0.0000      0.0000      0.0337      0.0000
 39      0.0000      0.0878      0.1078      0.0000      0.0000      0.1829      0.0000      0.1126      0.0000
 40      0.0000      0.1193      0.1975      0.0000      0.2126      0.1008      0.3153      0.0164      0.0604
 41      0.0000      0.0452      0.0000      0.1393      0.0000      0.1009      0.0075      0.0829      0.0000
 42      0.0000      0.0223      0.0000      0.0000      0.0000      0.0000      0.0000      0.0000      0.0000
 43      0.0000      0.0080      0.0000      0.0000      0.0074      0.0000      0.0000      0.0000      0.0000
 44      0.0000      0.0092      0.0000      0.0000      0.0000      0.0000      0.0000      0.0000      0.0000
 45      0.0000      0.0108      0.0026      0.0000      0.0157      0.0000      0.0042      0.0000      0.0235

# j      m_j: min, <> & last-chain-values for 1 ...  7 chains
  1  0.0000E+00  1.1570E-04  0.0000E+00  0.0000E+00  4.2267E-04  0.0000E+00  0.0000E+00  0.0000E+00  1.3729E-04
  2  1.2414E-01  1.2393E-01  1.2474E-01  1.2589E-01  1.2469E-01  1.2623E-01  1.2569E-01  1.2623E-01  1.2537E-01
  3  0.0000E+00  1.5400E-04  0.0000E+00  5.6889E-04  0.0000E+00  0.0000E+00  0.0000E+00  0.0000E+00  0.0000E+00
  4  0.0000E+00  5.2881E-04  0.0000E+00  0.0000E+00  1.3072E-03  0.0000E+00  0.0000E+00  0.0000E+00  0.0000E+00
  5  0.0000E+00  9.4895E-04  0.0000E+00  0.0000E+00  0.0000E+00  0.0000E+00  8.3847E-04  8.7394E-04  0.0000E+00
  6  0.0000E+00  2.0305E-03  0.0000E+00  0.0000E+00  0.0000E+00  0.0000E+00  0.0000E+00  0.0000E+00  0.0000E+00
  7  1.5899E+00  1.4472E+00  1.4529E+00  1.4917E+00  1.4915E+00  1.4887E+00  1.5098E+00  1.4773E+00  1.4832E+00
  8  0.0000E+00  1.1258E-02  0.0000E+00  9.0890E-03  0.0000E+00  8.1656E-03  1.4194E-04  0.0000E+00  0.0000E+00
  9  0.0000E+00  2.9647E-02  8.3935E-03  8.2334E-02  4.9227E-02  6.5174E-03  7.5217E-03  2.3598E-02  0.0000E+00
 10  6.3760E+00  6.5645E+00  6.7234E+00  6.4323E+00  6.4225E+00  6.5193E+00  6.6118E+00  6.5681E+00  6.6364E+00
 11  4.8740E+00  6.5856E+00  6.3593E+00  6.7389E+00  6.6895E+00  6.2401E+00  6.2273E+00  6.7374E+00  6.4465E+00
 12  8.7036E+01  8.2602E+01  8.2596E+01  8.4341E+01  8.3692E+01  8.4313E+01  8.4160E+01  8.4232E+01  8.3666E+01
 13  0.0000E+00  3.2033E-01  3.7320E-01  3.5018E-01  0.0000E+00  0.0000E+00  5.4314E-01  2.0542E-01  6.8149E-01
 14  0.0000E+00  3.1429E-01  0.0000E+00  0.0000E+00  7.3677E-01  7.4396E-01  0.0000E+00  2.6684E-01  0.0000E+00
 15  0.0000E+00  4.2309E-01  1.7013E+00  0.0000E+00  0.0000E+00  0.0000E+00  0.0000E+00  0.0000E+00  0.0000E+00
 16  0.0000E+00  5.1326E-05  0.0000E+00  0.0000E+00  0.0000E+00  0.0000E+00  0.0000E+00  0.0000E+00  0.0000E+00
 17  0.0000E+00  4.9438E-05  0.0000E+00  0.0000E+00  0.0000E+00  0.0000E+00  1.7049E-04  0.0000E+00  7.1784E-05
 18  0.0000E+00  2.9531E-04  0.0000E+00  0.0000E+00  0.0000E+00  0.0000E+00  0.0000E+00  4.7413E-04  0.0000E+00
 19  0.0000E+00  2.2240E-04  0.0000E+00  0.0000E+00  0.0000E+00  0.0000E+00  0.0000E+00  0.0000E+00  0.0000E+00
 20  0.0000E+00  3.6566E-04  0.0000E+00  0.0000E+00  0.0000E+00  0.0000E+00  0.0000E+00  0.0000E+00  0.0000E+00
 21  0.0000E+00  1.5407E-03  0.0000E+00  0.0000E+00  0.0000E+00  3.7583E-04  0.0000E+00  0.0000E+00  0.0000E+00
 22  0.0000E+00  4.0232E-03  1.1302E-03  0.0000E+00  2.0643E-03  2.0084E-02  0.0000E+00  0.0000E+00  0.0000E+00
 23  0.0000E+00  5.3215E-03  0.0000E+00  0.0000E+00  3.2164E-03  0.0000E+00  3.0352E-03  0.0000E+00  0.0000E+00
 24  0.0000E+00  1.3273E-02  0.0000E+00  0.0000E+00  0.0000E+00  1.2913E-02  0.0000E+00  4.8311E-05  0.0000E+00
 25  0.0000E+00  5.4224E-02  0.0000E+00  1.1366E-01  0.0000E+00  1.5278E-03  9.6333E-02  6.4737E-02  0.0000E+00
 26  0.0000E+00  6.0692E-02  0.0000E+00  0.0000E+00  0.0000E+00  0.0000E+00  5.7239E-02  0.0000E+00  2.0623E-03
 27  0.0000E+00  1.0118E-01  0.0000E+00  0.0000E+00  0.0000E+00  0.0000E+00  0.0000E+00  0.0000E+00  2.1790E-01
 28  0.0000E+00  1.4446E-01  0.0000E+00  0.0000E+00  0.0000E+00  3.7963E-02  1.3019E-01  0.0000E+00  0.0000E+00
 29  0.0000E+00  5.8069E-02  0.0000E+00  0.0000E+00  0.0000E+00  0.0000E+00  0.0000E+00  0.0000E+00  0.0000E+00
 30  0.0000E+00  1.0885E-01  2.6806E-01  0.0000E+00  0.0000E+00  0.0000E+00  0.0000E+00  0.0000E+00  0.0000E+00
 31  0.0000E+00  3.8520E-05  0.0000E+00  2.8127E-04  0.0000E+00  0.0000E+00  0.0000E+00  0.0000E+00  0.0000E+00
 32  0.0000E+00  3.3293E-05  0.0000E+00  0.0000E+00  0.0000E+00  0.0000E+00  0.0000E+00  0.0000E+00  0.0000E+00
 33  0.0000E+00  7.7561E-05  0.0000E+00  0.0000E+00  0.0000E+00  0.0000E+00  3.4768E-04  0.0000E+00  0.0000E+00
 34  0.0000E+00  1.3600E-04  0.0000E+00  0.0000E+00  2.9455E-04  0.0000E+00  0.0000E+00  0.0000E+00  0.0000E+00
 35  0.0000E+00  4.5204E-04  0.0000E+00  0.0000E+00  0.0000E+00  0.0000E+00  0.0000E+00  0.0000E+00  0.0000E+00
 36  0.0000E+00  1.6835E-03  2.7483E-03  0.0000E+00  0.0000E+00  0.0000E+00  0.0000E+00  0.0000E+00  0.0000E+00
 37  0.0000E+00  5.5268E-03  0.0000E+00  0.0000E+00  4.8986E-03  0.0000E+00  0.0000E+00  0.0000E+00  3.4510E-03
 38  0.0000E+00  1.0437E-02  0.0000E+00  0.0000E+00  0.0000E+00  0.0000E+00  0.0000E+00  9.5260E-03  0.0000E+00
 39  0.0000E+00  6.2103E-02  7.6021E-02  0.0000E+00  0.0000E+00  1.3050E-01  0.0000E+00  8.0543E-02  0.0000E+00
 40  0.0000E+00  1.4581E-01  2.4073E-01  0.0000E+00  2.6104E-01  1.2418E-01  3.8945E-01  2.0280E-02  7.4119E-02
 41  0.0000E+00  1.0057E-01  0.0000E+00  3.1365E-01  0.0000E+00  2.2638E-01  1.6823E-02  1.8641E-01  0.0000E+00
 42  0.0000E+00  9.8812E-02  0.0000E+00  0.0000E+00  0.0000E+00  0.0000E+00  0.0000E+00  0.0000E+00  0.0000E+00
 43  0.0000E+00  8.1559E-02  0.0000E+00  0.0000E+00  7.6561E-02  0.0000E+00  0.0000E+00  0.0000E+00  0.0000E+00
 44  0.0000E+00  2.1164E-01  0.0000E+00  0.0000E+00  0.0000E+00  0.0000E+00  0.0000E+00  0.0000E+00  0.0000E+00
 45  0.0000E+00  3.0267E-01  7.1759E-02  0.0000E+00  4.4426E-01  0.0000E+00  1.2039E-01  0.0000E+00  6.6353E-01

# AV, chi2 & Mass for <> & i_chain = 1 ...  7 solutions
AV       0.3551      0.3514      0.3509      0.3523      0.3518      0.3538      0.3536      0.3518      0.3529
chi2 2.8410E+00  2.8812E+00  2.8684E+00  2.8658E+00  2.8676E+00  2.8622E+00  2.8643E+00  2.8657E+00  2.8620E+00
Mass 4.0844E-10  4.0947E-10  4.1031E-10  4.0515E-10  4.0777E-10  4.0734E-10  4.0636E-10  4.0521E-10  4.0869E-10
 -11.61                                  [v0_min (km/s) before EX0s...]
  98.93                                  [vd_min (km/s) before EX0s...]


## Synthetic spectrum (Best Model) ##l_obs f_obs f_syn wei
 3070    [Nl_obs]
 3359.00    0.00000   0.53020   -2.000
 3360.00    0.23752   0.51347   -1.000
 3361.00    0.25048   0.51245   -1.000
 3362.00    0.25956   0.52774   -1.000
 3363.00    0.28400   0.54998   -1.000
 3364.00    0.30813   0.56637   -1.000
 3365.00    0.31202   0.56871   -1.000
 3366.00    0.32069   0.55746   -1.000
 3367.00    0.32847   0.54036   -1.000
 3368.00    0.32396   0.52596   -1.000
 3369.00    0.30572   0.51794   -1.000
 3370.00    0.30300   0.51421   -1.000
 3371.00    0.29600   0.51189   -1.000
 3372.00    0.29736   0.51321   -1.000
 3373.00    0.30639   0.52330   -1.000
 3374.00    0.33680   0.54312   -1.000
 3375.00    0.34172   0.56502   -1.000
 3376.00    0.36342   0.57691   -1.000
 3377.00    0.38416   0.57255   -1.000
 3378.00    0.37960   0.55661   -1.000
 3379.00    0.36969   0.54101   -1.000
 3380.00    0.36463   0.53563   -1.000
 3381.00    0.37294   0.54233   -1.000
 3382.00    0.38265   0.55541   -1.000
 3383.00    0.38181   0.56812   -1.000
 3384.00    0.39125   0.57825   -1.000
 3385.00    0.38773   0.58622   -1.000
 3386.00    0.39407   0.59111   -1.000
 3387.00    0.39570   0.59196   -1.000
 3388.00    0.40541   0.58998   -1.000
 3389.00    0.40981   0.58679   -1.000
 3390.00    0.41978   0.58196   -1.000
 3391.00    0.41369   0.57458   -1.000
 3392.00    0.41129   0.56706   -1.000
 3393.00    0.42798   0.56506   -1.000
 3394.00    0.42193   0.57219   -1.000
 3395.00    0.43668   0.58654   -1.000
 3396.00    0.44331   0.60259   -1.000
 3397.00    0.45695   0.61501   -1.000
 3398.00    0.47408   0.62024   -1.000
 3399.00    0.48723   0.61715   -1.000
 3400.00    0.48322   0.60738   -1.000
 3401.00    0.49162   0.59429   -1.000
 3402.00    0.48486   0.58185   -1.000
 3403.00    0.45851   0.57345   -1.000
 3404.00    0.45798   0.56931   -1.000
 3405.00    0.44523   0.56606   -1.000
 3406.00    0.44370   0.56089   -1.000
 3407.00    0.44293   0.55535   -1.000
 3408.00    0.42823   0.55384   -1.000
 3409.00    0.43499   0.55828   -1.000
 3410.00    0.44350   0.56531   -1.000
 3411.00    0.44957   0.56948   -1.000
 3412.00    0.45727   0.56851   -1.000
 3413.00    0.44846   0.56499   -1.000
 3414.00    0.44302   0.56321   -1.000
 3415.00    0.44762   0.56614   -1.000
 3416.00    0.45042   0.57443   -1.000
 3417.00    0.46266   0.58675   -1.000
 3418.00    0.48118   0.60001   -1.000
 3419.00    0.49071   0.60999   -1.000
 3420.00    0.49191   0.61318   -1.000
 3421.00    0.48576   0.60978   -1.000
 3422.00    0.48141   0.60325   -1.000
 3423.00    0.48986   0.59716   -1.000
 3424.00    0.47881   0.59340   -1.000
 3425.00    0.47645   0.59292   -1.000
 3426.00    0.49357   0.59708   -1.000
 3427.00    0.49553   0.60703   -1.000
 3428.00    0.49577   0.61984   -1.000
 3429.00    0.51880   0.62839   -1.000
 3430.00    0.52834   0.62725   -1.000
 3431.00    0.52532   0.61764   -1.000
 3432.00    0.51159   0.60639   -1.000
 3433.00    0.50020   0.60002   -1.000
 3434.00    0.51262   0.60029   -1.000
 3435.00    0.52608   0.60346   -1.000
 3436.00    0.52456   0.60381   -1.000
 3437.00    0.52931   0.59721   -1.000
 3438.00    0.51006   0.58262   -1.000
 3439.00    0.49865   0.56183   -1.000
 3440.00    0.47663   0.54009   -1.000
 3441.00    0.46171   0.52466   -1.000
 3442.00    0.45401   0.52009   -1.000
 3443.00    0.46508   0.52494   -1.000
 3444.00    0.47468   0.53494   -1.000
 3445.00    0.48981   0.54815   -1.000
 3446.00    0.49828   0.56510   -1.000
 3447.00    0.51532   0.58479   -1.000
 3448.00    0.52695   0.60216   -1.000
 3449.00    0.53856   0.61028   -1.000
 3450.00    0.53860   0.60582   -1.000
 3451.00    0.53424   0.59202   -1.000
 3452.00    0.53470   0.57713   -1.000
 3453.00    0.52257   0.56901   -1.000
 3454.00    0.51791   0.56964   -1.000
 3455.00    0.55028   0.57423   -1.000
 3456.00    0.56136   0.57569   -1.000
 3457.00    0.54908   0.57073   -1.000
 3458.00    0.54678   0.56130   -1.000
 3459.00    0.54073   0.55145   79.382
 3460.00    0.53646   0.54550   78.146
 3461.00    0.52951   0.54742   77.657
 3462.00    0.53796   0.55721   -1.000
 3463.00    0.54316   0.56891   -1.000
 3464.00    0.55084   0.57647   -1.000
 3465.00    0.54973   0.57953   -1.000
 3466.00    0.56446   0.58180   -1.000
 3467.00    0.55565   0.58602   -1.000
 3468.00    0.56695   0.59169   -1.000
 3469.00    0.57939   0.59640   -1.000
 3470.00    0.58818   0.59757   -1.000
 3471.00    0.57812   0.59346   -1.000
 3472.00    0.57614   0.58355   -1.000
 3473.00    0.56450   0.56863  608.424
 3474.00    0.54322   0.55224   -1.000
 3475.00    0.52511   0.54081   80.041
 3476.00    0.51652   0.53962   80.626
 3477.00    0.51569   0.54830   78.953
 3478.00    0.54389   0.56154   -1.000
 3479.00    0.57051   0.57333  608.424
 3480.00    0.57602   0.57986  608.424
 3481.00    0.58565   0.58022   -1.000
 3482.00    0.58831   0.57634   -1.000
 3483.00    0.57648   0.57289  608.424
 3484.00    0.57623   0.57510  608.424
 3485.00    0.58500   0.58410  608.424
 3486.00    0.60004   0.59412   -1.000
 3487.00    0.59751   0.59674  608.424
 3488.00    0.58732   0.58874  608.424
 3489.00    0.57133   0.57511  608.424
 3490.00    0.55913   0.56468   -1.000
 3491.00    0.55972   0.56191  608.424
 3492.00    0.55524   0.56365   -1.000
 3493.00    0.56597   0.56349  608.424
 3494.00    0.56094   0.55848  608.424
 3495.00    0.56214   0.55187   -1.000
 3496.00    0.55912   0.55081   -1.000
 3497.00    0.54615   0.55957   -1.000
 3498.00    0.56658   0.57399   -1.000
 3499.00    0.59446   0.58540   -1.000
 3500.00    0.60277   0.59021   -1.000
 3501.00    0.60525   0.59169   -1.000
 3502.00    0.60995   0.59330   -1.000
 3503.00    0.60863   0.59365   -1.000
 3504.00    0.60055   0.58993   -1.000
 3505.00    0.59267   0.58360   -1.000
 3506.00    0.58963   0.57899   -1.000
 3507.00    0.59106   0.57772   -1.000
 3508.00    0.58687   0.57732   -1.000
 3509.00    0.57837   0.57473  608.424
 3510.00    0.57867   0.56941   -1.000
 3511.00    0.57869   0.56275   -1.000
 3512.00    0.56982   0.55630   -1.000
 3513.00    0.56825   0.55284   -1.000
 3514.00    0.56088   0.55632  608.424
 3515.00    0.57567   0.56795   -1.000
 3516.00    0.59295   0.58369   -1.000
 3517.00    0.60678   0.59638   -1.000
 3518.00    0.60346   0.60018  608.424
 3519.00    0.59630   0.59407  608.424
 3520.00    0.58968   0.58191   -1.000
 3521.00    0.57526   0.56868   -1.000
 3522.00    0.57441   0.55639   -1.000
 3523.00    0.55815   0.54485   -1.000
 3524.00    0.54315   0.53566   79.386
 3525.00    0.53541   0.53310   79.801
 3526.00    0.52675   0.54074   79.351
 3527.00    0.54044   0.55693   -1.000
 3528.00    0.55935   0.57478   -1.000
 3529.00    0.58519   0.58714  608.424
 3530.00    0.59302   0.59167  608.424
 3531.00    0.58912   0.59151  608.424
 3532.00    0.59291   0.59154  608.424
 3533.00    0.58761   0.59410   -1.000
 3534.00    0.58995   0.59814   -1.000
 3535.00    0.59331   0.60190   -1.000
 3536.00    0.59844   0.60528   -1.000
 3537.00    0.59801   0.60948   -1.000
 3538.00    0.60552   0.61450   -1.000
 3539.00    0.61272   0.61806   -1.000
 3540.00    0.61196   0.61850   -1.000
 3541.00    0.60340   0.61761   -1.000
 3542.00    0.59088   0.61846   -1.000
 3543.00    0.60707   0.62152   -1.000
 3544.00    0.61210   0.62439   -1.000
 3545.00    0.61583   0.62480   -1.000
 3546.00    0.60982   0.62324   -1.000
 3547.00    0.60174   0.62209   -1.000
 3548.00    0.61153   0.62273   -1.000
 3549.00    0.60990   0.62421   -1.000
 3550.00    0.59926   0.62438   -1.000
 3551.00    0.58969   0.62174   -1.000
 3552.00    0.58653   0.61669   -1.000
 3553.00    0.58554   0.61141   -1.000
 3554.00    0.57894   0.60811   -1.000
 3555.00    0.58336   0.60717   -1.000
 3556.00    0.59116   0.60708   -1.000
 3557.00    0.58041   0.60602   -1.000
 3558.00    0.57839   0.60410   -1.000
 3559.00    0.58516   0.60394   -1.000
 3560.00    0.58126   0.60812   -1.000
 3561.00    0.58238   0.61496   -1.000
 3562.00    0.60487   0.61735   -1.000
 3563.00    0.59856   0.60800   -1.000
 3564.00    0.57678   0.58789   -1.000
 3565.00    0.55346   0.56713   80.218
 3566.00    0.53228   0.55457   80.979
 3567.00    0.52893   0.54956   80.136
 3568.00    0.53897   0.54533   79.679
 3569.00    0.52604   0.53819   82.341
 3570.00    0.51517   0.53169   83.886
 3571.00    0.52144   0.53097   81.339
 3572.00    0.53164   0.53592   77.715
 3573.00    0.54902   0.54201   -1.000
 3574.00    0.55245   0.54595   -1.000
 3575.00    0.55785   0.54802   -1.000
 3576.00    0.55776   0.54928   -1.000
 3577.00    0.56369   0.54833   -1.000
 3578.00    0.56113   0.54217   -1.000
 3579.00    0.55600   0.53043   82.918
 3580.00    0.53719   0.51743   86.725
 3581.00    0.52232   0.50862   91.534
 3582.00    0.52287   0.50546   92.222
 3583.00    0.51375   0.50417   92.605
 3584.00    0.51262   0.50023   94.911
 3585.00    0.50028   0.49415   98.036
 3586.00    0.47710   0.49089   99.459
 3587.00    0.48176   0.49470   94.552
 3588.00    0.49907   0.50641   89.511
 3589.00    0.51118   0.52383   85.177
 3590.00    0.52965   0.54272   77.609
 3591.00    0.55306   0.55819  561.980
 3592.00    0.56566   0.56767  608.424
 3593.00    0.56886   0.57288  608.424
 3594.00    0.57992   0.57820  608.424
 3595.00    0.58321   0.58648  608.424
 3596.00    0.59109   0.59690   -1.000
 3597.00    0.59829   0.60676   -1.000
 3598.00    0.59868   0.61348   -1.000
 3599.00    0.60447   0.61471   -1.000
 3600.00    0.60868   0.60865  585.171
 3601.00    0.59648   0.59575  608.424
 3602.00    0.57714   0.57987  608.424
 3603.00    0.57572   0.56681   -1.000
 3604.00    0.57309   0.56059   -1.000
 3605.00    0.56739   0.56034   -1.000
 3606.00    0.56609   0.56103   -1.000
 3607.00    0.56226   0.55839  608.424
 3608.00    0.55323   0.55316  608.424
 3609.00    0.55019   0.55014  608.424
 3610.00    0.54391   0.55238   -1.000
 3611.00    0.55872   0.55804  608.424
 3612.00    0.57111   0.56432   -1.000
 3613.00    0.56831   0.57095  608.424
 3614.00    0.57827   0.57822  608.424
 3615.00    0.59391   0.58273   -1.000
 3616.00    0.59525   0.57861   -1.000
 3617.00    0.58454   0.56590   -1.000
 3618.00    0.55973   0.55374   -1.000
 3619.00    0.54157   0.55182   79.064
 3620.00    0.54783   0.56152   -1.000
 3621.00    0.57528   0.57655  608.424
 3622.00    0.59273   0.59014  608.424
 3623.00    0.59232   0.60078   -1.000
 3624.00    0.60746   0.61182  597.795
 3625.00    0.60951   0.62583   -1.000
 3626.00    0.61646   0.63991   -1.000
 3627.00    0.62777   0.64655   -1.000
 3628.00    0.61911   0.63880   -1.000
 3629.00    0.60628   0.61672   -1.000
 3630.00    0.57865   0.58941   -1.000
 3631.00    0.54403   0.56940   -1.000
 3632.00    0.54158   0.56380   -1.000
 3633.00    0.56586   0.57008  608.424
 3634.00    0.56794   0.58009   -1.000
 3635.00    0.57543   0.58787   -1.000
 3636.00    0.59074   0.59399  608.424
 3637.00    0.60030   0.60222  604.498
 3638.00    0.61655   0.61325  577.229
 3639.00    0.63319   0.62274   -1.000
 3640.00    0.62419   0.62497  556.801
 3641.00    0.62329   0.61782   -1.000
 3642.00    0.61035   0.60435   -1.000
 3643.00    0.58920   0.59041  608.424
 3644.00    0.57919   0.58048  608.424
 3645.00    0.56856   0.57496   -1.000
 3646.00    0.57807   0.57188   -1.000
 3647.00    0.58398   0.57045   -1.000
 3648.00    0.58115   0.57187   -1.000
 3649.00    0.57451   0.57761  608.424
 3650.00    0.58278   0.58782  608.424
 3651.00    0.60045   0.60082  599.253
 3652.00    0.60640   0.61377   -1.000
 3653.00    0.61994   0.62428  559.752
 3654.00    0.62509   0.63179   -1.000
 3655.00    0.63226   0.63785   -1.000
 3656.00    0.63684   0.64396   -1.000
 3657.00    0.63321   0.64951   -1.000
 3658.00    0.62883   0.65256   -1.000
 3659.00    0.63431   0.65178   -1.000
 3660.00    0.63481   0.64725   -1.000
 3661.00    0.62931   0.64036   -1.000
 3662.00    0.63299   0.63328  540.775
 3663.00    0.62837   0.62819  550.045
 3664.00    0.62471   0.62612  554.318
 3665.00    0.63188   0.62580   -1.000
 3666.00    0.63944   0.62444   -1.000
 3667.00    0.63027   0.62049   -1.000
 3668.00    0.60458   0.61603   -1.000
 3669.00    0.60105   0.61548   -1.000
 3670.00    0.60227   0.62084   -1.000
 3671.00    0.60903   0.62946   -1.000
 3672.00    0.62569   0.63635   -1.000
 3673.00    0.62736   0.63812   -1.000
 3674.00    0.61895   0.63429   -1.000
 3675.00    0.62548   0.62592  542.408
 3676.00    0.63255   0.61479   -1.000
 3677.00    0.61584   0.60351   -1.000
 3678.00    0.59818   0.59499  594.032
 3679.00    0.60175   0.59127   -1.000
 3680.00    0.60131   0.59248   -1.000
 3681.00    0.59876   0.59682  591.986
 3682.00    0.60706   0.60113   -1.000
 3683.00    0.61076   0.60160   -1.000
 3684.00    0.61324   0.59574   -1.000
 3685.00    0.59560   0.58539   -1.000
 3686.00    0.58039   0.57723  608.424
 3687.00    0.57953   0.57814  608.424
 3688.00    0.60487   0.58969   -1.000
 3689.00    0.62965   0.60700   -1.000
 3690.00    0.63523   0.62255   -1.000
 3691.00    0.63918   0.63171   -1.000
 3692.00    0.63780   0.63504  532.742
 3693.00    0.64472   0.63514   -1.000
 3694.00    0.64570   0.63308   -1.000
 3695.00    0.63614   0.62965   -1.000
 3696.00    0.63247   0.62845  547.858
 3697.00    0.63116   0.63482  541.167
 3698.00    0.64709   0.64983  523.477
 3699.00    0.67920   0.66620   -1.000
 3700.00    0.68020   0.67195   -1.000
 3701.00    0.67640   0.65886   -1.000
 3702.00    0.64794   0.62873   -1.000
 3703.00    0.60673   0.59290   -1.000
 3704.00    0.57823   0.56561   -1.000
 3705.00    0.56688   0.55545   -1.000
 3706.00    0.58561   0.56072   -1.000
 3707.00    0.60345   0.57268   -1.000
 3708.00    0.61056   0.58237   -1.000
 3709.00    0.61193   0.58586   -1.000
 3710.00    0.61648   0.58658   -1.000
 3711.00    0.60808   0.59273   -1.000
 3712.00    0.61337   0.60997  539.202
 3713.00    0.64853   0.63640   -1.000
 3714.00    0.68128   0.66400   -1.000
 3715.00    0.69965   0.68371   -1.000
 3716.00    0.70544   0.68880   -1.000
 3717.00    0.70572   0.67491   -1.000
 3718.00    0.67160   0.64091   -1.000
 3719.00    0.61007   0.59358   -1.000
 3720.00    0.55922   0.54917   -1.000
 3721.00    0.53077   0.52554   80.738
 3722.00    0.52343   0.53197   -1.000
 3723.00    0.56857   0.56454  608.424
 3724.00    0.63256   0.60794   -1.000
 3725.00    0.67280   0.64470   -1.000
 3726.00    0.69082   0.66722   -1.000
 3727.00    0.68977   0.67924   -1.000
 3728.00    0.68550   0.68528  584.175
 3729.00    0.69490   0.68231   -1.000
 3730.00    0.68283   0.66243   -1.000
 3731.00    0.65891   0.62215   -1.000
 3732.00    0.60122   0.56865   -1.000
 3733.00    0.53589   0.51755   79.229
 3734.00    0.49066   0.48530   85.825
 3735.00    0.49244   0.48205   89.234
 3736.00    0.52138   0.50843   84.946
 3737.00    0.56128   0.55674   77.014
 3738.00    0.61404   0.61412  534.916
 3739.00    0.66788   0.66585  608.424
 3740.00    0.69914   0.70032  576.186
 3741.00    0.71340   0.71305  572.418
 3742.00    0.71793   0.70644   -1.000
 3743.00    0.69084   0.68638   -1.000
 3744.00    0.67066   0.65842   -1.000
 3745.00    0.64062   0.62515   -1.000
 3746.00    0.60734   0.58664   -1.000
 3747.00    0.58703   0.54433   -1.000
 3748.00    0.53026   0.50633   82.824
 3749.00    0.49879   0.48699   83.831
 3750.00    0.50922   0.49741   -1.000
 3751.00    0.55563   0.53670   -1.000
 3752.00    0.61236   0.59305   -1.000
 3753.00    0.66727   0.65093   -1.000
 3754.00    0.71663   0.69677   -1.000
 3755.00    0.74710   0.72122   -1.000
 3756.00    0.74427   0.72195   -1.000
 3757.00    0.72201   0.70666   -1.000
 3758.00    0.69291   0.68969  608.424
 3759.00    0.68344   0.68228  608.424
 3760.00    0.70204   0.68606   -1.000
 3761.00    0.72742   0.69550   -1.000
 3762.00    0.73382   0.70402   -1.000
 3763.00    0.74320   0.70653   -1.000
 3764.00    0.72994   0.69945   -1.000
 3765.00    0.72075   0.68151   -1.000
 3766.00    0.70515   0.65421   -1.000
 3767.00    0.66833   0.62086   -1.000
 3768.00    0.63730   0.58634   -1.000
 3769.00    0.60379   0.55825   -1.000
 3770.00    0.57153   0.54665   -1.000
 3771.00    0.57839   0.55831   -1.000
 3772.00    0.62397   0.58986   -1.000
 3773.00    0.66579   0.62955   -1.000
 3774.00    0.70434   0.66710   -1.000
 3775.00    0.73540   0.69971   -1.000
 3776.00    0.74864   0.72961   -1.000
 3777.00    0.77344   0.75899   -1.000
 3778.00    0.78901   0.78740  522.042
 3779.00    0.80178   0.81241   -1.000
 3780.00    0.82276   0.83162   -1.000
 3781.00    0.83850   0.84402  489.284
 3782.00    0.83346   0.84964   -1.000
 3783.00    0.83481   0.84786   -1.000
 3784.00    0.83843   0.83712  497.703
 3785.00    0.81514   0.81754  524.186
 3786.00    0.79542   0.79353  563.721
 3787.00    0.77156   0.77189  592.098
 3788.00    0.76860   0.75694   -1.000
 3789.00    0.75875   0.74807   -1.000
 3790.00    0.75209   0.74058   -1.000
 3791.00    0.75102   0.72805   -1.000
 3792.00    0.73652   0.70539   -1.000
 3793.00    0.70657   0.67124   -1.000
 3794.00    0.68050   0.62809   -1.000
 3795.00    0.64093   0.58095   -1.000
 3796.00    0.57987   0.53706   -1.000
 3797.00    0.54704   0.50738   -1.000
 3798.00    0.53487   0.50425   -1.000
 3799.00    0.56714   0.53280   -1.000
 3800.00    0.61525   0.58545   -1.000
 3801.00    0.67528   0.64656   -1.000
 3802.00    0.72435   0.70148   -1.000
 3803.00    0.76258   0.74179   -1.000
 3804.00    0.78496   0.76571   -1.000
 3805.00    0.78919   0.77700   -1.000
 3806.00    0.78851   0.78424  570.300
 3807.00    0.79011   0.79659   -1.000
 3808.00    0.80520   0.81678   -1.000
 3809.00    0.82622   0.83886   -1.000
 3810.00    0.84581   0.85227   -1.000
 3811.00    0.85342   0.84869  548.701
 3812.00    0.82691   0.82817  578.337
 3813.00    0.80136   0.80033  608.424
 3814.00    0.79510   0.77858   -1.000
 3815.00    0.78123   0.77127   -1.000
 3816.00    0.78559   0.77573   -1.000
 3817.00    0.80882   0.78096   -1.000
 3818.00    0.81235   0.77738   -1.000
 3819.00    0.78864   0.76509   -1.000
 3820.00    0.75590   0.75260  608.424
 3821.00    0.76128   0.74631   -1.000
 3822.00    0.78384   0.74239   -1.000
 3823.00    0.77422   0.73198   -1.000
 3824.00    0.74687   0.71244   -1.000
 3825.00    0.71794   0.68993   83.157
 3826.00    0.69784   0.67179   82.211
 3827.00    0.69645   0.65927   -1.000
 3828.00    0.69903   0.64784   -1.000
 3829.00    0.69341   0.63141   -1.000
 3830.00    0.67664   0.60563   -1.000
 3831.00    0.63976   0.56940   -1.000
 3832.00    0.59336   0.52620   -1.000
 3833.00    0.54994   0.48436   -1.000
 3834.00    0.51060   0.45438   -1.000
 3835.00    0.49797   0.44370   -1.000
 3836.00    0.51718   0.45304   -1.000
 3837.00    0.54071   0.47754   -1.000
 3838.00    0.57431   0.51165   -1.000
 3839.00    0.60399   0.55265   -1.000
 3840.00    0.63290   0.59938   82.952
 3841.00    0.68276   0.64892   -1.000
 3842.00    0.72386   0.69596   -1.000
 3843.00    0.76994   0.73531   -1.000
 3844.00    0.79245   0.76513   -1.000
 3845.00    0.79946   0.78733   -1.000
 3846.00    0.80550   0.80414  608.424
 3847.00    0.81671   0.81539  608.424
 3848.00    0.81217   0.82067   -1.000
 3849.00    0.80362   0.82289   -1.000
 3850.00    0.80109   0.82692   -1.000
 3851.00    0.82128   0.83453   -1.000
 3852.00    0.83656   0.84212   -1.000
 3853.00    0.83972   0.84434   -1.000
 3854.00    0.84267   0.83945  608.424
 3855.00    0.82966   0.82981  608.424
 3856.00    0.81905   0.81845  608.424
 3857.00    0.80824   0.80749  608.424
 3858.00    0.80123   0.79965   78.776
 3859.00    0.77171   0.79914   80.985
 3860.00    0.77739   0.80857   79.272
 3861.00    0.80556   0.82489   -1.000
 3862.00    0.84139   0.84046  608.424
 3863.00    0.86616   0.84913   -1.000
 3864.00    0.86299   0.85073   -1.000
 3865.00    0.86125   0.84931   -1.000
 3866.00    0.85865   0.84845   -1.000
 3867.00    0.84825   0.84825  608.424
 3868.00    0.84016   0.84515   -1.000
 3869.00    0.82938   0.83495   -1.000
 3870.00    0.80832   0.81734   -1.000
 3871.00    0.78297   0.79829   79.807
 3872.00    0.76728   0.78710   -1.000
 3873.00    0.77760   0.78899   -1.000
 3874.00    0.79676   0.79918  608.424
 3875.00    0.82006   0.80543   -1.000
 3876.00    0.81406   0.79900   -1.000
 3877.00    0.79336   0.78248   -1.000
 3878.00    0.75315   0.76559   -1.000
 3879.00    0.74604   0.75435   -1.000
 3880.00    0.74980   0.74631  608.424
 3881.00    0.73437   0.73559  608.424
 3882.00    0.71166   0.71885   -1.000
 3883.00    0.71656   0.69493   -1.000
 3884.00    0.71070   0.66194   -1.000
 3885.00    0.67516   0.61880   -1.000
 3886.00    0.62547   0.57018   -1.000
 3887.00    0.58380   0.52780   -1.000
 3888.00    0.55787   0.50523   -1.000
 3889.00    0.55219   0.51094   -1.000
 3890.00    0.59544   0.54328   -1.000
 3891.00    0.65398   0.59027   -1.000
 3892.00    0.69614   0.63674   -1.000
 3893.00    0.72087   0.67390   -1.000
 3894.00    0.73877   0.70232   -1.000
 3895.00    0.75377   0.72656   -1.000
 3896.00    0.77824   0.74849   -1.000
 3897.00    0.79137   0.76640   -1.000
 3898.00    0.79606   0.77965   -1.000
 3899.00    0.80253   0.79105   -1.000
 3900.00    0.81131   0.80325   -1.000
 3901.00    0.82215   0.81472   -1.000
 3902.00    0.83119   0.82126   -1.000
 3903.00    0.84164   0.82110   -1.000
 3904.00    0.82893   0.81798   -1.000
 3905.00    0.81770   0.81920  561.106
 3906.00    0.80881   0.83057   -1.000
 3907.00    0.83221   0.85223   -1.000
 3908.00    0.87097   0.87790   -1.000
 3909.00    0.89447   0.89924  476.860
 3910.00    0.90618   0.91158  472.512
 3911.00    0.90372   0.91461   -1.000
 3912.00    0.90329   0.91042   -1.000
 3913.00    0.89815   0.90253  470.661
 3914.00    0.88468   0.89473   -1.000
 3915.00    0.88043   0.88907   -1.000
 3916.00    0.88189   0.88476  498.068
 3917.00    0.87211   0.87953   -1.000
 3918.00    0.86579   0.87194   -1.000
 3919.00    0.85382   0.86315   -1.000
 3920.00    0.83654   0.85645   -1.000
 3921.00    0.83396   0.85449   -1.000
 3922.00    0.84806   0.85634   -1.000
 3923.00    0.85006   0.85725   -1.000
 3924.00    0.85058   0.85126  568.990
 3925.00    0.84412   0.83435   -1.000
 3926.00    0.80872   0.80583  608.424
 3927.00    0.76569   0.76746  608.424
 3928.00    0.72534   0.72149   88.086
 3929.00    0.66948   0.66882   99.406
 3930.00    0.60937   0.60995  116.296
 3931.00    0.53469   0.54881  137.616
 3932.00    0.44741   0.49634   -1.000
 3933.00    0.38683   0.46853   -1.000
 3934.00    0.37996   0.47675   -1.000
 3935.00    0.44016   0.51878   -1.000
 3936.00    0.53669   0.58078   -1.000
 3937.00    0.62916   0.64689  100.003
 3938.00    0.69474   0.70623   84.024
 3939.00    0.74329   0.75354   -1.000
 3940.00    0.78397   0.78668  608.424
 3941.00    0.80316   0.80594  608.424
 3942.00    0.80441   0.81482   -1.000
 3943.00    0.81011   0.81937   -1.000
 3944.00    0.80490   0.82526   -1.000
 3945.00    0.83109   0.83431  564.630
 3946.00    0.85508   0.84394   -1.000
 3947.00    0.86076   0.85102   -1.000
 3948.00    0.85775   0.85519  521.667
 3949.00    0.85665   0.85756  502.628
 3950.00    0.88290   0.85862   -1.000
 3951.00    0.87326   0.85903   -1.000
 3952.00    0.86198   0.86009  495.322
 3953.00    0.86234   0.86141  486.746
 3954.00    0.87449   0.85977   -1.000
 3955.00    0.87044   0.85271   -1.000
 3956.00    0.85064   0.84234   -1.000
 3957.00    0.83977   0.83219   -1.000
 3958.00    0.84588   0.82091   -1.000
 3959.00    0.83717   0.80229   -1.000
 3960.00    0.80598   0.77222   -1.000
 3961.00    0.76263   0.73333   -1.000
 3962.00    0.71759   0.69120   -1.000
 3963.00    0.68668   0.64693   -1.000
 3964.00    0.64515   0.59565   -1.000
 3965.00    0.57319   0.53256   -1.000
 3966.00    0.47996   0.46086  115.446
 3967.00    0.38689   0.39427  141.280
 3968.00    0.30268   0.35069   -1.000
 3969.00    0.28475   0.34215   -1.000
 3970.00    0.33833   0.36914   -1.000
 3971.00    0.42547   0.42225   98.974
 3972.00    0.52361   0.48855   82.769
 3973.00    0.60669   0.55732   -1.000
 3974.00    0.67276   0.62194   -1.000
 3975.00    0.72673   0.67939   -1.000
 3976.00    0.76389   0.72921   -1.000
 3977.00    0.80048   0.77222   -1.000
 3978.00    0.83481   0.80854   -1.000
 3979.00    0.86811   0.83619   -1.000
 3980.00    0.88378   0.85322   -1.000
 3981.00    0.87990   0.86156   -1.000
 3982.00    0.88164   0.86720   -1.000
 3983.00    0.89711   0.87549   -1.000
 3984.00    0.90770   0.88705   -1.000
 3985.00    0.92268   0.89930   -1.000
 3986.00    0.92860   0.91055   -1.000
 3987.00    0.94118   0.92125   -1.000
 3988.00    0.95025   0.93203   -1.000
 3989.00    0.95111   0.94270   -1.000
 3990.00    0.95067   0.95307  405.756
 3991.00    0.95822   0.96281  396.357
 3992.00    0.96924   0.97002  386.699
 3993.00    0.97926   0.97172  391.260
 3994.00    0.97034   0.96660  400.738
 3995.00    0.95640   0.95705  409.984
 3996.00    0.94020   0.94841   -1.000
 3997.00    0.93874   0.94616   -1.000
 3998.00    0.94378   0.95235   -1.000
 3999.00    0.96277   0.96433  393.019
 4000.00    0.98319   0.97652  379.654
 4001.00    0.99130   0.98303  373.542
 4002.00    1.00094   0.98007   -1.000
 4003.00    0.99846   0.96784   -1.000
 4004.00    0.97686   0.95180   -1.000
 4005.00    0.95327   0.94143   -1.000
 4006.00    0.95192   0.94426  418.823
 4007.00    0.96845   0.95931   -1.000
 4008.00    0.98782   0.97826   -1.000
 4009.00    0.99891   0.99295  373.834
 4010.00    1.00000   1.00049  369.791
 4011.00    0.99191   1.00287   -1.000
 4012.00    0.98866   1.00373   -1.000
 4013.00    0.99680   1.00548   -1.000
 4014.00    0.99817   1.00822   -1.000
 4015.00    1.00633   1.01103  365.156
 4016.00    1.00568   1.01391   -1.000
 4017.00    1.00795   1.01777   -1.000
 4018.00    1.00561   1.02284   -1.000
 4019.00    1.00217   1.02745   -1.000
 4020.00    1.00825   1.02900   -1.000
 4021.00    1.00714   1.02593   -1.000
 4022.00    1.00252   1.01892   -1.000
 4023.00    1.00167   1.01093   -1.000
 4024.00    0.99419   1.00642   -1.000
 4025.00    0.99418   1.00862   -1.000
 4026.00    1.00583   1.01563   -1.000
 4027.00    1.01669   1.02014  349.306
 4028.00    1.01343   1.01508  352.417
 4029.00    0.99496   1.00002  366.989
 4030.00    0.97604   0.98137  392.277
 4031.00    0.95852   0.96747   -1.000
 4032.00    0.94900   0.96363   -1.000
 4033.00    0.95959   0.97054   -1.000
 4034.00    0.97475   0.98603   -1.000
 4035.00    0.99445   1.00697   -1.000
 4036.00    1.01305   1.02912   -1.000
 4037.00    1.03062   1.04661   -1.000
 4038.00    1.03551   1.05449   -1.000
 4039.00    1.02501   1.05264   -1.000
 4040.00    1.01482   1.04520   -1.000
 4041.00    1.01337   1.03477   -1.000
 4042.00    1.01351   1.01929  364.611
 4043.00    0.99668   0.99657  382.209
 4044.00    0.96473   0.97206   -1.000
 4045.00    0.93065   0.95825   -1.000
 4046.00    0.93125   0.96396   -1.000
 4047.00    0.96260   0.98596   -1.000
 4048.00    0.99477   1.01208   -1.000
 4049.00    1.01816   1.03081   -1.000
 4050.00    1.02295   1.03746   -1.000
 4051.00    1.01605   1.03343   -1.000
 4052.00    1.01587   1.02307   -1.000
 4053.00    1.00145   1.01169   -1.000
 4054.00    0.99237   1.00335   -1.000
 4055.00    0.99066   0.99898   -1.000
 4056.00    0.99507   0.99788  386.502
 4057.00    0.99672   1.00029  390.566
 4058.00    0.99333   1.00631   -1.000
 4059.00    0.99889   1.01228   -1.000
 4060.00    1.00847   1.01110  364.526
 4061.00    1.00344   0.99850  370.742
 4062.00    0.97306   0.97814  398.027
 4063.00    0.94645   0.95918   -1.000
 4064.00    0.94941   0.94928  419.401
 4065.00    0.96187   0.95004   -1.000
 4066.00    0.96922   0.95808   -1.000
 4067.00    0.97516   0.96834  378.337
 4068.00    0.98171   0.97540  366.090
 4069.00    0.99745   0.97464   -1.000
 4070.00    0.99412   0.96610   -1.000
 4071.00    0.96848   0.95601   -1.000
 4072.00    0.96231   0.95088   -1.000
 4073.00    0.98362   0.94987   -1.000
 4074.00    0.98529   0.94543   -1.000
 4075.00    0.96891   0.93259   -1.000
 4076.00    0.94003   0.91591   -1.000
 4077.00    0.91784   0.90629   -1.000
 4078.00    0.92417   0.91176   -1.000
 4079.00    0.95072   0.93046   -1.000
 4080.00    0.98069   0.95187   -1.000
 4081.00    0.98676   0.96455   -1.000
 4082.00    0.98219   0.96436   -1.000
 4083.00    0.97238   0.95616   -1.000
 4084.00    0.95480   0.94902  380.794
 4085.00    0.94927   0.94951  375.164
 4086.00    0.96611   0.95778  362.445
 4087.00    0.98085   0.96822   -1.000
 4088.00    0.99000   0.97374   -1.000
 4089.00    0.98191   0.97059   -1.000
 4090.00    0.97452   0.96014   -1.000
 4091.00    0.96185   0.94623   -1.000
 4092.00    0.94566   0.93075   -1.000
 4093.00    0.94113   0.91222   -1.000
 4094.00    0.92989   0.88834   -1.000
 4095.00    0.90564   0.85866   -1.000
 4096.00    0.87687   0.82411   -1.000
 4097.00    0.84527   0.78425   -1.000
 4098.00    0.82188   0.73726   -1.000
 4099.00    0.77706   0.68450   -1.000
 4100.00    0.70103   0.63559   -1.000
 4101.00    0.63481   0.60684   -1.000
 4102.00    0.62839   0.61112   -1.000
 4103.00    0.69015   0.64785   -1.000
 4104.00    0.77305   0.70276   -1.000
 4105.00    0.82379   0.75777   -1.000
 4106.00    0.85252   0.80163   -1.000
 4107.00    0.88207   0.83239   -1.000
 4108.00    0.89337   0.85349   -1.000
 4109.00    0.89364   0.86965   -1.000
 4110.00    0.90769   0.88486   -1.000
 4111.00    0.92183   0.90139   -1.000
 4112.00    0.93745   0.91960   -1.000
 4113.00    0.94796   0.93847   -1.000
 4114.00    0.95952   0.95563  365.454
 4115.00    0.97286   0.96760  361.878
 4116.00    0.97610   0.97177  363.658
 4117.00    0.96715   0.96886  371.442
 4118.00    0.94832   0.96307   -1.000
 4119.00    0.94568   0.95907   -1.000
 4120.00    0.95787   0.95895  383.764
 4121.00    0.95810   0.96198  379.770
 4122.00    0.96287   0.96693  380.159
 4123.00    0.97515   0.97314  376.080
 4124.00    0.98308   0.97899  369.368
 4125.00    0.99050   0.98137  368.105
 4126.00    0.98386   0.97841  373.082
 4127.00    0.97616   0.97199  381.193
 4128.00    0.96879   0.96567  384.366
 4129.00    0.96651   0.96057  386.298
 4130.00    0.96908   0.95500   -1.000
 4131.00    0.96342   0.94866   -1.000
 4132.00    0.95295   0.94543  416.384
 4133.00    0.94722   0.95059  417.529
 4134.00    0.95210   0.96556   -1.000
 4135.00    0.96711   0.98659   -1.000
 4136.00    0.98448   1.00789   -1.000
 4137.00    1.00216   1.02513   -1.000
 4138.00    1.01586   1.03565   -1.000
 4139.00    1.01806   1.03686   -1.000
 4140.00    1.01201   1.02653   -1.000
 4141.00    0.99883   1.00624   -1.000
 4142.00    0.96716   0.98360   -1.000
 4143.00    0.93526   0.96922   -1.000
 4144.00    0.93896   0.96961   -1.000
 4145.00    0.96843   0.98193   -1.000
 4146.00    0.99010   0.99651  382.726
 4147.00    0.99401   1.00531   -1.000
 4148.00    0.98717   1.00749   -1.000
 4149.00    0.97717   1.00699   -1.000
 4150.00    0.98129   1.00664   -1.000
 4151.00    0.98668   1.00554   -1.000
 4152.00    0.98314   1.00153   -1.000
 4153.00    0.97650   0.99497   -1.000
 4154.00    0.97178   0.98938   -1.000
 4155.00    0.95337   0.98876   -1.000
 4156.00    1.10324   0.99447   -1.000
 4157.00    1.12343   1.00455   -1.000
 4158.00    0.91191   1.01535   -1.000
 4159.00    0.87120   1.02379   -1.000
 4160.00    0.99022   1.02913   -1.000
 4161.00    1.02041   1.03278   -1.000
 4162.00    1.00625   1.03634   -1.000
 4163.00    1.01451   1.03958   -1.000
 4164.00    1.00110   1.04069   -1.000
 4165.00    0.99258   1.03825   -1.000
 4166.00    0.99351   1.03281   -1.000
 4167.00    0.98890   1.02622   -1.000
 4168.00    0.98471   1.01856   -1.000
 4169.00    0.98491   1.00669   -1.000
 4170.00    0.99101   0.98780  389.167
 4171.00    0.97012   0.96481  412.549
 4172.00    0.93678   0.94667   -1.000
 4173.00    0.92415   0.94142   -1.000
 4174.00    0.93154   0.94897   -1.000
 4175.00    0.94627   0.96136   -1.000
 4176.00    0.96002   0.97080   -1.000
 4177.00    0.95235   0.97613   -1.000
 4178.00    0.95917   0.98101   -1.000
 4179.00    0.97828   0.98741   -1.000
 4180.00    0.98074   0.99329   -1.000
 4181.00    0.97703   0.99639   -1.000
 4182.00    0.97906   0.99772   -1.000
 4183.00    0.98104   0.99948   -1.000
 4184.00    0.98108   1.00129   -1.000
 4185.00    0.98186   1.00056   -1.000
 4186.00    0.96572   0.99665   -1.000
 4187.00    0.95035   0.99270   -1.000
 4188.00    0.95587   0.99237   -1.000
 4189.00    0.97245   0.99647   -1.000
 4190.00    0.97512   1.00326   -1.000
 4191.00    0.97932   1.01067   -1.000
 4192.00    0.98583   1.01640   -1.000
 4193.00    0.99068   1.01696   -1.000
 4194.00    0.99634   1.00938   -1.000
 4195.00    0.97814   0.99410   -1.000
 4196.00    0.95482   0.97529   -1.000
 4197.00    0.94403   0.95831   -1.000
 4198.00    0.93306   0.94707   -1.000
 4199.00    0.93603   0.94270   -1.000
 4200.00    0.94831   0.94395  411.545
 4201.00    0.94749   0.94871  410.462
 4202.00    0.94785   0.95582   -1.000
 4203.00    0.95596   0.96549   -1.000
 4204.00    0.95394   0.97786   -1.000
 4205.00    0.95656   0.99171   -1.000
 4206.00    0.96998   1.00467   -1.000
 4207.00    0.98390   1.01425   -1.000
 4208.00    0.98428   1.01938   -1.000
 4209.00    0.98357   1.02151   -1.000
 4210.00    0.98557   1.02313   -1.000
 4211.00    0.98092   1.02455   -1.000
 4212.00    0.98248   1.02272   -1.000
 4213.00    0.98256   1.01453   -1.000
 4214.00    0.96501   1.00149   -1.000
 4215.00    0.94080   0.99037   -1.000
 4216.00    0.94306   0.98829   -1.000
 4217.00    0.96003   0.99690   -1.000
 4218.00    0.97527   1.01121   -1.000
 4219.00    0.99378   1.02341   -1.000
 4220.00    1.00254   1.02723   -1.000
 4221.00    0.99410   1.01933   -1.000
 4222.00    0.98373   0.99847   -1.000
 4223.00    0.96374   0.96632  386.345
 4224.00    0.93297   0.92935  424.837
 4225.00    0.89040   0.89907   -1.000
 4226.00    0.85037   0.88791   -1.000
 4227.00    0.86428   0.90186   -1.000
 4228.00    0.91291   0.93440   -1.000
 4229.00    0.96230   0.96955   -1.000
 4230.00    0.98899   0.99211  359.550
 4231.00    0.98411   0.99713   -1.000
 4232.00    0.96910   0.98950   -1.000
 4233.00    0.96073   0.97795   -1.000
 4234.00    0.95509   0.96897   -1.000
 4235.00    0.94893   0.96475   -1.000
 4236.00    0.94501   0.96500   -1.000
 4237.00    0.94155   0.96929   -1.000
 4238.00    0.94861   0.97704   -1.000
 4239.00    0.95291   0.98665   -1.000
 4240.00    0.96669   0.99587   -1.000
 4241.00    0.98089   1.00344   -1.000
 4242.00    0.97304   1.00904   -1.000
 4243.00    0.96978   1.01207   -1.000
 4244.00    0.97889   1.01050   -1.000
 4245.00    0.97661   1.00243   -1.000
 4246.00    0.95553   0.98915   -1.000
 4247.00    0.94200   0.97562   -1.000
 4248.00    0.93905   0.96724   -1.000
 4249.00    0.93068   0.96633   -1.000
 4250.00    0.92649   0.97120   -1.000
 4251.00    0.93930   0.97787   -1.000
 4252.00    0.95512   0.98224   -1.000
 4253.00    0.96484   0.98295   -1.000
 4254.00    0.95575   0.98231   -1.000
 4255.00    0.95043   0.98327   -1.000
 4256.00    0.96630   0.98453   -1.000
 4257.00    0.97777   0.98117  363.266
 4258.00    0.96490   0.97146  377.501
 4259.00    0.94036   0.96090   -1.000
 4260.00    0.92775   0.95846   -1.000
 4261.00    0.93749   0.96891   -1.000
 4262.00    0.96128   0.98869   -1.000
 4263.00    0.97893   1.00927   -1.000
 4264.00    0.98434   1.02297   -1.000
 4265.00    0.99895   1.02696   -1.000
 4266.00    0.98973   1.02179   -1.000
 4267.00    0.97082   1.00906   -1.000
 4268.00    0.96891   0.98995   -1.000
 4269.00    0.95845   0.96625   -1.000
 4270.00    0.93581   0.94194  410.663
 4271.00    0.90888   0.92294   -1.000
 4272.00    0.89935   0.91423   -1.000
 4273.00    0.90591   0.91760   -1.000
 4274.00    0.91244   0.93135   -1.000
 4275.00    0.93000   0.95186   -1.000
 4276.00    0.95287   0.97394   -1.000
 4277.00    0.97384   0.99095   -1.000
 4278.00    0.97484   0.99777   -1.000
 4279.00    0.95436   0.99505   -1.000
 4280.00    0.94217   0.98812   -1.000
 4281.00    0.93506   0.98233   -1.000
 4282.00    0.93295   0.97881   -1.000
 4283.00    0.94255   0.97544   -1.000
 4284.00    0.94463   0.96959   -1.000
 4285.00    0.93454   0.95999   -1.000
 4286.00    0.92403   0.94634   -1.000
 4287.00    0.91074   0.92913   -1.000
 4288.00    0.89624   0.91157   -1.000
 4289.00    0.87641   0.89948   -1.000
 4290.00    0.86784   0.89816   -1.000
 4291.00    0.88483   0.90718   -1.000
 4292.00    0.91123   0.91925   -1.000
 4293.00    0.91949   0.92590  390.839
 4294.00    0.92326   0.92366  394.623
 4295.00    0.90886   0.91353  401.212
 4296.00    0.90468   0.89722  410.444
 4297.00    0.88406   0.87541   -1.000
 4298.00    0.85360   0.85055  469.375
 4299.00    0.82315   0.82793  504.407
 4300.00    0.80890   0.81358  510.414
 4301.00    0.81853   0.80998   -1.000
 4302.00    0.82742   0.81552   -1.000
 4303.00    0.83306   0.82560   -1.000
 4304.00    0.84149   0.83440   -1.000
 4305.00    0.84673   0.83668   -1.000
 4306.00    0.83775   0.83115   -1.000
 4307.00    0.81417   0.82267   -1.000
 4308.00    0.79190   0.81917   -1.000
 4309.00    0.79990   0.82511   -1.000
 4310.00    0.82142   0.83869   -1.000
 4311.00    0.83739   0.85488   -1.000
 4312.00    0.84525   0.87175   -1.000
 4313.00    0.86033   0.89240   -1.000
 4314.00    0.87664   0.92057   -1.000
 4315.00    0.91379   0.95467   -1.000
 4316.00    0.95762   0.98743   -1.000
 4317.00    0.97516   1.00974   -1.000
 4318.00    0.98816   1.01715   -1.000
 4319.00    0.98191   1.01079   -1.000
 4320.00    0.97634   0.99443   -1.000
 4321.00    0.96432   0.97076  346.613
 4322.00    0.95220   0.94155   -1.000
 4323.00    0.91846   0.91081   -1.000
 4324.00    0.86948   0.88683   -1.000
 4325.00    0.85270   0.87872   -1.000
 4326.00    0.87687   0.88950   -1.000
 4327.00    0.91041   0.91197  369.813
 4328.00    0.93495   0.93358  343.446
 4329.00    0.94410   0.94508  337.166
 4330.00    0.92921   0.94641   -1.000
 4331.00    0.93121   0.94193   -1.000
 4332.00    0.92688   0.93421  330.810
 4333.00    0.91358   0.92106  327.483
 4334.00    0.90973   0.89716   -1.000
 4335.00    0.89718   0.85803   -1.000
 4336.00    0.86041   0.80322   -1.000
 4337.00    0.80325   0.73927   -1.000
 4338.00    0.73615   0.67930   -1.000
 4339.00    0.66499   0.63930   -1.000
 4340.00    0.63041   0.63044  471.478
 4341.00    0.65229   0.65406  435.851
 4342.00    0.72824   0.70032   -1.000
 4343.00    0.80168   0.75440   -1.000
 4344.00    0.83129   0.80476   -1.000
 4345.00    0.86799   0.84764   -1.000
 4346.00    0.88722   0.88277  341.685
 4347.00    0.90729   0.90881  338.144
 4348.00    0.92503   0.92267  332.509
 4349.00    0.93685   0.92282   -1.000
 4350.00    0.91563   0.91351  352.605
 4351.00    0.89092   0.90472   -1.000
 4352.00    0.88403   0.90634   -1.000
 4353.00    0.90891   0.92101   -1.000
 4354.00    0.93539   0.94282  351.294
 4355.00    0.95159   0.96348   -1.000
 4356.00    0.96673   0.97773   -1.000
 4357.00    0.96835   0.98558   -1.000
 4358.00    0.95933   0.99027   -1.000
 4359.00    0.96023   0.99581   -1.000
 4360.00    0.97222   1.00441   -1.000
 4361.00    0.98168   1.01535   -1.000
 4362.00    0.98579   1.02609   -1.000
 4363.00    0.98780   1.03385   -1.000
 4364.00    1.00013   1.03658   -1.000
 4365.00    0.99418   1.03260   -1.000
 4366.00    0.98001   1.02226   -1.000
 4367.00    0.96845   1.00901   -1.000
 4368.00    0.96793   0.99734   -1.000
 4369.00    0.97240   0.98920   -1.000
 4370.00    0.97504   0.98300  339.767
 4371.00    0.97212   0.97531  339.512
 4372.00    0.97525   0.96406   -1.000
 4373.00    0.96692   0.95137   -1.000
 4374.00    0.94726   0.94346  371.651
 4375.00    0.93920   0.94623  371.534
 4376.00    0.94728   0.95990   -1.000
 4377.00    0.97398   0.97797  337.764
 4378.00    0.99818   0.99081  332.063
 4379.00    0.99591   0.99118  334.245
 4380.00    0.98663   0.97554   -1.000
 4381.00    0.97621   0.94537   -1.000
 4382.00    0.93652   0.90899   -1.000
 4383.00    0.88987   0.88060   -1.000
 4384.00    0.87494   0.87193  446.030
 4385.00    0.90224   0.88465   -1.000
 4386.00    0.94476   0.90840   -1.000
 4387.00    0.96728   0.93029   -1.000
 4388.00    0.96689   0.94415   -1.000
 4389.00    0.96448   0.95127   -1.000
 4390.00    0.96802   0.95593   -1.000
 4391.00    0.97731   0.95992   -1.000
 4392.00    0.98870   0.96226   -1.000
 4393.00    0.98105   0.96220   -1.000
 4394.00    0.96654   0.96200  355.165
 4395.00    0.96237   0.96546  353.590
 4396.00    0.96907   0.97232  336.928
 4397.00    0.98248   0.97727  327.289
 4398.00    0.98266   0.97586  332.288
 4399.00    0.96455   0.96981  344.889
 4400.00    0.95343   0.96472   -1.000
 4401.00    0.96824   0.96265  350.519
 4402.00    0.98442   0.96079   -1.000
 4403.00    0.97455   0.95611   -1.000
 4404.00    0.94757   0.94996  378.062
 4405.00    0.94636   0.94698  380.643
 4406.00    0.96206   0.94963   -1.000
 4407.00    0.96397   0.95717  362.248
 4408.00    0.96589   0.96873  359.074
 4409.00    0.97547   0.98352   -1.000
 4410.00    0.99038   0.99892   -1.000
 4411.00    1.00905   1.00906  319.010
 4412.00    1.01913   1.00779   -1.000
 4413.00    1.00479   0.99434   -1.000
 4414.00    0.97949   0.97467  343.503
 4415.00    0.96397   0.95887  355.708
 4416.00    0.96024   0.95580  353.274
 4417.00    0.96354   0.96752  340.595
 4418.00    0.98032   0.98797  326.350
 4419.00    1.00536   1.00699  317.263
 4420.00    1.01093   1.01745  319.429
 4421.00    1.00995   1.01824   -1.000
 4422.00    1.00419   1.01433   -1.000
 4423.00    0.99891   1.01095   -1.000
 4424.00    1.00132   1.00955  330.256
 4425.00    0.98903   1.00916   -1.000
 4426.00    0.97992   1.00906   -1.000
 4427.00    0.98282   1.00965   -1.000
 4428.00    0.98549   1.01124   -1.000
 4429.00    1.00122   1.01278   -1.000
 4430.00    1.00211   1.01296   -1.000
 4431.00    1.00008   1.01044   -1.000
 4432.00    1.00814   1.00418  327.311
 4433.00    0.99248   0.99547  338.639
 4434.00    0.97504   0.98889   -1.000
 4435.00    0.96219   0.99030   -1.000
 4436.00    0.97060   1.00210   -1.000
 4437.00    1.01005   1.01941   -1.000
 4438.00    1.02920   1.03280  309.319
 4439.00    1.03426   1.03434  308.787
 4440.00    1.01461   1.02282  318.950
 4441.00    0.99507   1.00451   -1.000
 4442.00    0.96672   0.98970   -1.000
 4443.00    0.94646   0.98710   -1.000
 4444.00    0.96960   0.99765   -1.000
 4445.00    0.99570   1.01516   -1.000
 4446.00    0.99780   1.03069   -1.000
 4447.00    1.00282   1.03905   -1.000
 4448.00    1.00596   1.04050   -1.000
 4449.00    1.00036   1.03813   -1.000
 4450.00    0.99472   1.03406   -1.000
 4451.00    0.99646   1.02772   -1.000
 4452.00    1.00331   1.01721   -1.000
 4453.00    0.99564   1.00234  335.321
 4454.00    0.97277   0.98674   -1.000
 4455.00    0.96129   0.97631   -1.000
 4456.00    0.96908   0.97387  351.569
 4457.00    0.98678   0.97741  345.292
 4458.00    0.98849   0.98237  345.693
 4459.00    0.98233   0.98617  347.534
 4460.00    0.97376   0.98924   -1.000
 4461.00    0.96744   0.99327   -1.000
 4462.00    0.98109   0.99923   -1.000
 4463.00    0.99479   1.00627   -1.000
 4464.00    1.00516   1.01197  325.460
 4465.00    1.00330   1.01342   -1.000
 4466.00    0.99130   1.00978   -1.000
 4467.00    0.98336   1.00304   -1.000
 4468.00    0.97569   0.99768   -1.000
 4469.00    0.97429   0.99819   -1.000
 4470.00    0.98668   1.00660   -1.000
 4471.00    0.99641   1.02102   -1.000
 4472.00    1.01062   1.03717   -1.000
 4473.00    1.03181   1.05112   -1.000
 4474.00    1.03439   1.06070   -1.000
 4475.00    1.02746   1.06546   -1.000
 4476.00    1.02578   1.06554   -1.000
 4477.00    1.02983   1.06018   -1.000
 4478.00    1.03703   1.04800   -1.000
 4479.00    1.03218   1.02995  310.455
 4480.00    1.00533   1.01181  324.702
 4481.00    0.97957   1.00169   -1.000
 4482.00    0.98379   1.00533   -1.000
 4483.00    1.00721   1.02106   -1.000
 4484.00    1.02558   1.04085   -1.000
 4485.00    1.04038   1.05569   -1.000
 4486.00    1.04103   1.05987   -1.000
 4487.00    1.02786   1.05367   -1.000
 4488.00    1.01637   1.04247   -1.000
 4489.00    1.00376   1.03356   -1.000
 4490.00    1.00039   1.03131   -1.000
 4491.00    1.00851   1.03528   -1.000
 4492.00    1.01965   1.04084   -1.000
 4493.00    1.01702   1.04418   -1.000
 4494.00    1.01020   1.04488   -1.000
 4495.00    1.00294   1.04531   -1.000
 4496.00    1.00885   1.04789   -1.000
 4497.00    1.02913   1.05176   -1.000
 4498.00    1.03480   1.05438   -1.000
 4499.00    1.02985   1.05445   -1.000
 4500.00    1.01690   1.05405   -1.000
 4501.00    1.01578   1.05699   -1.000
 4502.00    1.02691   1.06576   -1.000
 4503.00    1.04511   1.07856   -1.000
 4504.00    1.05910   1.08991   -1.000
 4505.00    1.05527   1.09551   -1.000
 4506.00    1.04571   1.09457   -1.000
 4507.00    1.04326   1.09037   -1.000
 4508.00    1.04022   1.08691   -1.000
 4509.00    1.03903   1.08613   -1.000
 4510.00    1.04923   1.08653   -1.000
 4511.00    1.04381   1.08491   -1.000
 4512.00    1.03745   1.07960   -1.000
 4513.00    1.03701   1.07151   -1.000
 4514.00    1.03306   1.06339   -1.000
 4515.00    1.02595   1.05737   -1.000
 4516.00    1.02364   1.05378   -1.000
 4517.00    1.02251   1.05177   -1.000
 4518.00    1.01496   1.05012   -1.000
 4519.00    1.01798   1.04865   -1.000
 4520.00    1.03134   1.04742   -1.000
 4521.00    1.02934   1.04539   -1.000
 4522.00    1.02567   1.04152   -1.000
 4523.00    1.01583   1.03568   -1.000
 4524.00    1.00951   1.02826   -1.000
 4525.00    1.00977   1.01925   -1.000
 4526.00    1.00624   1.00814  329.821
 4527.00    0.98817   0.99622  339.129
 4528.00    0.97912   0.98677  343.067
 4529.00    0.98291   0.98269  340.412
 4530.00    0.99337   0.98364   -1.000
 4531.00    0.99401   0.98536  328.206
 4532.00    0.99079   0.98432  326.699
 4533.00    0.97567   0.98110  336.159
 4534.00    0.95817   0.98123   -1.000
 4535.00    0.96671   0.99018   -1.000
 4536.00    0.99028   1.00826   -1.000
 4537.00    1.01906   1.02972   -1.000
 4538.00    1.04533   1.04657  295.796
 4539.00    1.04534   1.05448  298.911
 4540.00    1.02716   1.05438   -1.000
 4541.00    1.02614   1.05105   -1.000
 4542.00    1.03102   1.04809   -1.000
 4543.00    1.01743   1.04584   -1.000
 4544.00    1.07013   1.04294   -1.000
 4545.00    0.47341   1.03804   -1.000
 4546.00   -0.06002   1.03063    0.000
 4547.00   -0.10476   1.02084    0.000
 4548.00    0.49284   1.01017   -1.000
 4549.00    0.49834   1.00229   -1.000
 4550.00    0.38572   1.00043   -1.000
 4551.00    1.03493   1.00364   -1.000
 4552.00    1.00159   1.00729  317.092
 4553.00    0.99124   1.00773   -1.000
 4554.00    0.98620   1.00647   -1.000
 4555.00    0.99634   1.00871   -1.000
 4556.00    1.00844   1.01742  308.152
 4557.00    1.02835   1.03142  295.692
 4558.00    1.04172   1.04670  290.630
 4559.00    1.03845   1.05907   -1.000
 4560.00    1.03933   1.06615   -1.000
 4561.00    1.03735   1.06651   -1.000
 4562.00    1.03137   1.06038   -1.000
 4563.00    1.01558   1.05087   -1.000
 4564.00    1.00454   1.04303   -1.000
 4565.00    1.01622   1.04149   -1.000
 4566.00    1.03005   1.04669   -1.000
 4567.00    1.03801   1.05475   -1.000
 4568.00    1.04971   1.06024   -1.000
 4569.00    1.04179   1.05928   -1.000
 4570.00    1.02176   1.05263   -1.000
 4571.00    1.00613   1.04504   -1.000
 4572.00    1.00176   1.04206   -1.000
 4573.00    1.01246   1.04557   -1.000
 4574.00    1.03715   1.05295   -1.000
 4575.00    1.03914   1.05912   -1.000
 4576.00    1.03343   1.06063   -1.000
 4577.00    1.03450   1.05681   -1.000
 4578.00    1.03376   1.04810   -1.000
 4579.00    1.02645   1.03579   -1.000
 4580.00    1.01836   1.02227  316.400
 4581.00    1.01159   1.01064  315.399
 4582.00    1.01106   1.00343  310.868
 4583.00    1.00786   1.00166  308.606
 4584.00    1.01061   1.00477  309.583
 4585.00    1.01386   1.01142  311.561
 4586.00    1.01969   1.01959  307.144
 4587.00    1.02793   1.02759  298.991
 4588.00    1.03499   1.03386  292.657
 4589.00    1.02917   1.03713  292.316
 4590.00    1.02718   1.03698   -1.000
 4591.00    1.02218   1.03444   -1.000
 4592.00    1.01433   1.03193   -1.000
 4593.00    1.01879   1.03162   -1.000
 4594.00    1.02508   1.03417  305.106
 4595.00    1.03719   1.03860  302.707
 4596.00    1.03206   1.04322   -1.000
 4597.00    1.03002   1.04650   -1.000
 4598.00    1.03545   1.04743   -1.000
 4599.00    1.03923   1.04575  303.327
 4600.00    1.02479   1.04236   -1.000
 4601.00    1.02083   1.03904   -1.000
 4602.00    1.02156   1.03732   -1.000
 4603.00    1.01979   1.03792   -1.000
 4604.00    1.02828   1.04057   -1.000
 4605.00    1.03270   1.04482   -1.000
 4606.00    1.03770   1.05048   -1.000
 4607.00    1.04674   1.05712   -1.000
 4608.00    1.04651   1.06361   -1.000
 4609.00    1.04926   1.06796   -1.000
 4610.00    1.05312   1.06894   -1.000
 4611.00    1.04891   1.06675   -1.000
 4612.00    1.04539   1.06304   -1.000
 4613.00    1.04319   1.05976   -1.000
 4614.00    1.04223   1.05715   -1.000
 4615.00    1.04183   1.05454   -1.000
 4616.00    1.03785   1.05099   -1.000
 4617.00    1.03597   1.04699   -1.000
 4618.00    1.03972   1.04423  290.592
 4619.00    1.03820   1.04468  290.277
 4620.00    1.04189   1.04925  287.454
 4621.00    1.05166   1.05635  282.837
 4622.00    1.04923   1.06310   -1.000
 4623.00    1.04896   1.06720   -1.000
 4624.00    1.04797   1.06777   -1.000
 4625.00    1.04129   1.06590   -1.000
 4626.00    1.03924   1.06258   -1.000
 4627.00    1.04161   1.05857   -1.000
 4628.00    1.04149   1.05513   -1.000
 4629.00    1.03304   1.05353   -1.000
 4630.00    1.03559   1.05446   -1.000
 4631.00    1.04038   1.05657   -1.000
 4632.00    1.04354   1.05747   -1.000
 4633.00    1.04329   1.05557   -1.000
 4634.00    1.04002   1.05160   -1.000
 4635.00    1.03916   1.04763  293.379
 4636.00    1.03280   1.04536   -1.000
 4637.00    1.03770   1.04513  299.779
 4638.00    1.03856   1.04693  300.961
 4639.00    1.03192   1.05096   -1.000
 4640.00    1.04589   1.05672   -1.000
 4641.00    1.05434   1.06257  288.016
 4642.00    1.05285   1.06588   -1.000
 4643.00    1.06187   1.06456  285.366
 4644.00    1.05471   1.05783  290.782
 4645.00    1.04377   1.04724  299.063
 4646.00    1.03161   1.03647  307.356
 4647.00    1.02333   1.02953  308.546
 4648.00    1.02418   1.02911  302.951
 4649.00    1.04190   1.03493  295.812
 4650.00    1.04251   1.04321  291.806
 4651.00    1.04045   1.04972  291.361
 4652.00    1.03818   1.05179   -1.000
 4653.00    1.03158   1.04936   -1.000
 4654.00    1.02885   1.04460   -1.000
 4655.00    1.01985   1.04098   -1.000
 4656.00    1.01610   1.04213   -1.000
 4657.00    1.02637   1.04978   -1.000
 4658.00    1.04614   1.06190   -1.000
 4659.00    1.06050   1.07354   -1.000
 4660.00    1.06473   1.07980   -1.000
 4661.00    1.06396   1.07845   -1.000
 4662.00    1.05057   1.07092   -1.000
 4663.00    1.04682   1.05963   -1.000
 4664.00    1.04522   1.04600  291.081
 4665.00    1.04326   1.03066   -1.000
 4666.00    1.02889   1.01523   -1.000
 4667.00    1.01056   1.00333  321.770
 4668.00    1.00655   0.99898  321.882
 4669.00    1.01449   1.00392   -1.000
 4670.00    1.02896   1.01573   -1.000
 4671.00    1.04311   1.02972   -1.000
 4672.00    1.04351   1.04200  289.023
 4673.00    1.05154   1.05090  289.287
 4674.00    1.05264   1.05701  288.974
 4675.00    1.05148   1.06044  285.140
 4676.00    1.05739   1.06042  280.821
 4677.00    1.05421   1.05582  282.344
 4678.00    1.05063   1.04731  288.599
 4679.00    1.03926   1.03788  294.305
 4680.00    1.02844   1.03070  299.155
 4681.00    1.03107   1.02772  302.012
 4682.00    1.03572   1.02876  298.124
 4683.00    1.03671   1.03239  290.496
 4684.00    1.04635   1.03687  286.751
 4685.00    1.05797   1.04062   -1.000
 4686.00    1.05441   1.04302   -1.000
 4687.00    1.05313   1.04419  289.603
 4688.00    1.05447   1.04462  289.586
 4689.00    1.04932   1.04440  289.614
 4690.00    1.04954   1.04385  291.751
 4691.00    1.03818   1.04374  292.329
 4692.00    1.04427   1.04475  288.777
 4693.00    1.05150   1.04710  284.450
 4694.00    1.05634   1.04976  278.052
 4695.00    1.06344   1.05095   -1.000
 4696.00    1.06830   1.04897   -1.000
 4697.00    1.05769   1.04345   -1.000
 4698.00    1.04551   1.03506   -1.000
 4699.00    1.03930   1.02555   -1.000
 4700.00    1.04407   1.01654   -1.000
 4701.00    1.04530   1.00900   -1.000
 4702.00    1.02970   1.00419   -1.000
 4703.00    1.02626   1.00313   -1.000
 4704.00    1.02587   1.00545   -1.000
 4705.00    1.04363   1.00865   -1.000
 4706.00    1.03653   1.00981   -1.000
 4707.00    1.02767   1.00851   -1.000
 4708.00    1.02195   1.00736   -1.000
 4709.00    1.02150   1.00917   -1.000
 4710.00    1.03537   1.01469   -1.000
 4711.00    1.03997   1.02162   -1.000
 4712.00    1.04812   1.02699   -1.000
 4713.00    1.04348   1.02967   -1.000
 4714.00    1.04629   1.03076   -1.000
 4715.00    1.03998   1.03308  292.189
 4716.00    1.04338   1.03802  286.263
 4717.00    1.04742   1.04472  280.754
 4718.00    1.05130   1.05082  279.089
 4719.00    1.05926   1.05453  278.115
 4720.00    1.05758   1.05601  277.163
 4721.00    1.05698   1.05624  279.597
 4722.00    1.05430   1.05642  281.582
 4723.00    1.05570   1.05666  279.863
 4724.00    1.06122   1.05595  276.790
 4725.00    1.06297   1.05254  277.282
 4726.00    1.05450   1.04538  284.161
 4727.00    1.04399   1.03541  295.100
 4728.00    1.04012   1.02526   -1.000
 4729.00    1.04412   1.01771   -1.000
 4730.00    1.04380   1.01426   -1.000
 4731.00    1.03935   1.01478   -1.000
 4732.00    1.04371   1.01793   -1.000
 4733.00    1.04702   1.02192   -1.000
 4734.00    1.04318   1.02481   -1.000
 4735.00    1.04087   1.02578   -1.000
 4736.00    1.03994   1.02565   -1.000
 4737.00    1.03574   1.02601  289.110
 4738.00    1.04505   1.02779   -1.000
 4739.00    1.05563   1.03071   -1.000
 4740.00    1.04714   1.03390   -1.000
 4741.00    1.04281   1.03678  287.527
 4742.00    1.04561   1.03948  285.167
 4743.00    1.05811   1.04219   -1.000
 4744.00    1.05748   1.04467   -1.000
 4745.00    1.04979   1.04684  282.914
 4746.00    1.05461   1.04914  280.753
 4747.00    1.05547   1.05201  277.887
 4748.00    1.05423   1.05553  277.344
 4749.00    1.05464   1.05898  277.790
 4750.00    1.05432   1.06099  277.969
 4751.00    1.05234   1.06038  280.033
 4752.00    1.05237   1.05653  283.245
 4753.00    1.04645   1.05043  285.607
 4754.00    1.04656   1.04435  287.556
 4755.00    1.04371   1.04069  287.004
 4756.00    1.04318   1.04048  288.154
 4757.00    1.03714   1.04304  290.320
 4758.00    1.04320   1.04650  290.605
 4759.00    1.04682   1.04820  288.136
 4760.00    1.04511   1.04576  287.646
 4761.00    1.03756   1.03800  292.242
 4762.00    1.02498   1.02659  299.643
 4763.00    1.01971   1.01530  303.442
 4764.00    1.02543   1.00806   -1.000
 4765.00    1.02326   1.00703   -1.000
 4766.00    1.03257   1.01181   -1.000
 4767.00    1.04079   1.02080   -1.000
 4768.00    1.04505   1.03129   -1.000
 4769.00    1.04452   1.04032  286.024
 4770.00    1.04977   1.04586  286.581
 4771.00    1.04768   1.04813  289.056
 4772.00    1.04240   1.04938  291.624
 4773.00    1.04273   1.05207  288.150
 4774.00    1.04414   1.05647   -1.000
 4775.00    1.05505   1.06111  280.052
 4776.00    1.05848   1.06359  280.310
 4777.00    1.05484   1.06280  281.148
 4778.00    1.05070   1.05942  283.005
 4779.00    1.04167   1.05520   -1.000
 4780.00    1.03652   1.05171   -1.000
 4781.00    1.03919   1.04914   -1.000
 4782.00    1.04503   1.04678  290.020
 4783.00    1.04265   1.04379  292.384
 4784.00    1.03362   1.04016  292.223
 4785.00    1.03358   1.03644  293.226
 4786.00    1.03188   1.03350  296.191
 4787.00    1.02624   1.03223  297.881
 4788.00    1.02932   1.03315  297.550
 4789.00    1.03211   1.03635  296.064
 4790.00    1.04020   1.04151  294.230
 4791.00    1.04585   1.04852  291.136
 4792.00    1.04320   1.05692   -1.000
 4793.00    1.05062   1.06563   -1.000
 4794.00    1.05197   1.07279   -1.000
 4795.00    1.05393   1.07629   -1.000
 4796.00    1.05725   1.07516   -1.000
 4797.00    1.05679   1.07010   -1.000
 4798.00    1.04490   1.06378   -1.000
 4799.00    1.04152   1.05927   -1.000
 4800.00    1.04364   1.05825   -1.000
 4801.00    1.04668   1.06012   -1.000
 4802.00    1.05453   1.06238  278.747
 4803.00    1.05376   1.06264  279.225
 4804.00    1.03969   1.06022   -1.000
 4805.00    1.03874   1.05661   -1.000
 4806.00    1.04316   1.05373   -1.000
 4807.00    1.04560   1.05290  289.133
 4808.00    1.04853   1.05396  288.395
 4809.00    1.04347   1.05591   -1.000
 4810.00    1.04852   1.05787  284.459
 4811.00    1.04790   1.05959   -1.000
 4812.00    1.04887   1.06155   -1.000
 4813.00    1.05717   1.06443  280.731
 4814.00    1.05337   1.06828   -1.000
 4815.00    1.06009   1.07237   -1.000
 4816.00    1.05467   1.07584   -1.000
 4817.00    1.05534   1.07805   -1.000
 4818.00    1.05745   1.07879   -1.000
 4819.00    1.05546   1.07771   -1.000
 4820.00    1.05650   1.07384   -1.000
 4821.00    1.05053   1.06617   -1.000
 4822.00    1.03968   1.05515   -1.000
 4823.00    1.03038   1.04403   -1.000
 4824.00    1.02446   1.03721   -1.000
 4825.00    1.03606   1.03682  283.817
 4826.00    1.05474   1.04124   -1.000
 4827.00    1.05062   1.04621  280.662
 4828.00    1.04729   1.04859  284.026
 4829.00    1.04565   1.04773  285.777
 4830.00    1.03968   1.04454  285.678
 4831.00    1.03987   1.04064  288.367
 4832.00    1.03955   1.03737  288.833
 4833.00    1.04021   1.03593  284.138
 4834.00    1.04470   1.03643  280.368
 4835.00    1.04662   1.03771  279.361
 4836.00    1.04233   1.03808  279.839
 4837.00    1.03698   1.03616  281.191
 4838.00    1.03262   1.03162  285.077
 4839.00    1.02549   1.02546  290.216
 4840.00    1.02161   1.01947  290.339
 4841.00    1.02253   1.01542  289.711
 4842.00    1.02440   1.01386   -1.000
 4843.00    1.02965   1.01431   -1.000
 4844.00    1.03421   1.01565   -1.000
 4845.00    1.03043   1.01641   -1.000
 4846.00    1.02541   1.01503  277.327
 4847.00    1.02624   1.01094   -1.000
 4848.00    1.01369   1.00524  287.272
 4849.00    1.00758   1.00006  287.210
 4850.00    1.01623   0.99597   -1.000
 4851.00    1.00920   0.99092   -1.000
 4852.00    0.99802   0.98172   -1.000
 4853.00    0.99138   0.96610   -1.000
 4854.00    0.97538   0.94473   -1.000
 4855.00    0.96064   0.92006   -1.000
 4856.00    0.93935   0.89380   -1.000
 4857.00    0.92908   0.86412   -1.000
 4858.00    0.90597   0.82672   -1.000
 4859.00    0.83050   0.78145   -1.000
 4860.00    0.73819   0.73651  374.564
 4861.00    0.68394   0.70706   -1.000
 4862.00    0.71572   0.70486   -1.000
 4863.00    0.80060   0.73038   -1.000
 4864.00    0.87301   0.77365   -1.000
 4865.00    0.91800   0.82092   -1.000
 4866.00    0.94010   0.86278   -1.000
 4867.00    0.96220   0.89442   -1.000
 4868.00    0.97160   0.91476   -1.000
 4869.00    0.97527   0.92428   -1.000
 4870.00    0.96561   0.92587   -1.000
 4871.00    0.95323   0.92497   -1.000
 4872.00    0.95448   0.92748   -1.000
 4873.00    0.97880   0.93621   -1.000
 4874.00    0.99686   0.94931   -1.000
 4875.00    1.00569   0.96224   -1.000
 4876.00    1.00759   0.97267   -1.000
 4877.00    1.00011   0.98142   -1.000
 4878.00    1.00634   0.99062   -1.000
 4879.00    1.01975   1.00034   -1.000
 4880.00    1.02196   1.00824   -1.000
 4881.00    1.01803   1.01198  291.011
 4882.00    1.01562   1.01129  292.752
 4883.00    1.01547   1.00764  291.751
 4884.00    1.01464   1.00313   -1.000
 4885.00    1.00921   0.99884   -1.000
 4886.00    1.00949   0.99519   -1.000
 4887.00    1.01824   0.99174   -1.000
 4888.00    1.01703   0.98749   -1.000
 4889.00    1.00548   0.98237   -1.000
 4890.00    0.98445   0.97868  308.623
 4891.00    0.97515   0.98085  306.604
 4892.00    0.99937   0.99246  294.291
 4893.00    1.02782   1.01231   -1.000
 4894.00    1.04786   1.03487   -1.000
 4895.00    1.05539   1.05361  267.125
 4896.00    1.05862   1.06464  265.827
 4897.00    1.05506   1.06789   -1.000
 4898.00    1.04521   1.06513   -1.000
 4899.00    1.03685   1.05927   -1.000
 4900.00    1.03437   1.05286   -1.000
 4901.00    1.03387   1.04763   -1.000
 4902.00    1.03267   1.04408   -1.000
 4903.00    1.02898   1.04284   -1.000
 4904.00    1.02709   1.04460   -1.000
 4905.00    1.03979   1.04889  275.148
 4906.00    1.05291   1.05297  272.983
 4907.00    1.04771   1.05297  275.492
 4908.00    1.03606   1.04689   -1.000
 4909.00    1.02960   1.03659  290.366
 4910.00    1.02276   1.02655  294.099
 4911.00    1.02470   1.02164  290.264
 4912.00    1.03384   1.02382  284.988
 4913.00    1.04297   1.03148   -1.000
 4914.00    1.04693   1.04006  277.407
 4915.00    1.04688   1.04414  274.943
 4916.00    1.04757   1.03921  276.224
 4917.00    1.03446   1.02370   -1.000
 4918.00    1.00585   1.00052  301.595
 4919.00    0.98681   0.97666   -1.000
 4920.00    0.97436   0.95968   -1.000
 4921.00    0.98120   0.95361   -1.000
 4922.00    0.99573   0.95738   -1.000
 4923.00    0.99994   0.96711   -1.000
 4924.00    1.00250   0.97995   -1.000
 4925.00    1.01482   0.99482   -1.000
 4926.00    1.02951   1.01132   -1.000
 4927.00    1.04228   1.02768   -1.000
 4928.00    1.04752   1.04133  274.448
 4929.00    1.04958   1.04991  272.563
 4930.00    1.05560   1.05167  270.914
 4931.00    1.05116   1.04627  273.550
 4932.00    1.03372   1.03531  280.998
 4933.00    1.01321   1.02286  291.266
 4934.00    1.00545   1.01322  292.107
 4935.00    1.01704   1.00806  286.878
 4936.00    1.02662   1.00513   -1.000
 4937.00    1.02406   1.00187   -1.000
 4938.00    1.00932   0.99885   -1.000
 4939.00    1.00205   0.99982  300.726
 4940.00    1.01649   1.00772  290.501
 4941.00    1.02969   1.02113  281.150
 4942.00    1.04314   1.03541  275.912
 4943.00    1.05050   1.04593  273.360
 4944.00    1.04754   1.05098  273.531
 4945.00    1.04185   1.05209  275.479
 4946.00    1.03870   1.05217   -1.000
 4947.00    1.04407   1.05360  273.631
 4948.00    1.04504   1.05669   -1.000
 4949.00    1.04213   1.05999   -1.000
 4950.00    1.04406   1.06148   -1.000
 4951.00    1.04430   1.06039   -1.000
 4952.00    1.04918   1.05697  271.636
 4953.00    1.04613   1.05126  274.777
 4954.00    1.04469   1.04184  278.207
 4955.00    1.03368   1.02721  285.616
 4956.00    1.00561   1.00921  300.359
 4957.00    0.97371   0.99433   -1.000
 4958.00    0.98134   0.99014  306.536
 4959.00    1.01242   0.99922   -1.000
 4960.00    1.03730   1.01643   -1.000
 4961.00    1.04196   1.03350  276.701
 4962.00    1.04221   1.04418  277.961
 4963.00    1.04410   1.04701  280.178
 4964.00    1.03689   1.04362  283.490
 4965.00    1.02826   1.03678  289.505
 4966.00    1.02965   1.02933  293.307
 4967.00    1.03107   1.02347  293.426
 4968.00    1.03156   1.02051   -1.000
 4969.00    1.03282   1.02088   -1.000
 4970.00    1.03419   1.02434  287.323
 4971.00    1.03372   1.03010  284.239
 4972.00    1.04124   1.03684  280.839
 4973.00    1.04757   1.04304  278.178
 4974.00    1.04604   1.04716  277.024
 4975.00    1.04899   1.04827  278.918
 4976.00    1.04449   1.04603  281.853
 4977.00    1.03847   1.04080  285.681
 4978.00    1.03568   1.03285  290.344
 4979.00    1.02809   1.02194  293.942
 4980.00    1.02168   1.00749   -1.000
 4981.00    1.00487   0.98999   -1.000
 4982.00    0.98700   0.97251   -1.000
 4983.00    0.98361   0.96042   -1.000
 4984.00    0.98418   0.95841   -1.000
 4985.00    0.99930   0.96716   -1.000
 4986.00    1.01817   0.98257   -1.000
 4987.00    1.02724   0.99825   -1.000
 4988.00    1.03025   1.00886   -1.000
 4989.00    1.02138   1.01259  290.786
 4990.00    1.01574   1.01107  293.811
 4991.00    1.00750   1.00796  293.986
 4992.00    1.01795   1.00639   -1.000
 4993.00    1.02063   1.00766   -1.000
 4994.00    1.01622   1.01109  289.988
 4995.00    1.02185   1.01494  288.508
 4996.00    1.02720   1.01710  287.068
 4997.00    1.02783   1.01564   -1.000
 4998.00    1.02302   1.00959   -1.000
 4999.00    1.01625   0.99988   -1.000
 5000.00    1.00600   0.98936   -1.000
 5001.00    1.00368   0.98131   -1.000
 5002.00    1.00559   0.97698   -1.000
 5003.00    1.02068   0.97467   -1.000
 5004.00    1.00884   0.97165   -1.000
 5005.00    0.99641   0.96739   -1.000
 5006.00    0.98375   0.96481   -1.000
 5007.00    0.98855   0.96725   -1.000
 5008.00    1.00767   0.97460   -1.000
 5009.00    1.02560   0.98235   -1.000
 5010.00    1.02076   0.98475   -1.000
 5011.00    1.01062   0.97925   -1.000
 5012.00    0.99194   0.96796   -1.000
 5013.00    0.97779   0.95621   -1.000
 5014.00    0.97628   0.94836   -1.000
 5015.00    0.98001   0.94544   -1.000
 5016.00    0.98955   0.94549   -1.000
 5017.00    0.99676   0.94652   -1.000
 5018.00    0.99362   0.94869   -1.000
 5019.00    0.99300   0.95316   -1.000
 5020.00    1.00344   0.95994   -1.000
 5021.00    1.01353   0.96749   -1.000
 5022.00    1.01108   0.97437   -1.000
 5023.00    1.00983   0.98056   -1.000
 5024.00    1.01437   0.98625   -1.000
 5025.00    1.02165   0.99069   -1.000
 5026.00    1.02292   0.99303   -1.000
 5027.00    1.01324   0.99377   -1.000
 5028.00    1.01684   0.99478   -1.000
 5029.00    1.02841   0.99775   -1.000
 5030.00    1.03077   1.00300   -1.000
 5031.00    1.03151   1.00940   -1.000
 5032.00    1.03650   1.01462   -1.000
 5033.00    1.04162   1.01590   -1.000
 5034.00    1.02861   1.01155   -1.000
 5035.00    1.01394   1.00241   -1.000
 5036.00    1.00094   0.99082   -1.000
 5037.00    1.00251   0.97865   -1.000
 5038.00    1.00096   0.96561   -1.000
 5039.00    0.98424   0.95161   -1.000
 5040.00    0.96618   0.93969   -1.000
 5041.00    0.95472   0.93561   -1.000
 5042.00    0.97109   0.94369   -1.000
 5043.00    1.00101   0.96269   -1.000
 5044.00    1.02489   0.98600   -1.000
 5045.00    1.03167   1.00586   -1.000
 5046.00    1.04765   1.01672   -1.000
 5047.00    0.91008   1.01716   -1.000
 5048.00    0.14767   1.00909   -1.000
 5049.00    0.02381   0.99700   -1.000
 5050.00    0.81086   0.98611   -1.000
 5051.00    1.02013   0.98086   -1.000
 5052.00    1.01122   0.98322   -1.000
 5053.00    1.02793   0.99201   -1.000
 5054.00    1.03642   1.00341   -1.000
 5055.00    1.04034   1.01390   -1.000
 5056.00    1.04482   1.02190   -1.000
 5057.00    1.04484   1.02785   -1.000
 5058.00    1.04074   1.03250  278.282
 5059.00    1.03544   1.03594  278.179
 5060.00    1.03626   1.03751  276.294
 5061.00    1.03527   1.03611  276.428
 5062.00    1.03740   1.03071  280.130
 5063.00    1.03493   1.02118   -1.000
 5064.00    1.01828   1.00969  298.589
 5065.00    1.00946   0.99949  302.110
 5066.00    1.01440   0.99334   -1.000
 5067.00    1.01739   0.99138   -1.000
 5068.00    1.01976   0.99197   -1.000
 5069.00    1.01769   0.99312   -1.000
 5070.00    1.02609   0.99348   -1.000
 5071.00    1.02961   0.99260   -1.000
 5072.00    1.02026   0.99102   -1.000
 5073.00    1.02531   0.98999   -1.000
 5074.00    1.02502   0.99025   -1.000
 5075.00    1.02346   0.99095   -1.000
 5076.00    1.02164   0.98970   -1.000
 5077.00    1.02242   0.98436   -1.000
 5078.00    1.00931   0.97486   -1.000
 5079.00    0.99253   0.96411   -1.000
 5080.00    0.98240   0.95640   -1.000
 5081.00    0.99064   0.95452   -1.000
 5082.00    1.00139   0.95859   -1.000
 5083.00    1.00655   0.96658   -1.000
 5084.00    1.01909   0.97642   -1.000
 5085.00    1.03425   0.98643   -1.000
 5086.00    1.03232   0.99536   -1.000
 5087.00    1.03285   1.00253   -1.000
 5088.00    1.03710   1.00791   -1.000
 5089.00    1.03230   1.01211   -1.000
 5090.00    1.03328   1.01586   -1.000
 5091.00    1.04245   1.01950   -1.000
 5092.00    1.04225   1.02266   -1.000
 5093.00    1.04357   1.02397   -1.000
 5094.00    1.03947   1.02142   -1.000
 5095.00    1.03544   1.01364   -1.000
 5096.00    1.03068   1.00139   -1.000
 5097.00    1.01755   0.98779   -1.000
 5098.00    1.00643   0.97725   -1.000
 5099.00    1.00464   0.97314   -1.000
 5100.00    1.01901   0.97618   -1.000
 5101.00    1.03349   0.98402   -1.000
 5102.00    1.03445   0.99236   -1.000
 5103.00    1.03451   0.99749   -1.000
 5104.00    1.03192   0.99751   -1.000
 5105.00    1.02484   0.99294   -1.000
 5106.00    1.01034   0.98574   -1.000
 5107.00    1.00456   0.97865   -1.000
 5108.00    1.00048   0.97415   -1.000
 5109.00    0.99939   0.97388   -1.000
 5110.00    1.00567   0.97803   -1.000
 5111.00    1.01727   0.98566   -1.000
 5112.00    1.03234   0.99476   -1.000
 5113.00    1.03918   1.00359   -1.000
 5114.00    1.04302   1.01100   -1.000
 5115.00    1.04514   1.01685   -1.000
 5116.00    1.04186   1.02124   -1.000
 5117.00    1.04199   1.02374   -1.000
 5118.00    1.04502   1.02355   -1.000
 5119.00    1.04410   1.01985   -1.000
 5120.00    1.03801   1.01271   -1.000
 5121.00    1.02746   1.00292   -1.000
 5122.00    1.01363   0.99198   -1.000
 5123.00    1.00238   0.98141   -1.000
 5124.00    0.99753   0.97285   -1.000
 5125.00    1.00746   0.96716   -1.000
 5126.00    1.01421   0.96430   -1.000
 5127.00    1.00628   0.96338   -1.000
 5128.00    1.00580   0.96375   -1.000
 5129.00    1.00154   0.96542   -1.000
 5130.00    1.01107   0.96867   -1.000
 5131.00    1.01807   0.97334   -1.000
 5132.00    1.02665   0.97859   -1.000
 5133.00    1.02379   0.98340   -1.000
 5134.00    1.02388   0.98664   -1.000
 5135.00    1.02687   0.98730   -1.000
 5136.00    1.02063   0.98452   -1.000
 5137.00    1.00350   0.97868   -1.000
 5138.00    0.99684   0.97136   -1.000
 5139.00    0.99127   0.96488   -1.000
 5140.00    0.99393   0.96088   -1.000
 5141.00    0.99895   0.95957   -1.000
 5142.00    0.99866   0.96034   -1.000
 5143.00    0.99920   0.96232   -1.000
 5144.00    1.00997   0.96463   -1.000
 5145.00    1.01481   0.96630   -1.000
 5146.00    1.01239   0.96677   -1.000
 5147.00    1.00782   0.96649   -1.000
 5148.00    1.00932   0.96635   -1.000
 5149.00    1.01787   0.96624   -1.000
 5150.00    1.00938   0.96522   -1.000
 5151.00    0.99812   0.96286   -1.000
 5152.00    1.00061   0.96008   -1.000
 5153.00    1.00610   0.95924   -1.000
 5154.00    1.01165   0.96231   -1.000
 5155.00    1.01897   0.96992   -1.000
 5156.00    1.03107   0.98050   -1.000
 5157.00    1.03913   0.99144   -1.000
 5158.00    1.04205   1.00006   -1.000
 5159.00    1.04230   1.00482   -1.000
 5160.00    1.03548   1.00519   -1.000
 5161.00    1.03167   1.00119   -1.000
 5162.00    1.02877   0.99238   -1.000
 5163.00    1.03002   0.97736   -1.000
 5164.00    1.02175   0.95439   -1.000
 5165.00    0.98804   0.92331   -1.000
 5166.00    0.93375   0.88910   -1.000
 5167.00    0.90309   0.85980   -1.000
 5168.00    0.89992   0.84275   -1.000
 5169.00    0.93057   0.83824   -1.000
 5170.00    0.95091   0.83941   -1.000
 5171.00    0.94090   0.84134   -1.000
 5172.00    0.91277   0.84491   -1.000
 5173.00    0.92072   0.85709   -1.000
 5174.00    0.96581   0.88166   -1.000
 5175.00    1.01200   0.91401   -1.000
 5176.00    1.03644   0.94539   -1.000
 5177.00    1.03985   0.96757   -1.000
 5178.00    1.03436   0.97692   -1.000
 5179.00    1.03530   0.97277   -1.000
 5180.00    1.03284   0.95491   -1.000
 5181.00    1.00540   0.92612   -1.000
 5182.00    0.96423   0.89319   -1.000
 5183.00    0.92171   0.86777   -1.000
 5184.00    0.92369   0.86008   -1.000
 5185.00    0.96675   0.87211   -1.000
 5186.00    1.00458   0.89708   -1.000
 5187.00    1.01242   0.92312   -1.000
 5188.00    1.01400   0.94222   -1.000
 5189.00    1.01520   0.95177   -1.000
 5190.00    1.01001   0.95331   -1.000
 5191.00    0.99545   0.94988   -1.000
 5192.00    0.97896   0.94517   -1.000
 5193.00    0.97934   0.94204   -1.000
 5194.00    0.98974   0.94227   -1.000
 5195.00    0.99632   0.94568   -1.000
 5196.00    1.00405   0.95155   -1.000
 5197.00    1.01709   0.95954   -1.000
 5198.00    1.02479   0.96895   -1.000
 5199.00    1.02597   0.97797   -1.000
 5200.00    1.02654   0.98382   -1.000
 5201.00    1.02322   0.98371   -1.000
 5202.00    1.01990   0.97658   -1.000
 5203.00    1.01028   0.96338   -1.000
 5204.00    0.98809   0.94718   -1.000
 5205.00    0.97534   0.93176   -1.000
 5206.00    0.97421   0.92046   -1.000
 5207.00    0.97702   0.91515   -1.000
 5208.00    0.98044   0.91636   -1.000
 5209.00    0.99028   0.92421   -1.000
 5210.00    1.00538   0.93782   -1.000
 5211.00    1.01825   0.95511   -1.000
 5212.00    1.03397   0.97174   -1.000
 5213.00    1.04379   0.98315   -1.000
 5214.00    1.03119   0.98688   -1.000
 5215.00    1.01777   0.98441   -1.000
 5216.00    1.00444   0.98091   -1.000
 5217.00    1.00836   0.98119   -1.000
 5218.00    1.02520   0.98744   -1.000
 5219.00    1.04041   0.99739   -1.000
 5220.00    1.04544   1.00695   -1.000
 5221.00    1.04671   1.01185   -1.000
 5222.00    1.04805   1.00921   -1.000
 5223.00    1.03439   0.99773   -1.000
 5224.00    1.01311   0.97844   -1.000
 5225.00    0.98579   0.95542   -1.000
 5226.00    0.96283   0.93648   -1.000
 5227.00    0.95588   0.92837   -1.000
 5228.00    0.98195   0.93350   -1.000
 5229.00    1.01453   0.94700   -1.000
 5230.00    1.02770   0.96069   -1.000
 5231.00    1.02446   0.96839   -1.000
 5232.00    1.01870   0.96894   -1.000
 5233.00    1.01130   0.96636   -1.000
 5234.00    1.00946   0.96602   -1.000
 5235.00    1.01945   0.97138   -1.000
 5236.00    1.03307   0.98172   -1.000
 5237.00    1.04316   0.99390   -1.000
 5238.00    1.04399   1.00423   -1.000
 5239.00    1.04335   1.01093   -1.000
 5240.00    1.04754   1.01424   -1.000
 5241.00    1.04594   1.01547   -1.000
 5242.00    1.04315   1.01601   -1.000
 5243.00    1.04464   1.01631   -1.000
 5244.00    1.04068   1.01560   -1.000
 5245.00    1.04037   1.01224   -1.000
 5246.00    1.03614   1.00574   -1.000
 5247.00    1.01923   0.99713   -1.000
 5248.00    1.01093   0.98881   -1.000
 5249.00    1.00832   0.98275   -1.000
 5250.00    0.99962   0.97979   -1.000
 5251.00    1.00011   0.97967   -1.000
 5252.00    1.01561   0.98135   -1.000
 5253.00    1.02400   0.98392   -1.000
 5254.00    1.01907   0.98719   -1.000
 5255.00    1.02786   0.99211   -1.000
 5256.00    1.03429   0.99887   -1.000
 5257.00    1.04262   1.00604   -1.000
 5258.00    1.04805   1.01010   -1.000
 5259.00    1.04043   1.00734   -1.000
 5260.00    1.02752   0.99590   -1.000
 5261.00    1.01058   0.97656   -1.000
 5262.00    0.99151   0.95289   -1.000
 5263.00    0.97432   0.92973   -1.000
 5264.00    0.97081   0.91156   -1.000
 5265.00    0.96836   0.90078   -1.000
 5266.00    0.97236   0.89648   -1.000
 5267.00    0.98332   0.89483   -1.000
 5268.00    0.97492   0.89331   -1.000
 5269.00    0.94855   0.89209   -1.000
 5270.00    0.94486   0.89476   -1.000
 5271.00    0.97009   0.90392   -1.000
 5272.00    1.00715   0.91744   -1.000
 5273.00    1.01250   0.93173   -1.000
 5274.00    1.00964   0.94382   -1.000
 5275.00    1.01184   0.95448   -1.000
 5276.00    1.01726   0.96596   -1.000
 5277.00    1.02773   0.97826   -1.000
 5278.00    1.04575   0.98886   -1.000
 5279.00    1.04187   0.99368   -1.000
 5280.00    1.03250   0.99126   -1.000
 5281.00    1.02369   0.98357   -1.000
 5282.00    1.01190   0.97540   -1.000
 5283.00    1.00307   0.97166   -1.000
 5284.00    1.00697   0.97554   -1.000
 5285.00    1.02444   0.98654   -1.000
 5286.00    1.03783   1.00119   -1.000
 5287.00    1.04913   1.01503   -1.000
 5288.00    1.05402   1.02499   -1.000
 5289.00    1.05368   1.03071   -1.000
 5290.00    1.05348   1.03311   -1.000
 5291.00    1.04751   1.03309   -1.000
 5292.00    1.04298   1.03114   -1.000
 5293.00    1.04517   1.02667   -1.000
 5294.00    1.04044   1.01880   -1.000
 5295.00    1.02921   1.00741   -1.000
 5296.00    1.02063   0.99381   -1.000
 5297.00    1.01260   0.98148   -1.000
 5298.00    1.00936   0.97425   -1.000
 5299.00    1.01614   0.97339   -1.000
 5300.00    1.02076   0.97807   -1.000
 5301.00    1.02605   0.98570   -1.000
 5302.00    1.02854   0.99431   -1.000
 5303.00    1.02744   1.00307   -1.000
 5304.00    1.03440   1.01054   -1.000
 5305.00    1.04015   1.01571   -1.000
 5306.00    1.03627   1.01837   -1.000
 5307.00    1.03389   1.01949   -1.000
 5308.00    1.03541   1.02114   -1.000
 5309.00    1.04577   1.02400   -1.000
 5310.00    1.05099   1.02727   -1.000
 5311.00    1.05153   1.02910   -1.000
 5312.00    1.04387   1.02774   -1.000
 5313.00    1.04236   1.02265   -1.000
 5314.00    1.03764   1.01465   -1.000
 5315.00    1.03046   1.00574   -1.000
 5316.00    1.01967   0.99906   -1.000
 5317.00    1.02181   0.99696   -1.000
 5318.00    1.03261   0.99966   -1.000
 5319.00    1.03492   1.00449   -1.000
 5320.00    1.03662   1.00722   -1.000
 5321.00    1.03723   1.00525   -1.000
 5322.00    1.02823   0.99790   -1.000
 5323.00    1.01289   0.98688   -1.000
 5324.00    1.00580   0.97384   -1.000
 5325.00    1.00727   0.95961   -1.000
 5326.00    1.00071   0.94499   -1.000
 5327.00    0.97276   0.93149   -1.000
 5328.00    0.95045   0.92415   -1.000
 5329.00    0.96872   0.92644   -1.000
 5330.00    1.00633   0.93865   -1.000
 5331.00    1.02530   0.95629   -1.000
 5332.00    1.02556   0.97298   -1.000
 5333.00    1.02745   0.98539   -1.000
 5334.00    1.03232   0.99276   -1.000
 5335.00    1.03540   0.99581   -1.000
 5336.00    1.02950   0.99534   -1.000
 5337.00    1.02070   0.99149   -1.000
 5338.00    1.02023   0.98503   -1.000
 5339.00    1.01052   0.97758   -1.000
 5340.00    1.00104   0.97224   -1.000
 5341.00    0.99946   0.97136   -1.000
 5342.00    1.01391   0.97550   -1.000
 5343.00    1.03211   0.98202   -1.000
 5344.00    1.03289   0.98703   -1.000
 5345.00    1.02337   0.98853   -1.000
 5346.00    1.02281   0.98663   -1.000
 5347.00    1.02213   0.98376   -1.000
 5348.00    1.02014   0.98220   -1.000
 5349.00    1.01936   0.98349   -1.000
 5350.00    1.02620   0.98789   -1.000
 5351.00    1.03358   0.99460   -1.000
 5352.00    1.03755   1.00219   -1.000
 5353.00    1.03440   1.00946   -1.000
 5354.00    1.03987   1.01618   -1.000
 5355.00    1.04747   1.02207   -1.000
 5356.00    1.04894   1.02686   -1.000
 5357.00    1.04485   1.02985   -1.000
 5358.00    1.04631   1.03021   -1.000
 5359.00    1.05294   1.02760   -1.000
 5360.00    1.04586   1.02180   -1.000
 5361.00    1.03676   1.01325   -1.000
 5362.00    1.02758   1.00336   -1.000
 5363.00    1.02696   0.99391   -1.000
 5364.00    1.02469   0.98662   -1.000
 5365.00    1.01848   0.98187   -1.000
 5366.00    1.02051   0.97870   -1.000
 5367.00    1.02826   0.97491   -1.000
 5368.00    1.02074   0.96884   -1.000
 5369.00    1.00191   0.96055   -1.000
 5370.00    0.98886   0.95256   -1.000
 5371.00    0.98712   0.94941   -1.000
 5372.00    1.00234   0.95399   -1.000
 5373.00    1.02021   0.96644   -1.000
 5374.00    1.03719   0.98253   -1.000
 5375.00    1.04797   0.99727   -1.000
 5376.00    1.04937   1.00704   -1.000
 5377.00    1.05064   1.01077   -1.000
 5378.00    1.04625   1.00965   -1.000
 5379.00    1.03658   1.00544   -1.000
 5380.00    1.03392   1.00003   -1.000
 5381.00    1.02385   0.99500   -1.000
 5382.00    1.02206   0.99176   -1.000
 5383.00    1.02642   0.99144   -1.000
 5384.00    1.02939   0.99422   -1.000
 5385.00    1.03712   0.99911   -1.000
 5386.00    1.04505   1.00380   -1.000
 5387.00    1.04029   1.00611   -1.000
 5388.00    1.03589   1.00489   -1.000
 5389.00    1.03903   1.00032   -1.000
 5390.00    1.03350   0.99373   -1.000
 5391.00    1.02792   0.98667   -1.000
 5392.00    1.01977   0.98001   -1.000
 5393.00    1.01252   0.97417   -1.000
 5394.00    1.00896   0.96854   -1.000
 5395.00    1.00584   0.96241   -1.000
 5396.00    0.99791   0.95689   -1.000
 5397.00    0.98901   0.95368   -1.000
 5398.00    1.00465   0.95494   -1.000
 5399.00    1.02290   0.96038   -1.000
 5400.00    1.02820   0.96680   -1.000
 5401.00    1.03558   0.97038   -1.000
 5402.00    1.02798   0.96814   -1.000
 5403.00    1.01184   0.95998   -1.000
 5404.00    0.99090   0.94911   -1.000
 5405.00    0.97915   0.94032   -1.000
 5406.00    0.98674   0.93641   -1.000
 5407.00    1.00314   0.93792   -1.000
 5408.00    1.00911   0.94215   -1.000
 5409.00    1.00430   0.94684   -1.000
 5410.00    1.00348   0.95206   -1.000
 5411.00    1.01358   0.95800   -1.000
 5412.00    1.02836   0.96495   -1.000
 5413.00    1.03031   0.97177   -1.000
 5414.00    1.02032   0.97741   -1.000
 5415.00    1.01913   0.98242   -1.000
 5416.00    1.02469   0.98702   -1.000
 5417.00    1.02735   0.99115   -1.000
 5418.00    1.03144   0.99416   -1.000
 5419.00    1.03024   0.99507   -1.000
 5420.00    1.02876   0.99401   -1.000
 5421.00    1.02622   0.99124   -1.000
 5422.00    1.02621   0.98719   -1.000
 5423.00    1.02383   0.98340   -1.000
 5424.00    1.01167   0.98114   -1.000
 5425.00    1.01815   0.98128   -1.000
 5426.00    1.03335   0.98279   -1.000
 5427.00    1.03415   0.98206   -1.000
 5428.00    1.01533   0.97801   -1.000
 5429.00    0.99580   0.97153   -1.000
 5430.00    0.99390   0.96542   -1.000
 5431.00    1.00292   0.96205   -1.000
 5432.00    1.00618   0.96035   -1.000
 5433.00    0.99698   0.95966   -1.000
 5434.00    0.99237   0.96030   -1.000
 5435.00    0.99295   0.96388   -1.000
 5436.00    1.01151   0.97214   -1.000
 5437.00    1.02345   0.98380   -1.000
 5438.00    1.03559   0.99639   -1.000
 5439.00    1.04514   1.00661   -1.000
 5440.00    1.03824   1.01291   -1.000
 5441.00    1.03493   1.01481   -1.000
 5442.00    1.03817   1.01179   -1.000
 5443.00    1.03016   1.00395   -1.000
 5444.00    1.01416   0.99159   -1.000
 5445.00    0.99931   0.97765   -1.000
 5446.00    0.98730   0.96665   -1.000
 5447.00    0.98356   0.96259   -1.000
 5448.00    1.00209   0.96706   -1.000
 5449.00    1.02442   0.97695   -1.000
 5450.00    1.03228   0.98758   -1.000
 5451.00    1.03439   0.99417   -1.000
 5452.00    1.03288   0.99402   -1.000
 5453.00    1.02443   0.98764   -1.000
 5454.00    1.00260   0.97851   -1.000
 5455.00    0.98535   0.97124   -1.000
 5456.00    0.99247   0.97029   -1.000
 5457.00    1.01698   0.97593   -1.000
 5458.00    1.03412   0.98477   -1.000
 5459.00    1.03482   0.99212   -1.000
 5460.00    1.03023   0.99428   -1.000
 5461.00    1.01947   0.99120   -1.000
 5462.00    1.01873   0.98548   -1.000
 5463.00    1.01724   0.98103   -1.000
 5464.00    1.02284   0.98019   -1.000
 5465.00    1.02253   0.98319   -1.000
 5466.00    1.02489   0.98821   -1.000
 5467.00    1.02655   0.99327   -1.000
 5468.00    1.03193   0.99699   -1.000
 5469.00    1.02843   0.99848   -1.000
 5470.00    1.02889   0.99764   -1.000
 5471.00    1.02736   0.99462   -1.000
 5472.00    1.02638   0.98929   -1.000
 5473.00    1.02372   0.98182   -1.000
 5474.00    1.01579   0.97266   -1.000
 5475.00    1.00047   0.96300   -1.000
 5476.00    0.98490   0.95577   -1.000
 5477.00    0.98785   0.95332   -1.000
 5478.00    0.99879   0.95633   -1.000
 5479.00    1.02003   0.96301   -1.000
 5480.00    1.01769   0.96984   -1.000
 5481.00    1.01241   0.97561   -1.000
 5482.00    1.01223   0.98026   -1.000
 5483.00    1.01484   0.98470   -1.000
 5484.00    1.02565   0.98924   -1.000
 5485.00    1.02522   0.99235   -1.000
 5486.00    1.02381   0.99322   -1.000
 5487.00    1.02089   0.99199   -1.000
 5488.00    1.01879   0.99026   -1.000
 5489.00    1.02221   0.98961   -1.000
 5490.00    1.02614   0.99028   -1.000
 5491.00    1.02199   0.99190   -1.000
 5492.00    1.02281   0.99336   -1.000
 5493.00    1.02421   0.99399   -1.000
 5494.00    1.02381   0.99356   -1.000
 5495.00    1.02317   0.99186   -1.000
 5496.00    1.01441   0.98938   -1.000
 5497.00    1.00445   0.98685   -1.000
 5498.00    1.01075   0.98463   -1.000
 5499.00    1.01533   0.98278   -1.000
 5500.00    1.00827   0.98050   -1.000
 5501.00    1.00226   0.97760   -1.000
 5502.00    1.00219   0.97521   -1.000
 5503.00    1.01099   0.97326   -1.000
 5504.00    1.01259   0.97160   -1.000
 5505.00    1.00894   0.96996   -1.000
 5506.00    1.00059   0.96823   -1.000
 5507.00    0.99926   0.96791   -1.000
 5508.00    1.00265   0.96912   -1.000
 5509.00    1.01555   0.97092   -1.000
 5510.00    1.01806   0.97178   -1.000
 5511.00    1.00753   0.97047   -1.000
 5512.00    1.00435   0.96792   -1.000
 5513.00    1.00980   0.96614   -1.000
 5514.00    1.01174   0.96722   -1.000
 5515.00    1.01351   0.97157   -1.000
 5516.00    1.02407   0.97841   -1.000
 5517.00    1.02852   0.98606   -1.000
 5518.00    1.03568   0.99296   -1.000
 5519.00    1.02443   0.99796   -1.000
 5520.00    1.02206   1.00068   -1.000
 5521.00    1.02291   1.00118   -1.000
 5522.00    1.03055   0.99958   -1.000
 5523.00    1.02530   0.99576   -1.000
 5524.00    1.02358   0.98905   -1.000
 5525.00    1.01262   0.97964   -1.000
 5526.00    1.00058   0.96876   -1.000
 5527.00    0.98911   0.95959   -1.000
 5528.00    0.98321   0.95530   -1.000
 5529.00    0.99352   0.95750   -1.000
 5530.00    1.01246   0.96477   -1.000
 5531.00    1.01881   0.97292   -1.000
 5532.00    1.01581   0.97865   -1.000
 5533.00    1.01012   0.98056   -1.000
 5534.00    1.00532   0.97997   -1.000
 5535.00    1.00724   0.97944   -1.000
 5536.00    1.00963   0.98071   -1.000
 5537.00    1.02369   0.98381   -1.000
 5538.00    1.02268   0.98767   -1.000
 5539.00    1.01631   0.99134   -1.000
 5540.00    1.02091   0.99390   -1.000
 5541.00    1.01913   0.99452   -1.000
 5542.00    1.01537   0.99334   -1.000
 5543.00    1.01681   0.99117   -1.000
 5544.00    1.01933   0.98934   -1.000
 5545.00    1.01942   0.98909   -1.000
 5546.00    1.01842   0.99064   -1.000
 5547.00    1.01861   0.99368   -1.000
 5548.00    1.02296   0.99741   -1.000
 5549.00    1.02613   1.00054   -1.000
 5550.00    1.02628   1.00227   -1.000
 5551.00    1.02068   1.00228   -1.000
 5552.00    1.02036   1.00060   -1.000
 5553.00    1.01982   0.99820   -1.000
 5554.00    1.01656   0.99620   -1.000
 5555.00    1.01668   0.99539   -1.000
 5556.00    1.01618   0.99573   -1.000
 5557.00    1.01951   0.99667   -1.000
 5558.00    1.02146   0.99750   -1.000
 5559.00    1.01752   0.99737   -1.000
 5560.00    1.01945   0.99583   -1.000
 5561.00    1.02316   0.99285   -1.000
 5562.00    1.01813   0.98893   -1.000
 5563.00    1.00819   0.98499   -1.000
 5564.00    1.00722   0.98165   -1.000
 5565.00    1.01079   0.97918   -1.000
 5566.00    1.00993   0.97739   -1.000
 5567.00    1.00533   0.97586   -1.000
 5568.00    0.99956   0.97424   -1.000
 5569.00    0.99319   0.97251   -1.000
 5570.00    0.99331   0.97071   -1.000
 5571.00    0.99601   0.96910   -1.000
 5572.00    0.99587   0.96815   -1.000
 5573.00    1.00001   0.96850   -1.000
 5574.00    1.00789   0.97043   -1.000
 5575.00    1.03015   0.97320   -1.000
 5576.00    1.11616   0.97661   -1.000
 5577.00    1.18627   0.98029   -1.000
 5578.00    1.09525   0.98352   -1.000
 5579.00    0.89826   0.98596   -1.000
 5580.00    0.82057   0.98721   -1.000
 5581.00    0.89932   0.98720   -1.000
 5582.00    0.97559   0.98594  278.560
 5583.00    0.99798   0.98275   -1.000
 5584.00    1.00397   0.97688   -1.000
 5585.00    0.99823   0.96742   -1.000
 5586.00    0.98204   0.95516   -1.000
 5587.00    0.96788   0.94355   -1.000
 5588.00    0.96576   0.93560   -1.000
 5589.00    0.97668   0.93364   -1.000
 5590.00    0.98743   0.93731   -1.000
 5591.00    0.99049   0.94405   -1.000
 5592.00    0.99624   0.95083   -1.000
 5593.00    0.99728   0.95603   -1.000
 5594.00    0.99399   0.95972   -1.000
 5595.00    0.99941   0.96212   -1.000
 5596.00    1.00306   0.96345   -1.000
 5597.00    1.00379   0.96283   -1.000
 5598.00    0.99271   0.96026   -1.000
 5599.00    0.98849   0.95687   -1.000
 5600.00    0.99230   0.95316   -1.000
 5601.00    0.98524   0.95086   -1.000
 5602.00    0.97950   0.95233   -1.000
 5603.00    0.98492   0.95823   -1.000
 5604.00    1.00252   0.96832   -1.000
 5605.00    1.01395   0.98064   -1.000
 5606.00    1.01790   0.99206   -1.000
 5607.00    1.01491   1.00087   -1.000
 5608.00    1.01538   1.00630  272.014
 5609.00    1.01643   1.00873  272.579
 5610.00    1.01625   1.00872  272.251
 5611.00    1.01757   1.00590   -1.000
 5612.00    1.01881   0.99928   -1.000
 5613.00    1.01094   0.98878   -1.000
 5614.00    0.99342   0.97649   -1.000
 5615.00    0.97655   0.96578   -1.000
 5616.00    0.97710   0.96098   -1.000
 5617.00    0.98936   0.96262   -1.000
 5618.00    1.00442   0.96863   -1.000
 5619.00    1.00886   0.97622   -1.000
 5620.00    1.00982   0.98206   -1.000
 5621.00    1.01320   0.98468   -1.000
 5622.00    1.00937   0.98401   -1.000
 5623.00    1.00327   0.98081   -1.000
 5624.00    0.99309   0.97742   -1.000
 5625.00    0.98995   0.97607   -1.000
 5626.00    0.99873   0.97784   -1.000
 5627.00    1.00468   0.98277   -1.000
 5628.00    1.01012   0.98902   -1.000
 5629.00    1.01576   0.99486   -1.000
 5630.00    1.01627   0.99895   -1.000
 5631.00    1.01397   1.00030   -1.000
 5632.00    1.01373   0.99913   -1.000
 5633.00    1.01281   0.99617   -1.000
 5634.00    1.01068   0.99204   -1.000
 5635.00    1.00824   0.98775   -1.000
 5636.00    1.00554   0.98402   -1.000
 5637.00    1.00979   0.98107   -1.000
 5638.00    1.00917   0.97914   -1.000
 5639.00    1.00120   0.97795   -1.000
 5640.00    0.99941   0.97717   -1.000
 5641.00    0.99978   0.97706   -1.000
 5642.00    1.00342   0.97781   -1.000
 5643.00    1.00897   0.97920   -1.000
 5644.00    1.00735   0.98115   -1.000
 5645.00    1.00840   0.98328   -1.000
 5646.00    1.00781   0.98491   -1.000
 5647.00    1.01169   0.98574   -1.000
 5648.00    1.01408   0.98586   -1.000
 5649.00    1.01005   0.98536   -1.000
 5650.00    1.00827   0.98479   -1.000
 5651.00    1.01002   0.98411   -1.000
 5652.00    1.01459   0.98276   -1.000
 5653.00    1.01203   0.98018   -1.000
 5654.00    1.00646   0.97555   -1.000
 5655.00    1.00292   0.96878   -1.000
 5656.00    1.00249   0.96048   -1.000
 5657.00    0.98500   0.95209   -1.000
 5658.00    0.97521   0.94631   -1.000
 5659.00    0.97747   0.94467   -1.000
 5660.00    0.99182   0.94661   -1.000
 5661.00    0.99537   0.95110   -1.000
 5662.00    0.99405   0.95645   -1.000
 5663.00    0.99765   0.96180   -1.000
 5664.00    1.00515   0.96695   -1.000
 5665.00    1.00611   0.97089   -1.000
 5666.00    1.00186   0.97317   -1.000
 5667.00    0.99696   0.97416   -1.000
 5668.00    0.99412   0.97456   -1.000
 5669.00    0.99904   0.97559   -1.000
 5670.00    1.00081   0.97788   -1.000
 5671.00    1.00199   0.98113   -1.000
 5672.00    1.00849   0.98452   -1.000
 5673.00    1.01048   0.98733   -1.000
 5674.00    1.00474   0.98906   -1.000
 5675.00    1.00708   0.98982   -1.000
 5676.00    1.01002   0.98994   -1.000
 5677.00    1.00717   0.98926   -1.000
 5678.00    1.00420   0.98751   -1.000
 5679.00    1.00462   0.98430   -1.000
 5680.00    1.00439   0.97943   -1.000
 5681.00    0.99810   0.97347   -1.000
 5682.00    0.99814   0.96765   -1.000
 5683.00    0.99798   0.96314   -1.000
 5684.00    0.99510   0.96075   -1.000
 5685.00    0.99354   0.96007   -1.000
 5686.00    0.99141   0.95999   -1.000
 5687.00    0.99563   0.96027   -1.000
 5688.00    0.99163   0.96117   -1.000
 5689.00    0.99407   0.96349   -1.000
 5690.00    1.00213   0.96753   -1.000
 5691.00    1.00830   0.97250   -1.000
 5692.00    1.00691   0.97742   -1.000
 5693.00    1.00129   0.98133   -1.000
 5694.00    1.00255   0.98384   -1.000
 5695.00    1.00608   0.98473   -1.000
 5696.00    1.00447   0.98411   -1.000
 5697.00    1.00629   0.98193   -1.000
 5698.00    1.00559   0.97837   -1.000
 5699.00    0.99735   0.97421   -1.000
 5700.00    0.98948   0.97018   -1.000
 5701.00    0.98803   0.96722   -1.000
 5702.00    0.99082   0.96555   -1.000
 5703.00    0.99379   0.96478   -1.000
 5704.00    0.99897   0.96367   -1.000
 5705.00    0.99533   0.96094   -1.000
 5706.00    0.99136   0.95633   -1.000
 5707.00    0.98352   0.95007   -1.000
 5708.00    0.97262   0.94339   -1.000
 5709.00    0.96496   0.93849   -1.000
 5710.00    0.96993   0.93706   -1.000
 5711.00    0.97405   0.93982   -1.000
 5712.00    0.98405   0.94654   -1.000
 5713.00    0.99574   0.95546   -1.000
 5714.00    1.00128   0.96440   -1.000
 5715.00    1.00206   0.97166   -1.000
 5716.00    1.00031   0.97708   -1.000
 5717.00    1.00187   0.98108   -1.000
 5718.00    1.00013   0.98435   -1.000
 5719.00    1.00226   0.98758   -1.000
 5720.00    1.00589   0.99067   -1.000
 5721.00    1.00334   0.99331  270.275
 5722.00    1.00478   0.99511  269.873
 5723.00    1.00627   0.99565  269.554
 5724.00    1.00453   0.99487  270.285
 5725.00    1.00273   0.99272  272.711
 5726.00    0.99580   0.98985  275.642
 5727.00    0.99191   0.98723  277.766
 5728.00    0.99596   0.98542  275.953
 5729.00    1.00034   0.98474   -1.000
 5730.00    1.00562   0.98467   -1.000
 5731.00    1.00423   0.98506   -1.000
 5732.00    1.00097   0.98604   -1.000
 5733.00    1.00940   0.98760   -1.000
 5734.00    1.01222   0.98968   -1.000
 5735.00    1.00656   0.99161   -1.000
 5736.00    1.00812   0.99296   -1.000
 5737.00    1.00542   0.99354   -1.000
 5738.00    0.99696   0.99344  272.747
 5739.00    0.99679   0.99298  273.391
 5740.00    1.00190   0.99226  273.772
 5741.00    1.00512   0.99138   -1.000
 5742.00    1.00170   0.99072   -1.000
 5743.00    1.00365   0.99044   -1.000
 5744.00    1.00448   0.99046   -1.000
 5745.00    1.00356   0.99034   -1.000
 5746.00    1.00093   0.98984   -1.000
 5747.00    0.99373   0.98909  274.394
 5748.00    0.99451   0.98818  275.274
 5749.00    0.99906   0.98708   -1.000
 5750.00    0.99978   0.98494   -1.000
 5751.00    0.98827   0.98146  275.101
 5752.00    0.98851   0.97748   -1.000
 5753.00    0.98394   0.97438  281.267
 5754.00    0.98861   0.97402   -1.000
 5755.00    0.99329   0.97668   -1.000
 5756.00    1.00008   0.98130   -1.000
 5757.00    0.99891   0.98592   -1.000
 5758.00    1.00198   0.98857   -1.000
 5759.00    1.00500   0.98850   -1.000
 5760.00    1.00034   0.98605   -1.000
 5761.00    0.99555   0.98255   -1.000
 5762.00    0.98975   0.98022  281.740
 5763.00    0.98598   0.98049  278.342
 5764.00    0.99156   0.98352  273.223
 5765.00    0.99736   0.98821  270.038
 5766.00    1.00197   0.99255  269.391
 5767.00    1.00248   0.99541  269.141
 5768.00    1.00514   0.99630  268.662
 5769.00    1.00222   0.99545  269.305
 5770.00    1.00110   0.99349  270.218
 5771.00    1.00203   0.99091   -1.000
 5772.00    1.00028   0.98814   -1.000
 5773.00    0.99787   0.98584   -1.000
 5774.00    0.99669   0.98425   -1.000
 5775.00    0.99461   0.98338   -1.000
 5776.00    0.99257   0.98278  272.296
 5777.00    0.99226   0.98123   -1.000
 5778.00    0.99078   0.97774   -1.000
 5779.00    0.98313   0.97258   -1.000
 5780.00    0.98272   0.96670   -1.000
 5781.00    0.98610   0.96172   -1.000
 5782.00    0.98431   0.95875   -1.000
 5783.00    0.98651   0.95813   -1.000
 5784.00    0.98994   0.95949   -1.000
 5785.00    0.99335   0.96212   -1.000
 5786.00    0.99513   0.96584   -1.000
 5787.00    0.99944   0.96978   -1.000
 5788.00    1.00211   0.97287   -1.000
 5789.00    0.99937   0.97474   -1.000
 5790.00    0.99733   0.97549   -1.000
 5791.00    0.99765   0.97619   -1.000
 5792.00    1.00072   0.97767   -1.000
 5793.00    0.99809   0.97999   -1.000
 5794.00    0.99628   0.98269   -1.000
 5795.00    0.99668   0.98489   -1.000
 5796.00    0.99628   0.98592  271.189
 5797.00    0.99226   0.98605  272.922
 5798.00    0.99652   0.98638  271.386
 5799.00    1.00203   0.98730   -1.000
 5800.00    1.00750   0.98862   -1.000
 5801.00    1.00814   0.98985   -1.000
 5802.00    1.00594   0.99013   -1.000
 5803.00    1.00422   0.98916   -1.000
 5804.00    1.00012   0.98739   -1.000
 5805.00    0.99827   0.98580   -1.000
 5806.00    0.99723   0.98513   -1.000
 5807.00    1.00117   0.98556   -1.000
 5808.00    1.00288   0.98677   -1.000
 5809.00    1.00125   0.98837   -1.000
 5810.00    1.00243   0.98988   -1.000
 5811.00    1.00620   0.99071   -1.000
 5812.00    1.00649   0.99052   -1.000
 5813.00    1.01015   0.98945   -1.000
 5814.00    1.00747   0.98777   -1.000
 5815.00    1.00544   0.98619   -1.000
 5816.00    1.00456   0.98573   -1.000
 5817.00    1.00657   0.98682   -1.000
 5818.00    1.00810   0.98897   -1.000
 5819.00    1.01079   0.99141   -1.000
 5820.00    1.01229   0.99345   -1.000
 5821.00    1.00857   0.99483   -1.000
 5822.00    1.00577   0.99565  265.432
 5823.00    1.00927   0.99612   -1.000
 5824.00    1.01176   0.99636   -1.000
 5825.00    1.00917   0.99653   -1.000
 5826.00    1.01076   0.99675   -1.000
 5827.00    1.01409   0.99705   -1.000
 5828.00    1.00955   0.99728   -1.000
 5829.00    1.00434   0.99731  263.778
 5830.00    1.00923   0.99708   -1.000
 5831.00    1.00929   0.99645   -1.000
 5832.00    1.00539   0.99548  264.114
 5833.00    1.00823   0.99439   -1.000
 5834.00    1.00605   0.99350   -1.000
 5835.00    1.00498   0.99319   -1.000
 5836.00    1.01441   0.99360   -1.000
 5837.00    1.01712   0.99437   -1.000
 5838.00    1.01445   0.99517   -1.000
 5839.00    1.01390   0.99577   -1.000
 5840.00    1.00907   0.99610   -1.000
 5841.00    1.01288   0.99601   -1.000
 5842.00    1.01286   0.99535   -1.000
 5843.00    1.00790   0.99413   -1.000
 5844.00    1.00487   0.99235   -1.000
 5845.00    1.00699   0.99013   -1.000
 5846.00    1.00964   0.98797   -1.000
 5847.00    1.01162   0.98630   -1.000
 5848.00    1.00829   0.98508   -1.000
 5849.00    1.00069   0.98362   -1.000
 5850.00    1.00837   0.98134   -1.000
 5851.00    0.99545   0.97779   -1.000
 5852.00    0.99314   0.97320   -1.000
 5853.00    0.99328   0.96810   -1.000
 5854.00    0.99105   0.96294   -1.000
 5855.00    0.99288   0.95789   -1.000
 5856.00    0.99313   0.95283   -1.000
 5857.00    0.98149   0.94918   -1.000
 5858.00    0.98206   0.94850   -1.000
 5859.00    0.99473   0.95071   -1.000
 5860.00    0.99490   0.95527   -1.000
 5861.00    0.99946   0.96075   -1.000
 5862.00    1.00136   0.96567   -1.000
 5863.00    0.99806   0.96948   -1.000
 5864.00    0.99909   0.97147   -1.000
 5865.00    0.99815   0.97188   -1.000
 5866.00    0.99928   0.97175   -1.000
 5867.00    1.00244   0.97194   -1.000
 5868.00    0.99888   0.97339   -1.000
 5869.00    1.00123   0.97601   -1.000
 5870.00    1.00116   0.97876   -1.000
 5871.00    1.00376   0.98063   -1.000
 5872.00    1.00148   0.98100   -1.000
 5873.00    1.00377   0.97996   -1.000
 5874.00    1.00227   0.97809   -1.000
 5875.00    0.99901   0.97596   -1.000
 5876.00    0.99895   0.97399   -1.000
 5877.00    0.99934   0.97211   -1.000
 5878.00    0.99756   0.97012   -1.000
 5879.00    1.00133   0.96785   -1.000
 5880.00    0.99972   0.96517   -1.000
 5881.00    0.99181   0.96197   -1.000
 5882.00    0.98998   0.95816   -1.000
 5883.00    0.98736   0.95354   -1.000
 5884.00    0.98567   0.94741   -1.000
 5885.00    0.98313   0.93832   -1.000
 5886.00    0.97730   0.92364   -1.000
 5887.00    0.96317   0.90230   -1.000
 5888.00    0.93458   0.87676   -1.000
 5889.00    0.90650   0.85309   -1.000
 5890.00    0.90025   0.83925   -1.000
 5891.00    0.89731   0.83589   -1.000
 5892.00    0.88395   0.83918   -1.000
 5893.00    0.89445   0.84351   -1.000
 5894.00    0.91084   0.84492   -1.000
 5895.00    0.91058   0.84493   -1.000
 5896.00    0.91025   0.84805   -1.000
 5897.00    0.91285   0.85821   -1.000
 5898.00    0.92288   0.87412   -1.000
 5899.00    0.93906   0.89277   -1.000
 5900.00    0.96684   0.91134   -1.000
 5901.00    0.97996   0.92695   -1.000
 5902.00    0.97965   0.93843   -1.000
 5903.00    0.98385   0.94632   -1.000
 5904.00    0.99080   0.95135   -1.000
 5905.00    0.99280   0.95453   -1.000
 5906.00    0.99317   0.95679   -1.000
 5907.00    0.99107   0.95864   -1.000
 5908.00    0.99082   0.96011   -1.000
 5909.00    0.98623   0.96103   -1.000
 5910.00    0.98250   0.96096   -1.000
 5911.00    0.98817   0.95962   -1.000
 5912.00    0.99423   0.95672   -1.000
 5913.00    0.98415   0.95304   -1.000
 5914.00    0.97858   0.94982   -1.000
 5915.00    0.97410   0.94799   -1.000
 5916.00    0.97624   0.94810   -1.000
 5917.00    0.97595   0.94996   -1.000
 5918.00    0.97289   0.95286   -1.000
 5919.00    0.97270   0.95563   -1.000
 5920.00    0.97593   0.95775   -1.000
 5921.00    0.98343   0.95905   -1.000
 5922.00    0.97920   0.95987   -1.000
 5923.00    0.97775   0.96062   -1.000
 5924.00    0.98181   0.96151   -1.000
 5925.00    0.98805   0.96222   -1.000
 5926.00    0.99204   0.96209   -1.000
 5927.00    0.98569   0.96062   -1.000
 5928.00    0.98874   0.95818   -1.000
 5929.00    0.98300   0.95577   -1.000
 5930.00    0.97519   0.95441   -1.000
 5931.00    0.97943   0.95463   -1.000
 5932.00    0.98611   0.95566   -1.000
 5933.00    0.98321   0.95682   -1.000
 5934.00    0.97697   0.95814   -1.000
 5935.00    0.97644   0.95952   -1.000
 5936.00    0.98372   0.96092   -1.000
 5937.00    0.98288   0.96199   -1.000
 5938.00    0.98297   0.96214   -1.000
 5939.00    0.98322   0.96120   -1.000
 5940.00    0.97549   0.95948   -1.000
 5941.00    0.97087   0.95794   -1.000
 5942.00    0.97051   0.95708   -1.000
 5943.00    0.97434   0.95702   -1.000
 5944.00    0.97908   0.95729   -1.000
 5945.00    0.97611   0.95727   -1.000
 5946.00    0.97207   0.95652   -1.000
 5947.00    0.97535   0.95518   -1.000
 5948.00    0.97381   0.95394   -1.000
 5949.00    0.96522   0.95324   -1.000
 5950.00    0.96574   0.95315   -1.000
 5951.00    0.97120   0.95305   -1.000
 5952.00    0.97583   0.95276   -1.000
 5953.00    0.98012   0.95261   -1.000
 5954.00    0.98005   0.95232   -1.000
 5955.00    0.97629   0.95184   -1.000
 5956.00    0.96428   0.95183   -1.000
 5957.00    0.96331   0.95261   -1.000
 5958.00    0.97229   0.95440   -1.000
 5959.00    0.97919   0.95709   -1.000
 5960.00    0.97901   0.95994   -1.000
 5961.00    0.97926   0.96230   -1.000
 5962.00    0.98182   0.96363   -1.000
 5963.00    0.98067   0.96373   -1.000
 5964.00    0.97882   0.96287   -1.000
 5965.00    0.97665   0.96171   -1.000
 5966.00    0.97078   0.96087  278.108
 5967.00    0.97148   0.96076   -1.000
 5968.00    0.97347   0.96140   -1.000
 5969.00    0.97786   0.96266   -1.000
 5970.00    0.98340   0.96404   -1.000
 5971.00    0.98219   0.96482   -1.000
 5972.00    0.97764   0.96453   -1.000
 5973.00    0.97554   0.96280   -1.000
 5974.00    0.97645   0.95984   -1.000
 5975.00    0.97021   0.95641   -1.000
 5976.00    0.96949   0.95356   -1.000
 5977.00    0.96994   0.95229   -1.000
 5978.00    0.97353   0.95266   -1.000
 5979.00    0.97747   0.95405   -1.000
 5980.00    0.97058   0.95521   -1.000
 5981.00    0.96903   0.95500   -1.000
 5982.00    0.97059   0.95309   -1.000
 5983.00    0.96503   0.95031   -1.000
 5984.00    0.96636   0.94804   -1.000
 5985.00    0.96660   0.94728   -1.000
 5986.00    0.96579   0.94824   -1.000
 5987.00    0.96980   0.95027   -1.000
 5988.00    0.96825   0.95258   -1.000
 5989.00    0.97082   0.95441   -1.000
 5990.00    0.97360   0.95575   -1.000
 5991.00    0.97244   0.95693   -1.000
 5992.00    0.97049   0.95839   -1.000
 5993.00    0.96950   0.95980  273.925
 5994.00    0.97279   0.96043   -1.000
 5995.00    0.97580   0.96008   -1.000
 5996.00    0.97429   0.95884   -1.000
 5997.00    0.97803   0.95731   -1.000
 5998.00    0.97065   0.95596   -1.000
 5999.00    0.96573   0.95501   -1.000
 6000.00    0.96777   0.95424   -1.000
 6001.00    0.96916   0.95334   -1.000
 6002.00    0.96538   0.95219   -1.000
 6003.00    0.96346   0.95095   -1.000
 6004.00    0.96505   0.94958   -1.000
 6005.00    0.96420   0.94774   -1.000
 6006.00    0.95612   0.94540   -1.000
 6007.00    0.95559   0.94342   -1.000
 6008.00    0.95528   0.94267   -1.000
 6009.00    0.95395   0.94361   -1.000
 6010.00    0.96396   0.94555   -1.000
 6011.00    0.96399   0.94719   -1.000
 6012.00    0.96125   0.94804   -1.000
 6013.00    0.96302   0.94796   -1.000
 6014.00    0.96347   0.94732   -1.000
 6015.00    0.96461   0.94651   -1.000
 6016.00    0.95903   0.94563   -1.000
 6017.00    0.96293   0.94454   -1.000
 6018.00    0.96460   0.94305   -1.000
 6019.00    0.95457   0.94112   -1.000
 6020.00    0.95192   0.93930   -1.000
 6021.00    0.94871   0.93842   -1.000
 6022.00    0.94736   0.93859  282.199
 6023.00    0.95147   0.93984   -1.000
 6024.00    0.95268   0.94238   -1.000
 6025.00    0.95345   0.94583  279.539
 6026.00    0.95485   0.94945  278.831
 6027.00    0.96014   0.95302  276.933
 6028.00    0.95958   0.95640  275.814
 6029.00    0.96205   0.95919  275.505
 6030.00    0.96576   0.96131  275.616
 6031.00    0.96200   0.96290  276.320
 6032.00    0.96099   0.96411  275.683
 6033.00    0.96418   0.96502  274.394
 6034.00    0.96127   0.96566  273.767
 6035.00    0.96337   0.96584  273.697
 6036.00    0.96809   0.96551  273.130
 6037.00    0.96572   0.96450  273.530
 6038.00    0.96078   0.96284  275.222
 6039.00    0.95700   0.96078  275.645
 6040.00    0.95869   0.95881  276.584
 6041.00    0.95697   0.95742  275.818
 6042.00    0.95908   0.95698  275.503
 6043.00    0.95834   0.95764  273.958
 6044.00    0.95861   0.95912  271.708
 6045.00    0.95872   0.96089  272.128
 6046.00    0.96187   0.96282  272.136
 6047.00    0.96019   0.96455  271.643
 6048.00    0.96034   0.96573  271.996
 6049.00    0.95685   0.96623  273.015
 6050.00    0.95897   0.96608  273.577
 6051.00    0.95514   0.96513  273.794
 6052.00    0.95579   0.96324  274.354
 6053.00    0.95748   0.96067  275.539
 6054.00    0.95452   0.95794  276.339
 6055.00    0.95407   0.95584  277.964
 6056.00    0.95211   0.95496  278.714
 6057.00    0.95616   0.95547  278.120
 6058.00    0.96096   0.95674  276.556
 6059.00    0.95982   0.95798  275.156
 6060.00    0.95875   0.95824  275.659
 6061.00    0.95845   0.95688  276.286
 6062.00    0.95702   0.95380  280.610
 6063.00    0.96172   0.94961   -1.000
 6064.00    0.95367   0.94568  275.223
 6065.00    0.90746   0.94383   -1.000
 6066.00    0.59366   0.94479   -1.000
 6067.00    0.76476   0.94794   -1.000
 6068.00    0.96333   0.95238   -1.000
 6069.00    0.96154   0.95683  276.186
 6070.00    0.99673   0.96037   -1.000
 6071.00    0.30546   0.96276   -1.000
 6072.00    0.55758   0.96420   -1.000
 6073.00    0.98650   0.96474   -1.000
 6074.00    0.95319   0.96428  273.213
 6075.00    0.95691   0.96275  274.212
 6076.00    0.95035   0.96028  275.678
 6077.00    0.94528   0.95711   -1.000
 6078.00    0.94606   0.95406  279.482
 6079.00    0.95024   0.95172  281.135
 6080.00    0.94952   0.94989  281.150
 6081.00    0.94447   0.94833  281.438
 6082.00    0.94222   0.94703  282.299
 6083.00    0.94140   0.94604  282.191
 6084.00    0.93825   0.94556  281.981
 6085.00    0.93968   0.94594  281.673
 6086.00    0.94233   0.94705  280.806
 6087.00    0.94415   0.94824  279.648
 6088.00    0.94542   0.94893  280.359
 6089.00    0.94054   0.94900  282.152
 6090.00    0.93715   0.94871   -1.000
 6091.00    0.93769   0.94859  283.029
 6092.00    0.93981   0.94903  281.069
 6093.00    0.94127   0.95021  279.727
 6094.00    0.94238   0.95192  278.113
 6095.00    0.94502   0.95373  276.947
 6096.00    0.94244   0.95509   -1.000
 6097.00    0.94268   0.95521   -1.000
 6098.00    0.94127   0.95331   -1.000
 6099.00    0.93483   0.94875   -1.000
 6100.00    0.93377   0.94177  281.665
 6101.00    0.92630   0.93391  288.886
 6102.00    0.92140   0.92790  293.268
 6103.00    0.92106   0.92610  290.603
 6104.00    0.92830   0.92857  284.815
 6105.00    0.93560   0.93394  280.653
 6106.00    0.93417   0.94037  279.946
 6107.00    0.92979   0.94629   -1.000
 6108.00    0.93144   0.95082   -1.000
 6109.00    0.92911   0.95377   -1.000
 6110.00    0.92851   0.95544   -1.000
 6111.00    0.93172   0.95629   -1.000
 6112.00    0.93537   0.95670   -1.000
 6113.00    0.93216   0.95692   -1.000
 6114.00    0.93601   0.95694   -1.000
 6115.00    0.93947   0.95659   -1.000
 6116.00    0.93901   0.95560   -1.000
 6117.00    0.93272   0.95344   -1.000
 6118.00    0.92749   0.94938   -1.000
 6119.00    0.92351   0.94316   -1.000
 6120.00    0.91748   0.93537   -1.000
 6121.00    0.90763   0.92787   -1.000
 6122.00    0.90777   0.92296   -1.000
 6123.00    0.91130   0.92191  287.925
 6124.00    0.91760   0.92450  284.357
 6125.00    0.92168   0.92913  284.549
 6126.00    0.92283   0.93407   -1.000
 6127.00    0.92606   0.93807   -1.000
 6128.00    0.92777   0.94138   -1.000
 6129.00    0.92330   0.94463   -1.000
 6130.00    0.92924   0.94773   -1.000
 6131.00    0.92744   0.94996   -1.000
 6132.00    0.92808   0.95005   -1.000
 6133.00    0.92009   0.94644   -1.000
 6134.00    0.91399   0.93861   -1.000
 6135.00    0.89982   0.92788   -1.000
 6136.00    0.88813   0.91741   -1.000
 6137.00    0.88235   0.91035   -1.000
 6138.00    0.88900   0.90751   -1.000
 6139.00    0.90426   0.90817  289.480
 6140.00    0.90940   0.91180  286.692
 6141.00    0.91057   0.91757  287.449
 6142.00    0.90951   0.92436   -1.000
 6143.00    0.90995   0.93092   -1.000
 6144.00    0.91910   0.93612   -1.000
 6145.00    0.92583   0.93915   -1.000
 6146.00    0.92683   0.93988   -1.000
 6147.00    0.92440   0.93893   -1.000
 6148.00    0.91944   0.93737   -1.000
 6149.00    0.91424   0.93621   -1.000
 6150.00    0.91667   0.93585   -1.000
 6151.00    0.92047   0.93618   -1.000
 6152.00    0.91818   0.93653   -1.000
 6153.00    0.91948   0.93615   -1.000
 6154.00    0.91870   0.93485   -1.000
 6155.00    0.91460   0.93283   -1.000
 6156.00    0.91405   0.93003   -1.000
 6157.00    0.91508   0.92596   -1.000
 6158.00    0.91427   0.91976  293.186
 6159.00    0.90617   0.91074  298.996
 6160.00    0.89423   0.89958  308.369
 6161.00    0.88196   0.88876  317.249
 6162.00    0.87594   0.88148  319.787
 6163.00    0.88132   0.87943  314.451
 6164.00    0.89287   0.88202   -1.000
 6165.00    0.90362   0.88716   -1.000
 6166.00    0.90044   0.89201  300.109
 6167.00    0.89472   0.89469  301.046
 6168.00    0.89618   0.89538  305.255
 6169.00    0.89445   0.89628  308.219
 6170.00    0.89194   0.89884  305.491
 6171.00    0.90031   0.90337  299.282
 6172.00    0.90164   0.90925  295.295
 6173.00    0.89937   0.91536   -1.000
 6174.00    0.90650   0.92054   -1.000
 6175.00    0.90597   0.92433   -1.000
 6176.00    0.90691   0.92701   -1.000
 6177.00    0.90799   0.92896   -1.000
 6178.00    0.90642   0.93053   -1.000
 6179.00    0.90917   0.93200   -1.000
 6180.00    0.91159   0.93358   -1.000
 6181.00    0.91351   0.93519   -1.000
 6182.00    0.91182   0.93634   -1.000
 6183.00    0.91283   0.93659   -1.000
 6184.00    0.91229   0.93572   -1.000
 6185.00    0.90672   0.93364   -1.000
 6186.00    0.90894   0.93041   -1.000
 6187.00    0.90795   0.92626   -1.000
 6188.00    0.89955   0.92135   -1.000
 6189.00    0.89461   0.91601   -1.000
 6190.00    0.88766   0.91149   -1.000
 6191.00    0.88367   0.90964   -1.000
 6192.00    0.88348   0.91103   -1.000
 6193.00    0.89547   0.91495   -1.000
 6194.00    0.90479   0.92021   -1.000
 6195.00    0.90774   0.92531   -1.000
 6196.00    0.90830   0.92893   -1.000
 6197.00    0.90748   0.93046   -1.000
 6198.00    0.89710   0.93032   -1.000
 6199.00    0.89326   0.92959   -1.000
 6200.00    0.89507   0.92947   -1.000
 6201.00    0.89353   0.93055   -1.000
 6202.00    0.90281   0.93284   -1.000
 6203.00    0.90203   0.93584   -1.000
 6204.00    0.90008   0.93886   -1.000
 6205.00    0.90044   0.94123   -1.000
 6206.00    0.90420   0.94270   -1.000
 6207.00    0.90364   0.94306   -1.000
 6208.00    0.90057   0.94216   -1.000
 6209.00    0.90044   0.93978   -1.000
 6210.00    0.90205   0.93581   -1.000
 6211.00    0.89379   0.93049   -1.000
 6212.00    0.89631   0.92459   -1.000
 6213.00    0.91108   0.91918  306.276
 6214.00    0.90726   0.91508  309.158
 6215.00    0.91012   0.91249  309.770
 6216.00    0.91342   0.91108  305.231
 6217.00    0.91109   0.91028  304.114
 6218.00    0.90697   0.90999  306.775
 6219.00    0.90871   0.91043  305.213
 6220.00    0.90561   0.91185  302.907
 6221.00    0.91134   0.91399  305.232
 6222.00    0.88781   0.91633   -1.000
 6223.00    0.85236   0.91833   -1.000
 6224.00    0.88494   0.91941   -1.000
 6225.00    0.89247   0.91909   -1.000
 6226.00    0.89406   0.91698   -1.000
 6227.00    0.89441   0.91289   -1.000
 6228.00    0.88247   0.90720   -1.000
 6229.00    0.87310   0.90122   -1.000
 6230.00    0.86147   0.89677   -1.000
 6231.00    0.86914   0.89527   -1.000
 6232.00    0.87715   0.89699   -1.000
 6233.00    0.88037   0.90090   -1.000
 6234.00    0.88438   0.90514   -1.000
 6235.00    0.89282   0.90807   -1.000
 6236.00    0.88813   0.90889   -1.000
 6237.00    0.88714   0.90792   -1.000
 6238.00    0.87941   0.90596   -1.000
 6239.00    0.87678   0.90376   -1.000
 6240.00    0.87332   0.90150   -1.000
 6241.00    0.87457   0.89894   -1.000
 6242.00    0.87646   0.89576   -1.000
 6243.00    0.87169   0.89217   -1.000
 6244.00    0.86943   0.88892   -1.000
 6245.00    0.86404   0.88723   -1.000
 6246.00    0.87133   0.88805   -1.000
 6247.00    0.87175   0.89129   -1.000
 6248.00    0.87535   0.89554   -1.000
 6249.00    0.87730   0.89875   -1.000
 6250.00    0.87066   0.89944   -1.000
 6251.00    0.86475   0.89731   -1.000
 6252.00    0.86244   0.89340   -1.000
 6253.00    0.85865   0.88924   -1.000
 6254.00    0.84979   0.88604   -1.000
 6255.00    0.85219   0.88428   -1.000
 6256.00    0.85654   0.88395   -1.000
 6257.00    0.86009   0.88497   -1.000
 6258.00    0.86151   0.88730   -1.000
 6259.00    0.85928   0.89091   -1.000
 6260.00    0.86262   0.89546   -1.000
 6261.00    0.86551   0.90044   -1.000
 6262.00    0.86545   0.90499   -1.000
 6263.00    0.86780   0.90852   -1.000
 6264.00    0.86959   0.91101   -1.000
 6265.00    0.86037   0.91273   -1.000
 6266.00    0.86548   0.91388   -1.000
 6267.00    0.86799   0.91432   -1.000
 6268.00    0.87017   0.91396   -1.000
 6269.00    0.86961   0.91308   -1.000
 6270.00    0.86568   0.91194   -1.000
 6271.00    0.86729   0.91053   -1.000
 6272.00    0.86748   0.90839   -1.000
 6273.00    0.86619   0.90487   -1.000
 6274.00    0.86806   0.89982   -1.000
 6275.00    0.86021   0.89361   -1.000
 6276.00    0.84347   0.88718   -1.000
 6277.00    0.82636   0.88165   -1.000
 6278.00    0.81575   0.87802   -1.000
 6279.00    0.80728   0.87710   -1.000
 6280.00    0.81289   0.87910   -1.000
 6281.00    0.82009   0.88354   -1.000
 6282.00    0.82780   0.88951   -1.000
 6283.00    0.83650   0.89585   -1.000
 6284.00    0.84330   0.90158   -1.000
 6285.00    0.85415   0.90602   -1.000
 6286.00    0.85424   0.90890   -1.000
 6287.00    0.85723   0.91011   -1.000
 6288.00    0.85767   0.90981   -1.000
 6289.00    0.84968   0.90849   -1.000
 6290.00    0.85223   0.90681   -1.000
 6291.00    0.85089   0.90523   -1.000
 6292.00    0.84812   0.90392   -1.000
 6293.00    0.84860   0.90271   -1.000
 6294.00    0.84798   0.90113   -1.000
 6295.00    0.85244   0.89883   -1.000
 6296.00    0.85152   0.89593   -1.000
 6297.00    0.84666   0.89289   -1.000
 6298.00    0.84987   0.89008   -1.000
 6299.00    0.86392   0.88780   -1.000
 6300.00    0.87074   0.88653   -1.000
 6301.00    0.85307   0.88706   -1.000
 6302.00    0.81820   0.88978   -1.000
 6303.00    0.80324   0.89426   -1.000
 6304.00    0.82416   0.89955   -1.000
 6305.00    0.84938   0.90457   -1.000
 6306.00    0.85441   0.90845   -1.000
 6307.00    0.85368   0.91076   -1.000
 6308.00    0.85648   0.91166   -1.000
 6309.00    0.85430   0.91151   -1.000
 6310.00    0.85164   0.91055   -1.000
 6311.00    0.84908   0.90887   -1.000
 6312.00    0.85223   0.90641   -1.000
 6313.00    0.84979   0.90333   -1.000
 6314.00    0.84335   0.89997   -1.000
 6315.00    0.84658   0.89679   -1.000
 6316.00    0.84746   0.89439   -1.000
 6317.00    0.84295   0.89344   -1.000
 6318.00    0.84284   0.89446   -1.000
 6319.00    0.84737   0.89725   -1.000
 6320.00    0.85314   0.90110   -1.000
 6321.00    0.85611   0.90539   -1.000
 6322.00    0.85001   0.90975   -1.000
 6323.00    0.84728   0.91369   -1.000
 6324.00    0.85547   0.91674   -1.000
 6325.00    0.86104   0.91874   -1.000
 6326.00    0.85853   0.91975   -1.000
 6327.00    0.85942   0.92002   -1.000
 6328.00    0.86093   0.91981   -1.000
 6329.00    0.85854   0.91934   -1.000
 6330.00    0.86221   0.91861   -1.000
 6331.00    0.85994   0.91726   -1.000
 6332.00    0.85982   0.91477   -1.000
 6333.00    0.85541   0.91099   -1.000
 6334.00    0.84293   0.90654   -1.000
 6335.00    0.83128   0.90274   -1.000
 6336.00    0.84532   0.90079   -1.000
 6337.00    0.85125   0.90116   -1.000
 6338.00    0.85934   0.90356   -1.000
 6339.00    0.86362   0.90711   -1.000
 6340.00    0.86410   0.91049   -1.000
 6341.00    0.86491   0.91266   -1.000
 6342.00    0.86538   0.91326   -1.000
 6343.00    0.85488   0.91259   -1.000
 6344.00    0.86013   0.91142   -1.000
 6345.00    0.86264   0.91071   -1.000
 6346.00    0.86179   0.91135   -1.000
 6347.00    0.86680   0.91355   -1.000
 6348.00    0.86494   0.91674   -1.000
 6349.00    0.86701   0.91994   -1.000
 6350.00    0.86702   0.92223   -1.000
 6351.00    0.86103   0.92299   -1.000
 6352.00    0.86482   0.92213   -1.000
 6353.00    0.86395   0.92011   -1.000
 6354.00    0.85914   0.91759   -1.000
 6355.00    0.86135   0.91503   -1.000
 6356.00    0.85588   0.91254   -1.000
 6357.00    0.85075   0.91021   -1.000
 6358.00    0.84955   0.90811   -1.000
 6359.00    0.85285   0.90621   -1.000
 6360.00    0.85456   0.90450   -1.000
 6361.00    0.86221   0.90319   -1.000
 6362.00    0.86534   0.90258   -1.000
 6363.00    0.86881   0.90285   -1.000
 6364.00    0.87038   0.90394   -1.000
 6365.00    0.85989   0.90561   -1.000
 6366.00    0.84284   0.90739   -1.000
 6367.00    0.84006   0.90875   -1.000
 6368.00    0.85218   0.90943   -1.000
 6369.00    0.85537   0.90973   -1.000
 6370.00    0.85534   0.91023   -1.000
 6371.00    0.85612   0.91133   -1.000
 6372.00    0.85662   0.91292   -1.000
 6373.00    0.85762   0.91452   -1.000
 6374.00    0.85944   0.91553   -1.000
 6375.00    0.85748   0.91559   -1.000
 6376.00    0.85363   0.91472   -1.000
 6377.00    0.85194   0.91327   -1.000
 6378.00    0.84804   0.91163   -1.000
 6379.00    0.84540   0.91012   -1.000
 6380.00    0.84533   0.90891   -1.000
 6381.00    0.83864   0.90813   -1.000
 6382.00    0.83658   0.90789   -1.000
 6383.00    0.83491   0.90829   -1.000
 6384.00    0.83343   0.90931   -1.000
 6385.00    0.83362   0.91065   -1.000
 6386.00    0.83222   0.91186   -1.000
 6387.00    0.82958   0.91254   -1.000
 6388.00    0.82290   0.91232   -1.000
 6389.00    0.81899   0.91089   -1.000
 6390.00    0.81706   0.90817   -1.000
 6391.00    0.80805   0.90468   -1.000
 6392.00    0.79762   0.90152   -1.000
 6393.00    0.79328   0.89977   -1.000
 6394.00    0.79781   0.89972   -1.000
 6395.00    0.80111   0.90066   -1.000
 6396.00    0.79646   0.90131   -1.000
 6397.00    0.79276   0.90072   -1.000
 6398.00    0.78586   0.89910   -1.000
 6399.00    0.77524   0.89765   -1.000
 6400.00    0.76961   0.89764   -1.000
 6401.00    0.77087   0.89951   -1.000
 6402.00    0.77362   0.90263   -1.000
 6403.00    0.77417   0.90568   -1.000
 6404.00    0.77456   0.90738   -1.000
 6405.00    0.77038   0.90719   -1.000
 6406.00    0.75785   0.90559   -1.000
 6407.00    0.75319   0.90357   -1.000
 6408.00    0.75318   0.90184   -1.000
 6409.00    0.74601   0.90068   -1.000
 6410.00    0.74294   0.90021   -1.000
 6411.00    0.73901   0.90051   -1.000
 6412.00    0.73093   0.90134   -1.000
 6413.00    0.73309   0.90233   -1.000
 6414.00    0.72789   0.90325   -1.000
 6415.00    0.72458   0.90391   -1.000
 6416.00    0.71665   0.90392   -1.000
 6417.00    0.70762   0.90299   -1.000
 6418.00    0.70706   0.90130   -1.000
 6419.00    0.70108   0.89961   -1.000
 6420.00    0.68528   0.89910   -1.000
 6421.00    0.67652   0.90056   -1.000
 6422.00    0.66995   0.90385   -1.000
 6423.00    0.67285   0.90824   -1.000
 6424.00    0.67384   0.91264   -1.000
 6425.00    0.66759   0.91592   -1.000
 6426.00    0.66225   0.91720   -1.000
 6427.00    0.65762   0.91598   -1.000
 6428.00    0.64461   0.91254   -1.000
