###################################################################
## OUTPUT of StarlightChains_v04.for    [Cid@UFSC - 01/Apr/2007] ##
###################################################################

## Some input info
NGC6316_b_1.cxt                          [arq_obs]
Base.BC03.S                              [arq_base]
NGC6316_b_1.msk                          [arq_masks]
StCv04.C11.config                        [arq_config]
  150                                    [N_base]
    0                                    [N_YAV_components = # of components with extra extinction!]
    0                                    [i_FitPowerLaw (1/0 = Yes/No)]
-9.99                                    [alpha_PowerLaw]
CCM                                      [red_law_option]
 1.458241                                [q_norm = A(l_norm)/A(V)]

## (Re)Sampling Parameters
 3359.00                                 [l_ini (A)]
 6428.00                                 [l_fin (A)]
    1.00                                 [dl    (A)]     (OBS: dl_cushion =    50.00 A)

## Normalization info
 4020.00                                 [l_norm (A) - for base]
 4010.00                                 [llow_norm (A) - window for f_obs]
 4060.00                                 [lupp_norm (A) - window for f_obs]
4.941922E-15                             [fobs_norm (in input units)]

## S/N
 4730.00                                 [llow_SN (A) - window for S/N]
 4780.00                                 [lupp_SN (A) - window for S/N]
  40.026                                 [S/N in S/N window]
  23.956                                 [S/N in norm. window]
 311.877                                 [S/N_err in S/N window]
 186.662                                 [S/N_err in norm. window]
  1.0000                                 [fscale_chi2]

## etc...
  2147483617                             [idum_orig]
  3069                                   [NOl_eff]
  1045                                   [Nl_eff]
  2024    NSIGMA                         [Ntot_cliped & clip_method]
  2769060                                [Nglobal_steps]
   7                                     [N_chains]
  45                                     [NEX0s_base = N_base in EX0s-fits]
 0   0   1      129   2.0   4.321E+02    [Clip-Bug, RC-Crash & Burn-In warning-flags, n_censored_weights, wei_nsig_threshold & wei_limit]
    95     94.945     94.941      0.004  [idt_all, wdt_TotTime, wdt_UsrTime & wdt_SysTime (sec)]

## Synthesis Results - Best model ##

 3.06663E+00                             [chi2/Nl_eff]
     2.19380                             [adev (%)]

    95.94021                             [sum-of-x (%)]
 5.52475E-14                             [Flux_tot (units of input spectrum!)]
 2.15854E-09                             [Mini_tot (???)]
 1.07776E-09                             [Mcor_tot (???)]

  -7.73                                  [v0_min  (km/s)]
  28.24                                  [vd_min  (km/s)]
 1.8283                                  [AV_min  (mag)]
 0.0000                                  [YAV_min (mag)]

# j     x_j(%)      Mini_j(%)     Mcor_j(%)     age_j(yr)     Z_j      (L/M)_j    YAV?  Mstars   component_j        a/Fe...       SSP_chi2r SSP_adev(%)   SSP_AV   SSP_x(%)
  1      0.8654     2.8292E-03    5.6662E-03    1.000000E+06  0.00010  8.160E-03    0   1.0000   age020_m22            0.0000     3.0140E+03    35.1032   4.0000    97.1073
  2      3.0831     1.7283E-03    3.4614E-03    3.160000E+06  0.00010  4.759E-02    0   1.0000   age045_m22            0.0000     2.3096E+02     5.8446   3.4413    99.3769
  3      6.7725     9.3517E-03    1.7947E-02    5.010000E+06  0.00010  1.932E-02    0   0.9582   age055_m22            0.0000     3.3123E+02    11.1351   3.9114    86.6475
  4      0.7406     1.9810E-03    3.6887E-03    6.610000E+06  0.00010  9.973E-03    0   0.9297   age061_m22            0.0000     3.0214E+03    34.2914   4.0000   100.0188
  5      1.3128     4.5544E-03    8.2367E-03    8.710000E+06  0.00010  7.690E-03    0   0.9030   age067_m22            0.0000     2.9326E+03    33.9781   4.0000   100.4366
  6      1.2771     5.3443E-03    9.5284E-03    1.000000E+07  0.00010  6.375E-03    0   0.8902   age070_m22            0.0000     2.9090E+03    34.0472   4.0000   100.6457
  7      0.5229     2.8620E-03    4.9232E-03    1.445000E+07  0.00010  4.874E-03    0   0.8589   age078_m22            0.0000     2.1507E+03    30.0275   4.0000   102.6495
  8      0.0000     0.0000E+00    0.0000E+00    2.512000E+07  0.00010  4.103E-03    0   0.8174   age090_m22            0.0000     1.0019E+03    21.0515   4.0000   105.3217
  9      0.0000     0.0000E+00    0.0000E+00    4.000000E+07  0.00010  3.654E-03    0   0.7830   age104_m22            0.0000     6.1799E+02    14.8162   4.0000   105.8175
 10      0.0000     0.0000E+00    0.0000E+00    5.500000E+07  0.00010  3.093E-03    0   0.7597   age110_m22            0.0000     5.5120E+02    13.2784   4.0000   105.3950
 11      0.0008     8.4149E-06    1.2030E-05    1.015200E+08  0.00010  2.431E-03    0   0.7138   age116_m22            0.0000     5.2403E+02     9.6048   4.0000   102.1139
 12      0.0000     0.0000E+00    0.0000E+00    1.609000E+08  0.00010  1.319E-03    0   0.6775   age120_m22            0.0000     5.2309E+02     9.1642   3.5624   103.3107
 13      0.0000     0.0000E+00    0.0000E+00    2.861200E+08  0.00010  1.075E-03    0   0.6412   age125_m22            0.0000     9.5438E+02    13.3712   3.5683   106.2425
 14      0.0000     0.0000E+00    0.0000E+00    5.088000E+08  0.00010  7.183E-04    0   0.6083   age130_m22            0.0000     1.0951E+03    14.5196   3.3281   107.4663
 15      0.0000     0.0000E+00    0.0000E+00    9.047900E+08  0.00010  4.524E-04    0   0.5785   age135_m22            0.0000     1.1005E+03    14.7202   3.1226   108.6307
 16      0.0000     0.0000E+00    0.0000E+00    1.278050E+09  0.00010  3.018E-04    0   0.5588   age138_m22            0.0000     6.6837E+02    11.6166   2.6319   106.9091
 17      0.0000     0.0000E+00    0.0000E+00    1.434000E+09  0.00010  2.691E-04    0   0.5532   age139_m22            0.0000     5.8671E+02    10.9769   2.4848   106.3036
 18      0.0000     0.0000E+00    0.0000E+00    2.500000E+09  0.00010  1.582E-04    0   0.5296   age150_m22            0.0000     5.4168E+02    10.2410   2.3903   107.2131
 19      0.0000     0.0000E+00    0.0000E+00    4.250000E+09  0.00010  1.007E-04    0   0.5110   age158_m22            0.0000     3.8438E+02     8.8697   2.2387   105.8753
 20      0.0000     0.0000E+00    0.0000E+00    6.250000E+09  0.00010  6.869E-05    0   0.4985   age166_m22            0.0000     2.5667E+02     7.3848   2.1861   103.3421
 21      0.7356     3.3412E-01    3.2997E-01    7.500000E+09  0.00010  5.873E-05    0   0.4931   age171_m22            0.0000     2.4225E+02     6.9871   2.1847   102.8322
 22      0.0000     0.0000E+00    0.0000E+00    1.000000E+10  0.00010  4.481E-05    0   0.4854   age181_m22            0.0000     2.3559E+02     6.9538   2.1455   102.4317
 23      0.0000     0.0000E+00    0.0000E+00    1.300000E+10  0.00010  3.489E-05    0   0.4791   age193_m22            0.0000     2.1973E+02     6.8553   2.0865   101.8479
 24      0.0930     8.1743E-02    7.8026E-02    1.500000E+10  0.00010  3.035E-05    0   0.4766   age201_m22            0.0000     2.0962E+02     6.7400   2.0481   101.6639
 25      0.0000     0.0000E+00    0.0000E+00    1.800000E+10  0.00010  2.510E-05    0   0.4735   age213_m22            0.0000     1.8682E+02     6.4380   1.9823   101.0501
 26      2.7608     8.7079E-03    1.7440E-02    1.000000E+06  0.00040  8.458E-03    0   1.0000   age020_m32            0.0000     3.0726E+03    35.2710   4.0000    97.8767
 27      0.0000     0.0000E+00    0.0000E+00    3.160000E+06  0.00040  3.973E-02    0   1.0000   age045_m32            0.0000     8.6984E+02    19.0071   4.0000   104.2827
 28      0.5409     7.4576E-04    1.4237E-03    5.010000E+06  0.00040  1.935E-02    0   0.9532   age055_m32            0.0000     1.6154E+03    24.8584   4.0000   101.0785
 29      0.3585     7.9438E-04    1.4705E-03    6.610000E+06  0.00040  1.204E-02    0   0.9243   age061_m32            0.0000     2.4454E+03    31.2261   4.0000   101.4367
 30      0.6774     1.9158E-03    3.4536E-03    8.710000E+06  0.00040  9.433E-03    0   0.9001   age067_m32            0.0000     2.2801E+03    30.4367   4.0000   102.2082
 31      0.5877     1.9469E-03    3.4613E-03    1.000000E+07  0.00040  8.053E-03    0   0.8877   age070_m32            0.0000     2.1507E+03    29.6602   4.0000   102.4336
 32      0.0000     0.0000E+00    0.0000E+00    1.445000E+07  0.00040  7.027E-03    0   0.8578   age078_m32            0.0000     8.9045E+02    18.5473   4.0000   102.6772
 33      0.0000     0.0000E+00    0.0000E+00    2.512000E+07  0.00040  4.707E-03    0   0.8166   age090_m32            0.0000     4.7930E+02    12.2741   4.0000   102.1343
 34      0.0000     0.0000E+00    0.0000E+00    4.000000E+07  0.00040  3.714E-03    0   0.7827   age104_m32            0.0000     3.9206E+02     9.0500   4.0000   101.6794
 35      0.0000     0.0000E+00    0.0000E+00    5.500000E+07  0.00040  2.982E-03    0   0.7593   age110_m32            0.0000     4.1214E+02     8.7015   4.0000   101.4540
 36      0.0000     0.0000E+00    0.0000E+00    1.015200E+08  0.00040  2.188E-03    0   0.7143   age116_m32            0.0000     6.3992E+02    10.6855   3.7871   103.4768
 37      0.0000     0.0000E+00    0.0000E+00    1.609000E+08  0.00040  1.690E-03    0   0.6856   age120_m32            0.0000     8.2563E+02    12.0829   3.5765   105.6867
 38      0.0000     0.0000E+00    0.0000E+00    2.861200E+08  0.00040  1.152E-03    0   0.6509   age125_m32            0.0000     9.8734E+02    13.6963   3.3208   107.1148
 39      0.0000     0.0000E+00    0.0000E+00    5.088000E+08  0.00040  7.331E-04    0   0.6182   age130_m32            0.0000     1.0398E+03    14.3620   3.1427   107.6866
 40      0.0000     0.0000E+00    0.0000E+00    9.047900E+08  0.00040  3.960E-04    0   0.5890   age135_m32            0.0000     6.7357E+02    12.3402   2.6881   106.4130
 41      0.0000     0.0000E+00    0.0000E+00    1.278050E+09  0.00040  2.854E-04    0   0.5687   age138_m32            0.0000     5.9146E+02    11.0427   2.4332   108.3412
 42      0.0000     0.0000E+00    0.0000E+00    1.434000E+09  0.00040  2.531E-04    0   0.5632   age139_m32            0.0000     5.8145E+02    10.8278   2.3821   108.1918
 43      0.0014     2.4318E-04    2.6232E-04    2.500000E+09  0.00040  1.488E-04    0   0.5386   age150_m32            0.0000     4.6083E+02     9.9856   2.1272   106.4153
 44      0.0000     0.0000E+00    0.0000E+00    4.250000E+09  0.00040  9.082E-05    0   0.5199   age158_m32            0.0000     2.4757E+02     7.6359   2.0413   103.3920
 45      7.2694     3.0483E+00    3.0990E+00    6.250000E+09  0.00040  6.362E-05    0   0.5076   age166_m32            0.0000     1.3428E+02     5.5795   2.0207   100.3283
 46      6.2377     3.1463E+00    3.1677E+00    7.500000E+09  0.00040  5.289E-05    0   0.5027   age171_m32            0.0000     1.1392E+02     5.3113   1.9823    99.0649
 47      8.6842     5.8327E+00    5.7801E+00    1.000000E+10  0.00040  3.972E-05    0   0.4948   age181_m32            0.0000     9.8445E+01     5.2470   1.9134    97.6513
 48      0.0000     0.0000E+00    0.0000E+00    1.300000E+10  0.00040  3.283E-05    0   0.4870   age193_m32            0.0000     1.4180E+02     6.1692   1.8640   100.2186
 49      0.0000     0.0000E+00    0.0000E+00    1.500000E+10  0.00040  2.925E-05    0   0.4854   age201_m32            0.0000     1.7678E+02     6.7717   1.8426   101.7287
 50      0.0016     1.7135E-03    1.6537E-03    1.800000E+10  0.00040  2.469E-05    0   0.4819   age213_m32            0.0000     1.8960E+02     6.9927   1.8028   102.1639
 51      0.8262     1.9785E-03    3.9625E-03    1.000000E+06  0.00400  1.114E-02    0   1.0000   age020_m42            0.0000     2.8043E+03    33.8280   4.0000    97.9936
 52      0.7231     4.7360E-04    9.4844E-04    3.160000E+06  0.00400  4.073E-02    0   0.9999   age045_m42            0.0000     4.2232E+02    12.5566   4.0000   102.2745
 53      0.0000     0.0000E+00    0.0000E+00    5.010000E+06  0.00400  2.534E-02    0   0.9488   age055_m42            0.0000     1.1144E+03    21.6503   4.0000   101.8492
 54      0.0000     0.0000E+00    0.0000E+00    6.610000E+06  0.00400  2.583E-02    0   0.9220   age061_m42            0.0000     3.3867E+02     9.4445   4.0000   100.2181
 55      0.0000     0.0000E+00    0.0000E+00    8.710000E+06  0.00400  1.706E-02    0   0.8983   age067_m42            0.0000     2.6504E+02     7.1601   4.0000    96.6190
 56      0.6108     1.2821E-03    2.2755E-03    1.000000E+07  0.00400  1.271E-02    0   0.8862   age070_m42            0.0000     2.8331E+02     8.2625   4.0000    95.7595
 57      0.0000     0.0000E+00    0.0000E+00    1.445000E+07  0.00400  7.666E-03    0   0.8571   age078_m42            0.0000     6.2840E+02    14.2194   4.0000    98.2476
 58      0.0000     0.0000E+00    0.0000E+00    2.512000E+07  0.00400  5.070E-03    0   0.8174   age090_m42            0.0000     2.2357E+02     7.8194   4.0000    94.9841
 59      0.0000     0.0000E+00    0.0000E+00    4.000000E+07  0.00400  3.505E-03    0   0.7851   age104_m42            0.0000     1.8164E+02     6.5069   3.6843    97.0340
 60      0.0000     0.0000E+00    0.0000E+00    5.500000E+07  0.00400  3.059E-03    0   0.7629   age110_m42            0.0000     3.2796E+02     6.7163   3.6642   101.2846
 61      0.0000     0.0000E+00    0.0000E+00    1.015200E+08  0.00400  2.268E-03    0   0.7207   age116_m42            0.0000     7.1919E+02    11.4901   3.4916   106.3314
 62      0.0000     0.0000E+00    0.0000E+00    1.609000E+08  0.00400  1.720E-03    0   0.6930   age120_m42            0.0000     7.7132E+02    12.3551   3.3194   108.0314
 63      0.0000     0.0000E+00    0.0000E+00    2.861200E+08  0.00400  1.079E-03    0   0.6613   age125_m42            0.0000     7.7117E+02    12.1688   2.9859   107.7275
 64      0.0000     0.0000E+00    0.0000E+00    5.088000E+08  0.00400  6.261E-04    0   0.6313   age130_m42            0.0000     8.6125E+02    12.7122   2.7968   110.5812
 65      0.0000     0.0000E+00    0.0000E+00    9.047900E+08  0.00400  3.535E-04    0   0.6024   age135_m42            0.0000     5.8795E+02    11.0392   2.4058   110.9073
 66      0.0000     0.0000E+00    0.0000E+00    1.278050E+09  0.00400  2.677E-04    0   0.5837   age138_m42            0.0000     2.7586E+02     9.5616   1.7302   107.3751
 67      0.0000     0.0000E+00    0.0000E+00    1.434000E+09  0.00400  1.910E-04    0   0.5716   age139_m42            0.0000     3.3543E+02     9.9348   1.8796   108.6764
 68      0.0000     0.0000E+00    0.0000E+00    2.500000E+09  0.00400  9.818E-05    0   0.5463   age150_m42            0.0000     1.3946E+02     8.1576   1.6055   103.7343
 69      0.3884     1.8868E-01    1.9911E-01    4.250000E+09  0.00400  5.491E-05    0   0.5269   age158_m42            0.0000     8.6919E+01     7.0125   1.5032   100.7474
 70      0.0000     0.0000E+00    0.0000E+00    6.250000E+09  0.00400  3.857E-05    0   0.5151   age166_m42            0.0000     8.7429E+01     7.3694   1.3689    99.2551
 71      0.4831     3.9738E-01    4.0669E-01    7.500000E+09  0.00400  3.243E-05    0   0.5110   age171_m42            0.0000     9.8510E+01     7.7531   1.2884    98.5356
 72      1.5122     1.6643E+00    1.6760E+00    1.000000E+10  0.00400  2.424E-05    0   0.5028   age181_m42            0.0000     1.1643E+02     8.2278   1.2085    97.6983
 73      3.3973     4.8133E+00    4.7496E+00    1.300000E+10  0.00400  1.883E-05    0   0.4927   age193_m42            0.0000     1.3277E+02     8.4551   1.1757    97.1971
 74      4.3209     6.8412E+00    6.7397E+00    1.500000E+10  0.00400  1.685E-05    0   0.4919   age201_m42            0.0000     1.2931E+02     8.2783   1.1853    97.2015
 75      2.5592     4.7022E+00    4.5901E+00    1.800000E+10  0.00400  1.452E-05    0   0.4874   age213_m42            0.0000     1.2345E+02     7.9858   1.2077    97.4841
 76      0.0000     0.0000E+00    0.0000E+00    1.000000E+06  0.00800  1.286E-02    0   1.0000   age020_m52            0.0000     2.6325E+03    32.9995   4.0000    99.7201
 77      0.0000     0.0000E+00    0.0000E+00    3.160000E+06  0.00800  3.147E-02    0   0.9966   age045_m52            0.0000     2.4155E+03    31.3739   4.0000   101.0238
 78      0.0000     0.0000E+00    0.0000E+00    5.010000E+06  0.00800  2.664E-02    0   0.9443   age055_m52            0.0000     1.4151E+03    24.3653   4.0000   102.0435
 79      0.0000     0.0000E+00    0.0000E+00    6.610000E+06  0.00800  2.151E-02    0   0.9177   age061_m52            0.0000     1.7653E+02     7.0478   3.7236    94.3992
 80      0.0000     0.0000E+00    0.0000E+00    8.710000E+06  0.00800  1.628E-02    0   0.8948   age067_m52            0.0000     2.5331E+02     7.4558   4.0000    96.5388
 81      0.0000     0.0000E+00    0.0000E+00    1.000000E+07  0.00800  1.215E-02    0   0.8827   age070_m52            0.0000     4.9534E+02    12.0671   4.0000   100.1237
 82      0.0000     0.0000E+00    0.0000E+00    1.445000E+07  0.00800  8.739E-03    0   0.8552   age078_m52            0.0000     5.2058E+02    12.7623   4.0000   101.7803
 83      0.0000     0.0000E+00    0.0000E+00    2.512000E+07  0.00800  5.676E-03    0   0.8162   age090_m52            0.0000     3.3168E+02     7.0266   4.0000    99.8347
 84      0.0000     0.0000E+00    0.0000E+00    4.000000E+07  0.00800  3.939E-03    0   0.7841   age104_m52            0.0000     3.7358E+02     6.8210   3.8747   100.7389
 85      0.0000     0.0000E+00    0.0000E+00    5.500000E+07  0.00800  3.155E-03    0   0.7627   age110_m52            0.0000     4.4658E+02     7.8166   3.8027   102.4934
 86      0.0000     0.0000E+00    0.0000E+00    1.015200E+08  0.00800  2.206E-03    0   0.7226   age116_m52            0.0000     6.0587E+02    10.5240   3.5469   106.5655
 87      0.0000     0.0000E+00    0.0000E+00    1.609000E+08  0.00800  1.596E-03    0   0.6963   age120_m52            0.0000     6.8119E+02    11.4081   3.3171   108.0570
 88      0.0000     0.0000E+00    0.0000E+00    2.861200E+08  0.00800  1.002E-03    0   0.6665   age125_m52            0.0000     8.8561E+02    13.5358   3.0015   110.0262
 89      0.0000     0.0000E+00    0.0000E+00    5.088000E+08  0.00800  5.759E-04    0   0.6377   age130_m52            0.0000     9.1552E+02    14.4279   2.6370   113.6539
 90      0.0000     0.0000E+00    0.0000E+00    9.047900E+08  0.00800  2.972E-04    0   0.6086   age135_m52            0.0000     5.7036E+02    13.1169   2.0865   112.0049
 91      0.0000     0.0000E+00    0.0000E+00    1.278050E+09  0.00800  2.242E-04    0   0.5907   age138_m52            0.0000     2.7008E+02    10.6645   1.5123   110.0758
 92      0.0000     0.0000E+00    0.0000E+00    1.434000E+09  0.00800  1.645E-04    0   0.5787   age139_m52            0.0000     2.4154E+02    10.0194   1.6616   109.7843
 93      0.0009     3.1069E-04    3.4342E-04    2.500000E+09  0.00800  7.723E-05    0   0.5519   age150_m52            0.0000     1.3854E+02     9.0883   1.3169   105.9557
 94      0.0448     2.8790E-02    3.0675E-02    4.250000E+09  0.00800  4.151E-05    0   0.5320   age158_m52            0.0000     1.1500E+02     8.7372   1.2497   103.3218
 95      1.3425     1.1898E+00    1.2384E+00    6.250000E+09  0.00800  3.010E-05    0   0.5197   age166_m52            0.0000     1.3157E+02     9.4335   1.0479   101.6648
 96      1.7771     1.9217E+00    1.9779E+00    7.500000E+09  0.00800  2.467E-05    0   0.5139   age171_m52            0.0000     1.4031E+02     9.7114   1.0027   101.2099
 97     13.2224     1.8944E+01    1.9176E+01    1.000000E+10  0.00800  1.862E-05    0   0.5054   age181_m52            0.0000     1.7588E+02    10.6637   0.8587   100.6870
 98      7.9041     1.4715E+01    1.4700E+01    1.300000E+10  0.00800  1.433E-05    0   0.4988   age193_m52            0.0000     2.1866E+02    11.5226   0.7559   101.1829
 99     10.9603     2.3505E+01    2.3236E+01    1.500000E+10  0.00800  1.244E-05    0   0.4936   age201_m52            0.0000     2.3953E+02    11.8217   0.7286   101.5385
100      0.6152     1.5338E+00    1.5016E+00    1.800000E+10  0.00800  1.070E-05    0   0.4888   age213_m52            0.0000     2.5750E+02    12.1000   0.6935   101.3132
101      0.0000     0.0000E+00    0.0000E+00    1.000000E+06  0.02000  1.989E-02    0   1.0000   age020_m62            0.0000     2.7172E+03    32.9692   4.0000    98.6443
102      0.0000     0.0000E+00    0.0000E+00    3.160000E+06  0.02000  3.772E-02    0   0.9858   age045_m62            0.0000     2.2883E+03    30.2814   4.0000   100.3827
103      0.0000     0.0000E+00    0.0000E+00    5.010000E+06  0.02000  3.227E-02    0   0.9342   age055_m62            0.0000     8.0985E+02    18.3514   4.0000   103.1748
104      0.0000     0.0000E+00    0.0000E+00    6.610000E+06  0.02000  2.387E-02    0   0.9090   age061_m62            0.0000     6.2926E+02    13.7532   4.0000   100.1825
105      0.0024     5.8585E-06    1.0397E-05    8.710000E+06  0.02000  1.102E-02    0   0.8861   age067_m62            0.0000     6.4434E+02    14.1394   4.0000    93.1381
106      0.0010     2.5289E-06    4.4322E-06    1.000000E+07  0.02000  1.011E-02    0   0.8751   age070_m62            0.0000     4.6512E+02    11.6580   4.0000    94.6110
107      0.0000     0.0000E+00    0.0000E+00    1.445000E+07  0.02000  7.331E-03    0   0.8472   age078_m62            0.0000     3.6065E+02     9.7283   4.0000    95.1986
108      0.0000     0.0000E+00    0.0000E+00    2.512000E+07  0.02000  4.206E-03    0   0.8099   age090_m62            0.0000     3.2611E+02     9.7990   4.0000    93.3566
109      0.0000     0.0000E+00    0.0000E+00    4.000000E+07  0.02000  3.373E-03    0   0.7799   age104_m62            0.0000     2.7422E+02     6.7821   3.8699    98.7678
110      0.0000     0.0000E+00    0.0000E+00    5.500000E+07  0.02000  2.747E-03    0   0.7595   age110_m62            0.0000     3.8428E+02     6.9540   3.7583   102.0444
111      0.0000     0.0000E+00    0.0000E+00    1.015200E+08  0.02000  1.878E-03    0   0.7221   age116_m62            0.0000     6.6121E+02    10.1664   3.5587   106.7386
112      0.0000     0.0000E+00    0.0000E+00    1.609000E+08  0.02000  1.378E-03    0   0.6978   age120_m62            0.0000     8.4999E+02    12.0431   3.3747   109.0955
113      0.0000     0.0000E+00    0.0000E+00    2.861200E+08  0.02000  8.869E-04    0   0.6700   age125_m62            0.0000     1.1332E+03    14.1981   2.9905   112.7395
114      0.0000     0.0000E+00    0.0000E+00    5.088000E+08  0.02000  4.834E-04    0   0.6430   age130_m62            0.0000     9.8843E+02    14.8300   2.5049   115.0000
115      0.0000     0.0000E+00    0.0000E+00    9.047900E+08  0.02000  2.312E-04    0   0.6152   age135_m62            0.0000     5.1903E+02    12.6042   1.8979   114.1288
116      0.0000     0.0000E+00    0.0000E+00    1.278050E+09  0.02000  1.387E-04    0   0.5927   age138_m62            0.0000     2.5364E+02    10.3575   1.5292   109.4880
117      0.0000     0.0000E+00    0.0000E+00    1.434000E+09  0.02000  1.168E-04    0   0.5865   age139_m62            0.0000     2.1179E+02     9.9416   1.5018   107.8625
118      0.0000     0.0000E+00    0.0000E+00    2.500000E+09  0.02000  5.505E-05    0   0.5610   age150_m62            0.0000     1.6709E+02     9.9700   1.1286   104.5108
119      0.0000     0.0000E+00    0.0000E+00    4.250000E+09  0.02000  3.070E-05    0   0.5407   age158_m62            0.0000     2.4264E+02    11.8410   0.8147   103.9350
120      0.0000     0.0000E+00    0.0000E+00    6.250000E+09  0.02000  2.104E-05    0   0.5277   age166_m62            0.0000     2.9683E+02    12.7678   0.6758   104.1313
121      0.0000     0.0000E+00    0.0000E+00    7.500000E+09  0.02000  1.770E-05    0   0.5223   age171_m62            0.0000     3.3356E+02    13.3276   0.5811   104.4156
122      0.0000     0.0000E+00    0.0000E+00    1.000000E+10  0.02000  1.297E-05    0   0.5121   age181_m62            0.0000     4.1657E+02    14.4409   0.4115   104.7026
123      0.0000     0.0000E+00    0.0000E+00    1.300000E+10  0.02000  9.691E-06    0   0.5047   age193_m62            0.0000     4.8289E+02    15.1287   0.3271   104.8425
124      1.1437     3.6496E+00    3.6539E+00    1.500000E+10  0.02000  8.360E-06    0   0.4999   age201_m62            0.0000     5.3974E+02    15.7877   0.2483   104.9986
125      0.0000     0.0000E+00    0.0000E+00    1.800000E+10  0.02000  6.911E-06    0   0.4946   age213_m62            0.0000     6.1167E+02    16.6435   0.1603   105.2139
126      0.0000     0.0000E+00    0.0000E+00    1.000000E+06  0.05000  2.651E-02    0   0.9998   age020_m72            0.0000     2.6523E+03    32.7800   4.0000    99.7067
127      0.0000     0.0000E+00    0.0000E+00    3.160000E+06  0.05000  4.817E-02    0   0.9577   age045_m72            0.0000     1.6999E+03    26.7265   4.0000   102.9029
128      0.0000     0.0000E+00    0.0000E+00    5.010000E+06  0.05000  3.101E-02    0   0.9147   age055_m72            0.0000     1.0034E+03    19.3765   4.0000   102.2358
129      0.0000     0.0000E+00    0.0000E+00    6.610000E+06  0.05000  1.472E-02    0   0.8877   age061_m72            0.0000     7.4687E+02    12.8944   4.0000    96.4568
130      0.0000     0.0000E+00    0.0000E+00    8.710000E+06  0.05000  1.050E-02    0   0.8638   age067_m72            0.0000     1.0998E+03    18.8962   4.0000   100.6889
131      0.0000     0.0000E+00    0.0000E+00    1.000000E+07  0.05000  8.954E-03    0   0.8524   age070_m72            0.0000     1.4030E+03    24.0410   4.0000   103.0962
132      0.0000     0.0000E+00    0.0000E+00    1.445000E+07  0.05000  6.392E-03    0   0.8262   age078_m72            0.0000     1.2067E+03    22.6831   4.0000   103.4932
133      0.0000     0.0000E+00    0.0000E+00    2.512000E+07  0.05000  4.207E-03    0   0.7902   age090_m72            0.0000     5.3808E+02    14.3352   4.0000   103.0553
134      0.0000     0.0000E+00    0.0000E+00    4.000000E+07  0.05000  3.198E-03    0   0.7618   age104_m72            0.0000     4.7131E+02     8.7888   3.9224   102.7327
135      0.0000     0.0000E+00    0.0000E+00    5.500000E+07  0.05000  2.593E-03    0   0.7432   age110_m72            0.0000     5.7157E+02     9.5502   3.8374   104.4509
136      0.0000     0.0000E+00    0.0000E+00    1.015200E+08  0.05000  1.716E-03    0   0.7092   age116_m72            0.0000     7.6472E+02    11.0414   3.6341   106.8490
137      0.0000     0.0000E+00    0.0000E+00    1.609000E+08  0.05000  1.218E-03    0   0.6876   age120_m72            0.0000     9.4973E+02    12.9108   3.3304   109.5189
138      0.0000     0.0000E+00    0.0000E+00    2.861200E+08  0.05000  7.047E-04    0   0.6618   age125_m72            0.0000     1.0824E+03    14.7544   2.7589   113.0252
139      0.0000     0.0000E+00    0.0000E+00    5.088000E+08  0.05000  3.590E-04    0   0.6356   age130_m72            0.0000     8.5201E+02    14.7737   2.1509   115.3967
140      0.0000     0.0000E+00    0.0000E+00    9.047900E+08  0.05000  1.484E-04    0   0.6088   age135_m72            0.0000     3.3361E+02    12.0278   1.4132   108.3903
141      0.0000     0.0000E+00    0.0000E+00    1.278050E+09  0.05000  9.435E-05    0   0.5924   age138_m72            0.0000     2.7824E+02    12.4140   0.9843   105.2725
142      0.0000     0.0000E+00    0.0000E+00    1.434000E+09  0.05000  7.827E-05    0   0.5847   age139_m72            0.0000     2.5420E+02    12.0111   1.0067   104.6205
143      0.0000     0.0000E+00    0.0000E+00    2.500000E+09  0.05000  3.759E-05    0   0.5583   age150_m72            0.0000     3.0022E+02    12.8461   0.6811   103.4796
144      0.6415     9.2907E-01    9.9996E-01    4.250000E+09  0.05000  1.842E-05    0   0.5374   age158_m72            0.0000     4.4801E+02    14.0147   0.3892   102.1314
145      0.2005     4.4318E-01    4.6528E-01    6.250000E+09  0.05000  1.207E-05    0   0.5242   age166_m72            0.0000     5.9273E+02    15.7107   0.1236   101.6639
146      0.6750     1.8019E+00    1.8705E+00    7.500000E+09  0.05000  9.993E-06    0   0.5183   age171_m72            0.0000     6.2120E+02    15.9562   0.0772   101.5586
147      0.0644     2.3548E-01    2.3963E-01    1.000000E+10  0.05000  7.291E-06    0   0.5081   age181_m72            0.0000     7.4341E+02    17.2989  -0.0722   101.4193
148      0.0000     0.0000E+00    0.0000E+00    1.300000E+10  0.05000  5.316E-06    0   0.5018   age193_m72            0.0000     9.4042E+02    19.2535  -0.2994   101.3717
149      0.0000     0.0000E+00    0.0000E+00    1.500000E+10  0.05000  4.497E-06    0   0.4972   age201_m72            0.0000     1.0458E+03    20.2250  -0.3944   101.6703
150      0.0005     3.8151E-03    3.7623E-03    1.800000E+10  0.05000  3.739E-06    0   0.4924   age213_m72            0.0000     1.1724E+03    21.4699  -0.5376   102.0746


## Synthesis Results - Average & Chains ##

# j      x_j: min, <> & last-chain-values for 1 ...  7 chains
  1      0.8654      1.5114      1.4404      1.6111      1.4529      1.3559      1.4308      1.4175      1.5031
  2      3.0831      1.9211      2.0131      1.9308      2.2739      1.9420      1.9476      1.9194      1.9922
  3      6.7725      6.2822      6.1443      6.7394      6.2193      6.2482      6.2382      6.2631      6.4922
  4      0.7406      0.5841      0.5790      0.3543      0.5759      0.6141      0.6908      0.7124      0.6401
  5      1.3128      1.1446      1.1480      1.1961      1.1388      1.1439      1.0975      1.2495      1.2086
  6      1.2771      0.9698      0.9179      1.0800      0.9700      1.1854      0.8686      0.9197      0.9720
  7      0.5229      0.1639      0.2316      0.1957      0.2474      0.2016      0.3451      0.1603      0.1637
  8      0.0000      0.1013      0.0000      0.0000      0.1419      0.1391      0.1196      0.0388      0.0407
  9      0.0000      0.0589      0.1222      0.0758      0.0000      0.0000      0.0796      0.1271      0.0000
 10      0.0000      0.0278      0.0000      0.1335      0.0742      0.0245      0.0000      0.0515      0.0000
 11      0.0008      0.0316      0.0000      0.0301      0.0000      0.0775      0.1657      0.0000      0.0000
 12      0.0000      0.0110      0.0000      0.0000      0.0000      0.0000      0.0000      0.0000      0.0000
 13      0.0000      0.0070      0.0000      0.0000      0.0878      0.0000      0.0000      0.0000      0.0000
 14      0.0000      0.0071      0.0000      0.0000      0.0000      0.0000      0.0000      0.0000      0.0000
 15      0.0000      0.0066      0.0000      0.0000      0.0000      0.0000      0.0000      0.0000      0.0000
 16      0.0000      0.0090      0.0000      0.0000      0.0000      0.0000      0.0000      0.0000      0.0000
 17      0.0000      0.0142      0.0000      0.0000      0.0000      0.1071      0.0000      0.0000      0.0000
 18      0.0000      0.0200      0.0000      0.0094      0.0000      0.0000      0.0000      0.1197      0.0000
 19      0.0000      0.0364      0.0000      0.0150      0.0000      0.0000      0.0000      0.0000      0.0000
 20      0.0000      0.0848      0.0000      0.1934      0.0000      0.0000      0.0603      0.1387      0.0390
 21      0.7356      0.1143      0.0000      0.0695      0.1519      0.0649      0.3581      0.0000      0.2267
 22      0.0000      0.1060      0.2407      0.1441      0.1005      0.0000      0.0168      0.0000      0.2120
 23      0.0000      0.0786      0.0000      0.0000      0.0000      0.0021      0.0000      0.5765      0.1982
 24      0.0930      0.1494      0.5399      0.0741      0.0000      0.0000      0.3887      0.0000      0.3449
 25      0.0000      0.1609      0.3011      0.0289      0.1211      0.3050      0.0558      0.3076      0.0000
 26      2.7608      3.0405      2.9548      3.0154      3.0709      2.9622      3.0431      3.0138      3.0021
 27      0.0000      0.1013      0.0514      0.0000      0.0000      0.0000      0.1201      0.1531      0.0614
 28      0.5409      0.2884      0.3236      0.3281      0.2729      0.2736      0.5441      0.5248      0.2899
 29      0.3585      0.2720      0.3230      0.2013      0.2920      0.2730      0.2369      0.2084      0.2774
 30      0.6774      0.5175      0.7355      0.5653      0.5517      0.7034      0.4954      0.4453      0.4852
 31      0.5877      0.3390      0.4692      0.2686      0.6109      0.1341      0.3477      0.4676      0.3215
 32      0.0000      0.0487      0.0243      0.0000      0.0787      0.0000      0.1381      0.1555      0.0000
 33      0.0000      0.0186      0.0000      0.1148      0.0018      0.0000      0.0000      0.0000      0.0000
 34      0.0000      0.0362      0.0000      0.0000      0.0112      0.0601      0.0000      0.0000      0.0000
 35      0.0000      0.0358      0.0000      0.0000      0.0787      0.1037      0.1253      0.0000      0.0477
 36      0.0000      0.0261      0.0000      0.0000      0.0000      0.1119      0.0000      0.1373      0.0233
 37      0.0000      0.0092      0.0377      0.0000      0.0000      0.0000      0.0000      0.0000      0.0000
 38      0.0000      0.0066      0.0000      0.0000      0.0000      0.0000      0.0000      0.0114      0.0000
 39      0.0000      0.0059      0.0000      0.0000      0.0000      0.0000      0.0000      0.0000      0.0000
 40      0.0000      0.0099      0.0000      0.0000      0.0000      0.0000      0.0556      0.0000      0.0000
 41      0.0000      0.0273      0.0000      0.0040      0.0000      0.0000      0.0000      0.0040      0.0000
 42      0.0000      0.0229      0.0285      0.0256      0.0000      0.0000      0.0013      0.0000      0.0000
 43      0.0014      0.0557      0.0000      0.0102      0.0000      0.0641      0.2316      0.3733      0.0000
 44      0.0000      0.1442      0.0000      0.5716      0.2273      0.1536      0.0000      0.1736      0.2112
 45      7.2694      6.8128      6.9011      6.8242      6.7454      6.7585      6.7398      6.9705      7.5149
 46      6.2377      5.3228      5.5724      5.3984      5.5678      6.2813      5.1169      5.3773      4.9106
 47      8.6842     10.6339     10.5110     10.4177     10.4351     10.4644     10.6841     10.6269     10.5522
 48      0.0000      0.1722      0.1046      0.4548      0.0000      0.3146      0.0000      0.0000      0.3918
 49      0.0000      0.1167      0.1850      0.2543      0.0831      0.1912      0.0000      0.1221      0.0930
 50      0.0016      0.1206      0.0000      0.0000      0.2807      0.0000      0.2806      0.0001      0.0000
 51      0.8262      1.4440      1.4619      1.4630      1.3947      1.3593      1.3237      1.4867      1.3701
 52      0.7231      0.2308      0.4383      0.1962      0.1619      0.0000      0.1798      0.2230      0.4233
 53      0.0000      0.0841      0.1021      0.1952      0.0000      0.2252      0.1563      0.1839      0.0000
 54      0.0000      0.1070      0.0000      0.2960      0.3463      0.0122      0.0000      0.0769      0.3934
 55      0.0000      0.1044      0.1403      0.0000      0.0742      0.1310      0.0881      0.1385      0.0269
 56      0.6108      0.0934      0.1903      0.0213      0.0000      0.0358      0.4062      0.0000      0.1481
 57      0.0000      0.0321      0.0901      0.0177      0.0002      0.0176      0.0000      0.0000      0.0000
 58      0.0000      0.0579      0.0000      0.0379      0.0000      0.0000      0.0342      0.0000      0.0405
 59      0.0000      0.0158      0.0000      0.0000      0.0000      0.1587      0.0000      0.0000      0.0420
 60      0.0000      0.0079      0.0000      0.0000      0.0000      0.0000      0.0000      0.0000      0.0000
 61      0.0000      0.0084      0.0000      0.0000      0.0010      0.0000      0.0000      0.0000      0.0035
 62      0.0000      0.0075      0.0000      0.0000      0.0260      0.0084      0.0000      0.0000      0.0000
 63      0.0000      0.0075      0.0153      0.0000      0.0039      0.0000      0.0394      0.0000      0.0000
 64      0.0000      0.0067      0.0000      0.0000      0.0000      0.0000      0.0000      0.0006      0.0000
 65      0.0000      0.0198      0.0000      0.0000      0.0790      0.0000      0.0000      0.0154      0.0006
 66      0.0000      0.0654      0.0000      0.0168      0.0000      0.0000      0.0000      0.0000      0.0000
 67      0.0000      0.0280      0.0000      0.0000      0.0000      0.0000      0.0042      0.0000      0.0000
 68      0.0000      0.0917      0.0000      0.0000      0.3116      0.0000      0.0000      0.1014      0.0000
 69      0.3884      0.4053      0.9352      0.8294      0.1159      0.3410      0.3202      0.5567      0.6095
 70      0.0000      0.3031      0.2376      0.1324      0.0000      0.0595      0.0000      0.0000      0.3850
 71      0.4831      0.3809      0.7977      0.0000      0.0000      0.3357      0.3865      0.4337      0.3564
 72      1.5122      1.5782      1.4469      1.5986      0.7340      1.3389      1.8920      1.5545      1.8336
 73      3.3973      2.3914      2.3737      2.3915      2.4631      2.5176      2.7824      2.3762      2.4360
 74      4.3209      2.8105      3.2428      3.2389      3.8942      3.7471      2.9852      2.7444      2.6759
 75      2.5592      1.5319      1.5152      1.2970      2.0819      2.2056      1.6128      1.7141      1.6848
 76      0.0000      0.0191      0.0000      0.0000      0.0000      0.0000      0.0156      0.0000      0.0000
 77      0.0000      0.0208      0.0000      0.0000      0.0000      0.0000      0.0000      0.0000      0.0000
 78      0.0000      0.0232      0.0013      0.0000      0.0000      0.0000      0.0000      0.0000      0.0000
 79      0.0000      0.0206      0.0000      0.1053      0.0529      0.0000      0.0429      0.0000      0.0369
 80      0.0000      0.0093      0.0169      0.0262      0.0000      0.0000      0.0000      0.0000      0.0000
 81      0.0000      0.0200      0.0000      0.0000      0.0000      0.0000      0.0000      0.0000      0.0000
 82      0.0000      0.0335      0.0000      0.0376      0.0259      0.0000      0.0000      0.0252      0.0000
 83      0.0000      0.0129      0.0000      0.0000      0.0140      0.0000      0.0000      0.0172      0.0000
 84      0.0000      0.0115      0.0000      0.0000      0.0156      0.0000      0.0000      0.0000      0.0086
 85      0.0000      0.0093      0.0000      0.0000      0.0000      0.0000      0.0000      0.0000      0.0000
 86      0.0000      0.0114      0.0000      0.0000      0.0000      0.0000      0.0799      0.0000      0.0000
 87      0.0000      0.0095      0.0000      0.0000      0.0008      0.0000      0.0000      0.0039      0.0000
 88      0.0000      0.0051      0.0000      0.0000      0.0036      0.0000      0.0000      0.0000      0.0000
 89      0.0000      0.0116      0.0000      0.0000      0.0799      0.0274      0.0000      0.0000      0.0000
 90      0.0000      0.0121      0.0000      0.0000      0.0044      0.0000      0.0000      0.0000      0.0000
 91      0.0000      0.0372      0.3285      0.0000      0.0310      0.0000      0.0987      0.0000      0.0000
 92      0.0000      0.0316      0.0000      0.0995      0.0000      0.0000      0.0000      0.0139      0.0000
 93      0.0009      0.0566      0.0707      0.0271      0.0000      0.0000      0.2872      0.0000      0.0000
 94      0.0448      0.1016      0.0934      0.0480      0.2561      0.0000      0.2213      0.0000      0.0000
 95      1.3425      1.7828      1.3456      1.2584      2.1319      1.6722      1.9361      1.6221      1.6531
 96      1.7771      2.3438      2.0495      2.0923      2.4230      2.2311      2.1810      2.0914      2.3386
 97     13.2224     13.9670     13.9305     13.9789     13.6867     13.3631     13.2826     13.8313     13.6481
 98      7.9041      8.7021      8.7020      8.9576      8.8291      8.4466      8.5261      8.7428      8.7632
 99     10.9603     11.3229     11.0416     11.6780     11.5127     11.1989     11.3013     11.2461     10.8578
100      0.6152      0.6909      0.7010      0.8228      0.6664      1.0278      0.7876      0.6146      0.7847
101      0.0000      0.0318      0.0000      0.0000      0.0049      0.0000      0.0000      0.0000      0.0000
102      0.0000      0.0176      0.0000      0.0000      0.0511      0.0709      0.0000      0.0000      0.0000
103      0.0000      0.0219      0.0000      0.0000      0.0857      0.1013      0.0000      0.0000      0.0000
104      0.0000      0.0427      0.0000      0.0000      0.0000      0.1847      0.0000      0.0000      0.0000
105      0.0024      0.1922      0.2950      0.2204      0.3156      0.2767      0.2469      0.1056      0.3105
106      0.0010      0.0788      0.1009      0.0194      0.0000      0.2740      0.1737      0.0489      0.0775
107      0.0000      0.0274      0.0000      0.0000      0.0000      0.0000      0.0000      0.2304      0.0000
108      0.0000      0.0113      0.0000      0.0000      0.0056      0.0000      0.0000      0.0000      0.0017
109      0.0000      0.0099      0.0000      0.0026      0.0000      0.0035      0.0000      0.0000      0.0000
110      0.0000      0.0105      0.0000      0.0000      0.0000      0.0000      0.0000      0.0000      0.0225
111      0.0000      0.0052      0.0000      0.0000      0.0000      0.0000      0.0000      0.0000      0.0000
112      0.0000      0.0051      0.0000      0.0000      0.0000      0.0000      0.0000      0.0000      0.0000
113      0.0000      0.0077      0.0395      0.0000      0.0000      0.0000      0.0000      0.0000      0.0000
114      0.0000      0.0193      0.0000      0.0000      0.0000      0.0000      0.0000      0.0000      0.0000
115      0.0000      0.0170      0.0000      0.0000      0.0000      0.0000      0.0000      0.0000      0.0996
116      0.0000      0.0170      0.0258      0.0000      0.0114      0.0000      0.0000      0.0000      0.0000
117      0.0000      0.0211      0.0000      0.0000      0.1554      0.0015      0.0000      0.0265      0.0000
118      0.0000      0.0388      0.0216      0.0000      0.0000      0.0000      0.0839      0.0000      0.0000
119      0.0000      0.0340      0.0000      0.0000      0.0000      0.0000      0.0326      0.0000      0.0000
120      0.0000      0.0462      0.0000      0.0533      0.0000      0.0238      0.0000      0.0855      0.0000
121      0.0000      0.0737      0.1067      0.0000      0.1694      0.0000      0.0539      0.0000      0.0488
122      0.0000      0.0646      0.0000      0.0202      0.0485      0.1260      0.0000      0.1942      0.0000
123      0.0000      0.0557      0.0000      0.0057      0.0042      0.0477      0.0272      0.1929      0.0000
124      1.1437      0.2777      0.1191      0.2815      0.4385      0.4690      0.4569      0.6548      0.2355
125      0.0000      0.1065      0.1053      0.1857      0.0770      0.0819      0.1303      0.0000      0.2940
126      0.0000      0.0088      0.0000      0.0096      0.0000      0.0000      0.0000      0.0000      0.0000
127      0.0000      0.0147      0.0000      0.0458      0.0361      0.0169      0.0000      0.0000      0.0000
128      0.0000      0.0213      0.0000      0.0000      0.0000      0.0000      0.0000      0.0000      0.0835
129      0.0000      0.0208      0.0078      0.0000      0.0151      0.0010      0.0150      0.0000      0.0479
130      0.0000      0.0310      0.0299      0.0000      0.0000      0.0000      0.0000      0.0000      0.0087
131      0.0000      0.0184      0.0000      0.0000      0.0000      0.0000      0.0000      0.0000      0.0199
132      0.0000      0.0220      0.0000      0.0000      0.0000      0.0000      0.0000      0.0077      0.0000
133      0.0000      0.0111      0.0000      0.0000      0.0000      0.0000      0.0000      0.0000      0.0000
134      0.0000      0.0089      0.0150      0.0391      0.0000      0.0000      0.0498      0.0000      0.0000
135      0.0000      0.0060      0.0000      0.0001      0.0000      0.0000      0.0422      0.0159      0.0000
136      0.0000      0.0053      0.0000      0.1348      0.0000      0.0000      0.0000      0.0000      0.0000
137      0.0000      0.0081      0.0000      0.0760      0.0337      0.0000      0.0000      0.0000      0.0072
138      0.0000      0.0038      0.0000      0.0000      0.0000      0.0000      0.0000      0.0000      0.0000
139      0.0000      0.0087      0.0000      0.0000      0.0078      0.0000      0.0000      0.0000      0.0000
140      0.0000      0.0183      0.0000      0.0000      0.0397      0.0742      0.0000      0.0000      0.0000
141      0.0000      0.0131      0.0000      0.0000      0.0000      0.0519      0.0000      0.0000      0.0000
142      0.0000      0.0256      0.0551      0.0000      0.0000      0.0000      0.0000      0.0000      0.0000
143      0.0000      0.0307      0.0000      0.0000      0.0000      0.0382      0.0000      0.0000      0.2364
144      0.6415      0.1820      0.4051      0.2021      0.2185      0.0213      0.2443      0.2386      0.2103
145      0.2005      0.2986      0.3460      0.2819      0.1554      0.2909      0.3622      0.4383      0.3151
146      0.6750      0.3745      0.3054      0.5417      0.3725      0.5501      0.4433      0.4287      0.2774
147      0.0644      0.1786      0.1591      0.2371      0.0000      0.0675      0.2646      0.0534      0.3072
148      0.0000      0.2017      0.1786      0.1963      0.1449      0.1444      0.0000      0.2627      0.1850
149      0.0000      0.1386      0.1950      0.0135      0.3697      0.0710      0.1353      0.1535      0.1065
150      0.0005      0.3033      0.3155      0.2628      0.0000      0.2687      0.2753      0.3154      0.3422

# j      m_j: min, <> & last-chain-values for 1 ...  7 chains
  1  5.6662E-03  9.7278E-03  9.3080E-03  1.0341E-02  9.3650E-03  8.6651E-03  9.2321E-03  9.0227E-03  9.6767E-03
  2  3.4614E-03  2.1201E-03  2.2305E-03  2.1250E-03  2.5131E-03  2.1280E-03  2.1547E-03  2.0949E-03  2.1991E-03
  3  1.7947E-02  1.6363E-02  1.6069E-02  1.7507E-02  1.6224E-02  1.6160E-02  1.6290E-02  1.6135E-02  1.6914E-02
  4  3.6887E-03  2.8596E-03  2.8462E-03  1.7301E-03  2.8238E-03  2.9855E-03  3.3905E-03  3.4494E-03  3.1348E-03
  5  8.2367E-03  7.0589E-03  7.1082E-03  7.3569E-03  7.0333E-03  7.0048E-03  6.7854E-03  7.6209E-03  7.4555E-03
  6  9.5284E-03  7.1121E-03  6.7591E-03  7.8989E-03  7.1242E-03  8.6324E-03  6.3858E-03  6.6708E-03  7.1300E-03
  7  4.9232E-03  1.5168E-03  2.1516E-03  1.8064E-03  2.2930E-03  1.8528E-03  3.2017E-03  1.4668E-03  1.5153E-03
  8  0.0000E+00  1.0604E-03  0.0000E+00  0.0000E+00  1.4873E-03  1.4452E-03  1.2550E-03  4.0183E-04  4.2634E-04
  9  0.0000E+00  6.6321E-04  1.3813E-03  8.5113E-04  0.0000E+00  0.0000E+00  8.9803E-04  1.4144E-03  0.0000E+00
 10  0.0000E+00  3.5858E-04  0.0000E+00  1.7180E-03  9.5914E-04  3.1381E-04  0.0000E+00  6.5672E-04  0.0000E+00
 11  1.2030E-05  4.8663E-04  0.0000E+00  4.6292E-04  0.0000E+00  1.1865E-03  2.5613E-03  0.0000E+00  0.0000E+00
 12  0.0000E+00  2.9681E-04  0.0000E+00  0.0000E+00  0.0000E+00  0.0000E+00  0.0000E+00  0.0000E+00  0.0000E+00
 13  0.0000E+00  2.1986E-04  0.0000E+00  0.0000E+00  2.7541E-03  0.0000E+00  0.0000E+00  0.0000E+00  0.0000E+00
 14  0.0000E+00  3.1453E-04  0.0000E+00  0.0000E+00  0.0000E+00  0.0000E+00  0.0000E+00  0.0000E+00  0.0000E+00
 15  0.0000E+00  4.4117E-04  0.0000E+00  0.0000E+00  0.0000E+00  0.0000E+00  0.0000E+00  0.0000E+00  0.0000E+00
 16  0.0000E+00  8.7336E-04  0.0000E+00  0.0000E+00  0.0000E+00  0.0000E+00  0.0000E+00  0.0000E+00  0.0000E+00
 17  0.0000E+00  1.5297E-03  0.0000E+00  0.0000E+00  0.0000E+00  1.1482E-02  0.0000E+00  0.0000E+00  0.0000E+00
 18  0.0000E+00  3.5143E-03  0.0000E+00  1.6473E-03  0.0000E+00  0.0000E+00  0.0000E+00  2.0818E-02  0.0000E+00
 19  0.0000E+00  9.7129E-03  0.0000E+00  3.9835E-03  0.0000E+00  0.0000E+00  0.0000E+00  0.0000E+00  0.0000E+00
 20  0.0000E+00  3.2306E-02  0.0000E+00  7.3513E-02  0.0000E+00  0.0000E+00  2.3055E-02  5.2281E-02  1.4859E-02
 21  3.2997E-01  5.0383E-02  0.0000E+00  3.0555E-02  6.7103E-02  2.8412E-02  1.5830E-01  0.0000E+00  1.0000E-01
 22  0.0000E+00  6.0280E-02  1.3750E-01  8.1745E-02  5.7266E-02  0.0000E+00  9.5574E-03  0.0000E+00  1.2064E-01
 23  0.0000E+00  5.6661E-02  0.0000E+00  0.0000E+00  0.0000E+00  1.5175E-03  0.0000E+00  4.1120E-01  1.4295E-01
 24  7.8026E-02  1.2323E-01  4.4710E-01  6.0943E-02  0.0000E+00  0.0000E+00  3.2138E-01  0.0000E+00  2.8447E-01
 25  0.0000E+00  1.5942E-01  2.9955E-01  2.8557E-02  1.2011E-01  3.0003E-01  5.5454E-02  3.0138E-01  0.0000E+00
 26  1.7440E-02  1.8880E-02  1.8421E-02  1.8674E-02  1.9097E-02  1.8264E-02  1.8943E-02  1.8508E-02  1.8646E-02
 27  0.0000E+00  1.3392E-04  6.8266E-05  0.0000E+00  0.0000E+00  0.0000E+00  1.5914E-04  2.0016E-04  8.1145E-05
 28  1.4237E-03  7.4618E-04  8.4068E-04  8.4653E-04  7.0715E-04  7.0287E-04  1.4111E-03  1.3429E-03  7.5028E-04
 29  1.4705E-03  1.0965E-03  1.3076E-03  8.0944E-04  1.1789E-03  1.0930E-03  9.5747E-04  8.3113E-04  1.1185E-03
 30  3.4536E-03  2.5934E-03  3.7008E-03  2.8253E-03  2.7689E-03  3.4999E-03  2.4887E-03  2.2073E-03  2.4319E-03
 31  3.4613E-03  1.9628E-03  2.7275E-03  1.5506E-03  3.5419E-03  7.7066E-04  2.0179E-03  2.6774E-03  1.8617E-03
 32  0.0000E+00  3.1246E-04  1.5652E-04  0.0000E+00  5.0550E-04  0.0000E+00  8.8733E-04  9.8619E-04  0.0000E+00
 33  0.0000E+00  1.6969E-04  0.0000E+00  1.0432E-03  1.6753E-05  0.0000E+00  0.0000E+00  0.0000E+00  0.0000E+00
 34  0.0000E+00  4.0023E-04  0.0000E+00  0.0000E+00  1.2376E-04  6.6076E-04  0.0000E+00  0.0000E+00  0.0000E+00
 35  0.0000E+00  4.7894E-04  0.0000E+00  0.0000E+00  1.0538E-03  1.3769E-03  1.6802E-03  0.0000E+00  6.3803E-04
 36  0.0000E+00  4.4805E-04  0.0000E+00  0.0000E+00  0.0000E+00  1.9050E-03  0.0000E+00  2.3289E-03  4.0019E-04
 37  0.0000E+00  1.9688E-04  8.0754E-04  0.0000E+00  0.0000E+00  0.0000E+00  0.0000E+00  0.0000E+00  0.0000E+00
 38  0.0000E+00  1.9458E-04  0.0000E+00  0.0000E+00  0.0000E+00  0.0000E+00  0.0000E+00  3.3411E-04  0.0000E+00
 39  0.0000E+00  2.6215E-04  0.0000E+00  0.0000E+00  0.0000E+00  0.0000E+00  0.0000E+00  0.0000E+00  0.0000E+00
 40  0.0000E+00  7.7226E-04  0.0000E+00  0.0000E+00  0.0000E+00  0.0000E+00  4.3507E-03  0.0000E+00  0.0000E+00
 41  0.0000E+00  2.8571E-03  0.0000E+00  4.1787E-04  0.0000E+00  0.0000E+00  0.0000E+00  4.1199E-04  0.0000E+00
 42  0.0000E+00  2.6745E-03  3.3441E-03  2.9841E-03  0.0000E+00  0.0000E+00  1.5170E-04  0.0000E+00  0.0000E+00
 43  2.6232E-04  1.0579E-02  0.0000E+00  1.9367E-03  0.0000E+00  1.2091E-02  4.4141E-02  7.0183E-02  0.0000E+00
 44  0.0000E+00  4.3362E-02  0.0000E+00  1.7140E-01  6.8435E-02  4.5868E-02  0.0000E+00  5.1627E-02  6.3524E-02
 45  3.0990E+00  2.8548E+00  2.9034E+00  2.8519E+00  2.8308E+00  2.8120E+00  2.8313E+00  2.8887E+00  3.1497E+00
 46  3.1677E+00  2.6570E+00  2.7928E+00  2.6875E+00  2.7835E+00  3.1134E+00  2.5606E+00  2.6547E+00  2.4518E+00
 47  5.7801E+00  6.9571E+00  6.9045E+00  6.7974E+00  6.8373E+00  6.7980E+00  7.0075E+00  6.8761E+00  6.9053E+00
 48  0.0000E+00  1.3417E-01  8.1828E-02  3.5334E-01  0.0000E+00  2.4338E-01  0.0000E+00  0.0000E+00  3.0528E-01
 49  0.0000E+00  1.0168E-01  1.6186E-01  2.2107E-01  7.2542E-02  1.6546E-01  0.0000E+00  1.0527E-01  8.1077E-02
 50  1.6537E-03  1.2359E-01  0.0000E+00  0.0000E+00  2.8814E-01  0.0000E+00  2.8838E-01  1.3787E-04  0.0000E+00
 51  3.9625E-03  6.8076E-03  6.9201E-03  6.8786E-03  6.5853E-03  6.3631E-03  6.2563E-03  6.9318E-03  6.4607E-03
 52  9.4844E-04  2.9758E-04  5.6741E-04  2.5224E-04  2.0907E-04  0.0000E+00  2.3244E-04  2.8432E-04  5.4585E-04
 53  0.0000E+00  1.6539E-04  2.0165E-04  3.8278E-04  0.0000E+00  4.3979E-04  3.0810E-04  3.5763E-04  0.0000E+00
 54  0.0000E+00  2.0068E-04  0.0000E+00  5.5334E-04  6.5023E-04  2.2798E-05  0.0000E+00  1.4252E-04  7.3771E-04
 55  0.0000E+00  2.8874E-04  3.8958E-04  0.0000E+00  2.0556E-04  3.5960E-04  2.4417E-04  3.7893E-04  7.4362E-05
 56  2.2755E-03  3.4195E-04  6.9956E-04  7.7724E-05  0.0000E+00  1.3021E-04  1.4912E-03  0.0000E+00  5.4228E-04
 57  0.0000E+00  1.8845E-04  5.3108E-04  1.0355E-04  1.4231E-06  1.0243E-04  0.0000E+00  0.0000E+00  0.0000E+00
 58  0.0000E+00  4.9055E-04  0.0000E+00  3.2014E-04  0.0000E+00  0.0000E+00  2.9073E-04  0.0000E+00  3.4286E-04
 59  0.0000E+00  1.8624E-04  0.0000E+00  0.0000E+00  0.0000E+00  1.8535E-03  0.0000E+00  0.0000E+00  4.9458E-04
 60  0.0000E+00  1.0357E-04  0.0000E+00  0.0000E+00  0.0000E+00  0.0000E+00  0.0000E+00  0.0000E+00  0.0000E+00
 61  0.0000E+00  1.4057E-04  0.0000E+00  0.0000E+00  1.7329E-05  0.0000E+00  0.0000E+00  0.0000E+00  5.8593E-05
 62  0.0000E+00  1.5863E-04  0.0000E+00  0.0000E+00  5.5086E-04  1.7594E-04  0.0000E+00  0.0000E+00  0.0000E+00
 63  0.0000E+00  2.4271E-04  4.9518E-04  0.0000E+00  1.2638E-04  0.0000E+00  1.2711E-03  0.0000E+00  0.0000E+00
 64  0.0000E+00  3.5267E-04  0.0000E+00  0.0000E+00  0.0000E+00  0.0000E+00  0.0000E+00  3.2725E-05  0.0000E+00
 65  0.0000E+00  1.7732E-03  0.0000E+00  0.0000E+00  7.0828E-03  0.0000E+00  0.0000E+00  1.3671E-03  5.7724E-05
 66  0.0000E+00  7.4877E-03  0.0000E+00  1.9171E-03  0.0000E+00  0.0000E+00  0.0000E+00  0.0000E+00  0.0000E+00
 67  0.0000E+00  4.3950E-03  0.0000E+00  0.0000E+00  0.0000E+00  0.0000E+00  6.6657E-04  0.0000E+00  0.0000E+00
 68  0.0000E+00  2.6787E-02  0.0000E+00  0.0000E+00  9.1181E-02  0.0000E+00  0.0000E+00  2.9313E-02  0.0000E+00
 69  1.9911E-01  2.0425E-01  4.7323E-01  4.1687E-01  5.8521E-02  1.7066E-01  1.6178E-01  2.7745E-01  3.0723E-01
 70  0.0000E+00  2.1261E-01  1.6733E-01  9.2631E-02  0.0000E+00  4.1468E-02  0.0000E+00  0.0000E+00  2.7006E-01
 71  4.0669E-01  3.1522E-01  6.6279E-01  0.0000E+00  0.0000E+00  2.7583E-01  3.2062E-01  3.5496E-01  2.9504E-01
 72  1.6760E+00  1.7193E+00  1.5826E+00  1.7368E+00  8.0082E-01  1.4483E+00  2.0663E+00  1.6748E+00  1.9980E+00
 73  4.7496E+00  3.2862E+00  3.2751E+00  3.2776E+00  3.3898E+00  3.4353E+00  3.8332E+00  3.2295E+00  3.3484E+00
 74  6.7397E+00  4.3089E+00  4.9920E+00  4.9525E+00  5.9794E+00  5.7045E+00  4.5884E+00  4.1614E+00  4.1036E+00
 75  4.5901E+00  2.7006E+00  2.6820E+00  2.2804E+00  3.6757E+00  3.8610E+00  2.8503E+00  2.9886E+00  2.9709E+00
 76  0.0000E+00  7.8048E-05  0.0000E+00  0.0000E+00  0.0000E+00  0.0000E+00  6.3776E-05  0.0000E+00  0.0000E+00
 77  0.0000E+00  3.4623E-05  0.0000E+00  0.0000E+00  0.0000E+00  0.0000E+00  0.0000E+00  0.0000E+00  0.0000E+00
 78  0.0000E+00  4.3115E-05  2.3645E-06  0.0000E+00  0.0000E+00  0.0000E+00  0.0000E+00  0.0000E+00  0.0000E+00
 79  0.0000E+00  4.6259E-05  0.0000E+00  2.3536E-04  1.1878E-04  0.0000E+00  9.6323E-05  0.0000E+00  8.2724E-05
 80  0.0000E+00  2.6787E-05  4.8841E-05  7.5324E-05  0.0000E+00  0.0000E+00  0.0000E+00  0.0000E+00  0.0000E+00
 81  0.0000E+00  7.6289E-05  0.0000E+00  0.0000E+00  0.0000E+00  0.0000E+00  0.0000E+00  0.0000E+00  0.0000E+00
 82  0.0000E+00  1.7229E-04  0.0000E+00  1.9283E-04  1.3345E-04  0.0000E+00  0.0000E+00  1.2799E-04  0.0000E+00
 83  0.0000E+00  9.7105E-05  0.0000E+00  0.0000E+00  1.0602E-04  0.0000E+00  0.0000E+00  1.2810E-04  0.0000E+00
 84  0.0000E+00  1.2002E-04  0.0000E+00  0.0000E+00  1.6301E-04  0.0000E+00  0.0000E+00  0.0000E+00  9.0189E-05
 85  0.0000E+00  1.1858E-04  0.0000E+00  0.0000E+00  0.0000E+00  0.0000E+00  0.0000E+00  0.0000E+00  0.0000E+00
 86  0.0000E+00  1.9632E-04  0.0000E+00  0.0000E+00  0.0000E+00  0.0000E+00  1.3784E-03  0.0000E+00  0.0000E+00
 87  0.0000E+00  2.1760E-04  0.0000E+00  0.0000E+00  1.7861E-05  0.0000E+00  0.0000E+00  8.7458E-05  0.0000E+00
 88  0.0000E+00  1.7677E-04  0.0000E+00  0.0000E+00  1.2493E-04  0.0000E+00  0.0000E+00  0.0000E+00  0.0000E+00
 89  0.0000E+00  6.7438E-04  0.0000E+00  0.0000E+00  4.6509E-03  1.5799E-03  0.0000E+00  0.0000E+00  0.0000E+00
 90  0.0000E+00  1.2984E-03  0.0000E+00  0.0000E+00  4.7523E-04  0.0000E+00  0.0000E+00  0.0000E+00  0.0000E+00
 91  0.0000E+00  5.1467E-03  4.5641E-02  0.0000E+00  4.2895E-03  0.0000E+00  1.3697E-02  0.0000E+00  0.0000E+00
 92  0.0000E+00  5.8354E-03  0.0000E+00  1.8329E-02  0.0000E+00  0.0000E+00  0.0000E+00  2.5418E-03  0.0000E+00
 93  3.4342E-04  2.1247E-02  2.6637E-02  1.0161E-02  0.0000E+00  0.0000E+00  1.0808E-01  0.0000E+00  0.0000E+00
 94  3.0675E-02  6.8369E-02  6.3129E-02  3.2237E-02  1.7263E-01  0.0000E+00  1.4932E-01  0.0000E+00  0.0000E+00
 95  1.2384E+00  1.6166E+00  1.2251E+00  1.1381E+00  1.9361E+00  1.5056E+00  1.7600E+00  1.4547E+00  1.4993E+00
 96  1.9779E+00  2.5641E+00  2.2513E+00  2.2829E+00  2.6548E+00  2.4236E+00  2.3921E+00  2.2628E+00  2.5591E+00
 97  1.9176E+01  1.9910E+01  1.9938E+01  1.9874E+01  1.9540E+01  1.8915E+01  1.8982E+01  1.9500E+01  1.9460E+01
 98  1.4700E+01  1.5908E+01  1.5972E+01  1.6331E+01  1.6165E+01  1.5332E+01  1.5626E+01  1.5807E+01  1.6024E+01
 99  2.3236E+01  2.3595E+01  2.3102E+01  2.4270E+01  2.4027E+01  2.3173E+01  2.3610E+01  2.3178E+01  2.2632E+01
100  1.5016E+00  1.6576E+00  1.6885E+00  1.9688E+00  1.6013E+00  2.4485E+00  1.8942E+00  1.4584E+00  1.8830E+00
101  0.0000E+00  8.3944E-05  0.0000E+00  0.0000E+00  1.2899E-05  0.0000E+00  0.0000E+00  0.0000E+00  0.0000E+00
102  0.0000E+00  2.4101E-05  0.0000E+00  0.0000E+00  7.0282E-05  9.6630E-05  0.0000E+00  0.0000E+00  0.0000E+00
103  0.0000E+00  3.3324E-05  0.0000E+00  0.0000E+00  1.3056E-04  1.5292E-04  0.0000E+00  0.0000E+00  0.0000E+00
104  0.0000E+00  8.5421E-05  0.0000E+00  0.0000E+00  0.0000E+00  3.6674E-04  0.0000E+00  0.0000E+00  0.0000E+00
105  1.0397E-05  8.1170E-04  1.2510E-03  9.2826E-04  1.3348E-03  1.1602E-03  1.0451E-03  4.4093E-04  1.3114E-03
106  4.4322E-06  3.5840E-04  4.6055E-04  8.7926E-05  0.0000E+00  1.2370E-03  7.9172E-04  2.1978E-04  3.5232E-04
107  0.0000E+00  1.6638E-04  0.0000E+00  0.0000E+00  0.0000E+00  0.0000E+00  0.0000E+00  1.3829E-03  0.0000E+00
108  0.0000E+00  1.1474E-04  0.0000E+00  0.0000E+00  5.6460E-05  0.0000E+00  0.0000E+00  0.0000E+00  1.6840E-05
109  0.0000E+00  1.2006E-04  0.0000E+00  3.1056E-05  0.0000E+00  4.2468E-05  0.0000E+00  0.0000E+00  0.0000E+00
110  0.0000E+00  1.5284E-04  0.0000E+00  0.0000E+00  0.0000E+00  0.0000E+00  0.0000E+00  0.0000E+00  3.2644E-04
111  0.0000E+00  1.0411E-04  0.0000E+00  0.0000E+00  0.0000E+00  0.0000E+00  0.0000E+00  0.0000E+00  0.0000E+00
112  0.0000E+00  1.3562E-04  0.0000E+00  0.0000E+00  0.0000E+00  0.0000E+00  0.0000E+00  0.0000E+00  0.0000E+00
113  0.0000E+00  3.0715E-04  1.5733E-03  0.0000E+00  0.0000E+00  0.0000E+00  0.0000E+00  0.0000E+00  0.0000E+00
114  0.0000E+00  1.3516E-03  0.0000E+00  0.0000E+00  0.0000E+00  0.0000E+00  0.0000E+00  0.0000E+00  0.0000E+00
115  0.0000E+00  2.3753E-03  0.0000E+00  0.0000E+00  0.0000E+00  0.0000E+00  0.0000E+00  0.0000E+00  1.3918E-02
116  0.0000E+00  3.8120E-03  5.8204E-03  0.0000E+00  2.5707E-03  0.0000E+00  0.0000E+00  0.0000E+00  0.0000E+00
117  0.0000E+00  5.5649E-03  0.0000E+00  0.0000E+00  4.1038E-02  3.8246E-04  0.0000E+00  6.9142E-03  0.0000E+00
118  0.0000E+00  2.0782E-02  1.1627E-02  0.0000E+00  0.0000E+00  0.0000E+00  4.4993E-02  0.0000E+00  0.0000E+00
119  0.0000E+00  3.1428E-02  0.0000E+00  0.0000E+00  0.0000E+00  0.0000E+00  3.0187E-02  0.0000E+00  0.0000E+00
120  0.0000E+00  6.0914E-02  0.0000E+00  7.0016E-02  0.0000E+00  3.1144E-02  0.0000E+00  1.1137E-01  0.0000E+00
121  0.0000E+00  1.1421E-01  1.6604E-01  0.0000E+00  2.6297E-01  0.0000E+00  8.3726E-02  0.0000E+00  7.5619E-02
122  0.0000E+00  1.3387E-01  0.0000E+00  4.1734E-02  1.0064E-01  2.5937E-01  0.0000E+00  3.9834E-01  0.0000E+00
123  0.0000E+00  1.5233E-01  0.0000E+00  1.5522E-02  1.1486E-02  1.2950E-01  7.4658E-02  5.2184E-01  0.0000E+00
124  3.6539E+00  8.7210E-01  3.7550E-01  8.8153E-01  1.3793E+00  1.4625E+00  1.4384E+00  2.0337E+00  7.3983E-01
125  0.0000E+00  4.0020E-01  3.9731E-01  6.9626E-01  2.8976E-01  3.0559E-01  4.9097E-01  0.0000E+00  1.1051E+00
126  0.0000E+00  1.7439E-05  0.0000E+00  1.8865E-05  0.0000E+00  0.0000E+00  0.0000E+00  0.0000E+00  0.0000E+00
127  0.0000E+00  1.5389E-05  0.0000E+00  4.7745E-05  3.7736E-05  1.7516E-05  0.0000E+00  0.0000E+00  0.0000E+00
128  0.0000E+00  3.3034E-05  0.0000E+00  0.0000E+00  0.0000E+00  0.0000E+00  0.0000E+00  0.0000E+00  1.2944E-04
129  0.0000E+00  6.5866E-05  2.4786E-05  0.0000E+00  4.7917E-05  3.1669E-06  4.7552E-05  0.0000E+00  1.5187E-04
130  0.0000E+00  1.3378E-04  1.2969E-04  0.0000E+00  0.0000E+00  0.0000E+00  0.0000E+00  0.0000E+00  3.7779E-05
131  0.0000E+00  9.2124E-05  0.0000E+00  0.0000E+00  0.0000E+00  0.0000E+00  0.0000E+00  0.0000E+00  9.9528E-05
132  0.0000E+00  1.4912E-04  0.0000E+00  0.0000E+00  0.0000E+00  0.0000E+00  0.0000E+00  5.1529E-05  0.0000E+00
133  0.0000E+00  1.0946E-04  0.0000E+00  0.0000E+00  0.0000E+00  0.0000E+00  0.0000E+00  0.0000E+00  0.0000E+00
134  0.0000E+00  1.1155E-04  1.8857E-04  4.8755E-04  0.0000E+00  0.0000E+00  6.2488E-04  0.0000E+00  0.0000E+00
135  0.0000E+00  8.9818E-05  0.0000E+00  1.7230E-06  0.0000E+00  0.0000E+00  6.3678E-04  2.3744E-04  0.0000E+00
136  0.0000E+00  1.1474E-04  0.0000E+00  2.9181E-03  0.0000E+00  0.0000E+00  0.0000E+00  0.0000E+00  0.0000E+00
137  0.0000E+00  2.3892E-04  0.0000E+00  2.2482E-03  1.0013E-03  0.0000E+00  0.0000E+00  0.0000E+00  2.1429E-04
138  0.0000E+00  1.8618E-04  0.0000E+00  0.0000E+00  0.0000E+00  0.0000E+00  0.0000E+00  0.0000E+00  0.0000E+00
139  0.0000E+00  8.0643E-04  0.0000E+00  0.0000E+00  7.2537E-04  0.0000E+00  0.0000E+00  0.0000E+00  0.0000E+00
140  0.0000E+00  3.9410E-03  0.0000E+00  0.0000E+00  8.5632E-03  1.5876E-02  0.0000E+00  0.0000E+00  0.0000E+00
141  0.0000E+00  4.3160E-03  0.0000E+00  0.0000E+00  0.0000E+00  1.6978E-02  0.0000E+00  0.0000E+00  0.0000E+00
142  0.0000E+00  1.0044E-02  2.1703E-02  0.0000E+00  0.0000E+00  0.0000E+00  0.0000E+00  0.0000E+00  0.0000E+00
143  0.0000E+00  2.3933E-02  0.0000E+00  0.0000E+00  0.0000E+00  2.9618E-02  0.0000E+00  0.0000E+00  1.8443E-01
144  9.9996E-01  2.7888E-01  6.2323E-01  3.0890E-01  3.3527E-01  3.2352E-02  3.7530E-01  3.6162E-01  3.2225E-01
145  4.6528E-01  6.8113E-01  7.9248E-01  6.4133E-01  3.5510E-01  6.5883E-01  8.2829E-01  9.8884E-01  7.1879E-01
146  1.8705E+00  1.0202E+00  8.3535E-01  1.4715E+00  1.0162E+00  1.4879E+00  1.2107E+00  1.1550E+00  7.5578E-01
147  2.3963E-01  6.5353E-01  5.8451E-01  8.6563E-01  0.0000E+00  2.4539E-01  9.7074E-01  1.9345E-01  1.1244E+00
148  0.0000E+00  9.9972E-01  8.8915E-01  9.7057E-01  7.1934E-01  7.1080E-01  0.0000E+00  1.2882E+00  9.1756E-01
149  0.0000E+00  8.0498E-01  1.1369E+00  7.7906E-02  2.1499E+00  4.0929E-01  7.8757E-01  8.8144E-01  6.1876E-01
150  3.7623E-03  2.0975E+00  2.1909E+00  1.8125E+00  0.0000E+00  1.8455E+00  1.9086E+00  2.1572E+00  2.3674E+00

# AV, chi2 & Mass for <> & i_chain = 1 ...  7 solutions
AV       1.8283      1.8074      1.8111      1.8089      1.8128      1.8088      1.8137      1.8061      1.8110
chi2 3.0666E+00  3.1716E+00  3.1452E+00  3.1598E+00  3.1509E+00  3.1487E+00  3.1454E+00  3.1579E+00  3.1438E+00
Mass 1.0778E-09  1.0662E-09  1.0671E-09  1.0713E-09  1.0723E-09  1.0757E-09  1.0726E-09  1.0762E-09  1.0711E-09
  -7.73                                  [v0_min (km/s) before EX0s...]
  28.24                                  [vd_min (km/s) before EX0s...]


## Synthetic spectrum (Best Model) ##l_obs f_obs f_syn wei
 3070    [Nl_obs]
 3359.00    0.24837   0.43770   -1.000
 3360.00    0.25076   0.41587   -1.000
 3361.00    0.23868   0.41934   -1.000
 3362.00    0.26236   0.44273   -1.000
 3363.00    0.26635   0.47401   -1.000
 3364.00    0.27369   0.49539   -1.000
 3365.00    0.33918   0.49713   -1.000
 3366.00    0.34598   0.48491   -1.000
 3367.00    0.31434   0.46832   -1.000
 3368.00    0.28694   0.45329   -1.000
 3369.00    0.30308   0.44386   -1.000
 3370.00    0.28769   0.43409   -1.000
 3371.00    0.29373   0.42698   -1.000
 3372.00    0.32818   0.42877   -1.000
 3373.00    0.31119   0.44501   -1.000
 3374.00    0.28853   0.47063   -1.000
 3375.00    0.31820   0.49852   -1.000
 3376.00    0.36080   0.51421   -1.000
 3377.00    0.36890   0.51015   -1.000
 3378.00    0.36445   0.49175   -1.000
 3379.00    0.36003   0.47417   -1.000
 3380.00    0.34140   0.46800   -1.000
 3381.00    0.33972   0.47380   -1.000
 3382.00    0.36704   0.48597   -1.000
 3383.00    0.36387   0.49618   -1.000
 3384.00    0.36102   0.50356   -1.000
 3385.00    0.35993   0.51233   -1.000
 3386.00    0.37381   0.51443   -1.000
 3387.00    0.34822   0.51068   -1.000
 3388.00    0.35646   0.50786   -1.000
 3389.00    0.35658   0.50927   -1.000
 3390.00    0.38086   0.51092   -1.000
 3391.00    0.38885   0.50669   -1.000
 3392.00    0.40259   0.49511   -1.000
 3393.00    0.38048   0.48916   -1.000
 3394.00    0.38365   0.49746   -1.000
 3395.00    0.39050   0.51400   -1.000
 3396.00    0.41581   0.53058   -1.000
 3397.00    0.43472   0.54353   -1.000
 3398.00    0.46292   0.55327   -1.000
 3399.00    0.43964   0.55473   -1.000
 3400.00    0.45186   0.54942   -1.000
 3401.00    0.47172   0.54042   -1.000
 3402.00    0.47045   0.52526   -1.000
 3403.00    0.47287   0.51412   55.892
 3404.00    0.46737   0.50853   56.912
 3405.00    0.45299   0.50733   -1.000
 3406.00    0.43353   0.50409   -1.000
 3407.00    0.41634   0.49936   -1.000
 3408.00    0.43378   0.49678   -1.000
 3409.00    0.43275   0.50065   -1.000
 3410.00    0.45271   0.50927   -1.000
 3411.00    0.42685   0.50811   -1.000
 3412.00    0.46899   0.49819   59.118
 3413.00    0.45553   0.48538   60.316
 3414.00    0.43639   0.47991   60.264
 3415.00    0.43082   0.48843   -1.000
 3416.00    0.43535   0.50302   -1.000
 3417.00    0.42511   0.51961   -1.000
 3418.00    0.43430   0.53463   -1.000
 3419.00    0.49473   0.54761   50.651
 3420.00    0.49085   0.55390   -1.000
 3421.00    0.50706   0.54937   50.577
 3422.00    0.50294   0.53445   51.985
 3423.00    0.48414   0.52223   53.188
 3424.00    0.47618   0.51990   51.845
 3425.00    0.47191   0.52376   50.466
 3426.00    0.49527   0.52841   50.122
 3427.00    0.48696   0.53629   -1.000
 3428.00    0.48561   0.55243   -1.000
 3429.00    0.52575   0.56921   -1.000
 3430.00    0.50440   0.57224   -1.000
 3431.00    0.49191   0.55765   -1.000
 3432.00    0.47912   0.53812   -1.000
 3433.00    0.47615   0.52809   49.988
 3434.00    0.48663   0.53496   -1.000
 3435.00    0.48710   0.54697   -1.000
 3436.00    0.48485   0.54780   -1.000
 3437.00    0.48560   0.53668   52.113
 3438.00    0.47338   0.51768   55.205
 3439.00    0.45581   0.49243   59.535
 3440.00    0.42185   0.46621   62.107
 3441.00    0.42887   0.44864   62.379
 3442.00    0.42173   0.44572   62.136
 3443.00    0.44980   0.45456   59.813
 3444.00    0.44675   0.46747   56.592
 3445.00    0.44934   0.47946   53.459
 3446.00    0.48099   0.49630   51.527
 3447.00    0.49584   0.51715   -1.000
 3448.00    0.48137   0.53768   -1.000
 3449.00    0.50210   0.55199   -1.000
 3450.00    0.54623   0.54924  432.084
 3451.00    0.51369   0.53292   -1.000
 3452.00    0.48607   0.51798   -1.000
 3453.00    0.48836   0.51547   -1.000
 3454.00    0.49036   0.52364   -1.000
 3455.00    0.49228   0.53227   -1.000
 3456.00    0.52507   0.53132  432.084
 3457.00    0.53049   0.52049   -1.000
 3458.00    0.51326   0.50616   53.815
 3459.00    0.48349   0.49476   50.728
 3460.00    0.49301   0.48580   50.457
 3461.00    0.46338   0.48640   -1.000
 3462.00    0.47646   0.50214   -1.000
 3463.00    0.50576   0.52269   -1.000
 3464.00    0.51396   0.52763   -1.000
 3465.00    0.53309   0.52245   -1.000
 3466.00    0.53340   0.52036   -1.000
 3467.00    0.54622   0.52796   -1.000
 3468.00    0.56382   0.54269   -1.000
 3469.00    0.53359   0.55630   -1.000
 3470.00    0.55148   0.55970   -1.000
 3471.00    0.53998   0.54920   -1.000
 3472.00    0.54575   0.53290   -1.000
 3473.00    0.52993   0.51218   -1.000
 3474.00    0.49625   0.49099   54.030
 3475.00    0.48539   0.47633   52.289
 3476.00    0.48516   0.47595   51.330
 3477.00    0.47775   0.48971  297.309
 3478.00    0.48302   0.50803   -1.000
 3479.00    0.52699   0.52426  430.495
 3480.00    0.53641   0.53587  427.211
 3481.00    0.57041   0.53835   -1.000
 3482.00    0.55547   0.53091   -1.000
 3483.00    0.53978   0.52175   -1.000
 3484.00    0.53212   0.52053   -1.000
 3485.00    0.51678   0.53367   -1.000
 3486.00    0.55620   0.55057  407.024
 3487.00    0.56059   0.55693  415.059
 3488.00    0.55464   0.54722   -1.000
 3489.00    0.56047   0.52590   -1.000
 3490.00    0.52045   0.50755   -1.000
 3491.00    0.49611   0.50446  432.084
 3492.00    0.52180   0.51333   -1.000
 3493.00    0.52867   0.52177   -1.000
 3494.00    0.49896   0.52422   -1.000
 3495.00    0.51482   0.51751  432.084
 3496.00    0.50662   0.50803  432.084
 3497.00    0.51066   0.51135  432.084
 3498.00    0.53317   0.52785   -1.000
 3499.00    0.51327   0.54688   -1.000
 3500.00    0.55490   0.55476  395.839
 3501.00    0.57345   0.55674   -1.000
 3502.00    0.56740   0.56348  388.167
 3503.00    0.59538   0.56845   -1.000
 3504.00    0.58570   0.56406   -1.000
 3505.00    0.56539   0.55229   -1.000
 3506.00    0.55244   0.54269   -1.000
 3507.00    0.56354   0.54124   -1.000
 3508.00    0.55495   0.54180   -1.000
 3509.00    0.54990   0.53801   -1.000
 3510.00    0.52506   0.53105  431.634
 3511.00    0.52775   0.52365  432.084
 3512.00    0.53841   0.51423   -1.000
 3513.00    0.53774   0.50310   -1.000
 3514.00    0.53603   0.50175   -1.000
 3515.00    0.53571   0.51776   -1.000
 3516.00    0.54267   0.54761  403.761
 3517.00    0.57186   0.57140  396.609
 3518.00    0.56381   0.57708   -1.000
 3519.00    0.55541   0.56289  422.974
 3520.00    0.56878   0.54178   -1.000
 3521.00    0.54553   0.52311   -1.000
 3522.00    0.51456   0.50938  432.084
 3523.00    0.51143   0.49540   52.900
 3524.00    0.48772   0.48141   51.782
 3525.00    0.47285   0.47284   51.552
 3526.00    0.46762   0.48313   -1.000
 3527.00    0.49094   0.50680   -1.000
 3528.00    0.50800   0.53534   -1.000
 3529.00    0.52965   0.55553   -1.000
 3530.00    0.55122   0.56305   -1.000
 3531.00    0.54924   0.56067   -1.000
 3532.00    0.54302   0.55621   -1.000
 3533.00    0.56532   0.55415   -1.000
 3534.00    0.56712   0.55690   -1.000
 3535.00    0.58999   0.56235   -1.000
 3536.00    0.57598   0.56921  402.748
 3537.00    0.56420   0.57749   -1.000
 3538.00    0.60928   0.58787   -1.000
 3539.00    0.58195   0.59432   -1.000
 3540.00    0.57263   0.59167   -1.000
 3541.00    0.56761   0.58446   -1.000
 3542.00    0.57663   0.58279  405.307
 3543.00    0.56555   0.58923   -1.000
 3544.00    0.58818   0.59707   -1.000
 3545.00    0.65195   0.59836   -1.000
 3546.00    0.59644   0.59250  414.208
 3547.00    0.58458   0.58662  416.147
 3548.00    0.57563   0.58542   -1.000
 3549.00    0.55683   0.58819   -1.000
 3550.00    0.54529   0.59034   -1.000
 3551.00    0.57807   0.58787   -1.000
 3552.00    0.56857   0.57801   -1.000
 3553.00    0.59702   0.56557   -1.000
 3554.00    0.54402   0.55902   -1.000
 3555.00    0.53125   0.56200   -1.000
 3556.00    0.54995   0.56798   -1.000
 3557.00    0.56179   0.57175   -1.000
 3558.00    0.56277   0.57084   -1.000
 3559.00    0.53047   0.56934   -1.000
 3560.00    0.53035   0.57306   -1.000
 3561.00    0.54221   0.58272   -1.000
 3562.00    0.56185   0.58888   -1.000
 3563.00    0.54306   0.57704   -1.000
 3564.00    0.53372   0.54631   52.887
 3565.00    0.52114   0.51568   52.565
 3566.00    0.48774   0.50350   52.062
 3567.00    0.47085   0.50526   51.759
 3568.00    0.49059   0.50601   53.456
 3569.00    0.48434   0.49581   54.473
 3570.00    0.46449   0.48432   52.858
 3571.00    0.46221   0.48370   50.511
 3572.00    0.47739   0.49512   -1.000
 3573.00    0.50258   0.50710  432.084
 3574.00    0.51295   0.51472  432.084
 3575.00    0.52197   0.52053  432.084
 3576.00    0.50513   0.52546   -1.000
 3577.00    0.49455   0.52341   -1.000
 3578.00    0.50947   0.51347   54.471
 3579.00    0.46675   0.49349   56.277
 3580.00    0.48310   0.47308   59.417
 3581.00    0.44513   0.45935   59.898
 3582.00    0.43098   0.45842   60.148
 3583.00    0.44952   0.46569   61.631
 3584.00    0.43238   0.46436   63.656
 3585.00    0.44998   0.45379   64.594
 3586.00    0.44147   0.44449   61.448
 3587.00    0.43377   0.44627   58.171
 3588.00    0.45259   0.46284   55.351
 3589.00    0.46631   0.49015   50.451
 3590.00    0.48082   0.51968   -1.000
 3591.00    0.51899   0.54048   -1.000
 3592.00    0.53847   0.54602  432.084
 3593.00    0.55044   0.54542  432.084
 3594.00    0.55002   0.55074  425.059
 3595.00    0.56557   0.56565  404.523
 3596.00    0.59621   0.58248   -1.000
 3597.00    0.58293   0.59299   -1.000
 3598.00    0.59812   0.60003  375.800
 3599.00    0.60844   0.60604  380.062
 3600.00    0.61374   0.60504   -1.000
 3601.00    0.60898   0.58824   -1.000
 3602.00    0.57016   0.56542  432.084
 3603.00    0.54567   0.54517  432.084
 3604.00    0.52466   0.53633   -1.000
 3605.00    0.50085   0.53664   -1.000
 3606.00    0.51910   0.53602   -1.000
 3607.00    0.52551   0.52824  432.084
 3608.00    0.51310   0.51605  432.084
 3609.00    0.49438   0.51067   -1.000
 3610.00    0.50033   0.51746   -1.000
 3611.00    0.52094   0.53140   -1.000
 3612.00    0.55262   0.54393   -1.000
 3613.00    0.54916   0.55339  423.785
 3614.00    0.52322   0.56468   -1.000
 3615.00    0.56078   0.57699   -1.000
 3616.00    0.56816   0.57253  432.084
 3617.00    0.56106   0.54594   -1.000
 3618.00    0.51017   0.51414   51.425
 3619.00    0.47844   0.50385   -1.000
 3620.00    0.51516   0.52029  427.786
 3621.00    0.55334   0.55102  403.120
 3622.00    0.55133   0.57725   -1.000
 3623.00    0.59898   0.59088  388.294
 3624.00    0.59463   0.60212   -1.000
 3625.00    0.61137   0.62288   -1.000
 3626.00    0.63186   0.64646   -1.000
 3627.00    0.62231   0.66115   -1.000
 3628.00    0.64012   0.65140   -1.000
 3629.00    0.61832   0.61551  426.494
 3630.00    0.55877   0.56722   -1.000
 3631.00    0.52930   0.53559  432.084
 3632.00    0.52338   0.53095   -1.000
 3633.00    0.52616   0.54587   -1.000
 3634.00    0.55089   0.56354   -1.000
 3635.00    0.56023   0.57394   -1.000
 3636.00    0.58060   0.57953  392.584
 3637.00    0.57827   0.59284   -1.000
 3638.00    0.58603   0.61203   -1.000
 3639.00    0.60662   0.62800   -1.000
 3640.00    0.61464   0.63424   -1.000
 3641.00    0.63298   0.62736  383.221
 3642.00    0.60551   0.61014  404.062
 3643.00    0.57787   0.59002   -1.000
 3644.00    0.57924   0.57317  423.178
 3645.00    0.57946   0.56167   -1.000
 3646.00    0.56563   0.55164   -1.000
 3647.00    0.56478   0.54393   -1.000
 3648.00    0.55303   0.54477   -1.000
 3649.00    0.54931   0.55340  408.942
 3650.00    0.55625   0.57006   -1.000
 3651.00    0.58962   0.59132  372.729
 3652.00    0.60233   0.61342   -1.000
 3653.00    0.61947   0.62790   -1.000
 3654.00    0.65006   0.63703   -1.000
 3655.00    0.65202   0.64509  353.065
 3656.00    0.65250   0.65488  349.413
 3657.00    0.66665   0.66462  343.427
 3658.00    0.64602   0.66938   -1.000
 3659.00    0.66723   0.67082  343.746
 3660.00    0.65703   0.66827   -1.000
 3661.00    0.63633   0.65981   -1.000
 3662.00    0.62740   0.64723   -1.000
 3663.00    0.63617   0.63788  360.083
 3664.00    0.65380   0.63633   -1.000
 3665.00    0.64022   0.63975  355.921
 3666.00    0.63087   0.64108   -1.000
 3667.00    0.64680   0.63518   -1.000
 3668.00    0.61449   0.62300   -1.000
 3669.00    0.61299   0.61446  374.205
 3670.00    0.60069   0.61907   -1.000
 3671.00    0.61161   0.63393   -1.000
 3672.00    0.64991   0.64725  351.599
 3673.00    0.65355   0.65293  351.518
 3674.00    0.66553   0.65171   -1.000
 3675.00    0.67283   0.64343   -1.000
 3676.00    0.65550   0.62758   -1.000
 3677.00    0.60740   0.60740  386.026
 3678.00    0.58629   0.58939  395.860
 3679.00    0.58903   0.58049  394.750
 3680.00    0.59603   0.58253   -1.000
 3681.00    0.60518   0.59331   -1.000
 3682.00    0.60830   0.60605  369.775
 3683.00    0.61166   0.61264  378.868
 3684.00    0.63583   0.60715   -1.000
 3685.00    0.61549   0.58940   -1.000
 3686.00    0.59551   0.56993   -1.000
 3687.00    0.58008   0.56433   -1.000
 3688.00    0.57823   0.57841  379.213
 3689.00    0.60859   0.60781  354.059
 3690.00    0.64056   0.63698  343.395
 3691.00    0.66504   0.65331   -1.000
 3692.00    0.67002   0.65201   -1.000
 3693.00    0.64829   0.64089  360.644
 3694.00    0.63347   0.63244  359.011
 3695.00    0.63894   0.63049  355.792
 3696.00    0.65202   0.63290   -1.000
 3697.00    0.64773   0.64040  339.785
 3698.00    0.67288   0.65749   -1.000
 3699.00    0.68726   0.67620  326.788
 3700.00    0.69647   0.68709  333.165
 3701.00    0.66629   0.67719   -1.000
 3702.00    0.65306   0.64352  382.122
 3703.00    0.61641   0.59607   -1.000
 3704.00    0.59129   0.55498   -1.000
 3705.00    0.56789   0.53229   -1.000
 3706.00    0.54876   0.53211   -1.000
 3707.00    0.56809   0.54165   -1.000
 3708.00    0.56212   0.55261   -1.000
 3709.00    0.56740   0.56381  388.642
 3710.00    0.59654   0.57744   -1.000
 3711.00    0.62929   0.59524   -1.000
 3712.00    0.65096   0.61998   -1.000
 3713.00    0.68603   0.64717   -1.000
 3714.00    0.70908   0.66837   -1.000
 3715.00    0.70071   0.67599   -1.000
 3716.00    0.69284   0.66786   -1.000
 3717.00    0.68031   0.64378   -1.000
 3718.00    0.64642   0.60241   -1.000
 3719.00    0.56717   0.54498   -1.000
 3720.00    0.51784   0.49171   51.171
 3721.00    0.49439   0.47130   -1.000
 3722.00    0.50483   0.48925   -1.000
 3723.00    0.57606   0.53311   -1.000
 3724.00    0.63885   0.58416   -1.000
 3725.00    0.66511   0.61572   -1.000
 3726.00    0.64696   0.61911   -1.000
 3727.00    0.62624   0.61342   -1.000
 3728.00    0.62153   0.61454  373.066
 3729.00    0.64579   0.61958   -1.000
 3730.00    0.62723   0.61597   -1.000
 3731.00    0.61892   0.58954   -1.000
 3732.00    0.58169   0.53817   50.078
 3733.00    0.49284   0.48421   55.952
 3734.00    0.46710   0.44226   58.027
 3735.00    0.45834   0.42826   55.090
 3736.00    0.44695   0.44657   49.876
 3737.00    0.46839   0.49117   -1.000
 3738.00    0.53387   0.54551   -1.000
 3739.00    0.58575   0.59859   -1.000
 3740.00    0.63074   0.63096  371.753
 3741.00    0.62998   0.63616  386.759
 3742.00    0.62206   0.61602   -1.000
 3743.00    0.58722   0.58601  432.084
 3744.00    0.57441   0.55762   -1.000
 3745.00    0.54323   0.53751   -1.000
 3746.00    0.51058   0.51935   50.635
 3747.00    0.49397   0.49362   53.919
 3748.00    0.50276   0.46547   54.495
 3749.00    0.46273   0.45143   -1.000
 3750.00    0.48308   0.46785   -1.000
 3751.00    0.54447   0.51334   -1.000
 3752.00    0.59116   0.56769   -1.000
 3753.00    0.62387   0.61914  338.542
 3754.00    0.66153   0.65741  332.155
 3755.00    0.70769   0.66902   -1.000
 3756.00    0.68748   0.64853   -1.000
 3757.00    0.63303   0.60765   -1.000
 3758.00    0.57874   0.57101   -1.000
 3759.00    0.56555   0.56168  412.664
 3760.00    0.58507   0.57319   -1.000
 3761.00    0.59587   0.58975  385.933
 3762.00    0.61121   0.60033   -1.000
 3763.00    0.61441   0.60350   -1.000
 3764.00    0.60944   0.60322   -1.000
 3765.00    0.61502   0.59805   -1.000
 3766.00    0.62484   0.58710   -1.000
 3767.00    0.61116   0.57648   -1.000
 3768.00    0.60827   0.56614   -1.000
 3769.00    0.61531   0.55581   -1.000
 3770.00    0.60438   0.54994   -1.000
 3771.00    0.62439   0.56267   -1.000
 3772.00    0.66502   0.59303   -1.000
 3773.00    0.68793   0.62501   -1.000
 3774.00    0.70425   0.64455   -1.000
 3775.00    0.68494   0.65295   -1.000
 3776.00    0.68166   0.65857   -1.000
 3777.00    0.70312   0.66808   -1.000
 3778.00    0.70595   0.68335   -1.000
 3779.00    0.71927   0.69984   -1.000
 3780.00    0.75262   0.71461   -1.000
 3781.00    0.74882   0.72261   -1.000
 3782.00    0.74973   0.72537   -1.000
 3783.00    0.75691   0.72384   -1.000
 3784.00    0.74248   0.71255   -1.000
 3785.00    0.71344   0.68757   -1.000
 3786.00    0.65932   0.65786  385.324
 3787.00    0.65461   0.63141   -1.000
 3788.00    0.64643   0.61611   -1.000
 3789.00    0.61388   0.61520  384.461
 3790.00    0.61801   0.62223  380.705
 3791.00    0.63235   0.62724  386.929
 3792.00    0.61913   0.62242  401.821
 3793.00    0.62032   0.60398   -1.000
 3794.00    0.62181   0.57926   -1.000
 3795.00    0.60523   0.55302   -1.000
 3796.00    0.56629   0.52467   -1.000
 3797.00    0.55049   0.49445   -1.000
 3798.00    0.50655   0.48163   -1.000
 3799.00    0.55338   0.50412   -1.000
 3800.00    0.58738   0.55594   -1.000
 3801.00    0.62669   0.61134   -1.000
 3802.00    0.66048   0.65436  353.283
 3803.00    0.69502   0.67742   -1.000
 3804.00    0.69523   0.68442   -1.000
 3805.00    0.66526   0.67548   -1.000
 3806.00    0.65760   0.65976  377.842
 3807.00    0.64543   0.65583   -1.000
 3808.00    0.64259   0.66907   -1.000
 3809.00    0.67109   0.68995   -1.000
 3810.00    0.69198   0.70334   -1.000
 3811.00    0.69257   0.69696  376.764
 3812.00    0.69623   0.66990   -1.000
 3813.00    0.65654   0.63539   -1.000
 3814.00    0.59226   0.60485   -1.000
 3815.00    0.55811   0.59180   -1.000
 3816.00    0.56187   0.59858   -1.000
 3817.00    0.59037   0.61017   -1.000
 3818.00    0.59640   0.60723   -1.000
 3819.00    0.57413   0.58354   -1.000
 3820.00    0.54112   0.56339   -1.000
 3821.00    0.52533   0.56500   -1.000
 3822.00    0.56160   0.58076   -1.000
 3823.00    0.56183   0.58429   -1.000
 3824.00    0.53727   0.56458   52.352
 3825.00    0.49706   0.54049   53.429
 3826.00    0.47804   0.52628   52.923
 3827.00    0.49003   0.52360   52.056
 3828.00    0.49134   0.52708   51.232
 3829.00    0.49983   0.52944   51.946
 3830.00    0.49020   0.52455   54.411
 3831.00    0.46908   0.50673   58.789
 3832.00    0.47919   0.47910   60.448
 3833.00    0.46306   0.44766   59.153
 3834.00    0.47373   0.42808   56.746
 3835.00    0.47755   0.42566   55.589
 3836.00    0.45826   0.43641   56.844
 3837.00    0.46119   0.45091   58.169
 3838.00    0.46144   0.46345   57.012
 3839.00    0.45424   0.47946   54.989
 3840.00    0.48387   0.50529   -1.000
 3841.00    0.53625   0.54463  432.084
 3842.00    0.57316   0.58706   -1.000
 3843.00    0.59825   0.62400   -1.000
 3844.00    0.61616   0.64482   -1.000
 3845.00    0.63575   0.65323   -1.000
 3846.00    0.63563   0.65867   -1.000
 3847.00    0.63968   0.66369   -1.000
 3848.00    0.63959   0.65947   -1.000
 3849.00    0.62213   0.65033   -1.000
 3850.00    0.62120   0.64572   -1.000
 3851.00    0.60136   0.65403   -1.000
 3852.00    0.59804   0.66743   -1.000
 3853.00    0.64063   0.67223   -1.000
 3854.00    0.62585   0.66300   -1.000
 3855.00    0.59842   0.64752   -1.000
 3856.00    0.58264   0.63234   -1.000
 3857.00    0.57095   0.61506   49.639
 3858.00    0.55417   0.59601   52.684
 3859.00    0.50664   0.58572   -1.000
 3860.00    0.52837   0.59528   -1.000
 3861.00    0.54840   0.62443   -1.000
 3862.00    0.60701   0.65841   -1.000
 3863.00    0.63307   0.67542   -1.000
 3864.00    0.65238   0.67319   -1.000
 3865.00    0.62571   0.66582   -1.000
 3866.00    0.64039   0.66241   -1.000
 3867.00    0.65499   0.66333  432.084
 3868.00    0.62137   0.66190   -1.000
 3869.00    0.60948   0.65207   -1.000
 3870.00    0.59143   0.63232   51.731
 3871.00    0.55680   0.61290   -1.000
 3872.00    0.55406   0.60271   -1.000
 3873.00    0.57385   0.61308   -1.000
 3874.00    0.59228   0.63966   -1.000
 3875.00    0.64257   0.66010   -1.000
 3876.00    0.65816   0.65393   -1.000
 3877.00    0.60126   0.62921   -1.000
 3878.00    0.58602   0.61189   -1.000
 3879.00    0.56307   0.61077   -1.000
 3880.00    0.58119   0.61759   -1.000
 3881.00    0.58136   0.62189   -1.000
 3882.00    0.56413   0.62016   -1.000
 3883.00    0.58492   0.62028   -1.000
 3884.00    0.59313   0.61331   -1.000
 3885.00    0.60054   0.58583   -1.000
 3886.00    0.58675   0.54581   -1.000
 3887.00    0.56855   0.50904   -1.000
 3888.00    0.55983   0.49199   -1.000
 3889.00    0.57035   0.50542   -1.000
 3890.00    0.60463   0.54701   -1.000
 3891.00    0.63820   0.60239   -1.000
 3892.00    0.69175   0.64459   -1.000
 3893.00    0.71622   0.65946   -1.000
 3894.00    0.69171   0.65982   -1.000
 3895.00    0.68789   0.66442   -1.000
 3896.00    0.71827   0.67677   -1.000
 3897.00    0.73487   0.68788   -1.000
 3898.00    0.71852   0.69112   -1.000
 3899.00    0.70309   0.68918   -1.000
 3900.00    0.71288   0.69220   -1.000
 3901.00    0.72467   0.69872   -1.000
 3902.00    0.74406   0.69914   -1.000
 3903.00    0.72557   0.69090   -1.000
 3904.00    0.67558   0.67672  364.716
 3905.00    0.66244   0.66788  360.457
 3906.00    0.67194   0.67420  338.659
 3907.00    0.68606   0.69881   -1.000
 3908.00    0.73350   0.73029  309.373
 3909.00    0.77314   0.75280   -1.000
 3910.00    0.76930   0.76362  303.802
 3911.00    0.77731   0.77112  302.274
 3912.00    0.79400   0.77409   -1.000
 3913.00    0.77771   0.76951  312.629
 3914.00    0.77104   0.75905   -1.000
 3915.00    0.76048   0.74989   -1.000
 3916.00    0.76004   0.74344   -1.000
 3917.00    0.74572   0.73479   -1.000
 3918.00    0.71801   0.71916  353.699
 3919.00    0.69897   0.69695  370.276
 3920.00    0.68664   0.67669   -1.000
 3921.00    0.66005   0.66660  373.213
 3922.00    0.64496   0.66948   -1.000
 3923.00    0.66704   0.67765   -1.000
 3924.00    0.67945   0.67905  390.386
 3925.00    0.66705   0.66840  429.195
 3926.00    0.61636   0.64027   -1.000
 3927.00    0.55352   0.60045   55.797
 3928.00    0.50373   0.55483   65.428
 3929.00    0.43923   0.50952   -1.000
 3930.00    0.38776   0.46168   -1.000
 3931.00    0.34301   0.40585   -1.000
 3932.00    0.29284   0.34698   -1.000
 3933.00    0.27309   0.30557  108.962
 3934.00    0.28884   0.30993   94.142
 3935.00    0.30543   0.35630   -1.000
 3936.00    0.34695   0.41835   -1.000
 3937.00    0.40775   0.48082   -1.000
 3938.00    0.48014   0.54128   -1.000
 3939.00    0.52306   0.58871   -1.000
 3940.00    0.55963   0.62356   -1.000
 3941.00    0.59113   0.64247   -1.000
 3942.00    0.58897   0.64640   -1.000
 3943.00    0.62326   0.64757   -1.000
 3944.00    0.63043   0.65828   -1.000
 3945.00    0.66871   0.68009   -1.000
 3946.00    0.70311   0.70251  341.073
 3947.00    0.73072   0.71505   -1.000
 3948.00    0.71618   0.72129  325.445
 3949.00    0.72942   0.73112  315.484
 3950.00    0.76247   0.74171   -1.000
 3951.00    0.76933   0.74280   -1.000
 3952.00    0.75222   0.74138   -1.000
 3953.00    0.76031   0.74837   -1.000
 3954.00    0.76814   0.75524   -1.000
 3955.00    0.77078   0.75132   -1.000
 3956.00    0.76411   0.74006   -1.000
 3957.00    0.74847   0.73194   -1.000
 3958.00    0.75911   0.73201   -1.000
 3959.00    0.73190   0.72358   -1.000
 3960.00    0.69701   0.68790   -1.000
 3961.00    0.63870   0.64134  432.084
 3962.00    0.58180   0.60188   -1.000
 3963.00    0.53907   0.57308   52.572
 3964.00    0.50474   0.54380   61.909
 3965.00    0.45017   0.49449   76.447
 3966.00    0.37945   0.42480   -1.000
 3967.00    0.31597   0.34897  101.549
 3968.00    0.28707   0.29869   93.303
 3969.00    0.29922   0.29487   76.758
 3970.00    0.34415   0.33480   63.136
 3971.00    0.40324   0.40027   56.440
 3972.00    0.45778   0.47308   -1.000
 3973.00    0.50683   0.53975   -1.000
 3974.00    0.58191   0.59893   -1.000
 3975.00    0.65372   0.64778  337.194
 3976.00    0.69906   0.69041  317.599
 3977.00    0.74960   0.72748   -1.000
 3978.00    0.78278   0.76153   -1.000
 3979.00    0.81055   0.78980   -1.000
 3980.00    0.82830   0.80160   -1.000
 3981.00    0.84371   0.80026   -1.000
 3982.00    0.83721   0.79413   -1.000
 3983.00    0.82362   0.79371   -1.000
 3984.00    0.84069   0.80580   -1.000
 3985.00    0.86309   0.82045   -1.000
 3986.00    0.86261   0.83186   -1.000
 3987.00    0.88367   0.84412   -1.000
 3988.00    0.90298   0.85639   -1.000
 3989.00    0.89616   0.86035   -1.000
 3990.00    0.89431   0.86355   -1.000
 3991.00    0.90537   0.87218   -1.000
 3992.00    0.92380   0.88393   -1.000
 3993.00    0.93947   0.89028   -1.000
 3994.00    0.92337   0.88446   -1.000
 3995.00    0.90915   0.86776   -1.000
 3996.00    0.89638   0.84949   -1.000
 3997.00    0.87320   0.84439   -1.000
 3998.00    0.88453   0.85603   -1.000
 3999.00    0.89927   0.87819   -1.000
 4000.00    0.94278   0.89843   -1.000
 4001.00    0.97955   0.91304   -1.000
 4002.00    0.98475   0.91652   -1.000
 4003.00    0.96965   0.90256   -1.000
 4004.00    0.94074   0.87022   -1.000
 4005.00    0.87898   0.84055   -1.000
 4006.00    0.86355   0.84042   -1.000
 4007.00    0.90171   0.86685   -1.000
 4008.00    0.94541   0.89943   -1.000
 4009.00    0.95756   0.91888   -1.000
 4010.00    0.95899   0.92783   -1.000
 4011.00    0.97715   0.93136   -1.000
 4012.00    1.00556   0.93210   -1.000
 4013.00    0.97765   0.93508   -1.000
 4014.00    0.99464   0.93993   -1.000
 4015.00    1.00226   0.94237   -1.000
 4016.00    1.00237   0.94093   -1.000
 4017.00    1.00829   0.93985   -1.000
 4018.00    0.99744   0.94590   -1.000
 4019.00    1.02395   0.95371   -1.000
 4020.00    1.02991   0.95795   -1.000
 4021.00    1.01181   0.95477   -1.000
 4022.00    1.00680   0.94885   -1.000
 4023.00    0.99371   0.94032   -1.000
 4024.00    0.98835   0.93130   -1.000
 4025.00    1.00000   0.93237   -1.000
 4026.00    1.02331   0.95001   -1.000
 4027.00    1.05114   0.97314   -1.000
 4028.00    1.06906   0.97689   -1.000
 4029.00    1.03068   0.95053   -1.000
 4030.00    0.97032   0.90834   -1.000
 4031.00    0.92016   0.87370   -1.000
 4032.00    0.91150   0.85850   -1.000
 4033.00    0.92949   0.86332   -1.000
 4034.00    0.93587   0.88542   -1.000
 4035.00    0.95347   0.92196   -1.000
 4036.00    1.00729   0.96350   -1.000
 4037.00    1.06001   0.99834   -1.000
 4038.00    1.06459   1.01005   -1.000
 4039.00    1.05609   1.00052   -1.000
 4040.00    1.04330   0.98588   -1.000
 4041.00    1.03585   0.97798   -1.000
 4042.00    1.02203   0.96625   -1.000
 4043.00    0.98423   0.92938   -1.000
 4044.00    0.90507   0.86916   -1.000
 4045.00    0.84817   0.82681   -1.000
 4046.00    0.86460   0.83518   -1.000
 4047.00    0.92646   0.88750   -1.000
 4048.00    0.99747   0.94492   -1.000
 4049.00    1.02044   0.98374   -1.000
 4050.00    1.03740   0.99641   -1.000
 4051.00    1.04320   0.99419   -1.000
 4052.00    1.02476   0.98208   -1.000
 4053.00    1.00532   0.96411   -1.000
 4054.00    0.98720   0.95048   -1.000
 4055.00    0.96713   0.94113   -1.000
 4056.00    0.96601   0.93185   -1.000
 4057.00    0.96920   0.92657   -1.000
 4058.00    0.98004   0.93598   -1.000
 4059.00    0.99384   0.95835   -1.000
 4060.00    1.00999   0.97324   -1.000
 4061.00    1.01467   0.95641   -1.000
 4062.00    0.97341   0.90937   -1.000
 4063.00    0.90624   0.87015   -1.000
 4064.00    0.89216   0.85962   -1.000
 4065.00    0.92091   0.87038   -1.000
 4066.00    0.94133   0.89505   -1.000
 4067.00    0.97633   0.92036   -1.000
 4068.00    1.01276   0.93971   -1.000
 4069.00    1.02554   0.94392   -1.000
 4070.00    1.01808   0.92384   -1.000
 4071.00    0.97786   0.89719   -1.000
 4072.00    0.95972   0.89556   -1.000
 4073.00    0.98957   0.91505   -1.000
 4074.00    0.99240   0.92723   -1.000
 4075.00    0.94114   0.90999   -1.000
 4076.00    0.89691   0.87388   -1.000
 4077.00    0.85812   0.85241  273.405
 4078.00    0.86458   0.86225  254.269
 4079.00    0.92769   0.90415   -1.000
 4080.00    0.99189   0.95237   -1.000
 4081.00    1.03566   0.97915   -1.000
 4082.00    1.01587   0.97562   -1.000
 4083.00    0.98930   0.95462   -1.000
 4084.00    0.99327   0.93935   -1.000
 4085.00    0.99861   0.94477   -1.000
 4086.00    1.02256   0.97035   -1.000
 4087.00    1.05003   1.00185   -1.000
 4088.00    1.08672   1.02330   -1.000
 4089.00    1.10342   1.02585   -1.000
 4090.00    1.10728   1.01347   -1.000
 4091.00    1.09236   0.99975   -1.000
 4092.00    1.07267   0.99262   -1.000
 4093.00    1.05625   0.98356   -1.000
 4094.00    1.03971   0.96646   -1.000
 4095.00    1.01307   0.93902   -1.000
 4096.00    0.96615   0.91030   -1.000
 4097.00    0.94820   0.88858   -1.000
 4098.00    0.94556   0.86229   -1.000
 4099.00    0.90788   0.81655   -1.000
 4100.00    0.84319   0.75471   -1.000
 4101.00    0.80461   0.71023   -1.000
 4102.00    0.78435   0.70971   -1.000
 4103.00    0.83464   0.76142   -1.000
 4104.00    0.91664   0.83454   -1.000
 4105.00    0.96287   0.89535   -1.000
 4106.00    0.99511   0.93063   -1.000
 4107.00    1.01375   0.94727   -1.000
 4108.00    1.01831   0.94964   -1.000
 4109.00    0.99804   0.94563   -1.000
 4110.00    0.99164   0.94486   -1.000
 4111.00    0.99117   0.95233   -1.000
 4112.00    0.99520   0.96685   -1.000
 4113.00    1.02698   0.98548   -1.000
 4114.00    1.06120   1.00383   -1.000
 4115.00    1.05801   1.01580   -1.000
 4116.00    1.04462   1.01424   -1.000
 4117.00    1.03832   0.99865   -1.000
 4118.00    1.02593   0.97914   -1.000
 4119.00    1.01506   0.96716   -1.000
 4120.00    1.01584   0.96990   -1.000
 4121.00    1.02053   0.97830   -1.000
 4122.00    1.03059   0.98487   -1.000
 4123.00    1.03154   0.99240   -1.000
 4124.00    1.04040   1.00142   -1.000
 4125.00    1.04646   1.00806   -1.000
 4126.00    1.03634   1.00434   -1.000
 4127.00    1.02271   0.99260   -1.000
 4128.00    1.02487   0.98326   -1.000
 4129.00    1.01671   0.98015   -1.000
 4130.00    0.99628   0.96946   -1.000
 4131.00    0.97149   0.94802   -1.000
 4132.00    0.94450   0.92830   -1.000
 4133.00    0.92727   0.92819  260.469
 4134.00    0.95052   0.95202  247.624
 4135.00    1.00175   0.98602   -1.000
 4136.00    1.03121   1.01664  236.403
 4137.00    1.06899   1.03865   -1.000
 4138.00    1.08679   1.05362   -1.000
 4139.00    1.08610   1.05920   -1.000
 4140.00    1.07664   1.04508   -1.000
 4141.00    1.04145   1.00612   -1.000
 4142.00    0.97463   0.95475   -1.000
 4143.00    0.92805   0.92152  272.595
 4144.00    0.93118   0.92881  256.626
 4145.00    0.97692   0.96655  248.000
 4146.00    1.02023   1.00476   -1.000
 4147.00    1.03741   1.01955   -1.000
 4148.00    1.02991   1.01521   -1.000
 4149.00    1.03065   1.00746   -1.000
 4150.00    1.01186   1.00579  258.852
 4151.00    1.01305   1.00695  257.812
 4152.00    1.00945   1.00315  260.574
 4153.00    0.97727   0.99266   -1.000
 4154.00    1.00985   0.98300   -1.000
 4155.00    1.20693   0.98191   -1.000
 4156.00    1.28307   0.99173   -1.000
 4157.00    0.85994   1.00809   -1.000
 4158.00    0.76322   1.02787   -1.000
 4159.00    1.02392   1.04510   -1.000
 4160.00    1.08542   1.05689   -1.000
 4161.00    1.06835   1.06457  238.128
 4162.00    1.07373   1.07109  239.981
 4163.00    1.09301   1.07494   -1.000
 4164.00    1.07991   1.07202  247.850
 4165.00    1.05171   1.06063  253.333
 4166.00    1.02158   1.04245   -1.000
 4167.00    1.01482   1.03111   -1.000
 4168.00    1.02401   1.03282  250.317
 4169.00    1.03124   1.03739  254.572
 4170.00    1.02852   1.02600  270.370
 4171.00    0.99964   0.99165  285.084
 4172.00    0.95436   0.95676  284.009
 4173.00    0.92244   0.94601   -1.000
 4174.00    0.94112   0.96139   -1.000
 4175.00    0.98331   0.98458  264.929
 4176.00    0.99957   0.99592  266.248
 4177.00    0.97492   1.00137   -1.000
 4178.00    0.96873   1.01028   -1.000
 4179.00    0.99971   1.02178   -1.000
 4180.00    1.01252   1.02725   -1.000
 4181.00    1.01088   1.02168   -1.000
 4182.00    0.99933   1.01770   -1.000
 4183.00    1.01858   1.02931   -1.000
 4184.00    1.04404   1.04254  247.664
 4185.00    1.04350   1.04133  256.251
 4186.00    1.02086   1.02315  262.375
 4187.00    0.99366   1.00576   -1.000
 4188.00    0.98749   1.00713   -1.000
 4189.00    1.01542   1.01919  252.126
 4190.00    1.04262   1.02883  248.421
 4191.00    1.03240   1.03806  243.194
 4192.00    1.05161   1.04960  241.297
 4193.00    1.08002   1.05865   -1.000
 4194.00    1.06865   1.05170   -1.000
 4195.00    1.02047   1.02279  270.311
 4196.00    0.97796   0.98959   -1.000
 4197.00    0.96221   0.96548  274.378
 4198.00    0.94894   0.95404  271.046
 4199.00    0.95191   0.94969  267.080
 4200.00    0.97741   0.95283   -1.000
 4201.00    0.98266   0.96046   -1.000
 4202.00    0.98241   0.97067  260.301
 4203.00    0.98750   0.98991  258.114
 4204.00    1.00195   1.01593   -1.000
 4205.00    1.02563   1.03869   -1.000
 4206.00    1.04034   1.05765   -1.000
 4207.00    1.06947   1.07295  241.479
 4208.00    1.08275   1.07796  242.382
 4209.00    1.07045   1.07437  241.645
 4210.00    1.06748   1.07137  240.286
 4211.00    1.06162   1.07609   -1.000
 4212.00    1.07412   1.08139  251.323
 4213.00    1.06601   1.06740  262.470
 4214.00    1.01332   1.03699   -1.000
 4215.00    0.98366   1.01531   -1.000
 4216.00    0.98161   1.01623   -1.000
 4217.00    1.01961   1.04786   -1.000
 4218.00    1.08071   1.08450  224.825
 4219.00    1.11662   1.11011  223.133
 4220.00    1.13158   1.11877  226.258
 4221.00    1.14131   1.10988   -1.000
 4222.00    1.12415   1.07814   -1.000
 4223.00    1.06346   1.02263   -1.000
 4224.00    0.97737   0.94680   -1.000
 4225.00    0.88792   0.87507  336.728
 4226.00    0.80924   0.83754   -1.000
 4227.00    0.80569   0.86536   -1.000
 4228.00    0.90201   0.94714   -1.000
 4229.00    1.01169   1.03563   -1.000
 4230.00    1.08300   1.08310  232.438
 4231.00    1.10240   1.08798  238.114
 4232.00    1.08846   1.07260  243.907
 4233.00    1.07585   1.05194   -1.000
 4234.00    1.06324   1.03248   -1.000
 4235.00    1.05145   1.02205   -1.000
 4236.00    1.03766   1.01828   -1.000
 4237.00    1.02162   1.02290  247.472
 4238.00    1.03568   1.03832  243.890
 4239.00    1.03823   1.05748   -1.000
 4240.00    1.05546   1.07633   -1.000
 4241.00    1.09167   1.09309  235.089
 4242.00    1.10049   1.10668  230.764
 4243.00    1.11564   1.11968  226.847
 4244.00    1.13166   1.13108  230.649
 4245.00    1.13466   1.12781  241.501
 4246.00    1.12219   1.09915   -1.000
 4247.00    1.08099   1.06009   -1.000
 4248.00    1.03654   1.02819  257.665
 4249.00    1.01079   1.01507  256.225
 4250.00    1.02747   1.02153  248.527
 4251.00    1.05063   1.04217  242.707
 4252.00    1.06511   1.05702  245.202
 4253.00    1.06239   1.05323  250.773
 4254.00    1.04582   1.04314  246.098
 4255.00    1.03569   1.05052   -1.000
 4256.00    1.06001   1.07698   -1.000
 4257.00    1.08180   1.08948  247.402
 4258.00    1.08674   1.06526   -1.000
 4259.00    1.04773   1.02500   -1.000
 4260.00    0.99400   1.00595   -1.000
 4261.00    1.01114   1.02967   -1.000
 4262.00    1.04744   1.08046   -1.000
 4263.00    1.09733   1.12879   -1.000
 4264.00    1.14273   1.15428   -1.000
 4265.00    1.15852   1.15511  227.239
 4266.00    1.15478   1.14350  234.913
 4267.00    1.12406   1.12314  242.289
 4268.00    1.08852   1.09058  252.685
 4269.00    1.07118   1.04677   -1.000
 4270.00    1.01938   0.99661   -1.000
 4271.00    0.96109   0.95839  285.202
 4272.00    0.94035   0.94454  278.271
 4273.00    0.94318   0.95714   -1.000
 4274.00    0.97467   0.98513   -1.000
 4275.00    1.00053   1.02390   -1.000
 4276.00    1.04726   1.07387   -1.000
 4277.00    1.10411   1.11734   -1.000
 4278.00    1.13066   1.12680  244.054
 4279.00    1.10374   1.10720  251.271
 4280.00    1.05992   1.08081   -1.000
 4281.00    1.04110   1.07393   -1.000
 4282.00    1.05177   1.08441   -1.000
 4283.00    1.06395   1.08823   -1.000
 4284.00    1.06100   1.07976   -1.000
 4285.00    1.03746   1.06442   -1.000
 4286.00    1.00615   1.04870   -1.000
 4287.00    0.98495   1.03164   -1.000
 4288.00    0.98155   1.00360   -1.000
 4289.00    0.94107   0.97107   -1.000
 4290.00    0.91328   0.96162   -1.000
 4291.00    0.94237   0.98629   -1.000
 4292.00    1.00441   1.02551   -1.000
 4293.00    1.05112   1.04783  257.059
 4294.00    1.04021   1.04341  261.651
 4295.00    1.04323   1.02783   -1.000
 4296.00    1.00031   1.00479  284.256
 4297.00    0.94448   0.96615   -1.000
 4298.00    0.89672   0.91708   -1.000
 4299.00    0.82644   0.87418   -1.000
 4300.00    0.79901   0.85346   -1.000
 4301.00    0.80606   0.85552   -1.000
 4302.00    0.82906   0.86864   -1.000
 4303.00    0.84876   0.88280   -1.000
 4304.00    0.85582   0.89407   -1.000
 4305.00    0.87076   0.89239   -1.000
 4306.00    0.85357   0.87213   -1.000
 4307.00    0.81284   0.84424   -1.000
 4308.00    0.78581   0.82724   -1.000
 4309.00    0.79407   0.83761   -1.000
 4310.00    0.82237   0.87004   -1.000
 4311.00    0.86991   0.91200   -1.000
 4312.00    0.91149   0.95362   -1.000
 4313.00    0.95680   1.00151   -1.000
 4314.00    1.02016   1.06502   -1.000
 4315.00    1.09862   1.13951   -1.000
 4316.00    1.18777   1.21062   -1.000
 4317.00    1.26828   1.25257  210.001
 4318.00    1.26835   1.25899  213.693
 4319.00    1.23733   1.24365  219.010
 4320.00    1.22731   1.21941  227.120
 4321.00    1.20369   1.18166   -1.000
 4322.00    1.13414   1.12562  258.063
 4323.00    1.06974   1.05411   -1.000
 4324.00    0.99302   0.99107  285.170
 4325.00    0.94553   0.97263   -1.000
 4326.00    0.97352   1.01716   -1.000
 4327.00    1.07050   1.10006   -1.000
 4328.00    1.16400   1.17434  219.055
 4329.00    1.22720   1.20731   -1.000
 4330.00    1.21132   1.21037  218.097
 4331.00    1.20223   1.20779  214.391
 4332.00    1.21679   1.21528  212.577
 4333.00    1.23577   1.22447  212.877
 4334.00    1.23402   1.22225  218.372
 4335.00    1.21969   1.19501   -1.000
 4336.00    1.17781   1.13196   -1.000
 4337.00    1.11064   1.03880   -1.000
 4338.00    1.01092   0.93846   -1.000
 4339.00    0.92163   0.87061   -1.000
 4340.00    0.88983   0.85596   -1.000
 4341.00    0.93636   0.90204   -1.000
 4342.00    1.00917   0.98838   -1.000
 4343.00    1.08345   1.07270  230.715
 4344.00    1.13555   1.12916  224.880
 4345.00    1.18035   1.16483  221.433
 4346.00    1.20110   1.19051  218.946
 4347.00    1.20779   1.21494  215.973
 4348.00    1.23976   1.23299  218.682
 4349.00    1.24665   1.22168   -1.000
 4350.00    1.20075   1.17421   -1.000
 4351.00    1.11377   1.12136  247.854
 4352.00    1.07298   1.09903   -1.000
 4353.00    1.11220   1.12427   -1.000
 4354.00    1.15061   1.17120   -1.000
 4355.00    1.19262   1.20894   -1.000
 4356.00    1.21884   1.22775  217.703
 4357.00    1.24192   1.23087  222.380
 4358.00    1.23679   1.22161   -1.000
 4359.00    1.20570   1.21537  218.594
 4360.00    1.20558   1.22761   -1.000
 4361.00    1.23937   1.25092  210.668
 4362.00    1.26975   1.27228  209.613
 4363.00    1.28335   1.28730  207.534
 4364.00    1.28874   1.29670  208.623
 4365.00    1.29101   1.29315  215.701
 4366.00    1.25708   1.26899  222.725
 4367.00    1.21752   1.23656   -1.000
 4368.00    1.20348   1.21846   -1.000
 4369.00    1.21258   1.21419  220.622
 4370.00    1.22419   1.21275  220.915
 4371.00    1.22845   1.20465   -1.000
 4372.00    1.21945   1.18445   -1.000
 4373.00    1.18200   1.15247   -1.000
 4374.00    1.13303   1.12195  239.460
 4375.00    1.11731   1.12012  228.621
 4376.00    1.14791   1.15297  218.369
 4377.00    1.19611   1.20029  215.826
 4378.00    1.24133   1.22882  217.848
 4379.00    1.24666   1.22778   -1.000
 4380.00    1.22407   1.19892   -1.000
 4381.00    1.18311   1.13808   -1.000
 4382.00    1.10834   1.05103   -1.000
 4383.00    1.00522   0.98121   -1.000
 4384.00    0.95480   0.97280   -1.000
 4385.00    1.01907   1.02853   -1.000
 4386.00    1.10184   1.10406  229.939
 4387.00    1.16705   1.14739   -1.000
 4388.00    1.17960   1.15654   -1.000
 4389.00    1.16384   1.15327  232.884
 4390.00    1.16616   1.15611  227.931
 4391.00    1.18473   1.16925  223.977
 4392.00    1.21278   1.18563   -1.000
 4393.00    1.21765   1.19093   -1.000
 4394.00    1.20261   1.18522   -1.000
 4395.00    1.19472   1.19310  217.348
 4396.00    1.22283   1.22246  212.973
 4397.00    1.25768   1.24751  217.395
 4398.00    1.25504   1.24475  225.479
 4399.00    1.23206   1.21755   -1.000
 4400.00    1.19718   1.19723  226.797
 4401.00    1.20032   1.19438  224.825
 4402.00    1.21656   1.18893   -1.000
 4403.00    1.19952   1.16236   -1.000
 4404.00    1.13707   1.12407  245.658
 4405.00    1.11239   1.11022  237.730
 4406.00    1.12063   1.13075   -1.000
 4407.00    1.15199   1.15936  231.433
 4408.00    1.15896   1.18448   -1.000
 4409.00    1.20433   1.22024   -1.000
 4410.00    1.26859   1.26879  206.552
 4411.00    1.29463   1.30715  205.873
 4412.00    1.31448   1.30800  213.098
 4413.00    1.29255   1.27288   -1.000
 4414.00    1.23458   1.22183  231.014
 4415.00    1.18342   1.18276  227.823
 4416.00    1.17483   1.18909   -1.000
 4417.00    1.20562   1.23146   -1.000
 4418.00    1.24723   1.28139   -1.000
 4419.00    1.28067   1.31447   -1.000
 4420.00    1.28303   1.31846   -1.000
 4421.00    1.25429   1.29682   -1.000
 4422.00    1.20485   1.27482   -1.000
 4423.00    1.20340   1.26896   -1.000
 4424.00    1.21965   1.27347   -1.000
 4425.00    1.21308   1.27676   -1.000
 4426.00    1.18824   1.27548   -1.000
 4427.00    1.20210   1.27933   -1.000
 4428.00    1.20579   1.28417   -1.000
 4429.00    1.20884   1.28595   -1.000
 4430.00    1.21027   1.28588   -1.000
 4431.00    1.21811   1.28992   -1.000
 4432.00    1.23066   1.28902   -1.000
 4433.00    1.21985   1.26632   -1.000
 4434.00    1.18421   1.23248   -1.000
 4435.00    1.16205   1.21867   -1.000
 4436.00    1.18899   1.24899   -1.000
 4437.00    1.26081   1.30951   -1.000
 4438.00    1.31767   1.35819   -1.000
 4439.00    1.33657   1.37038   -1.000
 4440.00    1.32848   1.34042  219.359
 4441.00    1.27544   1.29415   -1.000
 4442.00    1.21181   1.26030   -1.000
 4443.00    1.21514   1.26233   -1.000
 4444.00    1.25559   1.29669   -1.000
 4445.00    1.31560   1.34247   -1.000
 4446.00    1.33055   1.37204   -1.000
 4447.00    1.33492   1.37839   -1.000
 4448.00    1.35421   1.37621   -1.000
 4449.00    1.33907   1.37515   -1.000
 4450.00    1.34055   1.37110   -1.000
 4451.00    1.32542   1.36318   -1.000
 4452.00    1.32547   1.34720   -1.000
 4453.00    1.31169   1.31340  229.211
 4454.00    1.24232   1.26695   -1.000
 4455.00    1.21257   1.23682   -1.000
 4456.00    1.23487   1.23823  224.202
 4457.00    1.23993   1.25465   -1.000
 4458.00    1.25086   1.26496   -1.000
 4459.00    1.25590   1.26372  228.632
 4460.00    1.23858   1.25971   -1.000
 4461.00    1.23205   1.26312   -1.000
 4462.00    1.24593   1.28225   -1.000
 4463.00    1.28518   1.31392   -1.000
 4464.00    1.33040   1.34013  211.254
 4465.00    1.35390   1.34993  211.876
 4466.00    1.34606   1.34543  214.780
 4467.00    1.32738   1.33333  218.458
 4468.00    1.30872   1.32062   -1.000
 4469.00    1.29396   1.31543   -1.000
 4470.00    1.30494   1.32843   -1.000
 4471.00    1.33720   1.36221   -1.000
 4472.00    1.38194   1.40048   -1.000
 4473.00    1.42595   1.42919  194.951
 4474.00    1.44256   1.44293  194.987
 4475.00    1.44059   1.44921  193.269
 4476.00    1.44994   1.45935  192.774
 4477.00    1.47725   1.46591  195.789
 4478.00    1.47318   1.45019   -1.000
 4479.00    1.42596   1.40649   -1.000
 4480.00    1.37515   1.35519   -1.000
 4481.00    1.32523   1.32969  212.070
 4482.00    1.31918   1.34282   -1.000
 4483.00    1.35952   1.38839   -1.000
 4484.00    1.42091   1.44174   -1.000
 4485.00    1.46280   1.47665   -1.000
 4486.00    1.48641   1.48090  199.670
 4487.00    1.47516   1.45596   -1.000
 4488.00    1.42717   1.41768  209.995
 4489.00    1.36938   1.38986   -1.000
 4490.00    1.36730   1.39166   -1.000
 4491.00    1.39778   1.41635   -1.000
 4492.00    1.42788   1.43441  203.607
 4493.00    1.42334   1.42237  209.669
 4494.00    1.39081   1.39342  212.609
 4495.00    1.36083   1.37871   -1.000
 4496.00    1.35958   1.39071   -1.000
 4497.00    1.39480   1.42007   -1.000
 4498.00    1.42005   1.44568   -1.000
 4499.00    1.43132   1.45522   -1.000
 4500.00    1.42275   1.44880   -1.000
 4501.00    1.41240   1.44740   -1.000
 4502.00    1.42751   1.46666   -1.000
 4503.00    1.48174   1.49918   -1.000
 4504.00    1.53628   1.52831  185.918
 4505.00    1.54311   1.53927  189.457
 4506.00    1.52300   1.53211  190.826
 4507.00    1.52440   1.51825  190.534
 4508.00    1.52070   1.51144  189.013
 4509.00    1.51645   1.51441  188.338
 4510.00    1.52657   1.51962  190.569
 4511.00    1.53224   1.51578   -1.000
 4512.00    1.50871   1.49874  197.353
 4513.00    1.48639   1.47980  197.971
 4514.00    1.45846   1.46726  197.056
 4515.00    1.46790   1.46261  197.521
 4516.00    1.48343   1.46280   -1.000
 4517.00    1.46667   1.45978  199.881
 4518.00    1.46571   1.45681  196.116
 4519.00    1.47914   1.46606  193.196
 4520.00    1.48711   1.48180  194.900
 4521.00    1.49309   1.48820  199.613
 4522.00    1.46396   1.47776  203.103
 4523.00    1.44744   1.45649  205.080
 4524.00    1.43106   1.43648  209.254
 4525.00    1.40820   1.41577  215.740
 4526.00    1.37750   1.38708  221.031
 4527.00    1.34463   1.35265  222.539
 4528.00    1.31901   1.32588  220.177
 4529.00    1.31779   1.32337  216.152
 4530.00    1.32893   1.34065  212.843
 4531.00    1.37476   1.36443  213.490
 4532.00    1.38793   1.37411   -1.000
 4533.00    1.35751   1.36013  225.377
 4534.00    1.33339   1.33934  219.563
 4535.00    1.33564   1.33950  206.460
 4536.00    1.37042   1.38005  195.770
 4537.00    1.44196   1.43965  192.418
 4538.00    1.50231   1.48332   -1.000
 4539.00    1.50892   1.49179   -1.000
 4540.00    1.47995   1.47730  198.274
 4541.00    1.46744   1.46580  196.929
 4542.00    1.48214   1.46702   -1.000
 4543.00    1.38258   1.47224   -1.000
 4544.00    0.56361   1.46915   -1.000
 4545.00   -0.04819   1.45889    0.000
 4546.00    0.12279   1.45177   -1.000
 4547.00    0.79921   1.44499   -1.000
 4548.00    0.74633   1.42939   -1.000
 4549.00    0.73342   1.41310   -1.000
 4550.00    1.45216   1.41336   -1.000
 4551.00    1.42316   1.43196  206.730
 4552.00    1.45349   1.44465  209.767
 4553.00    1.42824   1.43669  210.454
 4554.00    1.41348   1.42432  205.965
 4555.00    1.42349   1.42545  198.037
 4556.00    1.46688   1.45256  191.066
 4557.00    1.50783   1.49541  188.934
 4558.00    1.52824   1.52905  189.926
 4559.00    1.53425   1.54608  189.787
 4560.00    1.55213   1.55341  190.865
 4561.00    1.55874   1.55081  195.618
 4562.00    1.54344   1.53525  200.167
 4563.00    1.51202   1.50744  202.202
 4564.00    1.47107   1.48230  199.016
 4565.00    1.47773   1.47797  193.771
 4566.00    1.50235   1.49779  189.378
 4567.00    1.55106   1.52966   -1.000
 4568.00    1.57219   1.55143   -1.000
 4569.00    1.55858   1.54927  196.497
 4570.00    1.52332   1.52765  200.131
 4571.00    1.48794   1.50267  197.254
 4572.00    1.47979   1.49483  191.818
 4573.00    1.52182   1.51418  189.902
 4574.00    1.53849   1.54162  190.320
 4575.00    1.54898   1.55508  191.286
 4576.00    1.56051   1.55419  192.914
 4577.00    1.54782   1.54420  196.908
 4578.00    1.53145   1.52382  202.528
 4579.00    1.49792   1.49318  205.497
 4580.00    1.46303   1.46458  204.146
 4581.00    1.43464   1.45166  201.483
 4582.00    1.45468   1.45673  200.555
 4583.00    1.48143   1.46733   -1.000
 4584.00    1.47319   1.47294  201.738
 4585.00    1.47972   1.47403  198.146
 4586.00    1.48177   1.48160  193.062
 4587.00    1.50677   1.50455  189.913
 4588.00    1.55464   1.53416   -1.000
 4589.00    1.55846   1.55115  193.650
 4590.00    1.54342   1.54945  197.255
 4591.00    1.51383   1.53289   -1.000
 4592.00    1.49200   1.51044   -1.000
 4593.00    1.49176   1.49722  197.752
 4594.00    1.49900   1.49771  196.452
 4595.00    1.50961   1.50058  196.002
 4596.00    1.51812   1.50580   -1.000
 4597.00    1.52404   1.51469   -1.000
 4598.00    1.52737   1.52091  197.503
 4599.00    1.52919   1.52027  198.985
 4600.00    1.51617   1.51447  198.835
 4601.00    1.50146   1.50937  196.571
 4602.00    1.50276   1.51084  194.970
 4603.00    1.51473   1.51610  195.255
 4604.00    1.53271   1.52008   -1.000
 4605.00    1.53560   1.52491  191.823
 4606.00    1.52724   1.53727  187.869
 4607.00    1.54385   1.56090  184.273
 4608.00    1.59743   1.58827  182.910
 4609.00    1.61532   1.60971  184.280
 4610.00    1.61144   1.61399  186.784
 4611.00    1.60183   1.60005  188.623
 4612.00    1.58012   1.58407  189.277
 4613.00    1.57941   1.57494  188.055
 4614.00    1.59397   1.57814   -1.000
 4615.00    1.59736   1.58854  186.357
 4616.00    1.59845   1.59480  187.736
 4617.00    1.59621   1.59448  188.747
 4618.00    1.57898   1.59034  188.090
 4619.00    1.58423   1.58835  185.915
 4620.00    1.59275   1.59466  183.616
 4621.00    1.60187   1.60763  183.827
 4622.00    1.62919   1.61744  184.286
 4623.00    1.63313   1.61666   -1.000
 4624.00    1.62941   1.60954   -1.000
 4625.00    1.62464   1.60483   -1.000
 4626.00    1.59596   1.60176  186.894
 4627.00    1.58445   1.60238   -1.000
 4628.00    1.60170   1.60465  187.991
 4629.00    1.59382   1.60600  186.674
 4630.00    1.60516   1.60871  185.201
 4631.00    1.63794   1.61382   -1.000
 4632.00    1.63052   1.61381   -1.000
 4633.00    1.60669   1.60526  190.789
 4634.00    1.59854   1.59402  190.941
 4635.00    1.60015   1.58706   -1.000
 4636.00    1.58862   1.57917  194.994
 4637.00    1.58195   1.56741   -1.000
 4638.00    1.55833   1.55744  194.330
 4639.00    1.54697   1.55481  190.509
 4640.00    1.56890   1.56604  186.294
 4641.00    1.59451   1.58804  184.671
 4642.00    1.62383   1.60787   -1.000
 4643.00    1.63464   1.61172   -1.000
 4644.00    1.60940   1.59433   -1.000
 4645.00    1.57457   1.56465   -1.000
 4646.00    1.53872   1.52917  199.507
 4647.00    1.51088   1.50882  195.477
 4648.00    1.52551   1.51674  191.337
 4649.00    1.56181   1.54534   -1.000
 4650.00    1.60380   1.57962   -1.000
 4651.00    1.60806   1.60384  189.420
 4652.00    1.61023   1.60873  192.355
 4653.00    1.60296   1.59827  196.364
 4654.00    1.56980   1.57836  197.488
 4655.00    1.54178   1.56356   -1.000
 4656.00    1.55453   1.56785  187.654
 4657.00    1.59048   1.59596  181.178
 4658.00    1.63892   1.63952  178.250
 4659.00    1.67963   1.67800  178.862
 4660.00    1.69362   1.69144  181.761
 4661.00    1.68295   1.67675  186.119
 4662.00    1.65746   1.65013  188.904
 4663.00    1.63040   1.62450  189.876
 4664.00    1.61049   1.60230   -1.000
 4665.00    1.58465   1.57158   -1.000
 4666.00    1.54018   1.52875   -1.000
 4667.00    1.47560   1.49003  207.343
 4668.00    1.46213   1.48061   -1.000
 4669.00    1.49904   1.51119  192.354
 4670.00    1.54467   1.55746  188.353
 4671.00    1.59511   1.59353  187.749
 4672.00    1.62808   1.60943   -1.000
 4673.00    1.63142   1.61175   -1.000
 4674.00    1.63711   1.61621   -1.000
 4675.00    1.65513   1.62942   -1.000
 4676.00    1.66546   1.64378   -1.000
 4677.00    1.66496   1.64088   -1.000
 4678.00    1.64397   1.61852   -1.000
 4679.00    1.61592   1.59049   -1.000
 4680.00    1.59006   1.56800   -1.000
 4681.00    1.57298   1.56013   -1.000
 4682.00    1.58892   1.56837   -1.000
 4683.00    1.61225   1.58831   -1.000
 4684.00    1.64116   1.60653   -1.000
 4685.00    1.65659   1.61456   -1.000
 4686.00    1.63778   1.61366   -1.000
 4687.00    1.63119   1.60983   -1.000
 4688.00    1.63855   1.60789   -1.000
 4689.00    1.64076   1.60807   -1.000
 4690.00    1.62945   1.60872   -1.000
 4691.00    1.61779   1.60809  186.750
 4692.00    1.62829   1.61212   -1.000
 4693.00    1.66575   1.62573   -1.000
 4694.00    1.68456   1.64243   -1.000
 4695.00    1.70996   1.65436   -1.000
 4696.00    1.71723   1.65566   -1.000
 4697.00    1.68444   1.63890   -1.000
 4698.00    1.63929   1.60913   -1.000
 4699.00    1.61009   1.58388   -1.000
 4700.00    1.61737   1.57118   -1.000
 4701.00    1.62177   1.56108   -1.000
 4702.00    1.59751   1.54896   -1.000
 4703.00    1.57827   1.54681   -1.000
 4704.00    1.59009   1.56113   -1.000
 4705.00    1.62696   1.58085   -1.000
 4706.00    1.63787   1.58610   -1.000
 4707.00    1.61050   1.57451   -1.000
 4708.00    1.57612   1.56073   -1.000
 4709.00    1.55791   1.56257  189.840
 4710.00    1.58934   1.58312  185.570
 4711.00    1.63577   1.60920   -1.000
 4712.00    1.65712   1.62582   -1.000
 4713.00    1.65530   1.62098   -1.000
 4714.00    1.64626   1.60785   -1.000
 4715.00    1.64270   1.61116   -1.000
 4716.00    1.66383   1.63350   -1.000
 4717.00    1.68085   1.66447   -1.000
 4718.00    1.69618   1.68936  180.461
 4719.00    1.71421   1.70407  180.437
 4720.00    1.72221   1.70848   -1.000
 4721.00    1.71674   1.70449   -1.000
 4722.00    1.70308   1.69601  181.196
 4723.00    1.68741   1.69530  179.811
 4724.00    1.68588   1.70363  181.317
 4725.00    1.68609   1.70307  186.616
 4726.00    1.66277   1.68120  193.063
 4727.00    1.61554   1.63977   -1.000
 4728.00    1.58279   1.59915  194.520
 4729.00    1.58781   1.58324  192.605
 4730.00    1.61405   1.59042   -1.000
 4731.00    1.62337   1.60774   -1.000
 4732.00    1.62693   1.62835  187.274
 4733.00    1.64438   1.64800  186.240
 4734.00    1.65684   1.65937  186.051
 4735.00    1.67609   1.65884   -1.000
 4736.00    1.67931   1.65259   -1.000
 4737.00    1.66245   1.65106  185.254
 4738.00    1.66061   1.65980  185.739
 4739.00    1.67264   1.67337  186.631
 4740.00    1.68003   1.67806  186.340
 4741.00    1.66436   1.67536  184.608
 4742.00    1.67128   1.67903  183.241
 4743.00    1.69605   1.68689  183.667
 4744.00    1.71218   1.69259   -1.000
 4745.00    1.70667   1.69982  181.793
 4746.00    1.69890   1.70871  180.343
 4747.00    1.72051   1.71999  180.219
 4748.00    1.72640   1.73114  180.479
 4749.00    1.71347   1.73740   -1.000
 4750.00    1.71260   1.74061   -1.000
 4751.00    1.70576   1.73931   -1.000
 4752.00    1.71028   1.72928  185.915
 4753.00    1.68316   1.71201   -1.000
 4754.00    1.65887   1.69592   -1.000
 4755.00    1.66874   1.68785   -1.000
 4756.00    1.66391   1.68939   -1.000
 4757.00    1.65490   1.69815   -1.000
 4758.00    1.65978   1.70984   -1.000
 4759.00    1.65314   1.72113   -1.000
 4760.00    1.63951   1.72429   -1.000
 4761.00    1.62249   1.71045   -1.000
 4762.00    1.58582   1.68259   -1.000
 4763.00    1.58349   1.65304   -1.000
 4764.00    1.58285   1.63615   -1.000
 4765.00    1.57755   1.62946   -1.000
 4766.00    1.60064   1.63128   -1.000
 4767.00    1.62238   1.64703   -1.000
 4768.00    1.64844   1.67865   -1.000
 4769.00    1.67630   1.71482   -1.000
 4770.00    1.70430   1.73587   -1.000
 4771.00    1.70273   1.73366   -1.000
 4772.00    1.68783   1.72515   -1.000
 4773.00    1.69291   1.72964   -1.000
 4774.00    1.70875   1.75096   -1.000
 4775.00    1.73388   1.77181   -1.000
 4776.00    1.74131   1.77996   -1.000
 4777.00    1.72030   1.78059   -1.000
 4778.00    1.71120   1.77737   -1.000
 4779.00    1.70159   1.76897   -1.000
 4780.00    1.68927   1.75746   -1.000
 4781.00    1.69176   1.74789   -1.000
 4782.00    1.69319   1.73823   -1.000
 4783.00    1.68632   1.72810   -1.000
 4784.00    1.67915   1.72133   -1.000
 4785.00    1.67908   1.71727   -1.000
 4786.00    1.67534   1.70980   -1.000
 4787.00    1.65818   1.70112   -1.000
 4788.00    1.65214   1.70015   -1.000
 4789.00    1.65770   1.70468   -1.000
 4790.00    1.66264   1.71348   -1.000
 4791.00    1.68363   1.73046   -1.000
 4792.00    1.70986   1.75568   -1.000
 4793.00    1.73327   1.78610   -1.000
 4794.00    1.76298   1.81656   -1.000
 4795.00    1.78303   1.83546   -1.000
 4796.00    1.77223   1.83487   -1.000
 4797.00    1.74252   1.81512   -1.000
 4798.00    1.71441   1.78283   -1.000
 4799.00    1.70274   1.75568   -1.000
 4800.00    1.70707   1.75263   -1.000
 4801.00    1.72101   1.77342   -1.000
 4802.00    1.74441   1.80313   -1.000
 4803.00    1.76416   1.82012   -1.000
 4804.00    1.76231   1.81102   -1.000
 4805.00    1.74002   1.78983   -1.000
 4806.00    1.71646   1.77216   -1.000
 4807.00    1.70813   1.76399   -1.000
 4808.00    1.70638   1.76390   -1.000
 4809.00    1.72450   1.77227   -1.000
 4810.00    1.73061   1.78485   -1.000
 4811.00    1.74023   1.79558   -1.000
 4812.00    1.75009   1.80180   -1.000
 4813.00    1.75056   1.80487   -1.000
 4814.00    1.75071   1.80943   -1.000
 4815.00    1.75492   1.81926   -1.000
 4816.00    1.77099   1.83394   -1.000
 4817.00    1.77562   1.84849   -1.000
 4818.00    1.78533   1.85825   -1.000
 4819.00    1.79497   1.86172   -1.000
 4820.00    1.79098   1.86160   -1.000
 4821.00    1.78038   1.85074   -1.000
 4822.00    1.74888   1.82167   -1.000
 4823.00    1.71636   1.78529   -1.000
 4824.00    1.70465   1.76431   -1.000
 4825.00    1.72948   1.77200   -1.000
 4826.00    1.76006   1.79647   -1.000
 4827.00    1.76216   1.81198   -1.000
 4828.00    1.74619   1.80965   -1.000
 4829.00    1.74195   1.79860   -1.000
 4830.00    1.73858   1.78917   -1.000
 4831.00    1.72690   1.77847   -1.000
 4832.00    1.73354   1.76863   -1.000
 4833.00    1.74809   1.77164   -1.000
 4834.00    1.75139   1.78772   -1.000
 4835.00    1.75646   1.80743   -1.000
 4836.00    1.77052   1.81637   -1.000
 4837.00    1.77719   1.81409   -1.000
 4838.00    1.75680   1.80396   -1.000
 4839.00    1.73145   1.78623   -1.000
 4840.00    1.71744   1.77011   -1.000
 4841.00    1.71049   1.76446   -1.000
 4842.00    1.72984   1.76593   -1.000
 4843.00    1.74745   1.76938   -1.000
 4844.00    1.75833   1.77960   -1.000
 4845.00    1.78414   1.80019  181.233
 4846.00    1.79046   1.81799   -1.000
 4847.00    1.77632   1.81478   -1.000
 4848.00    1.75043   1.79451   -1.000
 4849.00    1.74631   1.78307   -1.000
 4850.00    1.76557   1.78965   -1.000
 4851.00    1.76240   1.79906   -1.000
 4852.00    1.75290   1.79982   -1.000
 4853.00    1.74550   1.78477   -1.000
 4854.00    1.70159   1.74835   -1.000
 4855.00    1.65932   1.70273   -1.000
 4856.00    1.64804   1.67483   -1.000
 4857.00    1.66373   1.66544  205.371
 4858.00    1.63782   1.64278  225.535
 4859.00    1.54149   1.56132  247.745
 4860.00    1.39470   1.42299   -1.000
 4861.00    1.29898   1.31136   -1.000
 4862.00    1.32343   1.29474   -1.000
 4863.00    1.44183   1.38821   -1.000
 4864.00    1.56301   1.51449   -1.000
 4865.00    1.61601   1.61197  192.995
 4866.00    1.66343   1.67325  191.604
 4867.00    1.69086   1.71187  191.588
 4868.00    1.69349   1.73288   -1.000
 4869.00    1.67709   1.73244   -1.000
 4870.00    1.64572   1.70245   -1.000
 4871.00    1.59326   1.65576   -1.000
 4872.00    1.57874   1.62924   -1.000
 4873.00    1.62730   1.65352   -1.000
 4874.00    1.67140   1.70518   -1.000
 4875.00    1.67954   1.74387   -1.000
 4876.00    1.68182   1.76158   -1.000
 4877.00    1.68034   1.77208   -1.000
 4878.00    1.69965   1.79242   -1.000
 4879.00    1.73881   1.81799   -1.000
 4880.00    1.73963   1.83319   -1.000
 4881.00    1.70383   1.82784   -1.000
 4882.00    1.68972   1.80897   -1.000
 4883.00    1.68990   1.79715   -1.000
 4884.00    1.68751   1.78806   -1.000
 4885.00    1.68225   1.76924   -1.000
 4886.00    1.66858   1.74993   -1.000
 4887.00    1.66588   1.74512   -1.000
 4888.00    1.67400   1.74693   -1.000
 4889.00    1.66702   1.73573   -1.000
 4890.00    1.63493   1.70627   -1.000
 4891.00    1.63115   1.68427   -1.000
 4892.00    1.68295   1.70939   -1.000
 4893.00    1.75816   1.78307   -1.000
 4894.00    1.83494   1.86707   -1.000
 4895.00    1.87200   1.92610   -1.000
 4896.00    1.88354   1.95208   -1.000
 4897.00    1.88728   1.95280   -1.000
 4898.00    1.86826   1.93835   -1.000
 4899.00    1.82856   1.91407   -1.000
 4900.00    1.81066   1.89102   -1.000
 4901.00    1.81435   1.87866   -1.000
 4902.00    1.80442   1.87054   -1.000
 4903.00    1.77642   1.85907   -1.000
 4904.00    1.78282   1.85680   -1.000
 4905.00    1.82678   1.87978   -1.000
 4906.00    1.86009   1.91237   -1.000
 4907.00    1.85666   1.91876   -1.000
 4908.00    1.82153   1.89397   -1.000
 4909.00    1.77546   1.85206   -1.000
 4910.00    1.74147   1.81511   -1.000
 4911.00    1.75350   1.80338   -1.000
 4912.00    1.78938   1.82049   -1.000
 4913.00    1.82608   1.85168  179.592
 4914.00    1.85115   1.88063   -1.000
 4915.00    1.86525   1.90234   -1.000
 4916.00    1.86538   1.90441   -1.000
 4917.00    1.82215   1.86730   -1.000
 4918.00    1.74192   1.78865   -1.000
 4919.00    1.66247   1.69811   -1.000
 4920.00    1.62167   1.63799   -1.000
 4921.00    1.64331   1.64192  192.532
 4922.00    1.71170   1.69341   -1.000
 4923.00    1.76939   1.74639   -1.000
 4924.00    1.77349   1.77487  186.464
 4925.00    1.78474   1.79521  182.020
 4926.00    1.81525   1.83023  179.310
 4927.00    1.84479   1.87311   -1.000
 4928.00    1.88387   1.90763  176.650
 4929.00    1.90205   1.93404   -1.000
 4930.00    1.90869   1.94956   -1.000
 4931.00    1.90666   1.94502   -1.000
 4932.00    1.87043   1.91380   -1.000
 4933.00    1.81879   1.86501   -1.000
 4934.00    1.77696   1.82975   -1.000
 4935.00    1.77977   1.82926   -1.000
 4936.00    1.79924   1.83804   -1.000
 4937.00    1.77158   1.81965   -1.000
 4938.00    1.73339   1.77861   -1.000
 4939.00    1.73247   1.75895   -1.000
 4940.00    1.77204   1.78849  181.295
 4941.00    1.83929   1.85200  178.562
 4942.00    1.89024   1.91366  177.549
 4943.00    1.90675   1.94519   -1.000
 4944.00    1.91205   1.95029   -1.000
 4945.00    1.89860   1.93922   -1.000
 4946.00    1.88847   1.92992   -1.000
 4947.00    1.91203   1.93507  175.376
 4948.00    1.92695   1.95403  174.814
 4949.00    1.94088   1.97497   -1.000
 4950.00    1.94442   1.98451   -1.000
 4951.00    1.94516   1.98275   -1.000
 4952.00    1.93480   1.97361   -1.000
 4953.00    1.92216   1.96213   -1.000
 4954.00    1.89981   1.94706   -1.000
 4955.00    1.85377   1.91072   -1.000
 4956.00    1.77739   1.83627   -1.000
 4957.00    1.71538   1.74899   -1.000
 4958.00    1.72444   1.71975  185.136
 4959.00    1.78110   1.77535  180.509
 4960.00    1.84613   1.86650   -1.000
 4961.00    1.88936   1.93493   -1.000
 4962.00    1.90467   1.95776   -1.000
 4963.00    1.89963   1.95187   -1.000
 4964.00    1.87247   1.93034   -1.000
 4965.00    1.84391   1.89860   -1.000
 4966.00    1.82158   1.86972   -1.000
 4967.00    1.81650   1.85914   -1.000
 4968.00    1.83678   1.86020   -1.000
 4969.00    1.84240   1.86601   -1.000
 4970.00    1.84472   1.88004   -1.000
 4971.00    1.86546   1.90188   -1.000
 4972.00    1.88439   1.92774   -1.000
 4973.00    1.90984   1.95151   -1.000
 4974.00    1.93262   1.96454   -1.000
 4975.00    1.93196   1.96393   -1.000
 4976.00    1.90533   1.95265   -1.000
 4977.00    1.88455   1.93045   -1.000
 4978.00    1.85414   1.90459   -1.000
 4979.00    1.81893   1.88395   -1.000
 4980.00    1.79839   1.86111   -1.000
 4981.00    1.75452   1.82277   -1.000
 4982.00    1.70797   1.76727   -1.000
 4983.00    1.68414   1.72067   -1.000
 4984.00    1.69363   1.71667   -1.000
 4985.00    1.73805   1.75434  188.969
 4986.00    1.79635   1.81253  185.960
 4987.00    1.84618   1.86843  187.100
 4988.00    1.85788   1.90499   -1.000
 4989.00    1.85221   1.90629   -1.000
 4990.00    1.83790   1.88681   -1.000
 4991.00    1.83828   1.87288   -1.000
 4992.00    1.86389   1.87626  188.400
 4993.00    1.86402   1.88873   -1.000
 4994.00    1.86462   1.89877   -1.000
 4995.00    1.86911   1.90856   -1.000
 4996.00    1.87554   1.92072   -1.000
 4997.00    1.88458   1.92447   -1.000
 4998.00    1.86627   1.90727   -1.000
 4999.00    1.83296   1.86919   -1.000
 5000.00    1.81337   1.82691  195.891
 5001.00    1.80639   1.80828  194.184
 5002.00    1.80918   1.81183  194.307
 5003.00    1.81598   1.82077  197.935
 5004.00    1.80952   1.81518  201.694
 5005.00    1.78560   1.78822  200.604
 5006.00    1.76790   1.75942  195.132
 5007.00    1.79192   1.76364   -1.000
 5008.00    1.83699   1.80905   -1.000
 5009.00    1.86452   1.85837  193.793
 5010.00    1.86005   1.87600  200.202
 5011.00    1.81674   1.85053   -1.000
 5012.00    1.76195   1.79922   -1.000
 5013.00    1.71908   1.75210   -1.000
 5014.00    1.70811   1.73099   -1.000
 5015.00    1.73130   1.74267  199.479
 5016.00    1.77301   1.76674  199.017
 5017.00    1.78789   1.78278  198.264
 5018.00    1.78817   1.78778  196.177
 5019.00    1.80891   1.79953   -1.000
 5020.00    1.83086   1.82044   -1.000
 5021.00    1.84032   1.83240   -1.000
 5022.00    1.83791   1.83415  194.600
 5023.00    1.83825   1.84021  192.782
 5024.00    1.85810   1.86204  192.282
 5025.00    1.86679   1.88454  193.252
 5026.00    1.85834   1.88706   -1.000
 5027.00    1.85145   1.87412  190.725
 5028.00    1.84838   1.87099   -1.000
 5029.00    1.86933   1.88691  184.606
 5030.00    1.90340   1.91438  181.903
 5031.00    1.93185   1.94513  180.672
 5032.00    1.95976   1.97246  182.935
 5033.00    1.97688   1.98698  189.446
 5034.00    1.94403   1.97238   -1.000
 5035.00    1.87080   1.92717   -1.000
 5036.00    1.82367   1.87993   -1.000
 5037.00    1.81003   1.85989   -1.000
 5038.00    1.81075   1.84862   -1.000
 5039.00    1.77497   1.81189   -1.000
 5040.00    1.70823   1.74852   -1.000
 5041.00    1.68179   1.70406   -1.000
 5042.00    1.72680   1.72719  190.620
 5043.00    1.84045   1.80894   -1.000
 5044.00    1.89464   1.90382  179.314
 5045.00    1.32562   1.97402   -1.000
 5046.00    0.25355   2.00727   -1.000
 5047.00    0.06963   1.99995   -1.000
 5048.00    0.49969   1.95768   -1.000
 5049.00    1.47978   1.90303   -1.000
 5050.00    1.84579   1.86472  193.387
 5051.00    1.86791   1.85504   -1.000
 5052.00    1.88671   1.87274   -1.000
 5053.00    1.92666   1.91199   -1.000
 5054.00    1.97222   1.95965   -1.000
 5055.00    2.00335   1.99303   -1.000
 5056.00    2.01372   2.00804  180.554
 5057.00    2.01920   2.01394  180.742
 5058.00    2.02209   2.01770  180.235
 5059.00    2.01944   2.02462  179.459
 5060.00    2.02575   2.03604  180.433
 5061.00    2.03619   2.04822  183.945
 5062.00    2.01848   2.04613   -1.000
 5063.00    1.97217   2.01377   -1.000
 5064.00    1.91547   1.95687   -1.000
 5065.00    1.88242   1.90886   -1.000
 5066.00    1.89210   1.89672  190.622
 5067.00    1.90759   1.90727  189.964
 5068.00    1.91575   1.91899  188.922
 5069.00    1.93175   1.92991  188.680
 5070.00    1.94840   1.94272  190.272
 5071.00    1.94559   1.94734  190.350
 5072.00    1.93263   1.93757  188.219
 5073.00    1.93800   1.92858  187.220
 5074.00    1.95016   1.93327   -1.000
 5075.00    1.95735   1.94502   -1.000
 5076.00    1.95621   1.95255  191.213
 5077.00    1.94700   1.94465  198.927
 5078.00    1.92074   1.91011   -1.000
 5079.00    1.86456   1.85069   -1.000
 5080.00    1.82619   1.80539   -1.000
 5081.00    1.83269   1.80856   -1.000
 5082.00    1.86157   1.83865   -1.000
 5083.00    1.88654   1.86753   -1.000
 5084.00    1.91779   1.89642   -1.000
 5085.00    1.95297   1.93056   -1.000
 5086.00    1.97962   1.96071   -1.000
 5087.00    1.99496   1.97655   -1.000
 5088.00    1.99565   1.98202   -1.000
 5089.00    1.99309   1.98816  183.440
 5090.00    1.99310   1.99770  182.049
 5091.00    2.02139   2.00985   -1.000
 5092.00    2.09442   2.02661   -1.000
 5093.00    2.13711   2.04449   -1.000
 5094.00    2.06664   2.05098   -1.000
 5095.00    2.01889   2.03291  190.360
 5096.00    1.98043   1.98942  194.767
 5097.00    1.93350   1.93625  197.533
 5098.00    1.89253   1.89209  195.966
 5099.00    1.88992   1.87314   -1.000
 5100.00    1.90737   1.89569   -1.000
 5101.00    1.94976   1.94462  186.069
 5102.00    1.99250   1.98539  187.754
 5103.00    2.00161   1.99490  190.238
 5104.00    1.99297   1.98350   -1.000
 5105.00    1.96611   1.96587  194.993
 5106.00    1.92996   1.94298  196.404
 5107.00    1.91027   1.91702  195.658
 5108.00    1.91059   1.89884   -1.000
 5109.00    1.90791   1.89309   -1.000
 5110.00    1.91370   1.90403   -1.000
 5111.00    1.94252   1.93184   -1.000
 5112.00    1.97691   1.96909  185.360
 5113.00    2.00342   1.99877  183.965
 5114.00    2.02063   2.01752  182.628
 5115.00    2.03422   2.03198  180.822
 5116.00    2.04571   2.04751  180.104
 5117.00    2.05830   2.06249  181.394
 5118.00    2.06884   2.07081  183.966
 5119.00    2.05870   2.06404  186.852
 5120.00    2.02817   2.04093  190.607
 5121.00    2.00064   2.00763  195.904
 5122.00    1.96692   1.96823  200.107
 5123.00    1.92667   1.92629  200.131
 5124.00    1.89381   1.89538  198.568
 5125.00    1.89564   1.88709   -1.000
 5126.00    1.92019   1.89539   -1.000
 5127.00    1.92339   1.90435   -1.000
 5128.00    1.91965   1.90697   -1.000
 5129.00    1.91172   1.91029  192.999
 5130.00    1.92335   1.92142  190.351
 5131.00    1.96044   1.94324   -1.000
 5132.00    1.99829   1.96790   -1.000
 5133.00    2.01152   1.98815   -1.000
 5134.00    2.01248   2.00355   -1.000
 5135.00    2.02496   2.01280   -1.000
 5136.00    2.02733   2.00756   -1.000
 5137.00    1.98639   1.97753   -1.000
 5138.00    1.93703   1.93581  196.198
 5139.00    1.90630   1.91197  195.624
 5140.00    1.93336   1.91292   -1.000
 5141.00    1.95019   1.92138   -1.000
 5142.00    1.92678   1.92001   -1.000
 5143.00    1.91994   1.91875  194.895
 5144.00    1.93816   1.93248   -1.000
 5145.00    1.95459   1.94742   -1.000
 5146.00    1.94853   1.94079   -1.000
 5147.00    1.94136   1.92646   -1.000
 5148.00    1.94615   1.92799   -1.000
 5149.00    1.95907   1.94281   -1.000
 5150.00    1.95691   1.94673   -1.000
 5151.00    1.92219   1.93132  200.326
 5152.00    1.90803   1.91352  198.110
 5153.00    1.91930   1.90843   -1.000
 5154.00    1.92937   1.91848  188.759
 5155.00    1.96029   1.94680   -1.000
 5156.00    2.02316   1.99031   -1.000
 5157.00    2.08532   2.03248   -1.000
 5158.00    2.10191   2.05962   -1.000
 5159.00    2.09294   2.07073   -1.000
 5160.00    2.09917   2.06896   -1.000
 5161.00    2.09297   2.05594   -1.000
 5162.00    2.06496   2.03306   -1.000
 5163.00    2.04200   2.00276   -1.000
 5164.00    1.99134   1.95379   -1.000
 5165.00    1.87689   1.86553   -1.000
 5166.00    1.71874   1.73183  247.456
 5167.00    1.60320   1.60287  237.940
 5168.00    1.59200   1.56074   -1.000
 5169.00    1.66752   1.61521   -1.000
 5170.00    1.70863   1.68300   -1.000
 5171.00    1.64049   1.66266   -1.000
 5172.00    1.54593   1.58036   -1.000
 5173.00    1.55050   1.55507   -1.000
 5174.00    1.68785   1.64596   -1.000
 5175.00    1.86755   1.80186   -1.000
 5176.00    1.97502   1.92354   -1.000
 5177.00    2.01958   1.98116   -1.000
 5178.00    2.04045   1.99918   -1.000
 5179.00    2.02727   1.99662   -1.000
 5180.00    1.97790   1.96479   -1.000
 5181.00    1.87363   1.87638  248.752
 5182.00    1.71293   1.73120   -1.000
 5183.00    1.56183   1.59185   -1.000
 5184.00    1.54769   1.54694  210.646
 5185.00    1.70196   1.64405   -1.000
 5186.00    1.89144   1.80820   -1.000
 5187.00    1.99501   1.93083   -1.000
 5188.00    2.02832   1.98371   -1.000
 5189.00    2.03150   1.99890   -1.000
 5190.00    2.00828   1.99136   -1.000
 5191.00    1.96937   1.95162   -1.000
 5192.00    1.92783   1.89739   -1.000
 5193.00    1.90721   1.87581   -1.000
 5194.00    1.93118   1.89553   -1.000
 5195.00    1.96926   1.92376   -1.000
 5196.00    1.99192   1.94955   -1.000
 5197.00    2.02370   1.98085   -1.000
 5198.00    2.06689   2.01827   -1.000
 5199.00    2.08954   2.05059   -1.000
 5200.00    2.09522   2.06837   -1.000
 5201.00    2.09443   2.06802   -1.000
 5202.00    2.07485   2.04570   -1.000
 5203.00    2.03838   2.00105   -1.000
 5204.00    1.99307   1.93829   -1.000
 5205.00    1.93820   1.87562   -1.000
 5206.00    1.88827   1.83477   -1.000
 5207.00    1.86956   1.82081   -1.000
 5208.00    1.87788   1.81986   -1.000
 5209.00    1.89634   1.83147   -1.000
 5210.00    1.94126   1.87686   -1.000
 5211.00    2.02086   1.95433   -1.000
 5212.00    2.10985   2.03334   -1.000
 5213.00    2.16313   2.08385   -1.000
 5214.00    2.14827   2.08580   -1.000
 5215.00    2.10872   2.05123   -1.000
 5216.00    2.07788   2.01483   -1.000
 5217.00    2.08817   2.01210   -1.000
 5218.00    2.12430   2.04695   -1.000
 5219.00    2.16756   2.09436   -1.000
 5220.00    2.18913   2.13182   -1.000
 5221.00    2.19665   2.14946   -1.000
 5222.00    2.19308   2.14201   -1.000
 5223.00    2.14085   2.10635   -1.000
 5224.00    2.06444   2.04155   -1.000
 5225.00    1.98506   1.95139   -1.000
 5226.00    1.92240   1.87055   -1.000
 5227.00    1.93335   1.84634   -1.000
 5228.00    2.01095   1.89716   -1.000
 5229.00    2.09794   1.99349   -1.000
 5230.00    2.16724   2.07434   -1.000
 5231.00    2.18753   2.09631   -1.000
 5232.00    2.14489   2.06800   -1.000
 5233.00    2.09719   2.02229   -1.000
 5234.00    2.08665   2.00722   -1.000
 5235.00    2.11119   2.03929   -1.000
 5236.00    2.16632   2.09532   -1.000
 5237.00    2.21966   2.14822   -1.000
 5238.00    2.23573   2.17513   -1.000
 5239.00    2.23454   2.17989   -1.000
 5240.00    2.23224   2.17685   -1.000
 5241.00    2.22550   2.17236   -1.000
 5242.00    2.21940   2.16816   -1.000
 5243.00    2.22435   2.17138   -1.000
 5244.00    2.23480   2.18071   -1.000
 5245.00    2.21376   2.17692   -1.000
 5246.00    2.16513   2.14246   -1.000
 5247.00    2.13062   2.09401   -1.000
 5248.00    2.11384   2.06432   -1.000
 5249.00    2.10500   2.05464   -1.000
 5250.00    2.09803   2.04907   -1.000
 5251.00    2.09522   2.05195   -1.000
 5252.00    2.11825   2.06945   -1.000
 5253.00    2.14485   2.08497   -1.000
 5254.00    2.14321   2.08749   -1.000
 5255.00    2.15718   2.09103   -1.000
 5256.00    2.19869   2.12002   -1.000
 5257.00    2.25017   2.17404   -1.000
 5258.00    2.28306   2.21719   -1.000
 5259.00    2.27937   2.22440   -1.000
 5260.00    2.24143   2.19068   -1.000
 5261.00    2.16789   2.12203   -1.000
 5262.00    2.08026   2.03560   -1.000
 5263.00    2.00653   1.95183   -1.000
 5264.00    1.94753   1.88477   -1.000
 5265.00    1.92689   1.85237   -1.000
 5266.00    1.95345   1.85925   -1.000
 5267.00    1.98857   1.88465   -1.000
 5268.00    1.97461   1.87780   -1.000
 5269.00    1.91032   1.82672   -1.000
 5270.00    1.90363   1.79600   -1.000
 5271.00    1.98690   1.84506   -1.000
 5272.00    2.08477   1.95173   18.846
 5273.00    2.13647   2.03233   18.839
 5274.00    2.14500   2.05213   18.652
 5275.00    2.15697   2.05478   18.155
 5276.00    2.19030   2.08117   17.648
 5277.00    2.25472   2.14049   17.521
 5278.00    2.30346   2.20079   17.783
 5279.00    2.30637   2.22028   18.240
 5280.00    2.27674   2.19171   18.655
 5281.00    2.22256   2.13995   18.881
 5282.00    2.17810   2.09287   18.752
 5283.00    2.14335   2.06642   18.267
 5284.00    2.14208   2.08129   17.693
 5285.00    2.22195   2.14058   17.322
 5286.00    2.31397   2.21575   17.307
 5287.00    2.35516   2.26297   17.366
 5288.00    2.36022   2.27698   17.315
 5289.00    2.35334   2.28159   17.238
 5290.00    2.35986   2.28752   17.265
 5291.00    2.36789   2.28826   17.400
 5292.00    2.35925   2.27972   17.597
 5293.00    2.33884   2.26781   17.941
 5294.00    2.31431   2.25320   18.528
 5295.00    2.28040   2.21961   19.156
 5296.00    2.21697   2.15636   19.378
 5297.00    2.13421   2.08519   19.063
 5298.00    2.12106   2.04984   18.623
 5299.00    2.16368   2.07059   18.384
 5300.00    2.21016   2.11638   18.227
 5301.00    2.23762   2.14800   17.876
 5302.00    2.26308   2.17094   17.452
 5303.00    2.31428   2.20721   17.261
 5304.00    2.35679   2.25634   17.323
 5305.00    2.37966   2.29094   17.492
 5306.00    2.37077   2.29173   17.523
 5307.00    2.35567   2.27580   17.366
 5308.00    2.36278   2.27015   17.213
 5309.00    2.38356   2.28542   17.164
 5310.00    2.39903   2.30752   17.222
 5311.00    2.39772   2.31543   17.312
 5312.00    2.39795   2.30800   17.409
 5313.00    2.38854   2.29444   17.558
 5314.00    2.37500   2.27741   17.726
 5315.00    2.34628   2.25632   17.814
 5316.00    2.32151   2.23378   17.751
 5317.00    2.32773   2.22334   17.639
 5318.00    2.35189   2.23399   17.630
 5319.00    2.35373   2.25145   17.727
 5320.00    2.34356   2.25788   17.893
 5321.00    2.33909   2.24940   18.154
 5322.00    2.32124   2.22559   18.409
 5323.00    2.28682   2.18775   18.492
 5324.00    2.25651   2.15433   18.708
 5325.00    2.24776   2.13447   19.554
 5326.00    2.21908   2.09790   -1.000
 5327.00    2.11958   2.01778   20.518
 5328.00    2.02951   1.93373   19.462
 5329.00    2.04837   1.92564   18.531
 5330.00    2.15510   2.01898   18.141
 5331.00    2.25793   2.13349   17.973
 5332.00    2.30783   2.19660   17.784
 5333.00    2.33829   2.22049   17.635
 5334.00    2.36584   2.24097   17.651
 5335.00    2.37757   2.26362   17.773
 5336.00    2.36493   2.27514   17.924
 5337.00    2.34846   2.26666   18.241
 5338.00    2.33190   2.24109   18.651
 5339.00    2.29133   2.19553   18.750
 5340.00    2.24471   2.14477   18.410
 5341.00    2.24776   2.12628   17.975
 5342.00    2.28888   2.16127   17.808
 5343.00    2.33091   2.21319   17.875
 5344.00    2.35805   2.23968   17.996
 5345.00    2.35156   2.23692   18.098
 5346.00    2.32691   2.22115   18.221
 5347.00    2.33416   2.20486   18.333
 5348.00    2.32793   2.19000   18.218
 5349.00    2.30277   2.18234   17.856
 5350.00    2.31900   2.20036   17.525
 5351.00    2.36626   2.24053   17.390
 5352.00    2.39855   2.27874   17.303
 5353.00    2.41722   2.30396   17.123
 5354.00    2.43319   2.32093   16.942
 5355.00    2.44476   2.34398   16.886
 5356.00    2.46209   2.36660   16.912
 5357.00    2.46735   2.37714   16.955
 5358.00    2.46674   2.37665   17.082
 5359.00    2.46495   2.36970   17.329
 5360.00    2.43630   2.35337   17.607
 5361.00    2.39856   2.32691   17.801
 5362.00    2.37925   2.29913   17.910
 5363.00    2.36760   2.27495   18.015
 5364.00    2.35318   2.25433   18.047
 5365.00    2.34017   2.23910   18.010
 5366.00    2.32938   2.23318   18.098
 5367.00    2.33500   2.23553   18.415
 5368.00    2.33418   2.22581   18.935
 5369.00    2.29271   2.18336   19.273
 5370.00    2.23328   2.11884   18.940
 5371.00    2.19879   2.07594   18.127
 5372.00    2.23659   2.09753   17.472
 5373.00    2.33871   2.17994   17.203
 5374.00    2.42406   2.27035   -1.000
 5375.00    2.45877   2.32833   17.209
 5376.00    2.46600   2.34391   17.226
 5377.00    2.45802   2.33964   17.293
 5378.00    2.44513   2.33488   17.430
 5379.00    2.43366   2.33167   17.606
 5380.00    2.42450   2.32258   17.738
 5381.00    2.40698   2.30385   17.774
 5382.00    2.38905   2.28300   17.723
 5383.00    2.38400   2.27299   17.585
 5384.00    2.38919   2.28133   17.464
 5385.00    2.40295   2.30330   17.492
 5386.00    2.41723   2.32332   17.619
 5387.00    2.42970   2.32749   17.841
 5388.00    2.42880   2.31338   18.085
 5389.00    2.40233   2.28601   18.225
 5390.00    2.37547   2.25605   18.266
 5391.00    2.35034   2.23525   18.295
 5392.00    2.32865   2.22311   18.392
 5393.00    2.33248   2.21704   18.583
 5394.00    2.32864   2.21336   18.897
 5395.00    2.31659   2.19709   19.109
 5396.00    2.28663   2.16160   18.820
 5397.00    2.27148   2.13173   18.243
 5398.00    2.29995   2.14307   -1.000
 5399.00    2.34482   2.19181   -1.000
 5400.00    2.36887   2.24212   17.993
 5401.00    2.37485   2.27092   18.334
 5402.00    2.36161   2.27135   18.934
 5403.00    2.31978   2.23370   19.392
 5404.00    2.25900   2.16137   19.423
 5405.00    2.21458   2.09197   19.091
 5406.00    2.22565   2.07535   -1.000
 5407.00    2.27558   2.11535   -1.000
 5408.00    2.30192   2.15856   -1.000
 5409.00    2.29125   2.17021   18.553
 5410.00    2.29071   2.16424   18.072
 5411.00    2.32938   2.18776   17.769
 5412.00    2.39363   2.24115   -1.000
 5413.00    2.43109   2.28251   -1.000
 5414.00    2.42444   2.29535   17.647
 5415.00    2.42161   2.30003   17.517
 5416.00    2.44172   2.32022   17.497
 5417.00    2.45799   2.34702   17.628
 5418.00    2.44468   2.35540   17.774
 5419.00    2.41319   2.34312   17.789
 5420.00    2.40171   2.32792   17.709
 5421.00    2.41817   2.32030   17.795
 5422.00    2.42556   2.31653   18.018
 5423.00    2.40828   2.30075   18.001
 5424.00    2.39360   2.28244   17.735
 5425.00    2.41313   2.29377   17.606
 5426.00    2.44452   2.33457   17.891
 5427.00    2.44925   2.35846   18.447
 5428.00    2.40304   2.32321   18.767
 5429.00    2.33407   2.25058   18.587
 5430.00    2.32138   2.20813   18.397
 5431.00    2.34642   2.21906   18.540
 5432.00    2.36003   2.24323   18.794
 5433.00    2.34643   2.23726   18.865
 5434.00    2.32584   2.20579   18.628
 5435.00    2.31793   2.19174   18.171
 5436.00    2.34614   2.21962   17.723
 5437.00    2.39904   2.28198   17.420
 5438.00    2.45448   2.35040   17.232
 5439.00    2.49755   2.39796   17.150
 5440.00    2.52097   2.42213   17.140
 5441.00    2.53667   2.43125   17.231
 5442.00    2.53518   2.43359   17.560
 5443.00    2.50571   2.42138   18.171
 5444.00    2.45528   2.37837   18.863
 5445.00    2.36758   2.30144   19.095
 5446.00    2.29104   2.22077   18.676
 5447.00    2.28441   2.18702   18.093
 5448.00    2.33856   2.22009   17.760
 5449.00    2.41602   2.29171   17.693
 5450.00    2.45650   2.35359   17.778
 5451.00    2.47296   2.37587   18.069
 5452.00    2.47203   2.36592   18.554
 5453.00    2.43877   2.32961   19.028
 5454.00    2.38120   2.26857   19.085
 5455.00    2.33038   2.20799   18.577
 5456.00    2.34065   2.19763   17.985
 5457.00    2.39916   2.25499   17.699
 5458.00    2.46318   2.33788   17.773
 5459.00    2.49915   2.38378   18.061
 5460.00    2.49118   2.37946   18.359
 5461.00    2.46797   2.34311   18.527
 5462.00    2.42803   2.29861   18.452
 5463.00    2.40447   2.27415   18.214
 5464.00    2.42544   2.28350   -1.000
 5465.00    2.44728   2.31497   17.929
 5466.00    2.47038   2.34214   17.786
 5467.00    2.48428   2.35928   17.841
 5468.00    2.48243   2.36987   18.031
 5469.00    2.48311   2.37066   18.156
 5470.00    2.48815   2.35971   18.229
 5471.00    2.48805   2.34470   -1.000
 5472.00    2.47918   2.33127   -1.000
 5473.00    2.46134   2.31741   -1.000
 5474.00    2.43037   2.29517   -1.000
 5475.00    2.38012   2.25635   -1.000
 5476.00    2.32985   2.21008   18.930
 5477.00    2.31973   2.19131   18.444
 5478.00    2.37545   2.23009   -1.000
 5479.00    2.43999   2.28898   -1.000
 5480.00    2.44309   2.31071   -1.000
 5481.00    2.40779   2.29334   18.463
 5482.00    2.38535   2.27781   18.097
 5483.00    2.39306   2.29952   17.835
 5484.00    2.42769   2.34809   17.859
 5485.00    2.46509   2.38351   18.092
 5486.00    2.46078   2.38277   18.277
 5487.00    2.44299   2.35424   18.321
 5488.00    2.44108   2.33040   18.251
 5489.00    2.44764   2.32846   18.114
 5490.00    2.46279   2.34570   18.016
 5491.00    2.48224   2.36471   18.008
 5492.00    2.49210   2.37383   18.036
 5493.00    2.49368   2.37275   18.035
 5494.00    2.49808   2.37049   18.102
 5495.00    2.50586   2.37007   -1.000
 5496.00    2.49401   2.36174   -1.000
 5497.00    2.47864   2.34674   18.082
 5498.00    2.48291   2.34798   18.053
 5499.00    2.50564   2.36617   -1.000
 5500.00    2.51757   2.36907   -1.000
 5501.00    2.49536   2.34466   -1.000
 5502.00    2.46854   2.31699   -1.000
 5503.00    2.46428   2.31340   -1.000
 5504.00    2.47367   2.32395   -1.000
 5505.00    2.45826   2.31791   -1.000
 5506.00    2.43058   2.29716   18.361
 5507.00    2.43913   2.28970   -1.000
 5508.00    2.47221   2.31171   -1.000
 5509.00    2.48911   2.34432   -1.000
 5510.00    2.48444   2.35201   -1.000
 5511.00    2.46278   2.32693   -1.000
 5512.00    2.43676   2.28783   -1.000
 5513.00    2.42580   2.26062   -1.000
 5514.00    2.44193   2.26425   -1.000
 5515.00    2.48142   2.29088   -1.000
 5516.00    2.52220   2.32596   -1.000
 5517.00    2.55166   2.36216   -1.000
 5518.00    2.57581   2.39650   -1.000
 5519.00    2.60091   2.42270   -1.000
 5520.00    2.59326   2.43292   -1.000
 5521.00    2.57265   2.42833   -1.000
 5522.00    2.57056   2.42343   -1.000
 5523.00    2.56659   2.42314   -1.000
 5524.00    2.55380   2.41935   -1.000
 5525.00    2.53060   2.39886   -1.000
 5526.00    2.49280   2.35508   -1.000
 5527.00    2.43740   2.30116   -1.000
 5528.00    2.39935   2.26686   18.394
 5529.00    2.43275   2.28066   -1.000
 5530.00    2.49178   2.33393   -1.000
 5531.00    2.52579   2.38529   -1.000
 5532.00    2.52677   2.40396   18.211
 5533.00    2.51273   2.39442   18.215
 5534.00    2.50469   2.37734   18.098
 5535.00    2.50791   2.36654   -1.000
 5536.00    2.52496   2.36832   -1.000
 5537.00    2.55062   2.38004   -1.000
 5538.00    2.57547   2.39379   -1.000
 5539.00    2.58523   2.41021   -1.000
 5540.00    2.59645   2.43204   -1.000
 5541.00    2.60636   2.44572   -1.000
 5542.00    2.58951   2.43835   -1.000
 5543.00    2.56372   2.41798   -1.000
 5544.00    2.54689   2.40340   -1.000
 5545.00    2.55075   2.40336   -1.000
 5546.00    2.57871   2.41136   -1.000
 5547.00    2.60610   2.42484   -1.000
 5548.00    2.63198   2.44798   -1.000
 5549.00    2.65594   2.47252   -1.000
 5550.00    2.66058   2.48437   -1.000
 5551.00    2.64774   2.48316   -1.000
 5552.00    2.64110   2.47034   -1.000
 5553.00    2.63088   2.44939   -1.000
 5554.00    2.60118   2.43191   -1.000
 5555.00    2.60316   2.42966   -1.000
 5556.00    2.62429   2.43649   -1.000
 5557.00    2.61872   2.44262   -1.000
 5558.00    2.60783   2.44412   -1.000
 5559.00    2.61410   2.44687   -1.000
 5560.00    2.62518   2.45071   -1.000
 5561.00    2.62202   2.44490   -1.000
 5562.00    2.60432   2.42703   -1.000
 5563.00    2.57746   2.40908   -1.000
 5564.00    2.55256   2.39895   -1.000
 5565.00    2.54728   2.39577   -1.000
 5566.00    2.55728   2.39257   -1.000
 5567.00    2.55680   2.38887   -1.000
 5568.00    2.54575   2.38736   -1.000
 5569.00    2.54433   2.38886   -1.000
 5570.00    2.54276   2.39270   -1.000
 5571.00    2.52764   2.39224   -1.000
 5572.00    2.47883   2.38619   18.200
 5573.00    2.29180   2.38378   18.022
 5574.00    2.16485   2.39507   -1.000
 5575.00    2.27131   2.41693   17.524
 5576.00    2.52985   2.43298   17.551
 5577.00    2.95009   2.44010   -1.000
 5578.00    3.15313   2.44938   -1.000
 5579.00    2.94129   2.46042   -1.000
 5580.00    2.70798   2.46535   -1.000
 5581.00    2.62997   2.46287   -1.000
 5582.00    2.61609   2.45468   -1.000
 5583.00    2.62345   2.44701   -1.000
 5584.00    2.61589   2.43811   -1.000
 5585.00    2.56333   2.40862   -1.000
 5586.00    2.49218   2.35079   -1.000
 5587.00    2.44271   2.28746   -1.000
 5588.00    2.42729   2.25101   -1.000
 5589.00    2.44852   2.25677   -1.000
 5590.00    2.48343   2.29321   -1.000
 5591.00    2.50359   2.33745   -1.000
 5592.00    2.52223   2.36345   -1.000
 5593.00    2.53201   2.36904   -1.000
 5594.00    2.53565   2.37341   -1.000
 5595.00    2.56056   2.39720   -1.000
 5596.00    2.58686   2.43017   -1.000
 5597.00    2.58195   2.43520   -1.000
 5598.00    2.55586   2.40743   -1.000
 5599.00    2.53496   2.37522   -1.000
 5600.00    2.52488   2.35206   -1.000
 5601.00    2.51444   2.33175   -1.000
 5602.00    2.49384   2.32151   -1.000
 5603.00    2.51054   2.34202   -1.000
 5604.00    2.57342   2.39931   -1.000
 5605.00    2.63339   2.46977   -1.000
 5606.00    2.67981   2.51840   -1.000
 5607.00    2.69439   2.53882   -1.000
 5608.00    2.68888   2.54111   -1.000
 5609.00    2.69159   2.53812   -1.000
 5610.00    2.70477   2.53974   -1.000
 5611.00    2.71272   2.54774   -1.000
 5612.00    2.69454   2.54535   -1.000
 5613.00    2.64756   2.50970   -1.000
 5614.00    2.58581   2.43478   -1.000
 5615.00    2.52093   2.35426   -1.000
 5616.00    2.51071   2.32866   -1.000
 5617.00    2.56814   2.36575   -1.000
 5618.00    2.61035   2.42070   -1.000
 5619.00    2.62803   2.45184   -1.000
 5620.00    2.64435   2.46549   -1.000
 5621.00    2.65707   2.48009   -1.000
 5622.00    2.65324   2.48429   -1.000
 5623.00    2.62256   2.45919   -1.000
 5624.00    2.57825   2.41808   -1.000
 5625.00    2.55888   2.39371   -1.000
 5626.00    2.58528   2.40992   -1.000
 5627.00    2.64008   2.45046   -1.000
 5628.00    2.67182   2.48545   -1.000
 5629.00    2.67595   2.51130   -1.000
 5630.00    2.69001   2.53023   -1.000
 5631.00    2.70204   2.53821   -1.000
 5632.00    2.70390   2.53297   -1.000
 5633.00    2.69749   2.51978   -1.000
 5634.00    2.67844   2.50357   -1.000
 5635.00    2.65750   2.48516   -1.000
 5636.00    2.64017   2.46544   -1.000
 5637.00    2.62199   2.45022   -1.000
 5638.00    2.61611   2.44817   -1.000
 5639.00    2.62366   2.45474   -1.000
 5640.00    2.61897   2.45574   -1.000
 5641.00    2.62101   2.44845   -1.000
 5642.00    2.62806   2.44535   -1.000
 5643.00    2.62915   2.45508   -1.000
 5644.00    2.63827   2.46954   -1.000
 5645.00    2.64813   2.48033   -1.000
 5646.00    2.65840   2.48943   -1.000
 5647.00    2.66917   2.49504   -1.000
 5648.00    2.68577   2.49256   -1.000
 5649.00    2.69016   2.48438   -1.000
 5650.00    2.69392   2.48255   -1.000
 5651.00    2.70841   2.49323   -1.000
 5652.00    2.72082   2.50711   -1.000
 5653.00    2.70818   2.50798   -1.000
 5654.00    2.68163   2.49411   -1.000
 5655.00    2.66088   2.47646   -1.000
 5656.00    2.61573   2.45110   -1.000
 5657.00    2.56063   2.40761   -1.000
 5658.00    2.51401   2.36226   -1.000
 5659.00    2.50451   2.34954   -1.000
 5660.00    2.55405   2.37934   -1.000
 5661.00    2.59749   2.41474   -1.000
 5662.00    2.60345   2.42427   -1.000
 5663.00    2.60498   2.43395   -1.000
 5664.00    2.63224   2.46449   -1.000
 5665.00    2.66162   2.49324   -1.000
 5666.00    2.65586   2.49697   -1.000
 5667.00    2.63709   2.48010   -1.000
 5668.00    2.62632   2.46500   -1.000
 5669.00    2.63003   2.46609   -1.000
 5670.00    2.65489   2.47861   -1.000
 5671.00    2.68074   2.49730   -1.000
 5672.00    2.70070   2.52160   -1.000
 5673.00    2.71788   2.54418   -1.000
 5674.00    2.73091   2.55466   -1.000
 5675.00    2.74320   2.55521   -1.000
 5676.00    2.74179   2.55424   -1.000
 5677.00    2.73763   2.55527   -1.000
 5678.00    2.74035   2.55252   -1.000
 5679.00    2.73807   2.54121   -1.000
 5680.00    2.72921   2.52468   -1.000
 5681.00    2.70751   2.50412   -1.000
 5682.00    2.67431   2.47712   -1.000
 5683.00    2.65718   2.45537   -1.000
 5684.00    2.66171   2.45646   -1.000
 5685.00    2.66522   2.47073   -1.000
 5686.00    2.65906   2.47499   -1.000
 5687.00    2.65294   2.46563   -1.000
 5688.00    2.65467   2.45845   -1.000
 5689.00    2.67295   2.46854   -1.000
 5690.00    2.70152   2.49563   -1.000
 5691.00    2.72224   2.52508   -1.000
 5692.00    2.74946   2.54668   -1.000
 5693.00    2.76277   2.55633   -1.000
 5694.00    2.74363   2.55604   -1.000
 5695.00    2.73497   2.55281   -1.000
 5696.00    2.72989   2.54772   -1.000
 5697.00    2.71486   2.53703   -1.000
 5698.00    2.69662   2.51892   -1.000
 5699.00    2.67027   2.49904   -1.000
 5700.00    2.64400   2.48259   -1.000
 5701.00    2.60783   2.46770   -1.000
 5702.00    2.58888   2.46416   18.299
 5703.00    2.60594   2.47892   -1.000
 5704.00    2.62966   2.49512   -1.000
 5705.00    2.64327   2.49338   -1.000
 5706.00    2.63301   2.47096   -1.000
 5707.00    2.59006   2.43706   -1.000
 5708.00    2.53989   2.40617   -1.000
 5709.00    2.51573   2.38244   -1.000
 5710.00    2.51846   2.37390   -1.000
 5711.00    2.54435   2.38582   -1.000
 5712.00    2.60334   2.41760   -1.000
 5713.00    2.66487   2.46941   -1.000
 5714.00    2.69487   2.52043   -1.000
 5715.00    2.71118   2.54697   -1.000
 5716.00    2.72892   2.55860   -1.000
 5717.00    2.74942   2.56747   -1.000
 5718.00    2.77211   2.57581   -1.000
 5719.00    2.78893   2.58666   -1.000
 5720.00    2.80306   2.60044   -1.000
 5721.00    2.81524   2.61451   -1.000
 5722.00    2.82127   2.62512   -1.000
 5723.00    2.82363   2.63225   -1.000
 5724.00    2.81190   2.63321   -1.000
 5725.00    2.78619   2.62060   -1.000
 5726.00    2.75786   2.59482   -1.000
 5727.00    2.73407   2.57397   -1.000
 5728.00    2.73748   2.57422   -1.000
 5729.00    2.76498   2.58794   -1.000
 5730.00    2.77943   2.59256   -1.000
 5731.00    2.77779   2.58496   -1.000
 5732.00    2.78493   2.58278   -1.000
 5733.00    2.79776   2.59789   -1.000
 5734.00    2.80568   2.62314   -1.000
 5735.00    2.80363   2.63484   -1.000
 5736.00    2.79419   2.62943   -1.000
 5737.00    2.79209   2.61949   -1.000
 5738.00    2.79153   2.61277   -1.000
 5739.00    2.78742   2.61278   -1.000
 5740.00    2.77894   2.61414   -1.000
 5741.00    2.77754   2.61195   -1.000
 5742.00    2.78414   2.60776   -1.000
 5743.00    2.79194   2.60979   -1.000
 5744.00    2.79289   2.62308   -1.000
 5745.00    2.79750   2.63769   -1.000
 5746.00    2.80525   2.63559   -1.000
 5747.00    2.78407   2.61629   -1.000
 5748.00    2.77678   2.60201   -1.000
 5749.00    2.79928   2.61240   -1.000
 5750.00    2.81544   2.62900   -1.000
 5751.00    2.81131   2.62402   -1.000
 5752.00    2.77718   2.58733   -1.000
 5753.00    2.72197   2.54358   -1.000
 5754.00    2.71930   2.53175   -1.000
 5755.00    2.77207   2.56096   -1.000
 5756.00    2.81669   2.61149   -1.000
 5757.00    2.84166   2.65018   -1.000
 5758.00    2.84689   2.66139   -1.000
 5759.00    2.82822   2.64595   -1.000
 5760.00    2.78530   2.61408   -1.000
 5761.00    2.74385   2.57941   -1.000
 5762.00    2.72966   2.55540   -1.000
 5763.00    2.73946   2.55987   -1.000
 5764.00    2.76796   2.59792   -1.000
 5765.00    2.80570   2.64618   -1.000
 5766.00    2.83319   2.67220   -1.000
 5767.00    2.83601   2.67891   -1.000
 5768.00    2.82389   2.67770   -1.000
 5769.00    2.81055   2.67252   -1.000
 5770.00    2.79699   2.66458   -1.000
 5771.00    2.77937   2.65586   -1.000
 5772.00    2.76624   2.64576   17.815
 5773.00    2.74558   2.63512   17.799
 5774.00    2.71849   2.62758   17.726
 5775.00    2.70005   2.62574   17.679
 5776.00    2.65423   2.63308   17.712
 5777.00    2.57670   2.64059   17.896
 5778.00    2.52035   2.63226   18.259
 5779.00    2.50861   2.60063   18.571
 5780.00    2.53128   2.55287   18.631
 5781.00    2.57939   2.51126   18.560
 5782.00    2.62582   2.49242   -1.000
 5783.00    2.64882   2.49718   -1.000
 5784.00    2.65922   2.50569   -1.000
 5785.00    2.67940   2.51087   -1.000
 5786.00    2.71075   2.53229   -1.000
 5787.00    2.75075   2.57231   -1.000
 5788.00    2.78612   2.60430   -1.000
 5789.00    2.78931   2.61669   -1.000
 5790.00    2.77544   2.61137   -1.000
 5791.00    2.77093   2.60409   -1.000
 5792.00    2.76879   2.61277   -1.000
 5793.00    2.75630   2.63884   17.501
 5794.00    2.74551   2.66679   17.567
 5795.00    2.75804   2.68120   17.682
 5796.00    2.78045   2.67449   17.672
 5797.00    2.79279   2.65312   -1.000
 5798.00    2.79972   2.64384   -1.000
 5799.00    2.82400   2.66109   -1.000
 5800.00    2.87017   2.69214   -1.000
 5801.00    2.89311   2.71545   -1.000
 5802.00    2.88621   2.71724   -1.000
 5803.00    2.86224   2.69802   -1.000
 5804.00    2.84872   2.67006   -1.000
 5805.00    2.83600   2.65363   -1.000
 5806.00    2.82825   2.65493   -1.000
 5807.00    2.84496   2.66699   -1.000
 5808.00    2.85583   2.67945   -1.000
 5809.00    2.86561   2.68841   -1.000
 5810.00    2.88721   2.69657   -1.000
 5811.00    2.89033   2.70319   -1.000
 5812.00    2.88605   2.70394   -1.000
 5813.00    2.89580   2.69669   -1.000
 5814.00    2.89177   2.68025   -1.000
 5815.00    2.86914   2.65915   -1.000
 5816.00    2.86227   2.64689   -1.000
 5817.00    2.88593   2.66089   -1.000
 5818.00    2.90790   2.69258   -1.000
 5819.00    2.91606   2.71830   -1.000
 5820.00    2.92173   2.72867   -1.000
 5821.00    2.91517   2.72678   -1.000
 5822.00    2.90935   2.72054   -1.000
 5823.00    2.91965   2.71508   -1.000
 5824.00    2.92863   2.71335   -1.000
 5825.00    2.91797   2.71514   -1.000
 5826.00    2.91946   2.71947   -1.000
 5827.00    2.94269   2.72441   -1.000
 5828.00    2.94166   2.73038   -1.000
 5829.00    2.93245   2.73615   -1.000
 5830.00    2.94039   2.73820   -1.000
 5831.00    2.93259   2.73553   -1.000
 5832.00    2.91994   2.73120   -1.000
 5833.00    2.92779   2.72415   -1.000
 5834.00    2.93231   2.71382   -1.000
 5835.00    2.93296   2.70825   -1.000
 5836.00    2.93484   2.71278   -1.000
 5837.00    2.93456   2.71779   -1.000
 5838.00    2.92693   2.71860   -1.000
 5839.00    2.92091   2.72437   -1.000
 5840.00    2.92887   2.73735   -1.000
 5841.00    2.92802   2.74907   -1.000
 5842.00    2.92686   2.75355   -1.000
 5843.00    2.93138   2.74899   -1.000
 5844.00    2.93573   2.73850   -1.000
 5845.00    2.92732   2.72280   -1.000
 5846.00    2.90075   2.70455   -1.000
 5847.00    2.87930   2.68969   -1.000
 5848.00    2.86693   2.68641   -1.000
 5849.00    2.87486   2.69240   -1.000
 5850.00    2.87580   2.69481   -1.000
 5851.00    2.86923   2.68013   -1.000
 5852.00    2.85148   2.65264   -1.000
 5853.00    2.82456   2.63117   -1.000
 5854.00    2.81401   2.62631   -1.000
 5855.00    2.81953   2.62606   -1.000
 5856.00    2.80316   2.60597   -1.000
 5857.00    2.78335   2.56980   -1.000
 5858.00    2.79263   2.55489   -1.000
 5859.00    2.83665   2.57755   -1.000
 5860.00    2.85546   2.61842   -1.000
 5861.00    2.85503   2.64726   -1.000
 5862.00    2.85855   2.65990   -1.000
 5863.00    2.87080   2.66637   -1.000
 5864.00    2.88526   2.67231   -1.000
 5865.00    2.88338   2.66915   -1.000
 5866.00    2.86203   2.65568   -1.000
 5867.00    2.85170   2.64848   -1.000
 5868.00    2.87986   2.66346   -1.000
 5869.00    2.90961   2.69074   -1.000
 5870.00    2.92511   2.71014   -1.000
 5871.00    2.93729   2.71482   -1.000
 5872.00    2.94373   2.70810   -1.000
 5873.00    2.93229   2.70085   -1.000
 5874.00    2.91737   2.69673   -1.000
 5875.00    2.92341   2.69569   -1.000
 5876.00    2.92687   2.69341   -1.000
 5877.00    2.91241   2.68499   -1.000
 5878.00    2.88385   2.66930   -1.000
 5879.00    2.86243   2.65053   -1.000
 5880.00    2.83610   2.63632   -1.000
 5881.00    2.77646   2.63222   -1.000
 5882.00    2.69633   2.63413   17.917
 5883.00    2.61625   2.62981   17.960
 5884.00    2.52140   2.62008   18.127
 5885.00    2.35027   2.61634   -1.000
 5886.00    2.05533   2.60035   -1.000
 5887.00    1.74589   2.52545   -1.000
 5888.00    1.63138   2.37053   -1.000
 5889.00    1.75582   2.19020   -1.000
 5890.00    1.97950   2.10066   20.594
 5891.00    2.10544   2.15235   20.038
 5892.00    2.05664   2.27378   -1.000
 5893.00    1.94839   2.34748   -1.000
 5894.00    1.94083   2.32316   -1.000
 5895.00    2.10082   2.24362   20.282
 5896.00    2.33835   2.20113   19.577
 5897.00    2.53915   2.26638   -1.000
 5898.00    2.68525   2.38743   -1.000
 5899.00    2.76875   2.48089   -1.000
 5900.00    2.80439   2.54067   -1.000
 5901.00    2.83703   2.58615   -1.000
 5902.00    2.86234   2.61682   -1.000
 5903.00    2.86960   2.63253   -1.000
 5904.00    2.87027   2.63872   -1.000
 5905.00    2.87111   2.64044   -1.000
 5906.00    2.87655   2.64420   -1.000
 5907.00    2.88286   2.65420   -1.000
 5908.00    2.88491   2.66650   -1.000
 5909.00    2.88513   2.67435   -1.000
 5910.00    2.88917   2.68027   -1.000
 5911.00    2.89357   2.68155   -1.000
 5912.00    2.87025   2.66971   -1.000
 5913.00    2.84041   2.64186   -1.000
 5914.00    2.82123   2.61107   -1.000
 5915.00    2.81987   2.59690   -1.000
 5916.00    2.82181   2.60534   -1.000
 5917.00    2.82793   2.62590   -1.000
 5918.00    2.86220   2.65081   -1.000
 5919.00    2.89074   2.66948   -1.000
 5920.00    2.87650   2.67733   -1.000
 5921.00    2.85053   2.67635   -1.000
 5922.00    2.84717   2.67258   -1.000
 5923.00    2.86454   2.67482   -1.000
 5924.00    2.89833   2.68409   -1.000
 5925.00    2.92789   2.69609   -1.000
 5926.00    2.92656   2.70468   -1.000
 5927.00    2.90331   2.70296   -1.000
 5928.00    2.88246   2.68624   -1.000
 5929.00    2.85990   2.66337   -1.000
 5930.00    2.85364   2.65470   -1.000
 5931.00    2.88866   2.67016   -1.000
 5932.00    2.90505   2.68970   -1.000
 5933.00    2.89756   2.68851   -1.000
 5934.00    2.88715   2.67391   -1.000
 5935.00    2.87258   2.66800   -1.000
 5936.00    2.90032   2.68228   -1.000
 5937.00    2.93028   2.70458   -1.000
 5938.00    2.92259   2.71628   -1.000
 5939.00    2.91581   2.71157   -1.000
 5940.00    2.90938   2.69284   -1.000
 5941.00    2.89288   2.67135   -1.000
 5942.00    2.88793   2.66238   -1.000
 5943.00    2.89599   2.67315   -1.000
 5944.00    2.90560   2.69303   -1.000
 5945.00    2.91292   2.70827   -1.000
 5946.00    2.90879   2.71069   -1.000
 5947.00    2.88846   2.69571   -1.000
 5948.00    2.86993   2.67399   -1.000
 5949.00    2.87680   2.66652   -1.000
 5950.00    2.88271   2.67787   -1.000
 5951.00    2.87506   2.68521   -1.000
 5952.00    2.87916   2.67820   -1.000
 5953.00    2.89057   2.67282   -1.000
 5954.00    2.89910   2.67939   -1.000
 5955.00    2.90556   2.68424   -1.000
 5956.00    2.88488   2.67734   -1.000
 5957.00    2.87249   2.66925   -1.000
 5958.00    2.89485   2.67740   -1.000
 5959.00    2.92250   2.70097   -1.000
 5960.00    2.94497   2.72511   -1.000
 5961.00    2.95438   2.74157   -1.000
 5962.00    2.95002   2.74743   -1.000
 5963.00    2.95590   2.74493   -1.000
 5964.00    2.94738   2.73577   -1.000
 5965.00    2.91611   2.72356   -1.000
 5966.00    2.89184   2.71703   -1.000
 5967.00    2.90455   2.72402   -1.000
 5968.00    2.92244   2.73625   -1.000
 5969.00    2.94226   2.74529   -1.000
 5970.00    2.95713   2.75398   -1.000
 5971.00    2.93924   2.76110   -1.000
 5972.00    2.93732   2.76243   -1.000
 5973.00    2.94994   2.75643   -1.000
 5974.00    2.93849   2.74108   -1.000
 5975.00    2.90487   2.71518   -1.000
 5976.00    2.89675   2.68912   -1.000
 5977.00    2.90283   2.67840   -1.000
 5978.00    2.90691   2.68718   -1.000
 5979.00    2.92121   2.71007   -1.000
 5980.00    2.92913   2.73270   -1.000
 5981.00    2.93390   2.73923   -1.000
 5982.00    2.91758   2.72108   -1.000
 5983.00    2.88277   2.68795   -1.000
 5984.00    2.86905   2.66301   -1.000
 5985.00    2.88206   2.66453   -1.000
 5986.00    2.89176   2.68847   -1.000
 5987.00    2.91364   2.71240   -1.000
 5988.00    2.92797   2.72860   -1.000
 5989.00    2.93909   2.73794   -1.000
 5990.00    2.94821   2.73854   -1.000
 5991.00    2.93906   2.73452   -1.000
 5992.00    2.93310   2.74152   -1.000
 5993.00    2.93906   2.76329   -1.000
 5994.00    2.95396   2.77884   -1.000
 5995.00    2.95570   2.77427   -1.000
 5996.00    2.94376   2.75400   -1.000
 5997.00    2.92937   2.73369   -1.000
 5998.00    2.92821   2.72733   -1.000
 5999.00    2.93601   2.73560   -1.000
 6000.00    2.93314   2.74584   -1.000
 6001.00    2.92242   2.74516   -1.000
 6002.00    2.90758   2.73424   -1.000
 6003.00    2.89145   2.72370   -1.000
 6004.00    2.88403   2.72722   -1.000
 6005.00    2.87884   2.73119   -1.000
 6006.00    2.86416   2.71459   -1.000
 6007.00    2.83894   2.68532   -1.000
 6008.00    2.82838   2.67195   -1.000
 6009.00    2.86197   2.69334   -1.000
 6010.00    2.90536   2.73176   -1.000
 6011.00    2.92424   2.74651   -1.000
 6012.00    2.92822   2.73444   -1.000
 6013.00    2.91071   2.72018   -1.000
 6014.00    2.90197   2.71706   -1.000
 6015.00    2.91945   2.72191   -1.000
 6016.00    2.91582   2.72113   -1.000
 6017.00    2.90431   2.71798   -1.000
 6018.00    2.90731   2.71703   -1.000
 6019.00    2.90129   2.70878   -1.000
 6020.00    2.87913   2.69460   -1.000
 6021.00    2.88083   2.69113   -1.000
 6022.00    2.88742   2.70128   -1.000
 6023.00    2.88680   2.71465   -1.000
 6024.00    2.89898   2.72920   -1.000
 6025.00    2.92830   2.74787   -1.000
 6026.00    2.96682   2.76494   -1.000
 6027.00    2.97133   2.77480   -1.000
 6028.00    2.97530   2.78637   -1.000
 6029.00    2.99725   2.79949   -1.000
 6030.00    2.99531   2.80545   -1.000
 6031.00    2.98580   2.80886   -1.000
 6032.00    2.97502   2.81569   -1.000
 6033.00    2.97755   2.82305   -1.000
 6034.00    2.98377   2.82756   -1.000
 6035.00    2.98398   2.83077   -1.000
 6036.00    2.97937   2.83158   -1.000
 6037.00    2.97863   2.82776   -1.000
 6038.00    2.99974   2.81985   -1.000
 6039.00    2.98211   2.80948   -1.000
 6040.00    2.95338   2.80191   -1.000
 6041.00    2.95887   2.80019   -1.000
 6042.00    2.99288   2.79918   -1.000
 6043.00    3.00963   2.80432   -1.000
 6044.00    3.01772   2.82308   -1.000
 6045.00    3.01405   2.84063   -1.000
 6046.00    3.00645   2.84791   -1.000
 6047.00    3.02531   2.85153   -1.000
 6048.00    3.03852   2.85530   -1.000
 6049.00    3.03797   2.85683   -1.000
 6050.00    3.01981   2.85663   -1.000
 6051.00    3.01760   2.85292   -1.000
 6052.00    3.02448   2.84366   -1.000
 6053.00    3.01174   2.83035   -1.000
 6054.00    2.98969   2.81616   -1.000
 6055.00    2.97991   2.80250   -1.000
 6056.00    2.98863   2.79435   -1.000
 6057.00    2.98986   2.79822   -1.000
 6058.00    2.98952   2.81141   -1.000
 6059.00    3.02017   2.82548   -1.000
 6060.00    3.02603   2.83441   -1.000
 6061.00    3.01577   2.83181   -1.000
 6062.00    3.02935   2.81421   -1.000
 6063.00    2.46145   2.78242   -1.000
 6064.00    1.63724   2.74908   -1.000
 6065.00    2.03602   2.73628   -1.000
 6066.00    2.80597   2.75962   18.962
 6067.00    2.93290   2.80555   -1.000
 6068.00    3.04394   2.84516   -1.000
 6069.00    1.79576   2.86496   -1.000
 6070.00    1.49474   2.87285   -1.000
 6071.00    2.69399   2.87670   17.712
 6072.00    3.10844   2.87329   -1.000
 6073.00    3.04282   2.86412   -1.000
 6074.00    3.04986   2.86806   -1.000
 6075.00    3.04115   2.86912   -1.000
 6076.00    3.03218   2.85327   -1.000
 6077.00    3.01900   2.82930   -1.000
 6078.00    2.99552   2.80881   -1.000
 6079.00    2.99020   2.80136   -1.000
 6080.00    2.99967   2.79894   -1.000
 6081.00    2.99611   2.79055   -1.000
 6082.00    2.97096   2.78318   -1.000
 6083.00    2.95663   2.78451   -1.000
 6084.00    2.96626   2.78868   -1.000
 6085.00    2.96756   2.79286   -1.000
 6086.00    2.97152   2.80084   -1.000
 6087.00    2.99072   2.81137   -1.000
 6088.00    2.98988   2.81449   -1.000
 6089.00    2.97068   2.80370   -1.000
 6090.00    2.95197   2.78795   -1.000
 6091.00    2.94038   2.78118   -1.000
 6092.00    2.96074   2.78687   -1.000
 6093.00    2.99746   2.80138   -1.000
 6094.00    3.01039   2.82059   -1.000
 6095.00    3.01368   2.83537   -1.000
 6096.00    3.02889   2.84104   -1.000
 6097.00    3.02804   2.84403   -1.000
 6098.00    3.02604   2.85103   -1.000
 6099.00    3.01637   2.85178   -1.000
 6100.00    2.98538   2.82570   -1.000
 6101.00    2.92724   2.76530   -1.000
 6102.00    2.86609   2.70087   -1.000
 6103.00    2.85818   2.68792   -1.000
 6104.00    2.91243   2.72951   -1.000
 6105.00    2.95529   2.78354   -1.000
 6106.00    2.98337   2.81539   -1.000
 6107.00    2.98018   2.82636   -1.000
 6108.00    2.97754   2.83422   -1.000
 6109.00    2.99411   2.84509   -1.000
 6110.00    2.99744   2.84927   -1.000
 6111.00    2.99427   2.84605   -1.000
 6112.00    2.99475   2.84782   -1.000
 6113.00    3.00117   2.85826   -1.000
 6114.00    3.00086   2.86675   -1.000
 6115.00    2.99364   2.86377   -1.000
 6116.00    2.99282   2.85643   -1.000
 6117.00    2.99472   2.85485   -1.000
 6118.00    2.98941   2.84536   -1.000
 6119.00    2.96034   2.81367   -1.000
 6120.00    2.92996   2.76591   -1.000
 6121.00    2.88590   2.71784   -1.000
 6122.00    2.87670   2.69831   -1.000
 6123.00    2.90439   2.72626   -1.000
 6124.00    2.95082   2.77313   -1.000
 6125.00    2.97983   2.80194   -1.000
 6126.00    2.96175   2.80888   -1.000
 6127.00    2.94101   2.80597   -1.000
 6128.00    2.95497   2.80664   -1.000
 6129.00    2.96372   2.82166   -1.000
 6130.00    2.97927   2.84777   -1.000
 6131.00    3.00352   2.87099   -1.000
 6132.00    2.99495   2.88090   -1.000
 6133.00    2.96574   2.86905   -1.000
 6134.00    2.91547   2.82072   -1.000
 6135.00    2.85174   2.73402   -1.000
 6136.00    2.78075   2.64772   -1.000
 6137.00    2.77256   2.62375   -1.000
 6138.00    2.82449   2.67396   -1.000
 6139.00    2.89278   2.74639   -1.000
 6140.00    2.92155   2.78112   -1.000
 6141.00    2.91454   2.77853   -1.000
 6142.00    2.91900   2.78629   -1.000
 6143.00    2.94857   2.81894   -1.000
 6144.00    2.97013   2.85222   -1.000
 6145.00    2.99736   2.86632   -1.000
 6146.00    2.99965   2.86233   -1.000
 6147.00    2.98751   2.84821   -1.000
 6148.00    2.96349   2.83075   -1.000
 6149.00    2.93769   2.81604   -1.000
 6150.00    2.93403   2.80980   -1.000
 6151.00    2.94676   2.81626   -1.000
 6152.00    2.95284   2.82920   -1.000
 6153.00    2.94844   2.83344   -1.000
 6154.00    2.93630   2.82111   -1.000
 6155.00    2.92089   2.80624   -1.000
 6156.00    2.90947   2.80124   -1.000
 6157.00    2.90720   2.80109   -1.000
 6158.00    2.88605   2.79308   -1.000
 6159.00    2.83564   2.75600   20.432
 6160.00    2.77039   2.67760   -1.000
 6161.00    2.68569   2.58511   20.536
 6162.00    2.63594   2.53230   20.016
 6163.00    2.66125   2.54945   19.639
 6164.00    2.71305   2.61002   19.510
 6165.00    2.75095   2.67241   19.534
 6166.00    2.77546   2.70860   19.742
 6167.00    2.77730   2.71170   19.964
 6168.00    2.75502   2.68177   19.902
 6169.00    2.71982   2.64741   19.561
 6170.00    2.71894   2.65147   19.254
 6171.00    2.76362   2.69617   19.206
 6172.00    2.80547   2.74341   19.232
 6173.00    2.82927   2.76761   19.198
 6174.00    2.82566   2.77835   19.157
 6175.00    2.81069   2.78359   19.110
 6176.00    2.81742   2.78587   19.025
 6177.00    2.84290   2.79268   18.948
 6178.00    2.86022   2.80465   18.887
 6179.00    2.86403   2.81359   18.806
 6180.00    2.87577   2.81980   18.747
 6181.00    2.89773   2.83200   18.766
 6182.00    2.90875   2.84517   18.828
 6183.00    2.90070   2.84918   18.959
 6184.00    2.88254   2.84266   19.157
 6185.00    2.88005   2.82609   19.360
 6186.00    2.87075   2.80219   19.547
 6187.00    2.83956   2.78056   19.699
 6188.00    2.81467   2.76396   19.928
 6189.00    2.79374   2.73773   20.093
 6190.00    2.77471   2.69832   19.946
 6191.00    2.74862   2.67454   19.501
 6192.00    2.75185   2.69604   19.135
 6193.00    2.80342   2.74865   18.979
 6194.00    2.84379   2.79708   18.936
 6195.00    2.87091   2.82519   19.026
 6196.00    2.88963   2.83705   19.231
 6197.00    2.88936   2.83160   19.406
 6198.00    2.85055   2.80695   19.427
 6199.00    2.79658   2.77868   19.265
 6200.00    2.76387   2.77458   19.027
 6201.00    2.78043   2.79773   18.929
 6202.00    2.81781   2.82762   18.926
 6203.00    2.86782   2.84916   18.902
 6204.00    2.89381   2.85839   18.893
 6205.00    2.90179   2.86193   18.951
 6206.00    2.91289   2.86675   18.969
 6207.00    2.90835   2.87243   19.030
 6208.00    2.90116   2.87299   19.188
 6209.00    2.90281   2.86503   19.347
 6210.00    2.89369   2.84859   19.526
 6211.00    2.87265   2.82211   19.802
 6212.00    2.85344   2.78117   20.030
 6213.00    2.81341   2.73680   20.112
 6214.00    2.77806   2.71109   19.915
 6215.00    2.77320   2.71113   19.770
 6216.00    2.80782   2.72762   19.873
 6217.00    2.82575   2.74060   19.859
 6218.00    2.81549   2.73741   19.718
 6219.00    2.82255   2.72410   19.778
 6220.00    2.77260   2.72218   20.944
 6221.00    2.48152   2.74004   -1.000
 6222.00    2.65298   2.76101   19.815
 6223.00    2.84765   2.77280   19.568
 6224.00    2.87308   2.77855   19.598
 6225.00    2.87455   2.78399   19.684
 6226.00    2.85763   2.78709   19.921
 6227.00    2.84775   2.77764   20.245
 6228.00    2.84567   2.74452   -1.000
 6229.00    2.80867   2.69111   -1.000
 6230.00    2.76237   2.64625   -1.000
 6231.00    2.74521   2.64152   19.882
 6232.00    2.76844   2.67597   19.544
 6233.00    2.83347   2.73013   19.404
 6234.00    2.87304   2.78008   19.493
 6235.00    2.90185   2.80844   19.682
 6236.00    2.88713   2.80671   19.883
 6237.00    2.86036   2.78478   20.094
 6238.00    2.83120   2.75758   20.207
 6239.00    2.81764   2.73469   20.215
 6240.00    2.81581   2.72250   20.326
 6241.00    2.80120   2.71768   20.470
 6242.00    2.78649   2.70631   20.489
 6243.00    2.77928   2.68785   20.379
 6244.00    2.76167   2.67566   20.190
 6245.00    2.76154   2.67636   19.943
 6246.00    2.78667   2.69569   19.723
 6247.00    2.81133   2.73501   19.662
 6248.00    2.86083   2.77469   19.805
 6249.00    2.88316   2.79364   20.138
 6250.00    2.85431   2.78082   20.420
 6251.00    2.81200   2.74059   20.580
 6252.00    2.77587   2.69591   20.653
 6253.00    2.76957   2.67240   -1.000
 6254.00    2.75955   2.66922   20.799
 6255.00    2.74469   2.66980   20.993
 6256.00    2.74960   2.66071   20.965
 6257.00    2.74756   2.64778   -1.000
 6258.00    2.74551   2.65079   20.373
 6259.00    2.76256   2.67796   20.090
 6260.00    2.78580   2.71993   19.788
 6261.00    2.82296   2.76224   19.641
 6262.00    2.85608   2.79582   19.747
 6263.00    2.87105   2.80949   19.892
 6264.00    2.85695   2.80283   19.851
 6265.00    2.82821   2.79486   19.711
 6266.00    2.81538   2.80114   19.731
 6267.00    2.81894   2.81435   19.832
 6268.00    2.81575   2.81549   19.835
 6269.00    2.82181   2.80698   19.772
 6270.00    2.83310   2.80461   19.719
 6271.00    2.84432   2.81331   19.750
 6272.00    2.85097   2.82456   19.876
 6273.00    2.82706   2.82546   20.036
 6274.00    2.77335   2.81122   20.322
 6275.00    2.70550   2.78728   20.800
 6276.00    2.65251   2.75931   21.218
 6277.00    2.62196   2.72968   21.402
 6278.00    2.59473   2.70323   21.362
 6279.00    2.55838   2.68259   21.076
 6280.00    2.51231   2.67962   20.711
 6281.00    2.47175   2.69982   -1.000
 6282.00    2.50148   2.73621   -1.000
 6283.00    2.59659   2.77629   19.942
 6284.00    2.67705   2.80820   19.766
 6285.00    2.74085   2.83091   19.618
 6286.00    2.82011   2.84909   19.558
 6287.00    2.88119   2.86320   19.633
 6288.00    2.89851   2.86763   19.791
 6289.00    2.89462   2.85590   19.945
 6290.00    2.89252   2.83616   20.007
 6291.00    2.89190   2.81944   20.029
 6292.00    2.88575   2.81210   20.062
 6293.00    2.88375   2.81235   20.191
 6294.00    2.87314   2.81083   20.334
 6295.00    2.84980   2.79673   20.387
 6296.00    2.83249   2.77281   20.367
 6297.00    2.80304   2.75736   20.292
 6298.00    2.78373   2.75841   20.201
 6299.00    2.80500   2.76294   20.314
 6300.00    2.82330   2.75479   20.541
 6301.00    2.82000   2.74066   20.461
 6302.00    2.82523   2.74474   20.158
 6303.00    2.84183   2.77208   19.891
 6304.00    2.86657   2.80558   19.707
 6305.00    2.89756   2.83361   19.532
 6306.00    2.92091   2.85651   19.467
 6307.00    2.92333   2.87557   19.532
 6308.00    2.91608   2.88233   19.657
 6309.00    2.92997   2.87587   19.747
 6310.00    2.93281   2.86345   19.825
 6311.00    2.92332   2.85254   19.858
 6312.00    2.90945   2.84427   20.004
 6313.00    2.88467   2.83178   20.106
 6314.00    2.86681   2.81117   20.107
 6315.00    2.84865   2.79331   20.087
 6316.00    2.83190   2.78496   20.105
 6317.00    2.82571   2.77787   20.055
 6318.00    2.84051   2.77804   19.846
 6319.00    2.87676   2.79961   19.637
 6320.00    2.91152   2.83189   19.538
 6321.00    2.93383   2.85351   19.473
 6322.00    2.94948   2.86857   19.376
 6323.00    2.97733   2.88747   19.304
 6324.00    3.00209   2.90644   -1.000
 6325.00    3.01078   2.91662   -1.000
 6326.00    3.01039   2.91709   -1.000
 6327.00    3.00137   2.91409   19.216
 6328.00    3.00787   2.91410   -1.000
 6329.00    3.01432   2.91421   -1.000
 6330.00    3.02236   2.91616   -1.000
 6331.00    3.02974   2.92662   -1.000
 6332.00    2.98863   2.93479   19.221
 6333.00    2.94791   2.92088   19.581
 6334.00    2.96306   2.88209   19.730
 6335.00    2.94272   2.84019   -1.000
 6336.00    2.93125   2.82408   -1.000
 6337.00    2.95037   2.83917   -1.000
 6338.00    2.97905   2.86829   -1.000
 6339.00    3.01566   2.89901   -1.000
 6340.00    3.04659   2.92348   -1.000
 6341.00    3.05055   2.93081   -1.000
 6342.00    3.02344   2.91808   -1.000
 6343.00    3.00149   2.89848   -1.000
 6344.00    2.99997   2.89164   -1.000
 6345.00    2.99813   2.90436   18.912
 6346.00    3.01756   2.92649   18.826
 6347.00    3.04314   2.94789   18.815
 6348.00    3.05720   2.96669   18.786
 6349.00    3.06169   2.98004   18.789
 6350.00    3.07111   2.98516   18.858
 6351.00    3.06475   2.98218   18.945
 6352.00    3.05653   2.96894   19.135
 6353.00    3.04213   2.94558   -1.000
 6354.00    3.01335   2.92067   -1.000
 6355.00    2.99911   2.90821   -1.000
 6356.00    3.00027   2.90314   -1.000
 6357.00    2.98083   2.88866   -1.000
 6358.00    2.95097   2.86637   19.659
 6359.00    2.93430   2.85161   19.588
 6360.00    2.94317   2.84463   -1.000
 6361.00    2.96199   2.83787   -1.000
 6362.00    2.96554   2.83569   -1.000
 6363.00    2.96824   2.84481   -1.000
 6364.00    2.98428   2.86439   -1.000
 6365.00    3.01204   2.88873   -1.000
 6366.00    3.02508   2.91414   -1.000
 6367.00    3.04307   2.93649   -1.000
 6368.00    3.06823   2.94990   -1.000
 6369.00    3.08017   2.95195   -1.000
 6370.00    3.09725   2.95385   -1.000
 6371.00    3.09508   2.96314   -1.000
 6372.00    3.07491   2.97777   -1.000
 6373.00    3.05329   2.99001   18.809
 6374.00    3.05193   2.99357   18.873
 6375.00    3.06408   2.98985   18.964
 6376.00    3.04183   2.98201   19.087
 6377.00    3.02705   2.96999   19.174
 6378.00    3.03355   2.95671   19.198
 6379.00    3.03262   2.94709   19.229
 6380.00    3.03503   2.94190   -1.000
 6381.00    3.05442   2.94244   -1.000
 6382.00    3.05761   2.94757   -1.000
 6383.00    3.04795   2.95155   -1.000
 6384.00    3.04169   2.95457   19.302
 6385.00    3.03919   2.96152   19.343
 6386.00    3.01966   2.97160   19.406
 6387.00    3.03014   2.97790   19.546
 6388.00    3.03615   2.97917   19.704
 6389.00    3.00483   2.97666   19.914
 6390.00    2.98444   2.96417   20.204
 6391.00    2.95004   2.93353   20.408
 6392.00    2.89720   2.89330   20.393
 6393.00    2.86367   2.87273   20.134
 6394.00    2.86338   2.89362   20.036
 6395.00    2.88354   2.94016   20.132
 6396.00    2.91135   2.97310   20.402
 6397.00    2.91058   2.97099   20.842
 6398.00    2.88640   2.93098   21.073
 6399.00    2.82886   2.88239   20.927
 6400.00    2.77724   2.87039   20.609
 6401.00    2.78171   2.90933   20.455
 6402.00    2.81522   2.96761   20.483
 6403.00    2.83771   3.00705   20.586
 6404.00    2.84279   3.01930   20.845
 6405.00    2.83075   3.00603   21.169
 6406.00    2.78554   2.97705   21.410
 6407.00    2.74514   2.95110   21.527
 6408.00    2.72057   2.94565   -1.000
 6409.00    2.71039   2.95385   -1.000
 6410.00    2.68576   2.95431   -1.000
 6411.00    2.67580   2.94785   -1.000
 6412.00    2.67110   2.95089   -1.000
 6413.00    2.64152   2.96246   -1.000
 6414.00    2.62399   2.97447   -1.000
 6415.00    2.62508   2.98335   -1.000
 6416.00    2.62878   2.98830   -1.000
 6417.00    2.60996   2.98348   -1.000
 6418.00    2.58304   2.96221   -1.000
 6419.00    2.53430   2.92920   -1.000
 6420.00    2.48967   2.90625   -1.000
 6421.00    2.44914   2.91494   -1.000
 6422.00    2.44982   2.95538   -1.000
 6423.00    2.46154   2.99808   -1.000
 6424.00    2.47186   3.02337   -1.000
 6425.00    2.46257   3.03728   -1.000
 6426.00    2.43498   3.04712   -1.000
 6427.00    2.41682   3.04572   -1.000
 6428.00    2.37768   3.02007   -1.000
