###################################################################
## OUTPUT of StarlightChains_v04.for    [Cid@UFSC - 01/Apr/2007] ##
###################################################################

## Some input info
NGC1904_a_1.cxt                          [arq_obs]
Base.BC03.N                              [arq_base]
NGC1904_a_1.msk                          [arq_masks]
StCv04.C11.config                        [arq_config]
   45                                    [N_base]
    0                                    [N_YAV_components = # of components with extra extinction!]
    0                                    [i_FitPowerLaw (1/0 = Yes/No)]
-9.99                                    [alpha_PowerLaw]
CCM                                      [red_law_option]
 1.458241                                [q_norm = A(l_norm)/A(V)]

## (Re)Sampling Parameters
 3359.00                                 [l_ini (A)]
 6428.00                                 [l_fin (A)]
    1.00                                 [dl    (A)]     (OBS: dl_cushion =    50.00 A)

## Normalization info
 4020.00                                 [l_norm (A) - for base]
 4010.00                                 [llow_norm (A) - window for f_obs]
 4060.00                                 [lupp_norm (A) - window for f_obs]
1.460937E-14                             [fobs_norm (in input units)]

## S/N
 4730.00                                 [llow_SN (A) - window for S/N]
 4780.00                                 [lupp_SN (A) - window for S/N]
 130.069                                 [S/N in S/N window]
 127.140                                 [S/N in norm. window]
 564.433                                 [S/N_err in S/N window]
 551.723                                 [S/N_err in norm. window]
  1.0000                                 [fscale_chi2]

## etc...
  2147483646                             [idum_orig]
  3067                                   [NOl_eff]
   322                                   [Nl_eff]
  2745    NSIGMA                         [Ntot_cliped & clip_method]
  4120620                                [Nglobal_steps]
   7                                     [N_chains]
   6                                     [NEX0s_base = N_base in EX0s-fits]
 0   0   1      254   2.0   1.168E+03    [Clip-Bug, RC-Crash & Burn-In warning-flags, n_censored_weights, wei_nsig_threshold & wei_limit]
    30     29.835     29.831      0.004  [idt_all, wdt_TotTime, wdt_UsrTime & wdt_SysTime (sec)]

## Synthesis Results - Best model ##

 2.88640E+00                             [chi2/Nl_eff]
     0.36646                             [adev (%)]

   104.21348                             [sum-of-x (%)]
 1.99480E-14                             [Flux_tot (units of input spectrum!)]
 1.15892E-10                             [Mini_tot (???)]
 6.42244E-11                             [Mcor_tot (???)]

 -12.15                                  [v0_min  (km/s)]
 107.72                                  [vd_min  (km/s)]
 0.2012                                  [AV_min  (mag)]
 0.0000                                  [YAV_min (mag)]

# j     x_j(%)      Mini_j(%)     Mcor_j(%)     age_j(yr)     Z_j      (L/M)_j    YAV?  Mstars   component_j        a/Fe...       SSP_chi2r SSP_adev(%)   SSP_AV   SSP_x(%)
  1      0.0000     0.0000E+00    0.0000E+00    1.000000E+06  0.00400  1.114E-02    0   1.0000   age020_m42            0.0000     6.8905E+03    14.1541   3.4546    77.9316
  2     15.1934     6.1612E-02    1.1117E-01    3.160000E+06  0.00400  4.073E-02    0   0.9999   age045_m42            0.0000     1.3223E+03     6.3954   2.4095    92.6459
  3      0.0000     0.0000E+00    0.0000E+00    5.010000E+06  0.00400  2.534E-02    0   0.9488   age055_m42            0.0000     3.4008E+03    10.1602   2.8589    85.7375
  4      3.5307     4.5882E-02    7.3371E-02    1.000000E+07  0.00400  1.271E-02    0   0.8862   age070_m42            0.0000     3.0588E+03     9.9562   2.0577    89.2658
  5      0.0000     0.0000E+00    0.0000E+00    2.512000E+07  0.00400  5.070E-03    0   0.8174   age090_m42            0.0000     2.6266E+03     9.2553   1.9171    90.8931
  6      0.0000     0.0000E+00    0.0000E+00    4.000000E+07  0.00400  3.505E-03    0   0.7851   age104_m42            0.0000     1.4979E+03     6.9559   1.5744    94.0621
  7     12.4518     9.0680E-01    1.1793E+00    1.015200E+08  0.00400  2.268E-03    0   0.7207   age116_m42            0.0000     3.5549E+03     6.2475   1.4702   104.9233
  8      0.0000     0.0000E+00    0.0000E+00    2.861200E+08  0.00400  1.079E-03    0   0.6613   age125_m42            0.0000     3.8267E+03     7.1974   0.9519   107.6818
  9      0.0000     0.0000E+00    0.0000E+00    6.405400E+08  0.00400  5.077E-04    0   0.6197   age132_m42            0.0000     4.2293E+03     7.7499   0.5719   112.4027
 10      8.4418     3.9443E+00    4.2875E+00    9.047900E+08  0.00400  3.535E-04    0   0.6024   age135_m42            0.0000     2.2770E+03     5.9971   0.3280   111.7863
 11     16.6690     1.4415E+01    1.4868E+01    1.434000E+09  0.00400  1.910E-04    0   0.5716   age139_m42            0.0000     7.7567E+02     4.6278  -0.2355   110.9539
 12     47.9268     8.0627E+01    7.9481E+01    2.500000E+09  0.00400  9.818E-05    0   0.5463   age150_m42            0.0000     7.9691E+02     4.1106  -0.5063   106.0472
 13      0.0000     0.0000E+00    0.0000E+00    5.000000E+09  0.00400  4.718E-05    0   0.5228   age161_m42            0.0000     1.6174E+03     4.7685  -0.6599   102.2726
 14      0.0000     0.0000E+00    0.0000E+00    1.100000E+10  0.00400  2.205E-05    0   0.4980   age185_m42            0.0000     3.6033E+03     6.9105  -0.9462   100.2509
 15      0.0000     0.0000E+00    0.0000E+00    1.300000E+10  0.00400  1.883E-05    0   0.4927   age193_m42            0.0000     3.9305E+03     7.1799  -0.9625   100.0449
 16      0.0000     0.0000E+00    0.0000E+00    1.000000E+06  0.02000  1.989E-02    0   1.0000   age020_m62            0.0000     6.8765E+03    14.0717   3.4117    78.7194
 17      0.0000     0.0000E+00    0.0000E+00    3.160000E+06  0.02000  3.772E-02    0   0.9858   age045_m62            0.0000     6.1447E+03    13.3617   3.2615    80.7342
 18      0.0000     0.0000E+00    0.0000E+00    5.010000E+06  0.02000  3.227E-02    0   0.9342   age055_m62            0.0000     2.2920E+03     8.3107   2.6963    88.7028
 19      0.0000     0.0000E+00    0.0000E+00    1.000000E+07  0.02000  1.011E-02    0   0.8751   age070_m62            0.0000     7.4894E+03    15.4914   2.0938    85.0846
 20      0.0000     0.0000E+00    0.0000E+00    2.512000E+07  0.02000  4.206E-03    0   0.8099   age090_m62            0.0000     5.4498E+03    13.0031   2.0148    86.0964
 21      0.0000     0.0000E+00    0.0000E+00    4.000000E+07  0.02000  3.373E-03    0   0.7799   age104_m62            0.0000     1.5570E+03     6.7195   1.7731    95.4681
 22      0.0000     0.0000E+00    0.0000E+00    1.015200E+08  0.02000  1.878E-03    0   0.7221   age116_m62            0.0000     3.0348E+03     5.7082   1.5165   104.6423
 23      0.0000     0.0000E+00    0.0000E+00    2.861200E+08  0.02000  8.869E-04    0   0.6700   age125_m62            0.0000     7.3593E+03     9.7864   0.9268   113.0542
 24      0.0000     0.0000E+00    0.0000E+00    6.405400E+08  0.02000  3.657E-04    0   0.6322   age132_m62            0.0000     4.0502E+03     8.9535   0.1582   118.8151
 25      0.0000     0.0000E+00    0.0000E+00    9.047900E+08  0.02000  2.312E-04    0   0.6152   age135_m62            0.0000     1.9736E+03     7.1068  -0.2263   118.1095
 26      0.0000     0.0000E+00    0.0000E+00    1.434000E+09  0.02000  1.168E-04    0   0.5865   age139_m62            0.0000     1.0013E+03     4.9991  -0.6145   111.2300
 27      0.0000     0.0000E+00    0.0000E+00    2.500000E+09  0.02000  5.505E-05    0   0.5610   age150_m62            0.0000     2.6552E+03     6.7118  -1.0000   108.2363
 28      0.0000     0.0000E+00    0.0000E+00    5.000000E+09  0.02000  2.596E-05    0   0.5353   age161_m62            0.0000     7.3120E+03    10.8545  -1.0000   102.0600
 29      0.0000     0.0000E+00    0.0000E+00    1.100000E+10  0.02000  1.169E-05    0   0.5103   age185_m62            0.0000     1.5915E+04    17.7018  -1.0000    95.3113
 30      0.0000     0.0000E+00    0.0000E+00    1.300000E+10  0.02000  9.691E-06    0   0.5047   age193_m62            0.0000     1.7465E+04    18.5858  -1.0000    94.4024
 31      0.0000     0.0000E+00    0.0000E+00    1.000000E+06  0.05000  2.651E-02    0   0.9998   age020_m72            0.0000     6.3381E+03    13.3421   3.4117    79.5593
 32      0.0000     0.0000E+00    0.0000E+00    3.160000E+06  0.05000  4.817E-02    0   0.9577   age045_m72            0.0000     4.2375E+03    10.9595   3.1054    84.0241
 33      0.0000     0.0000E+00    0.0000E+00    5.010000E+06  0.05000  3.101E-02    0   0.9147   age055_m72            0.0000     3.9916E+03    10.8751   2.7310    86.5797
 34      0.0000     0.0000E+00    0.0000E+00    1.000000E+07  0.05000  8.954E-03    0   0.8524   age070_m72            0.0000     4.0906E+03    10.7013   2.9681    85.2758
 35      0.0000     0.0000E+00    0.0000E+00    2.512000E+07  0.05000  4.207E-03    0   0.7902   age090_m72            0.0000     1.9467E+03     7.4205   2.4908    91.1315
 36      0.0000     0.0000E+00    0.0000E+00    4.000000E+07  0.05000  3.198E-03    0   0.7618   age104_m72            0.0000     1.6788E+03     4.2730   1.9010   100.0706
 37      0.0000     0.0000E+00    0.0000E+00    1.015200E+08  0.05000  1.716E-03    0   0.7092   age116_m72            0.0000     3.8118E+03     6.4555   1.5845   105.0751
 38      0.0000     0.0000E+00    0.0000E+00    2.861200E+08  0.05000  7.047E-04    0   0.6618   age125_m72            0.0000     6.8426E+03    10.0158   0.6738   114.4271
 39      0.0000     0.0000E+00    0.0000E+00    6.405400E+08  0.05000  2.633E-04    0   0.6253   age132_m72            0.0000     2.9026E+03     8.3761  -0.2597   118.9725
 40      0.0000     0.0000E+00    0.0000E+00    9.047900E+08  0.05000  1.484E-04    0   0.6088   age135_m72            0.0000     1.7654E+03     7.0127  -0.7403   113.4683
 41      0.0000     0.0000E+00    0.0000E+00    1.434000E+09  0.05000  7.827E-05    0   0.5847   age139_m72            0.0000     3.7516E+03     8.3155  -1.0000   107.3042
 42      0.0000     0.0000E+00    0.0000E+00    2.500000E+09  0.05000  3.759E-05    0   0.5583   age150_m72            0.0000     8.6556E+03    12.3174  -1.0000   100.1612
 43      0.0000     0.0000E+00    0.0000E+00    5.000000E+09  0.05000  1.548E-05    0   0.5320   age161_m72            0.0000     1.8519E+04    19.4187  -1.0000    90.4740
 44      0.0000     0.0000E+00    0.0000E+00    1.100000E+10  0.05000  6.532E-06    0   0.5070   age185_m72            0.0000     3.1305E+04    25.4968  -1.0000    80.9007
 45      0.0000     0.0000E+00    0.0000E+00    1.300000E+10  0.05000  5.316E-06    0   0.5018   age193_m72            0.0000     3.6058E+04    27.2630  -1.0000    77.9606


## Synthesis Results - Average & Chains ##

# j      x_j: min, <> & last-chain-values for 1 ...  7 chains
  1      0.0000      0.0076      0.0000      0.0000      0.0177      0.0135      0.0000      0.0000      0.0000
  2     15.1934     14.9376     14.8363     15.0857     14.7414     15.0289     15.0807     14.8298     15.0242
  3      0.0000      0.0247      0.0000      0.0000      0.0000      0.0000      0.0000      0.0993      0.0000
  4      3.5307      3.8377      3.8842      3.8265      3.8527      3.6784      3.8714      3.8721      3.8588
  5      0.0000      0.0200      0.0000      0.0000      0.0000      0.0000      0.0135      0.0000      0.0000
  6      0.0000      0.1428      0.2547      0.2563      0.0000      0.3758      0.0000      0.2541      0.0000
  7     12.4518     11.0506     11.2039     10.9402     11.7883     11.0196     11.2881     11.2356     11.2561
  8      0.0000      0.3213      0.4009      0.3637      0.3937      0.2800      0.3959      0.3322      0.4533
  9      0.0000      0.0470      0.0000      0.0000      0.0704      0.0000      0.0000      0.0451      0.0000
 10      8.4418      8.6674      8.6738      8.7100      8.9150      8.5749      7.6781      8.2600      8.5681
 11     16.6690     17.4094     17.4356     17.0855     15.7045     17.0657     17.6940     17.7132     17.4823
 12     47.9268     46.2194     46.2565     46.3801     47.6442     46.4564     46.5681     46.5179     46.8022
 13      0.0000      0.0993      0.2197      0.0011      0.1122      0.0155      0.1015      0.0000      0.0000
 14      0.0000      0.0318      0.0000      0.1360      0.0000      0.0955      0.0000      0.0000      0.0000
 15      0.0000      0.0247      0.0000      0.1631      0.0000      0.0000      0.0561      0.0000      0.0000
 16      0.0000      0.0053      0.0000      0.0000      0.0000      0.0000      0.0000      0.0000      0.0475
 17      0.0000      0.0056      0.0416      0.0000      0.0000      0.0000      0.0114      0.0000      0.0000
 18      0.0000      0.0175      0.1280      0.0074      0.0938      0.0082      0.0000      0.0000      0.0000
 19      0.0000      0.0047      0.0000      0.0000      0.0000      0.0000      0.0000      0.0000      0.0000
 20      0.0000      0.0169      0.0000      0.0000      0.0284      0.0000      0.0000      0.0000      0.0000
 21      0.0000      0.0321      0.0000      0.0000      0.0000      0.1739      0.0000      0.0000      0.0000
 22      0.0000      0.0687      0.0070      0.0000      0.0000      0.0281      0.0000      0.0509      0.0972
 23      0.0000      0.0399      0.0000      0.0224      0.0000      0.0000      0.0986      0.0622      0.0000
 24      0.0000      0.0797      0.1350      0.0000      0.1235      0.0000      0.3024      0.0914      0.0567
 25      0.0000      0.1647      0.3019      0.2098      0.1160      0.5989      0.0885      0.1788      0.2337
 26      0.0000      0.0555      0.0000      0.0000      0.0639      0.0821      0.0585      0.0336      0.0000
 27      0.0000      0.0172      0.0000      0.0000      0.0058      0.0000      0.0000      0.0000      0.0000
 28      0.0000      0.0114      0.0000      0.0000      0.0000      0.0031      0.0000      0.0000      0.0000
 29      0.0000      0.0050      0.0000      0.0019      0.0000      0.0000      0.0070      0.0000      0.0000
 30      0.0000      0.0038      0.0000      0.0000      0.0000      0.0000      0.0000      0.0000      0.0000
 31      0.0000      0.0055      0.0000      0.0000      0.0000      0.0000      0.0000      0.0000      0.0000
 32      0.0000      0.0173      0.0033      0.0000      0.0000      0.0000      0.0000      0.0208      0.0000
 33      0.0000      0.0229      0.0000      0.0000      0.0000      0.0000      0.0327      0.0000      0.0369
 34      0.0000      0.0124      0.0000      0.0000      0.0431      0.0000      0.0000      0.0000      0.0000
 35      0.0000      0.0205      0.0000      0.0000      0.0000      0.0000      0.0000      0.0000      0.0000
 36      0.0000      0.0338      0.0000      0.0552      0.0614      0.0000      0.1701      0.0000      0.0000
 37      0.0000      0.0741      0.0000      0.2789      0.0000      0.1935      0.1132      0.0814      0.0000
 38      0.0000      0.0711      0.0000      0.1184      0.0000      0.1623      0.0000      0.1885      0.0746
 39      0.0000      0.4800      0.2741      0.6152      0.3178      0.3983      0.5919      0.1917      0.2520
 40      0.0000      0.1242      0.1900      0.0000      0.1429      0.0000      0.0439      0.2072      0.0000
 41      0.0000      0.0218      0.0000      0.0000      0.0000      0.0000      0.0000      0.0000      0.0137
 42      0.0000      0.0045      0.0103      0.0000      0.0000      0.0292      0.0000      0.0000      0.0000
 43      0.0000      0.0058      0.0000      0.0000      0.0000      0.0000      0.0000      0.0000      0.0000
 44      0.0000      0.0010      0.0000      0.0000      0.0000      0.0000      0.0000      0.0000      0.0000
 45      0.0000      0.0007      0.0000      0.0000      0.0000      0.0000      0.0000      0.0000      0.0000

# j      m_j: min, <> & last-chain-values for 1 ...  7 chains
  1  0.0000E+00  2.0321E-04  0.0000E+00  0.0000E+00  4.7474E-04  3.6191E-04  0.0000E+00  0.0000E+00  0.0000E+00
  2  1.1117E-01  1.0945E-01  1.0908E-01  1.0952E-01  1.0786E-01  1.1026E-01  1.1041E-01  1.0938E-01  1.1064E-01
  3  0.0000E+00  2.7658E-04  0.0000E+00  0.0000E+00  0.0000E+00  0.0000E+00  0.0000E+00  1.1168E-03  0.0000E+00
  4  7.3371E-02  7.9866E-02  8.1108E-02  7.8901E-02  8.0065E-02  7.6644E-02  8.0499E-02  8.1116E-02  8.0708E-02
  5  0.0000E+00  9.6187E-04  0.0000E+00  0.0000E+00  0.0000E+00  0.0000E+00  6.4962E-04  0.0000E+00  0.0000E+00
  6  0.0000E+00  9.5484E-03  1.7089E-02  1.6978E-02  0.0000E+00  2.5155E-02  0.0000E+00  1.7103E-02  0.0000E+00
  7  1.1793E+00  1.0481E+00  1.0663E+00  1.0281E+00  1.1165E+00  1.0464E+00  1.0697E+00  1.0727E+00  1.0730E+00
  8  0.0000E+00  5.8782E-02  7.3584E-02  6.5913E-02  7.1912E-02  5.1276E-02  7.2366E-02  6.1173E-02  8.3334E-02
  9  0.0000E+00  1.7135E-02  0.0000E+00  0.0000E+00  2.5616E-02  0.0000E+00  0.0000E+00  1.6550E-02  0.0000E+00
 10  4.2875E+00  4.4085E+00  4.4267E+00  4.3894E+00  4.5280E+00  4.3668E+00  3.9020E+00  4.2291E+00  4.3799E+00
 11  1.4868E+01  1.5551E+01  1.5627E+01  1.5121E+01  1.4008E+01  1.5262E+01  1.5791E+01  1.5927E+01  1.5694E+01
 12  7.9481E+01  7.6761E+01  7.7083E+01  7.6318E+01  7.9015E+01  7.7249E+01  7.7274E+01  7.7768E+01  7.8119E+01
 13  0.0000E+00  3.2846E-01  7.2907E-01  3.7210E-03  3.7044E-01  5.1304E-02  3.3548E-01  0.0000E+00  0.0000E+00
 14  0.0000E+00  2.1417E-01  0.0000E+00  9.0820E-01  0.0000E+00  6.4446E-01  0.0000E+00  0.0000E+00  0.0000E+00
 15  0.0000E+00  1.9273E-01  0.0000E+00  1.2624E+00  0.0000E+00  0.0000E+00  4.3768E-01  0.0000E+00  0.0000E+00
 16  0.0000E+00  7.9335E-05  0.0000E+00  0.0000E+00  0.0000E+00  0.0000E+00  0.0000E+00  0.0000E+00  7.1575E-04
 17  0.0000E+00  4.3540E-05  3.2532E-04  0.0000E+00  0.0000E+00  0.0000E+00  8.9094E-05  0.0000E+00  0.0000E+00
 18  0.0000E+00  1.5120E-04  1.1101E-03  6.3068E-05  8.0920E-04  7.0825E-05  0.0000E+00  0.0000E+00  0.0000E+00
 19  0.0000E+00  1.2062E-04  0.0000E+00  0.0000E+00  0.0000E+00  0.0000E+00  0.0000E+00  0.0000E+00  0.0000E+00
 20  0.0000E+00  9.6880E-04  0.0000E+00  0.0000E+00  1.6278E-03  0.0000E+00  0.0000E+00  0.0000E+00  0.0000E+00
 21  0.0000E+00  2.2154E-03  0.0000E+00  0.0000E+00  0.0000E+00  1.2014E-02  0.0000E+00  0.0000E+00  0.0000E+00
 22  0.0000E+00  7.8870E-03  8.0364E-04  0.0000E+00  0.0000E+00  3.2277E-03  0.0000E+00  5.8812E-03  1.1215E-02
 23  0.0000E+00  8.9861E-03  0.0000E+00  4.9997E-03  0.0000E+00  0.0000E+00  2.2207E-02  1.4127E-02  0.0000E+00
 24  0.0000E+00  4.1125E-02  6.9914E-02  0.0000E+00  6.3642E-02  0.0000E+00  1.5589E-01  4.7475E-02  2.9379E-02
 25  0.0000E+00  1.3078E-01  2.4055E-01  1.6512E-01  9.1969E-02  4.7625E-01  7.0205E-02  1.4297E-01  1.8653E-01
 26  0.0000E+00  8.3251E-02  0.0000E+00  0.0000E+00  9.5620E-02  1.2316E-01  8.7619E-02  5.0631E-02  0.0000E+00
 27  0.0000E+00  5.2294E-02  0.0000E+00  0.0000E+00  1.7686E-02  0.0000E+00  0.0000E+00  0.0000E+00  0.0000E+00
 28  0.0000E+00  7.0247E-02  0.0000E+00  0.0000E+00  0.0000E+00  1.9383E-02  0.0000E+00  0.0000E+00  0.0000E+00
 29  0.0000E+00  6.5398E-02  0.0000E+00  2.4416E-02  0.0000E+00  0.0000E+00  9.1161E-02  0.0000E+00  0.0000E+00
 30  0.0000E+00  5.9079E-02  0.0000E+00  0.0000E+00  0.0000E+00  0.0000E+00  0.0000E+00  0.0000E+00  0.0000E+00
 31  0.0000E+00  6.2264E-05  0.0000E+00  0.0000E+00  0.0000E+00  0.0000E+00  0.0000E+00  0.0000E+00  0.0000E+00
 32  0.0000E+00  1.0255E-04  1.9434E-05  0.0000E+00  0.0000E+00  0.0000E+00  0.0000E+00  1.2451E-04  0.0000E+00
 33  0.0000E+00  2.0202E-04  0.0000E+00  0.0000E+00  0.0000E+00  0.0000E+00  2.8778E-04  0.0000E+00  3.2642E-04
 34  0.0000E+00  3.5256E-04  0.0000E+00  0.0000E+00  1.2241E-03  0.0000E+00  0.0000E+00  0.0000E+00  0.0000E+00
 35  0.0000E+00  1.1518E-03  0.0000E+00  0.0000E+00  0.0000E+00  0.0000E+00  0.0000E+00  0.0000E+00  0.0000E+00
 36  0.0000E+00  2.4001E-03  0.0000E+00  3.8882E-03  4.3558E-03  0.0000E+00  1.2085E-02  0.0000E+00  0.0000E+00
 37  0.0000E+00  9.1452E-03  0.0000E+00  3.4085E-02  0.0000E+00  2.3899E-02  1.3954E-02  1.0104E-02  0.0000E+00
 38  0.0000E+00  1.9918E-02  0.0000E+00  3.2882E-02  0.0000E+00  4.5543E-02  0.0000E+00  5.3175E-02  2.1004E-02
 39  0.0000E+00  3.4024E-01  1.9492E-01  4.3204E-01  2.2496E-01  2.8271E-01  4.1919E-01  1.3682E-01  1.7954E-01
 40  0.0000E+00  1.5206E-01  2.3347E-01  0.0000E+00  1.7470E-01  0.0000E+00  5.3659E-02  2.5539E-01  0.0000E+00
 41  0.0000E+00  4.8531E-02  0.0000E+00  0.0000E+00  0.0000E+00  0.0000E+00  0.0000E+00  0.0000E+00  3.0801E-02
 42  0.0000E+00  1.9787E-02  4.6006E-02  0.0000E+00  0.0000E+00  1.2981E-01  0.0000E+00  0.0000E+00  0.0000E+00
 43  0.0000E+00  5.9720E-02  0.0000E+00  0.0000E+00  0.0000E+00  0.0000E+00  0.0000E+00  0.0000E+00  0.0000E+00
 44  0.0000E+00  2.3771E-02  0.0000E+00  0.0000E+00  0.0000E+00  0.0000E+00  0.0000E+00  0.0000E+00  0.0000E+00
 45  0.0000E+00  2.0015E-02  0.0000E+00  0.0000E+00  0.0000E+00  0.0000E+00  0.0000E+00  0.0000E+00  0.0000E+00

# AV, chi2 & Mass for <> & i_chain = 1 ...  7 solutions
AV       0.2012      0.2018      0.2015      0.2023      0.2012      0.2024      0.2010      0.2018      0.2021
chi2 2.8864E+00  2.9117E+00  2.9037E+00  2.9044E+00  2.8932E+00  2.9026E+00  2.8920E+00  2.8986E+00  2.9009E+00
Mass 6.4224E-11  6.4187E-11  6.3944E-11  6.4821E-11  6.4229E-11  6.4155E-11  6.4175E-11  6.3759E-11  6.3894E-11
 -12.15                                  [v0_min (km/s) before EX0s...]
 107.72                                  [vd_min (km/s) before EX0s...]


## Synthetic spectrum (Best Model) ##l_obs f_obs f_syn wei
 3070    [Nl_obs]
 3359.00    0.27773   0.55138   -1.000
 3360.00    0.28337   0.53568   -1.000
 3361.00    0.28021   0.53515   -1.000
 3362.00    0.31403   0.55003   -1.000
 3363.00    0.33978   0.57147   -1.000
 3364.00    0.35171   0.58725   -1.000
 3365.00    0.36779   0.58937   -1.000
 3366.00    0.37499   0.57811   -1.000
 3367.00    0.36725   0.56081   -1.000
 3368.00    0.35529   0.54600   -1.000
 3369.00    0.34775   0.53749   -1.000
 3370.00    0.34895   0.53358   -1.000
 3371.00    0.33237   0.53173   -1.000
 3372.00    0.34175   0.53383   -1.000
 3373.00    0.34482   0.54451   -1.000
 3374.00    0.38619   0.56427   -1.000
 3375.00    0.40150   0.58561   -1.000
 3376.00    0.40941   0.59713   -1.000
 3377.00    0.42365   0.59290   -1.000
 3378.00    0.42570   0.57756   -1.000
 3379.00    0.42168   0.56243   -1.000
 3380.00    0.39395   0.55710   -1.000
 3381.00    0.41427   0.56343   -1.000
 3382.00    0.42031   0.57625   -1.000
 3383.00    0.42911   0.58927   -1.000
 3384.00    0.43819   0.59990   -1.000
 3385.00    0.44196   0.60813   -1.000
 3386.00    0.45619   0.61318   -1.000
 3387.00    0.44596   0.61424   -1.000
 3388.00    0.44449   0.61228   -1.000
 3389.00    0.47337   0.60868   -1.000
 3390.00    0.46808   0.60327   -1.000
 3391.00    0.45977   0.59569   -1.000
 3392.00    0.45294   0.58851   -1.000
 3393.00    0.44095   0.58695   -1.000
 3394.00    0.45846   0.59430   -1.000
 3395.00    0.47560   0.60870   -1.000
 3396.00    0.49850   0.62478   -1.000
 3397.00    0.48642   0.63724   -1.000
 3398.00    0.49283   0.64264   -1.000
 3399.00    0.50204   0.63990   -1.000
 3400.00    0.51175   0.63034   -1.000
 3401.00    0.49701   0.61714   -1.000
 3402.00    0.48288   0.60425   -1.000
 3403.00    0.48709   0.59508   -1.000
 3404.00    0.48476   0.59002   -1.000
 3405.00    0.48041   0.58620   -1.000
 3406.00    0.47802   0.58104   -1.000
 3407.00    0.47412   0.57584   -1.000
 3408.00    0.46455   0.57450   -1.000
 3409.00    0.46434   0.57876   -1.000
 3410.00    0.49415   0.58548   -1.000
 3411.00    0.50340   0.58952   -1.000
 3412.00    0.49171   0.58870   -1.000
 3413.00    0.49435   0.58542   -1.000
 3414.00    0.48815   0.58400   -1.000
 3415.00    0.48159   0.58740   -1.000
 3416.00    0.49694   0.59620   -1.000
 3417.00    0.49849   0.60887   -1.000
 3418.00    0.51209   0.62225   -1.000
 3419.00    0.52348   0.63220   -1.000
 3420.00    0.53793   0.63559   -1.000
 3421.00    0.53269   0.63251   -1.000
 3422.00    0.51748   0.62608   -1.000
 3423.00    0.52583   0.61980   -1.000
 3424.00    0.52479   0.61580   -1.000
 3425.00    0.52111   0.61541   -1.000
 3426.00    0.54230   0.62002   -1.000
 3427.00    0.54533   0.63012   -1.000
 3428.00    0.55040   0.64254   -1.000
 3429.00    0.56076   0.65065   -1.000
 3430.00    0.55232   0.64953   -1.000
 3431.00    0.55679   0.64039   -1.000
 3432.00    0.55301   0.62951   -1.000
 3433.00    0.54139   0.62304   -1.000
 3434.00    0.54351   0.62264   -1.000
 3435.00    0.55219   0.62498   -1.000
 3436.00    0.55807   0.62466   -1.000
 3437.00    0.54190   0.61761   -1.000
 3438.00    0.54132   0.60267   -1.000
 3439.00    0.50740   0.58176   -1.000
 3440.00    0.50337   0.56009   -1.000
 3441.00    0.49717   0.54461   -1.000
 3442.00    0.49832   0.53966   -1.000
 3443.00    0.49095   0.54422   -1.000
 3444.00    0.50564   0.55444   -1.000
 3445.00    0.51723   0.56824   -1.000
 3446.00    0.54476   0.58570   -1.000
 3447.00    0.55591   0.60554   -1.000
 3448.00    0.56638   0.62275   -1.000
 3449.00    0.56306   0.63083   -1.000
 3450.00    0.58017   0.62658   -1.000
 3451.00    0.57005   0.61316   -1.000
 3452.00    0.54778   0.59843   -1.000
 3453.00    0.55863   0.59000   -1.000
 3454.00    0.57089   0.58996   -1.000
 3455.00    0.57014   0.59392   -1.000
 3456.00    0.57972   0.59521   -1.000
 3457.00    0.58221   0.59040  151.677
 3458.00    0.57949   0.58106  150.068
 3459.00    0.56550   0.57130  149.109
 3460.00    0.55823   0.56560   -1.000
 3461.00    0.56465   0.56752   -1.000
 3462.00    0.56274   0.57681   -1.000
 3463.00    0.58489   0.58821   -1.000
 3464.00    0.59603   0.59621 1167.538
 3465.00    0.60356   0.60008   -1.000
 3466.00    0.58789   0.60289   -1.000
 3467.00    0.59577   0.60714   -1.000
 3468.00    0.59834   0.61254   -1.000
 3469.00    0.61032   0.61690   -1.000
 3470.00    0.62081   0.61780   -1.000
 3471.00    0.59878   0.61348   -1.000
 3472.00    0.58674   0.60333   -1.000
 3473.00    0.58431   0.58840  151.681
 3474.00    0.56788   0.57235  154.907
 3475.00    0.55912   0.56126  151.550
 3476.00    0.54919   0.56000   -1.000
 3477.00    0.56098   0.56826   -1.000
 3478.00    0.58207   0.58107 1167.538
 3479.00    0.59791   0.59257   -1.000
 3480.00    0.60931   0.59896   -1.000
 3481.00    0.61176   0.59935   -1.000
 3482.00    0.59789   0.59577 1167.538
 3483.00    0.59532   0.59280 1167.538
 3484.00    0.60585   0.59525   -1.000
 3485.00    0.62358   0.60393   -1.000
 3486.00    0.62056   0.61342   -1.000
 3487.00    0.62295   0.61593   -1.000
 3488.00    0.62568   0.60841   -1.000
 3489.00    0.60121   0.59546   -1.000
 3490.00    0.58784   0.58521 1167.538
 3491.00    0.57659   0.58196   -1.000
 3492.00    0.58882   0.58297   -1.000
 3493.00    0.59811   0.58243   -1.000
 3494.00    0.58681   0.57763   -1.000
 3495.00    0.58418   0.57177   -1.000
 3496.00    0.58270   0.57128   -1.000
 3497.00    0.57681   0.57978   -1.000
 3498.00    0.59882   0.59351   -1.000
 3499.00    0.61730   0.60483   -1.000
 3500.00    0.61044   0.61025 1155.323
 3501.00    0.61929   0.61223   -1.000
 3502.00    0.62418   0.61369   -1.000
 3503.00    0.63430   0.61374   -1.000
 3504.00    0.62180   0.61015   -1.000
 3505.00    0.61059   0.60415   -1.000
 3506.00    0.60727   0.59951   -1.000
 3507.00    0.62522   0.59780   -1.000
 3508.00    0.62670   0.59697   -1.000
 3509.00    0.61959   0.59422   -1.000
 3510.00    0.61642   0.58880   -1.000
 3511.00    0.59772   0.58194   -1.000
 3512.00    0.59578   0.57555   -1.000
 3513.00    0.59672   0.57255   -1.000
 3514.00    0.59492   0.57648   -1.000
 3515.00    0.60174   0.58816   -1.000
 3516.00    0.62422   0.60362   -1.000
 3517.00    0.63306   0.61600   -1.000
 3518.00    0.62077   0.61969 1167.538
 3519.00    0.61778   0.61361   -1.000
 3520.00    0.61565   0.60127   -1.000
 3521.00    0.60118   0.58738   -1.000
 3522.00    0.58139   0.57431  148.090
 3523.00    0.57903   0.56252  153.399
 3524.00    0.56509   0.55375  154.047
 3525.00    0.54889   0.55186   -1.000
 3526.00    0.55260   0.55981   -1.000
 3527.00    0.57256   0.57583   -1.000
 3528.00    0.59937   0.59344   -1.000
 3529.00    0.60396   0.60595 1167.538
 3530.00    0.61083   0.61101 1167.538
 3531.00    0.60245   0.61141   -1.000
 3532.00    0.59714   0.61171   -1.000
 3533.00    0.61282   0.61430 1167.538
 3534.00    0.61179   0.61846   -1.000
 3535.00    0.62450   0.62253 1167.538
 3536.00    0.62604   0.62622 1167.538
 3537.00    0.62647   0.63043   -1.000
 3538.00    0.62438   0.63509   -1.000
 3539.00    0.62128   0.63831   -1.000
 3540.00    0.62884   0.63875   -1.000
 3541.00    0.60200   0.63798   -1.000
 3542.00    0.60463   0.63881   -1.000
 3543.00    0.62878   0.64180   -1.000
 3544.00    0.63958   0.64478   -1.000
 3545.00    0.64554   0.64552 1167.538
 3546.00    0.64015   0.64429   -1.000
 3547.00    0.62437   0.64319   -1.000
 3548.00    0.63795   0.64358   -1.000
 3549.00    0.63085   0.64474   -1.000
 3550.00    0.62510   0.64473   -1.000
 3551.00    0.61387   0.64215   -1.000
 3552.00    0.61704   0.63735   -1.000
 3553.00    0.60111   0.63230   -1.000
 3554.00    0.59350   0.62900   -1.000
 3555.00    0.61264   0.62776   -1.000
 3556.00    0.61394   0.62719   -1.000
 3557.00    0.60426   0.62581   -1.000
 3558.00    0.60031   0.62397   -1.000
 3559.00    0.59851   0.62411   -1.000
 3560.00    0.61506   0.62827   -1.000
 3561.00    0.62512   0.63438   -1.000
 3562.00    0.61105   0.63574   -1.000
 3563.00    0.60512   0.62600   -1.000
 3564.00    0.58873   0.60635  155.637
 3565.00    0.55664   0.58586   -1.000
 3566.00    0.54274   0.57263   -1.000
 3567.00    0.55826   0.56644  158.395
 3568.00    0.57052   0.56155  160.974
 3569.00    0.55531   0.55472  155.743
 3570.00    0.54096   0.54890  154.343
 3571.00    0.54147   0.54844   -1.000
 3572.00    0.54361   0.55321   -1.000
 3573.00    0.56403   0.55914   -1.000
 3574.00    0.55960   0.56313   -1.000
 3575.00    0.56687   0.56518 1167.538
 3576.00    0.57880   0.56603   -1.000
 3577.00    0.58007   0.56438  155.053
 3578.00    0.57655   0.55775   -1.000
 3579.00    0.57991   0.54606   -1.000
 3580.00    0.55607   0.53332   -1.000
 3581.00    0.53823   0.52443  178.043
 3582.00    0.53536   0.52061  182.666
 3583.00    0.53679   0.51860   -1.000
 3584.00    0.54025   0.51459   -1.000
 3585.00    0.51761   0.50904  180.769
 3586.00    0.50995   0.50639  171.161
 3587.00    0.51605   0.51070  162.517
 3588.00    0.52410   0.52283  155.345
 3589.00    0.55130   0.54053   -1.000
 3590.00    0.56959   0.55945   -1.000
 3591.00    0.58692   0.57498   -1.000
 3592.00    0.58570   0.58490 1167.538
 3593.00    0.60284   0.59086   -1.000
 3594.00    0.59484   0.59682 1167.538
 3595.00    0.59207   0.60544   -1.000
 3596.00    0.60290   0.61610   -1.000
 3597.00    0.61413   0.62619   -1.000
 3598.00    0.61545   0.63295   -1.000
 3599.00    0.61437   0.63394   -1.000
 3600.00    0.62330   0.62760   -1.000
 3601.00    0.61041   0.61459   -1.000
 3602.00    0.58792   0.59877   -1.000
 3603.00    0.59145   0.58567   -1.000
 3604.00    0.58967   0.57901   -1.000
 3605.00    0.58169   0.57795   -1.000
 3606.00    0.58783   0.57791   -1.000
 3607.00    0.58761   0.57506   -1.000
 3608.00    0.57535   0.57009   -1.000
 3609.00    0.57435   0.56733   -1.000
 3610.00    0.57448   0.56957   -1.000
 3611.00    0.59659   0.57544   -1.000
 3612.00    0.59494   0.58230   -1.000
 3613.00    0.59069   0.58935 1167.538
 3614.00    0.59179   0.59620   -1.000
 3615.00    0.60572   0.59962   -1.000
 3616.00    0.60390   0.59499   -1.000
 3617.00    0.58551   0.58297  156.436
 3618.00    0.56841   0.57181   -1.000
 3619.00    0.56396   0.57026   -1.000
 3620.00    0.57495   0.57968   -1.000
 3621.00    0.59088   0.59443   -1.000
 3622.00    0.59644   0.60827   -1.000
 3623.00    0.61647   0.61970   -1.000
 3624.00    0.61740   0.63144   -1.000
 3625.00    0.62856   0.64553   -1.000
 3626.00    0.64114   0.65906   -1.000
 3627.00    0.64785   0.66493   -1.000
 3628.00    0.64955   0.65684   -1.000
 3629.00    0.61962   0.63516   -1.000
 3630.00    0.59069   0.60853   -1.000
 3631.00    0.56854   0.58870   -1.000
 3632.00    0.57594   0.58247   -1.000
 3633.00    0.58342   0.58783   -1.000
 3634.00    0.59000   0.59748   -1.000
 3635.00    0.60016   0.60585   -1.000
 3636.00    0.62206   0.61293   -1.000
 3637.00    0.63533   0.62163   -1.000
 3638.00    0.64113   0.63239   -1.000
 3639.00    0.64541   0.64133   -1.000
 3640.00    0.64302   0.64330 1138.638
 3641.00    0.61102   0.63633   -1.000
 3642.00    0.60529   0.62326   -1.000
 3643.00    0.60726   0.60949 1167.538
 3644.00    0.59761   0.59918 1167.538
 3645.00    0.59776   0.59298   -1.000
 3646.00    0.59728   0.58942   -1.000
 3647.00    0.58596   0.58791 1167.538
 3648.00    0.58527   0.58951   -1.000
 3649.00    0.59575   0.59551 1144.613
 3650.00    0.60033   0.60595   -1.000
 3651.00    0.61229   0.61911   -1.000
 3652.00    0.62977   0.63222   -1.000
 3653.00    0.63264   0.64303   -1.000
 3654.00    0.64403   0.65111   -1.000
 3655.00    0.64922   0.65772   -1.000
 3656.00    0.65139   0.66405   -1.000
 3657.00    0.66299   0.66952   -1.000
 3658.00    0.66089   0.67238   -1.000
 3659.00    0.65182   0.67146   -1.000
 3660.00    0.64728   0.66694   -1.000
 3661.00    0.63815   0.66016   -1.000
 3662.00    0.63753   0.65313   -1.000
 3663.00    0.64231   0.64790   -1.000
 3664.00    0.65162   0.64542   -1.000
 3665.00    0.64473   0.64460 1076.067
 3666.00    0.65022   0.64299   -1.000
 3667.00    0.65115   0.63933   -1.000
 3668.00    0.63060   0.63551   -1.000
 3669.00    0.61260   0.63535   -1.000
 3670.00    0.61999   0.64056   -1.000
 3671.00    0.63345   0.64868   -1.000
 3672.00    0.63883   0.65517   -1.000
 3673.00    0.64180   0.65674   -1.000
 3674.00    0.63925   0.65276   -1.000
 3675.00    0.63981   0.64427   -1.000
 3676.00    0.63129   0.63314 1144.627
 3677.00    0.61813   0.62190   -1.000
 3678.00    0.61061   0.61330   -1.000
 3679.00    0.61241   0.60930   -1.000
 3680.00    0.61603   0.61010   -1.000
 3681.00    0.62176   0.61403   -1.000
 3682.00    0.62360   0.61791   -1.000
 3683.00    0.62157   0.61806   -1.000
 3684.00    0.62950   0.61230   -1.000
 3685.00    0.61900   0.60256   -1.000
 3686.00    0.59212   0.59505   -1.000
 3687.00    0.58846   0.59615   -1.000
 3688.00    0.60137   0.60740   -1.000
 3689.00    0.63640   0.62425   -1.000
 3690.00    0.64931   0.63964   -1.000
 3691.00    0.63722   0.64912   -1.000
 3692.00    0.65836   0.65284   -1.000
 3693.00    0.66325   0.65308   -1.000
 3694.00    0.64819   0.65118   -1.000
 3695.00    0.65870   0.64831   -1.000
 3696.00    0.66031   0.64793   -1.000
 3697.00    0.65889   0.65463   -1.000
 3698.00    0.67654   0.66896   -1.000
 3699.00    0.69016   0.68403   -1.000
 3700.00    0.69227   0.68865   -1.000
 3701.00    0.68294   0.67522   -1.000
 3702.00    0.66377   0.64548   -1.000
 3703.00    0.61220   0.61028 1167.538
 3704.00    0.58074   0.58313 1167.538
 3705.00    0.56635   0.57227   -1.000
 3706.00    0.59112   0.57639   -1.000
 3707.00    0.61832   0.58749   -1.000
 3708.00    0.62417   0.59712   -1.000
 3709.00    0.62588   0.60163   -1.000
 3710.00    0.61725   0.60403   -1.000
 3711.00    0.61766   0.61149   -1.000
 3712.00    0.62489   0.62904   -1.000
 3713.00    0.65563   0.65496  960.636
 3714.00    0.69094   0.68174   -1.000
 3715.00    0.71444   0.70052   -1.000
 3716.00    0.71883   0.70441   -1.000
 3717.00    0.71320   0.68926   -1.000
 3718.00    0.68290   0.65500   -1.000
 3719.00    0.62138   0.60894  168.908
 3720.00    0.57023   0.56635   -1.000
 3721.00    0.54225   0.54384 1167.538
 3722.00    0.54917   0.55016 1107.213
 3723.00    0.59166   0.58127   -1.000
 3724.00    0.65698   0.62273   -1.000
 3725.00    0.69050   0.65866   -1.000
 3726.00    0.69718   0.68167   -1.000
 3727.00    0.70001   0.69414   -1.000
 3728.00    0.69685   0.69956   -1.000
 3729.00    0.69905   0.69528   -1.000
 3730.00    0.69469   0.67454   -1.000
 3731.00    0.66126   0.63461   -1.000
 3732.00    0.61022   0.58235   -1.000
 3733.00    0.54140   0.53258  170.356
 3734.00    0.50056   0.50111  160.604
 3735.00    0.50874   0.49793  167.081
 3736.00    0.54073   0.52384   -1.000
 3737.00    0.58603   0.57128   -1.000
 3738.00    0.64578   0.62739   -1.000
 3739.00    0.68837   0.67791   -1.000
 3740.00    0.71119   0.71179 1152.862
 3741.00    0.72316   0.72449 1167.538
 3742.00    0.70904   0.71806   -1.000
 3743.00    0.69499   0.69805   -1.000
 3744.00    0.68081   0.66990   -1.000
 3745.00    0.65686   0.63640   -1.000
 3746.00    0.62201   0.59810   -1.000
 3747.00    0.58638   0.55707   -1.000
 3748.00    0.53545   0.52132   -1.000
 3749.00    0.51441   0.50386   -1.000
 3750.00    0.53093   0.51470   -1.000
 3751.00    0.57345   0.55319   -1.000
 3752.00    0.63423   0.60830   -1.000
 3753.00    0.68807   0.66480   -1.000
 3754.00    0.72705   0.70911   -1.000
 3755.00    0.75620   0.73227   -1.000
 3756.00    0.75906   0.73277   -1.000
 3757.00    0.71800   0.71826 1167.538
 3758.00    0.68194   0.70194   -1.000
 3759.00    0.67993   0.69429   -1.000
 3760.00    0.70759   0.69734   -1.000
 3761.00    0.73984   0.70622   -1.000
 3762.00    0.74122   0.71442   -1.000
 3763.00    0.74546   0.71677   -1.000
 3764.00    0.74634   0.70992   -1.000
 3765.00    0.72896   0.69266   -1.000
 3766.00    0.70380   0.66630   -1.000
 3767.00    0.66582   0.63404   -1.000
 3768.00    0.63721   0.60093   -1.000
 3769.00    0.60544   0.57463   -1.000
 3770.00    0.58162   0.56441   -1.000
 3771.00    0.59952   0.57596   -1.000
 3772.00    0.64222   0.60617   -1.000
 3773.00    0.68809   0.64468   -1.000
 3774.00    0.71573   0.68186   -1.000
 3775.00    0.72478   0.71445   -1.000
 3776.00    0.74853   0.74406   -1.000
 3777.00    0.77414   0.77270  964.094
 3778.00    0.79042   0.80019   -1.000
 3779.00    0.80515   0.82447   -1.000
 3780.00    0.83739   0.84329   -1.000
 3781.00    0.85999   0.85552   -1.000
 3782.00    0.85567   0.86078   -1.000
 3783.00    0.83653   0.85828   -1.000
 3784.00    0.82630   0.84688   -1.000
 3785.00    0.81744   0.82726   -1.000
 3786.00    0.79859   0.80370   -1.000
 3787.00    0.78147   0.78235 1154.383
 3788.00    0.78002   0.76723   -1.000
 3789.00    0.77187   0.75781   -1.000
 3790.00    0.77366   0.74963   -1.000
 3791.00    0.76715   0.73669   -1.000
 3792.00    0.74734   0.71426   -1.000
 3793.00    0.71491   0.68096   -1.000
 3794.00    0.67208   0.63895   -1.000
 3795.00    0.63361   0.59307   -1.000
 3796.00    0.59045   0.55087   -1.000
 3797.00    0.55148   0.52317   -1.000
 3798.00    0.54826   0.52110   -1.000
 3799.00    0.58150   0.54907   -1.000
 3800.00    0.64170   0.60014   -1.000
 3801.00    0.69543   0.65960   -1.000
 3802.00    0.74849   0.71325   -1.000
 3803.00    0.77123   0.75270   -1.000
 3804.00    0.78875   0.77624   -1.000
 3805.00    0.79924   0.78791   -1.000
 3806.00    0.79904   0.79580   -1.000
 3807.00    0.80478   0.80803   -1.000
 3808.00    0.81644   0.82707   -1.000
 3809.00    0.84373   0.84747   -1.000
 3810.00    0.84686   0.85948   -1.000
 3811.00    0.83338   0.85563   -1.000
 3812.00    0.82599   0.83606   -1.000
 3813.00    0.81259   0.80957   -1.000
 3814.00    0.79001   0.78846 1167.538
 3815.00    0.78296   0.78033 1167.538
 3816.00    0.79335   0.78296   -1.000
 3817.00    0.82061   0.78669   -1.000
 3818.00    0.82366   0.78300   -1.000
 3819.00    0.79706   0.77182   -1.000
 3820.00    0.76556   0.76007   -1.000
 3821.00    0.76953   0.75287   -1.000
 3822.00    0.79115   0.74736   -1.000
 3823.00    0.77869   0.73642   -1.000
 3824.00    0.74826   0.71774   -1.000
 3825.00    0.72110   0.69634   -1.000
 3826.00    0.70555   0.67853   -1.000
 3827.00    0.70084   0.66571   -1.000
 3828.00    0.70119   0.65387   -1.000
 3829.00    0.69710   0.63728   -1.000
 3830.00    0.67607   0.61176   -1.000
 3831.00    0.64046   0.57645   -1.000
 3832.00    0.59466   0.53488   -1.000
 3833.00    0.55314   0.49490   -1.000
 3834.00    0.52707   0.46616   -1.000
 3835.00    0.51524   0.45562   -1.000
 3836.00    0.53180   0.46428   -1.000
 3837.00    0.56564   0.48810   -1.000
 3838.00    0.59603   0.52205   -1.000
 3839.00    0.63383   0.56306   -1.000
 3840.00    0.66683   0.60941   -1.000
 3841.00    0.70400   0.65806   -1.000
 3842.00    0.74433   0.70402   -1.000
 3843.00    0.77116   0.74269   -1.000
 3844.00    0.79056   0.77239   -1.000
 3845.00    0.81077   0.79452   -1.000
 3846.00    0.82639   0.81094   -1.000
 3847.00    0.82990   0.82183   -1.000
 3848.00    0.82608   0.82738 1167.538
 3849.00    0.81738   0.83021   -1.000
 3850.00    0.81440   0.83448   -1.000
 3851.00    0.82647   0.84157   -1.000
 3852.00    0.84263   0.84831   -1.000
 3853.00    0.84803   0.85014 1167.538
 3854.00    0.84947   0.84522   -1.000
 3855.00    0.84854   0.83547   -1.000
 3856.00    0.83311   0.82386  148.282
 3857.00    0.81969   0.81291  155.081
 3858.00    0.80228   0.80559  185.572
 3859.00    0.78993   0.80565   -1.000
 3860.00    0.80221   0.81495   -1.000
 3861.00    0.83122   0.83061 1167.538
 3862.00    0.86076   0.84573   -1.000
 3863.00    0.87583   0.85470   -1.000
 3864.00    0.87774   0.85688   -1.000
 3865.00    0.86873   0.85581   -1.000
 3866.00    0.85816   0.85474   -1.000
 3867.00    0.85172   0.85365 1167.538
 3868.00    0.85315   0.84942  512.551
 3869.00    0.84243   0.83866  182.644
 3870.00    0.82170   0.82161 1167.538
 3871.00    0.79619   0.80399   -1.000
 3872.00    0.77632   0.79387   -1.000
 3873.00    0.78473   0.79539   -1.000
 3874.00    0.80918   0.80386   -1.000
 3875.00    0.83068   0.80889   -1.000
 3876.00    0.82732   0.80293   -1.000
 3877.00    0.79517   0.78790   -1.000
 3878.00    0.76479   0.77187   -1.000
 3879.00    0.75285   0.76024   -1.000
 3880.00    0.75546   0.75162   -1.000
 3881.00    0.74963   0.74099   -1.000
 3882.00    0.74108   0.72475   -1.000
 3883.00    0.73088   0.70115   -1.000
 3884.00    0.72667   0.66851   -1.000
 3885.00    0.70253   0.62659   -1.000
 3886.00    0.64909   0.58019   -1.000
 3887.00    0.59825   0.54018   -1.000
 3888.00    0.56601   0.51936   -1.000
 3889.00    0.56921   0.52534   -1.000
 3890.00    0.61101   0.55638   -1.000
 3891.00    0.66642   0.60137   -1.000
 3892.00    0.71787   0.64657   -1.000
 3893.00    0.73651   0.68346   -1.000
 3894.00    0.74063   0.71193   -1.000
 3895.00    0.76512   0.73574   -1.000
 3896.00    0.78793   0.75680   -1.000
 3897.00    0.79854   0.77423   -1.000
 3898.00    0.80408   0.78763   -1.000
 3899.00    0.81020   0.79909   -1.000
 3900.00    0.82458   0.81063   -1.000
 3901.00    0.84222   0.82101   -1.000
 3902.00    0.84900   0.82682   -1.000
 3903.00    0.83856   0.82685   -1.000
 3904.00    0.83496   0.82456   -1.000
 3905.00    0.82924   0.82657  987.712
 3906.00    0.82424   0.83806   -1.000
 3907.00    0.84922   0.85887   -1.000
 3908.00    0.87752   0.88344   -1.000
 3909.00    0.89508   0.90438   -1.000
 3910.00    0.91235   0.91685   -1.000
 3911.00    0.91644   0.92041   -1.000
 3912.00    0.90919   0.91706   -1.000
 3913.00    0.90302   0.90998   -1.000
 3914.00    0.88491   0.90250   -1.000
 3915.00    0.88035   0.89648   -1.000
 3916.00    0.89501   0.89141   -1.000
 3917.00    0.88807   0.88546 1054.880
 3918.00    0.86860   0.87754   -1.000
 3919.00    0.85700   0.86882   -1.000
 3920.00    0.84876   0.86223   -1.000
 3921.00    0.85159   0.85992   -1.000
 3922.00    0.85283   0.86092   -1.000
 3923.00    0.85053   0.86072   -1.000
 3924.00    0.84757   0.85377   -1.000
 3925.00    0.83544   0.83624  497.933
 3926.00    0.81441   0.80732  169.818
 3927.00    0.77337   0.76855  199.066
 3928.00    0.71194   0.72178  233.482
 3929.00    0.65623   0.66807   -1.000
 3930.00    0.58576   0.60854   -1.000
 3931.00    0.50293   0.54793   -1.000
 3932.00    0.43389   0.49732   -1.000
 3933.00    0.39007   0.47115   -1.000
 3934.00    0.40407   0.47948   -1.000
 3935.00    0.47468   0.52044   -1.000
 3936.00    0.56364   0.58144   -1.000
 3937.00    0.64317   0.64719   -1.000
 3938.00    0.70525   0.70676 1167.538
 3939.00    0.75133   0.75430   -1.000
 3940.00    0.78708   0.78784 1167.538
 3941.00    0.81038   0.80782 1167.538
 3942.00    0.81587   0.81774 1161.189
 3943.00    0.81044   0.82336   -1.000
 3944.00    0.81249   0.82974   -1.000
 3945.00    0.83679   0.83857 1006.835
 3946.00    0.86156   0.84800   -1.000
 3947.00    0.87342   0.85537   -1.000
 3948.00    0.87216   0.85993   -1.000
 3949.00    0.87897   0.86253   -1.000
 3950.00    0.88466   0.86388   -1.000
 3951.00    0.88013   0.86458   -1.000
 3952.00    0.86593   0.86549  913.107
 3953.00    0.87440   0.86609   -1.000
 3954.00    0.87961   0.86390   -1.000
 3955.00    0.87637   0.85722   -1.000
 3956.00    0.85747   0.84740   -1.000
 3957.00    0.84924   0.83690   -1.000
 3958.00    0.84916   0.82447   -1.000
 3959.00    0.84099   0.80495   -1.000
 3960.00    0.81253   0.77503   -1.000
 3961.00    0.77133   0.73682   -1.000
 3962.00    0.72486   0.69468   -1.000
 3963.00    0.68517   0.64970   -1.000
 3964.00    0.63650   0.59769   -1.000
 3965.00    0.56725   0.53508   -1.000
 3966.00    0.46778   0.46567  295.378
 3967.00    0.37395   0.40192   -1.000
 3968.00    0.31596   0.36052   -1.000
 3969.00    0.31651   0.35252   -1.000
 3970.00    0.36636   0.37884  206.772
 3971.00    0.45405   0.43086   -1.000
 3972.00    0.54720   0.49640   -1.000
 3973.00    0.62122   0.56469   -1.000
 3974.00    0.67687   0.62901   -1.000
 3975.00    0.73948   0.68621   -1.000
 3976.00    0.78550   0.73590   -1.000
 3977.00    0.81369   0.77872   -1.000
 3978.00    0.84008   0.81439   -1.000
 3979.00    0.86216   0.84151   -1.000
 3980.00    0.87940   0.85859   -1.000
 3981.00    0.87974   0.86774   -1.000
 3982.00    0.88173   0.87404   -1.000
 3983.00    0.88679   0.88223   -1.000
 3984.00    0.91429   0.89332   -1.000
 3985.00    0.92316   0.90539   -1.000
 3986.00    0.92904   0.91691   -1.000
 3987.00    0.94361   0.92791   -1.000
 3988.00    0.94935   0.93879   -1.000
 3989.00    0.95157   0.94956  755.172
 3990.00    0.95088   0.95982   -1.000
 3991.00    0.96609   0.96902  756.731
 3992.00    0.97698   0.97544  775.060
 3993.00    0.98725   0.97665   -1.000
 3994.00    0.97655   0.97165   -1.000
 3995.00    0.95394   0.96284   -1.000
 3996.00    0.94134   0.95517   -1.000
 3997.00    0.93710   0.95346   -1.000
 3998.00    0.94337   0.95958   -1.000
 3999.00    0.96439   0.97115   -1.000
 4000.00    0.98732   0.98268   -1.000
 4001.00    0.99511   0.98865   -1.000
 4002.00    0.99144   0.98544   -1.000
 4003.00    0.99611   0.97360   -1.000
 4004.00    0.97562   0.95877   -1.000
 4005.00    0.94922   0.94961  747.285
 4006.00    0.94480   0.95224   -1.000
 4007.00    0.96501   0.96630  715.265
 4008.00    0.98357   0.98434  709.150
 4009.00    0.99474   0.99881  709.123
 4010.00    0.99681   1.00688   -1.000
 4011.00    0.99443   1.01003   -1.000
 4012.00    0.98862   1.01148   -1.000
 4013.00    0.99622   1.01330   -1.000
 4014.00    1.00205   1.01583   -1.000
 4015.00    1.00938   1.01853   -1.000
 4016.00    1.01050   1.02142   -1.000
 4017.00    1.00408   1.02524   -1.000
 4018.00    1.00461   1.02991   -1.000
 4019.00    1.01541   1.03399   -1.000
 4020.00    1.02415   1.03524   -1.000
 4021.00    1.01035   1.03231   -1.000
 4022.00    1.00019   1.02588   -1.000
 4023.00    0.99499   1.01887   -1.000
 4024.00    0.98251   1.01522   -1.000
 4025.00    0.98792   1.01733   -1.000
 4026.00    1.00709   1.02322   -1.000
 4027.00    1.01443   1.02647   -1.000
 4028.00    1.01084   1.02102   -1.000
 4029.00    0.99442   1.00619   -1.000
 4030.00    0.96751   0.98799   -1.000
 4031.00    0.95210   0.97429   -1.000
 4032.00    0.94905   0.97018   -1.000
 4033.00    0.94815   0.97691   -1.000
 4034.00    0.96205   0.99236   -1.000
 4035.00    0.98948   1.01330   -1.000
 4036.00    1.01448   1.03497   -1.000
 4037.00    1.02819   1.05189   -1.000
 4038.00    1.03560   1.05978   -1.000
 4039.00    1.02397   1.05845   -1.000
 4040.00    1.01297   1.05102   -1.000
 4041.00    1.01228   1.03984   -1.000
 4042.00    1.01252   1.02325   -1.000
 4043.00    0.99841   1.00076  858.988
 4044.00    0.96104   0.97797   -1.000
 4045.00    0.92880   0.96531   -1.000
 4046.00    0.93165   0.97093   -1.000
 4047.00    0.96631   0.99165   -1.000
 4048.00    0.99629   1.01656   -1.000
 4049.00    1.00860   1.03503   -1.000
 4050.00    1.01059   1.04191   -1.000
 4051.00    1.00857   1.03839   -1.000
 4052.00    1.00697   1.02870   -1.000
 4053.00    1.00245   1.01775   -1.000
 4054.00    0.98758   1.00909   -1.000
 4055.00    0.98914   1.00428   -1.000
 4056.00    0.99722   1.00295   -1.000
 4057.00    0.99123   1.00520   -1.000
 4058.00    0.99159   1.01071   -1.000
 4059.00    1.00000   1.01552   -1.000
 4060.00    1.00646   1.01372   -1.000
 4061.00    1.00033   1.00157  814.883
 4062.00    0.97099   0.98224   -1.000
 4063.00    0.94643   0.96437   -1.000
 4064.00    0.94802   0.95467   -1.000
 4065.00    0.96133   0.95514   -1.000
 4066.00    0.97160   0.96266   -1.000
 4067.00    0.97464   0.97213  702.618
 4068.00    0.98830   0.97815   -1.000
 4069.00    1.00019   0.97722   -1.000
 4070.00    0.98684   0.96956   -1.000
 4071.00    0.96561   0.96046   -1.000
 4072.00    0.96567   0.95515   -1.000
 4073.00    0.97683   0.95272   -1.000
 4074.00    0.97953   0.94736   -1.000
 4075.00    0.96293   0.93498   -1.000
 4076.00    0.94105   0.91986   -1.000
 4077.00    0.92481   0.91167   -1.000
 4078.00    0.92667   0.91711   -1.000
 4079.00    0.95300   0.93445   -1.000
 4080.00    0.97815   0.95410   -1.000
 4081.00    0.98257   0.96617   -1.000
 4082.00    0.98132   0.96655   -1.000
 4083.00    0.97804   0.95981   -1.000
 4084.00    0.96358   0.95397   -1.000
 4085.00    0.95916   0.95500  660.887
 4086.00    0.97004   0.96289   -1.000
 4087.00    0.98270   0.97242   -1.000
 4088.00    0.98495   0.97734   -1.000
 4089.00    0.98317   0.97426   -1.000
 4090.00    0.97229   0.96447   -1.000
 4091.00    0.95776   0.95099   -1.000
 4092.00    0.95079   0.93556   -1.000
 4093.00    0.94343   0.91688   -1.000
 4094.00    0.93146   0.89306   -1.000
 4095.00    0.90153   0.86374   -1.000
 4096.00    0.86479   0.82934   -1.000
 4097.00    0.84708   0.78958   -1.000
 4098.00    0.82862   0.74311   -1.000
 4099.00    0.77970   0.69217   -1.000
 4100.00    0.70450   0.64632   -1.000
 4101.00    0.64272   0.62003   -1.000
 4102.00    0.64422   0.62472   -1.000
 4103.00    0.69997   0.65951   -1.000
 4104.00    0.77206   0.71146   -1.000
 4105.00    0.83424   0.76446   -1.000
 4106.00    0.86826   0.80732   -1.000
 4107.00    0.88247   0.83780   -1.000
 4108.00    0.89601   0.85888   -1.000
 4109.00    0.90568   0.87498   -1.000
 4110.00    0.91319   0.88997   -1.000
 4111.00    0.92468   0.90611   -1.000
 4112.00    0.93919   0.92390   -1.000
 4113.00    0.95234   0.94218   -1.000
 4114.00    0.95938   0.95851  703.734
 4115.00    0.96555   0.96980   -1.000
 4116.00    0.96709   0.97379   -1.000
 4117.00    0.96402   0.97139   -1.000
 4118.00    0.95789   0.96623   -1.000
 4119.00    0.94969   0.96251   -1.000
 4120.00    0.95618   0.96217   -1.000
 4121.00    0.96246   0.96502  717.165
 4122.00    0.96368   0.97000   -1.000
 4123.00    0.97274   0.97601  710.273
 4124.00    0.97939   0.98125  722.292
 4125.00    0.98646   0.98315  734.585
 4126.00    0.98628   0.98041   -1.000
 4127.00    0.97141   0.97456  745.294
 4128.00    0.96611   0.96843  760.040
 4129.00    0.97001   0.96283   -1.000
 4130.00    0.96775   0.95691   -1.000
 4131.00    0.95217   0.95091  791.720
 4132.00    0.94164   0.94838   -1.000
 4133.00    0.94735   0.95376   -1.000
 4134.00    0.95362   0.96830   -1.000
 4135.00    0.96516   0.98864   -1.000
 4136.00    0.98406   1.00943   -1.000
 4137.00    1.00742   1.02642   -1.000
 4138.00    1.01806   1.03639   -1.000
 4139.00    1.01097   1.03683   -1.000
 4140.00    1.00414   1.02627   -1.000
 4141.00    0.98936   1.00670   -1.000
 4142.00    0.96120   0.98552   -1.000
 4143.00    0.93770   0.97251   -1.000
 4144.00    0.94498   0.97257   -1.000
 4145.00    0.96934   0.98348   -1.000
 4146.00    0.98170   0.99677   -1.000
 4147.00    0.98963   1.00533   -1.000
 4148.00    0.98861   1.00822   -1.000
 4149.00    1.00879   1.00819  764.077
 4150.00    1.09145   1.00765   -1.000
 4151.00    1.07043   1.00600   -1.000
 4152.00    0.90678   1.00176   -1.000
 4153.00    0.88167   0.99557   -1.000
 4154.00    0.97341   0.99059   -1.000
 4155.00    0.98441   0.99025   -1.000
 4156.00    0.96500   0.99579   -1.000
 4157.00    0.97511   1.00544   -1.000
 4158.00    0.98534   1.01582   -1.000
 4159.00    0.99455   1.02432   -1.000
 4160.00    0.99746   1.03019   -1.000
 4161.00    1.00185   1.03437   -1.000
 4162.00    1.00360   1.03810   -1.000
 4163.00    1.00184   1.04101   -1.000
 4164.00    1.00137   1.04159   -1.000
 4165.00    1.00166   1.03882   -1.000
 4166.00    0.99748   1.03338   -1.000
 4167.00    0.99706   1.02668   -1.000
 4168.00    0.99906   1.01823   -1.000
 4169.00    0.99531   1.00567   -1.000
 4170.00    0.98265   0.98693   -1.000
 4171.00    0.96323   0.96527  830.917
 4172.00    0.93466   0.94860   -1.000
 4173.00    0.92123   0.94340   -1.000
 4174.00    0.93410   0.94967   -1.000
 4175.00    0.95212   0.96068   -1.000
 4176.00    0.95852   0.97004   -1.000
 4177.00    0.96179   0.97630   -1.000
 4178.00    0.96664   0.98176   -1.000
 4179.00    0.96891   0.98781   -1.000
 4180.00    0.97391   0.99302   -1.000
 4181.00    0.97166   0.99600   -1.000
 4182.00    0.96872   0.99764   -1.000
 4183.00    0.96807   0.99925   -1.000
 4184.00    0.96967   1.00054   -1.000
 4185.00    0.97144   0.99951   -1.000
 4186.00    0.96441   0.99595   -1.000
 4187.00    0.95698   0.99273   -1.000
 4188.00    0.95701   0.99266   -1.000
 4189.00    0.96143   0.99668   -1.000
 4190.00    0.96759   1.00343   -1.000
 4191.00    0.97367   1.01052   -1.000
 4192.00    0.98487   1.01547   -1.000
 4193.00    0.99768   1.01521   -1.000
 4194.00    0.99403   1.00717   -1.000
 4195.00    0.97645   0.99213   -1.000
 4196.00    0.96507   0.97388   -1.000
 4197.00    0.95211   0.95730   -1.000
 4198.00    0.94095   0.94617   -1.000
 4199.00    0.93962   0.94154  786.010
 4200.00    0.94536   0.94247  777.743
 4201.00    0.95001   0.94724  768.063
 4202.00    0.94341   0.95476   -1.000
 4203.00    0.94484   0.96475   -1.000
 4204.00    0.95816   0.97724   -1.000
 4205.00    0.95951   0.99094   -1.000
 4206.00    0.96095   1.00358   -1.000
 4207.00    0.96641   1.01303   -1.000
 4208.00    0.97360   1.01843   -1.000
 4209.00    0.97479   1.02104   -1.000
 4210.00    0.97395   1.02270   -1.000
 4211.00    0.97747   1.02345   -1.000
 4212.00    0.98387   1.02072   -1.000
 4213.00    0.98436   1.01244   -1.000
 4214.00    0.96839   1.00041   -1.000
 4215.00    0.94285   0.99059   -1.000
 4216.00    0.93651   0.98919   -1.000
 4217.00    0.95069   0.99723   -1.000
 4218.00    0.96542   1.01039   -1.000
 4219.00    0.97339   1.02159   -1.000
 4220.00    0.97567   1.02463   -1.000
 4221.00    0.97814   1.01601   -1.000
 4222.00    0.96991   0.99476   -1.000
 4223.00    0.95216   0.96286   -1.000
 4224.00    0.92593   0.92722  975.298
 4225.00    0.88731   0.89881   -1.000
 4226.00    0.86224   0.88912   -1.000
 4227.00    0.87169   0.90245   -1.000
 4228.00    0.90977   0.93252   -1.000
 4229.00    0.95870   0.96535   -1.000
 4230.00    0.98428   0.98703  709.177
 4231.00    0.97842   0.99301   -1.000
 4232.00    0.96423   0.98703   -1.000
 4233.00    0.94741   0.97662   -1.000
 4234.00    0.94207   0.96785   -1.000
 4235.00    0.94403   0.96327   -1.000
 4236.00    0.93685   0.96327   -1.000
 4237.00    0.93266   0.96736   -1.000
 4238.00    0.94462   0.97489   -1.000
 4239.00    0.95769   0.98422   -1.000
 4240.00    0.96810   0.99329   -1.000
 4241.00    0.97133   1.00098   -1.000
 4242.00    0.96713   1.00659   -1.000
 4243.00    0.96270   1.00935   -1.000
 4244.00    0.97331   1.00739   -1.000
 4245.00    0.97440   0.99939   -1.000
 4246.00    0.94802   0.98694   -1.000
 4247.00    0.92677   0.97418   -1.000
 4248.00    0.92696   0.96607   -1.000
 4249.00    0.93136   0.96471   -1.000
 4250.00    0.93155   0.96884   -1.000
 4251.00    0.93392   0.97468   -1.000
 4252.00    0.94544   0.97846   -1.000
 4253.00    0.95205   0.97951   -1.000
 4254.00    0.94933   0.97936   -1.000
 4255.00    0.95037   0.98013   -1.000
 4256.00    0.96263   0.98055   -1.000
 4257.00    0.96952   0.97664   -1.000
 4258.00    0.95579   0.96783   -1.000
 4259.00    0.93488   0.95887   -1.000
 4260.00    0.93131   0.95763   -1.000
 4261.00    0.93189   0.96779   -1.000
 4262.00    0.95189   0.98622   -1.000
 4263.00    0.97790   1.00544   -1.000
 4264.00    0.98556   1.01842   -1.000
 4265.00    0.98281   1.02233   -1.000
 4266.00    0.97646   1.01724   -1.000
 4267.00    0.97150   1.00439   -1.000
 4268.00    0.96120   0.98524   -1.000
 4269.00    0.95216   0.96179   -1.000
 4270.00    0.93039   0.93822   -1.000
 4271.00    0.90001   0.92008   -1.000
 4272.00    0.89192   0.91170   -1.000
 4273.00    0.90532   0.91488   -1.000
 4274.00    0.92015   0.92829   -1.000
 4275.00    0.93209   0.94813   -1.000
 4276.00    0.94991   0.96925   -1.000
 4277.00    0.97012   0.98532   -1.000
 4278.00    0.97280   0.99210   -1.000
 4279.00    0.95462   0.99015   -1.000
 4280.00    0.94203   0.98404   -1.000
 4281.00    0.93694   0.97842   -1.000
 4282.00    0.93236   0.97425   -1.000
 4283.00    0.93517   0.97026   -1.000
 4284.00    0.94087   0.96385   -1.000
 4285.00    0.93504   0.95394   -1.000
 4286.00    0.92287   0.94029   -1.000
 4287.00    0.91066   0.92352   -1.000
 4288.00    0.89341   0.90706   -1.000
 4289.00    0.87629   0.89619   -1.000
 4290.00    0.86508   0.89499   -1.000
 4291.00    0.87962   0.90283   -1.000
 4292.00    0.90481   0.91332   -1.000
 4293.00    0.91272   0.91929   -1.000
 4294.00    0.91337   0.91715   -1.000
 4295.00    0.91114   0.90712   -1.000
 4296.00    0.90636   0.89043   -1.000
 4297.00    0.88871   0.86851   -1.000
 4298.00    0.85453   0.84429   -1.000
 4299.00    0.82472   0.82273  942.829
 4300.00    0.81999   0.80908   -1.000
 4301.00    0.82611   0.80531   -1.000
 4302.00    0.82550   0.81008   -1.000
 4303.00    0.82811   0.81893   -1.000
 4304.00    0.83378   0.82636   -1.000
 4305.00    0.83712   0.82804   -1.000
 4306.00    0.83155   0.82313   -1.000
 4307.00    0.81725   0.81609  975.075
 4308.00    0.80836   0.81366   -1.000
 4309.00    0.81497   0.81955   -1.000
 4310.00    0.82719   0.83248   -1.000
 4311.00    0.83878   0.84889   -1.000
 4312.00    0.84882   0.86702   -1.000
 4313.00    0.86138   0.88935   -1.000
 4314.00    0.88535   0.91807   -1.000
 4315.00    0.91706   0.95119   -1.000
 4316.00    0.94669   0.98227   -1.000
 4317.00    0.97001   1.00340   -1.000
 4318.00    0.97802   1.01073   -1.000
 4319.00    0.97416   1.00477   -1.000
 4320.00    0.96509   0.98854   -1.000
 4321.00    0.95222   0.96468   -1.000
 4322.00    0.93510   0.93553  836.114
 4323.00    0.91375   0.90596   -1.000
 4324.00    0.88349   0.88365  750.347
 4325.00    0.86229   0.87668   -1.000
 4326.00    0.87326   0.88674   -1.000
 4327.00    0.90350   0.90726  648.727
 4328.00    0.92960   0.92752  648.755
 4329.00    0.94175   0.93924  640.969
 4330.00    0.94225   0.94196  631.825
 4331.00    0.93272   0.93853   -1.000
 4332.00    0.92012   0.93105   -1.000
 4333.00    0.91239   0.91751   -1.000
 4334.00    0.90526   0.89334   -1.000
 4335.00    0.88939   0.85450   -1.000
 4336.00    0.85285   0.80131   -1.000
 4337.00    0.79853   0.74027   -1.000
 4338.00    0.73708   0.68385   -1.000
 4339.00    0.67485   0.64665   -1.000
 4340.00    0.63453   0.63870  728.652
 4341.00    0.65382   0.66085   -1.000
 4342.00    0.72090   0.70416   -1.000
 4343.00    0.78397   0.75559   -1.000
 4344.00    0.82919   0.80443   -1.000
 4345.00    0.86536   0.84641   -1.000
 4346.00    0.89112   0.88033   -1.000
 4347.00    0.90384   0.90483  658.450
 4348.00    0.91551   0.91745  702.868
 4349.00    0.92615   0.91749   -1.000
 4350.00    0.91954   0.90946   -1.000
 4351.00    0.89876   0.90212  689.544
 4352.00    0.88790   0.90404   -1.000
 4353.00    0.90648   0.91738   -1.000
 4354.00    0.93569   0.93731  640.577
 4355.00    0.95188   0.95674   -1.000
 4356.00    0.96104   0.97078   -1.000
 4357.00    0.96110   0.97916   -1.000
 4358.00    0.95455   0.98454   -1.000
 4359.00    0.95532   0.99056   -1.000
 4360.00    0.96339   0.99902   -1.000
 4361.00    0.97626   1.00942   -1.000
 4362.00    0.98636   1.01957   -1.000
 4363.00    0.98705   1.02686   -1.000
 4364.00    0.98786   1.02917   -1.000
 4365.00    0.98858   1.02511   -1.000
 4366.00    0.97831   1.01531   -1.000
 4367.00    0.96618   1.00285   -1.000
 4368.00    0.96292   0.99152   -1.000
 4369.00    0.96732   0.98290   -1.000
 4370.00    0.97215   0.97577  672.757
 4371.00    0.97464   0.96735   -1.000
 4372.00    0.97093   0.95631   -1.000
 4373.00    0.95638   0.94475   -1.000
 4374.00    0.93660   0.93818  664.241
 4375.00    0.92601   0.94118   -1.000
 4376.00    0.93859   0.95361   -1.000
 4377.00    0.95842   0.96969   -1.000
 4378.00    0.97427   0.98089   -1.000
 4379.00    0.97944   0.98027  724.118
 4380.00    0.97788   0.96458   -1.000
 4381.00    0.97055   0.93567   -1.000
 4382.00    0.93593   0.90194   -1.000
 4383.00    0.89337   0.87633   -1.000
 4384.00    0.88264   0.86856   -1.000
 4385.00    0.90500   0.87970   -1.000
 4386.00    0.93256   0.90081   -1.000
 4387.00    0.95532   0.92106   -1.000
 4388.00    0.96356   0.93485   -1.000
 4389.00    0.95823   0.94262   -1.000
 4390.00    0.95609   0.94774   -1.000
 4391.00    0.96355   0.95173   -1.000
 4392.00    0.97049   0.95415   -1.000
 4393.00    0.96601   0.95482   -1.000
 4394.00    0.95445   0.95570  636.446
 4395.00    0.94981   0.95947   -1.000
 4396.00    0.95635   0.96530   -1.000
 4397.00    0.97286   0.96908  673.019
 4398.00    0.98176   0.96768   -1.000
 4399.00    0.96690   0.96248  666.249
 4400.00    0.95691   0.95766  673.282
 4401.00    0.96181   0.95466   -1.000
 4402.00    0.96741   0.95162   -1.000
 4403.00    0.96512   0.94670   -1.000
 4404.00    0.94900   0.94119   -1.000
 4405.00    0.94242   0.93874  692.129
 4406.00    0.95476   0.94139   -1.000
 4407.00    0.95895   0.94896   -1.000
 4408.00    0.95885   0.96082  621.742
 4409.00    0.97013   0.97559   -1.000
 4410.00    0.98789   0.99011  614.711
 4411.00    1.00355   0.99897  642.545
 4412.00    1.00900   0.99721   -1.000
 4413.00    1.00027   0.98471   -1.000
 4414.00    0.97527   0.96703   -1.000
 4415.00    0.95284   0.95334  638.449
 4416.00    0.94821   0.95113  616.574
 4417.00    0.95358   0.96194   -1.000
 4418.00    0.97181   0.98035   -1.000
 4419.00    0.99428   0.99756  636.488
 4420.00    1.00479   1.00735  639.306
 4421.00    1.00310   1.00870   -1.000
 4422.00    0.99265   1.00561   -1.000
 4423.00    0.98700   1.00236   -1.000
 4424.00    0.99432   1.00054   -1.000
 4425.00    0.99118   0.99984   -1.000
 4426.00    0.97837   0.99980   -1.000
 4427.00    0.97860   1.00051   -1.000
 4428.00    0.98733   1.00196   -1.000
 4429.00    0.98969   1.00321   -1.000
 4430.00    0.99233   1.00304   -1.000
 4431.00    0.99165   1.00019   -1.000
 4432.00    0.99027   0.99398  687.026
 4433.00    0.98246   0.98600  673.486
 4434.00    0.96170   0.98057   -1.000
 4435.00    0.95361   0.98261   -1.000
 4436.00    0.97211   0.99364   -1.000
 4437.00    0.99643   1.00903   -1.000
 4438.00    1.01032   1.02066   -1.000
 4439.00    1.01289   1.02171   -1.000
 4440.00    1.00538   1.01133   -1.000
 4441.00    0.99118   0.99518  656.256
 4442.00    0.96761   0.98237   -1.000
 4443.00    0.95016   0.98034   -1.000
 4444.00    0.95511   0.98979   -1.000
 4445.00    0.97512   1.00543   -1.000
 4446.00    0.99198   1.01967   -1.000
 4447.00    0.99583   1.02798   -1.000
 4448.00    0.99637   1.03008   -1.000
 4449.00    0.99625   1.02814   -1.000
 4450.00    0.99239   1.02382   -1.000
 4451.00    0.99337   1.01676   -1.000
 4452.00    0.99460   1.00574   -1.000
 4453.00    0.98387   0.99116   -1.000
 4454.00    0.96476   0.97653   -1.000
 4455.00    0.95298   0.96671   -1.000
 4456.00    0.95841   0.96380   -1.000
 4457.00    0.96769   0.96620  671.429
 4458.00    0.97347   0.97029  677.987
 4459.00    0.97456   0.97397  672.508
 4460.00    0.97071   0.97739   -1.000
 4461.00    0.96655   0.98188   -1.000
 4462.00    0.96754   0.98811   -1.000
 4463.00    0.97904   0.99510   -1.000
 4464.00    0.99245   1.00051   -1.000
 4465.00    0.99381   1.00192   -1.000
 4466.00    0.99033   0.99881   -1.000
 4467.00    0.98278   0.99314   -1.000
 4468.00    0.97089   0.98896   -1.000
 4469.00    0.96401   0.99015   -1.000
 4470.00    0.97106   0.99831   -1.000
 4471.00    0.98687   1.01182   -1.000
 4472.00    1.00303   1.02704   -1.000
 4473.00    1.01401   1.04042   -1.000
 4474.00    1.01485   1.04977   -1.000
 4475.00    1.01605   1.05443   -1.000
 4476.00    1.01441   1.05421   -1.000
 4477.00    1.01511   1.04835   -1.000
 4478.00    1.02121   1.03613   -1.000
 4479.00    1.01674   1.01905  636.550
 4480.00    1.00162   1.00259  616.655
 4481.00    0.98406   0.99383   -1.000
 4482.00    0.97380   0.99734   -1.000
 4483.00    0.98157   1.01144   -1.000
 4484.00    1.00432   1.02924   -1.000
 4485.00    1.01677   1.04270   -1.000
 4486.00    1.01719   1.04669   -1.000
 4487.00    1.01603   1.04148   -1.000
 4488.00    1.00540   1.03175   -1.000
 4489.00    0.99096   1.02383   -1.000
 4490.00    0.98921   1.02154   -1.000
 4491.00    1.00018   1.02454   -1.000
 4492.00    1.00667   1.02916   -1.000
 4493.00    1.00178   1.03221   -1.000
 4494.00    0.99318   1.03331   -1.000
 4495.00    0.99086   1.03429   -1.000
 4496.00    0.99629   1.03683   -1.000
 4497.00    1.00399   1.04026   -1.000
 4498.00    1.01215   1.04276   -1.000
 4499.00    1.01678   1.04343   -1.000
 4500.00    1.00449   1.04402   -1.000
 4501.00    0.99320   1.04771   -1.000
 4502.00    1.00158   1.05622   -1.000
 4503.00    1.01990   1.06787   -1.000
 4504.00    1.03343   1.07819   -1.000
 4505.00    1.03363   1.08360   -1.000
 4506.00    1.02653   1.08334   -1.000
 4507.00    1.02480   1.08002   -1.000
 4508.00    1.02476   1.07696   -1.000
 4509.00    1.02557   1.07573   -1.000
 4510.00    1.02893   1.07516   -1.000
 4511.00    1.02924   1.07282   -1.000
 4512.00    1.02756   1.06744   -1.000
 4513.00    1.02680   1.05980   -1.000
 4514.00    1.01992   1.05209   -1.000
 4515.00    1.01181   1.04616   -1.000
 4516.00    1.01181   1.04241   -1.000
 4517.00    1.01122   1.04011   -1.000
 4518.00    1.00536   1.03843   -1.000
 4519.00    1.00375   1.03708   -1.000
 4520.00    1.01351   1.03576   -1.000
 4521.00    1.01614   1.03349   -1.000
 4522.00    1.00255   1.02938   -1.000
 4523.00    0.99179   1.02330   -1.000
 4524.00    0.99196   1.01550   -1.000
 4525.00    0.99539   1.00600   -1.000
 4526.00    0.98843   0.99482   -1.000
 4527.00    0.97584   0.98338   -1.000
 4528.00    0.96921   0.97451   -1.000
 4529.00    0.96522   0.97038   -1.000
 4530.00    0.96566   0.97050   -1.000
 4531.00    0.97110   0.97149  659.185
 4532.00    0.97479   0.97060  662.160
 4533.00    0.96797   0.96861  634.035
 4534.00    0.95276   0.97001   -1.000
 4535.00    0.95007   0.97911   -1.000
 4536.00    0.96614   0.99594   -1.000
 4537.00    1.02841   1.01566   -1.000
 4538.00    0.85905   1.03149   -1.000
 4539.00    0.27821   1.03953   -1.000
 4540.00   -0.04040   1.04039    0.000
 4541.00    0.17558   1.03780   -1.000
 4542.00    0.58067   1.03488   -1.000
 4543.00    0.44555   1.03224   -1.000
 4544.00    0.70232   1.02891   -1.000
 4545.00    1.00582   1.02381   -1.000
 4546.00    0.99734   1.01645   -1.000
 4547.00    0.99653   1.00706   -1.000
 4548.00    0.97972   0.99730   -1.000
 4549.00    0.96260   0.99028   -1.000
 4550.00    0.96163   0.98836   -1.000
 4551.00    0.97677   0.99061   -1.000
 4552.00    0.98714   0.99335   -1.000
 4553.00    0.98351   0.99406   -1.000
 4554.00    0.97561   0.99404   -1.000
 4555.00    0.97329   0.99710   -1.000
 4556.00    0.98288   1.00570   -1.000
 4557.00    0.99642   1.01881   -1.000
 4558.00    1.01060   1.03302   -1.000
 4559.00    1.01839   1.04465   -1.000
 4560.00    1.02530   1.05122   -1.000
 4561.00    1.02878   1.05146   -1.000
 4562.00    1.01797   1.04590   -1.000
 4563.00    1.00224   1.03743   -1.000
 4564.00    0.99445   1.03060   -1.000
 4565.00    1.00087   1.02908   -1.000
 4566.00    1.01348   1.03331   -1.000
 4567.00    1.02914   1.03997   -1.000
 4568.00    1.02888   1.04444   -1.000
 4569.00    1.02129   1.04356   -1.000
 4570.00    1.01274   1.03801   -1.000
 4571.00    0.99791   1.03177   -1.000
 4572.00    0.99104   1.02939   -1.000
 4573.00    1.00664   1.03251   -1.000
 4574.00    1.01965   1.03874   -1.000
 4575.00    1.02578   1.04398   -1.000
 4576.00    1.02764   1.04514   -1.000
 4577.00    1.02157   1.04124   -1.000
 4578.00    1.01378   1.03261   -1.000
 4579.00    1.01028   1.02072   -1.000
 4580.00    1.00350   1.00789  593.996
 4581.00    0.99742   0.99701  593.723
 4582.00    0.99659   0.99021   -1.000
 4583.00    0.99266   0.98845  592.826
 4584.00    0.99192   0.99123  579.464
 4585.00    0.99563   0.99727  565.986
 4586.00    1.00369   1.00487  561.358
 4587.00    1.00823   1.01244  566.702
 4588.00    1.00880   1.01844   -1.000
 4589.00    1.00879   1.02164   -1.000
 4590.00    1.00782   1.02163   -1.000
 4591.00    1.00977   1.01943   -1.000
 4592.00    1.00508   1.01716   -1.000
 4593.00    0.99860   1.01679   -1.000
 4594.00    1.00446   1.01895   -1.000
 4595.00    1.01096   1.02288   -1.000
 4596.00    1.01481   1.02706   -1.000
 4597.00    1.02066   1.03007   -1.000
 4598.00    1.01738   1.03091   -1.000
 4599.00    1.01124   1.02944   -1.000
 4600.00    1.01249   1.02644   -1.000
 4601.00    1.01200   1.02347   -1.000
 4602.00    1.00724   1.02191   -1.000
 4603.00    1.00743   1.02244   -1.000
 4604.00    1.01355   1.02500   -1.000
 4605.00    1.02259   1.02925   -1.000
 4606.00    1.02833   1.03488   -1.000
 4607.00    1.02465   1.04135   -1.000
 4608.00    1.02858   1.04742   -1.000
 4609.00    1.03480   1.05153   -1.000
 4610.00    1.02782   1.05247   -1.000
 4611.00    1.02440   1.05056   -1.000
 4612.00    1.02507   1.04717   -1.000
 4613.00    1.02902   1.04387   -1.000
 4614.00    1.02732   1.04108   -1.000
 4615.00    1.02153   1.03831   -1.000
 4616.00    1.01816   1.03501   -1.000
 4617.00    1.01648   1.03156   -1.000
 4618.00    1.01662   1.02940   -1.000
 4619.00    1.01896   1.03014   -1.000
 4620.00    1.02094   1.03430   -1.000
 4621.00    1.02590   1.04062   -1.000
 4622.00    1.03067   1.04660   -1.000
 4623.00    1.02629   1.05022   -1.000
 4624.00    1.02435   1.05088   -1.000
 4625.00    1.02125   1.04913   -1.000
 4626.00    1.02176   1.04599   -1.000
 4627.00    1.02423   1.04234   -1.000
 4628.00    1.01896   1.03929   -1.000
 4629.00    1.01376   1.03791   -1.000
 4630.00    1.01216   1.03852   -1.000
 4631.00    1.02236   1.04004   -1.000
 4632.00    1.02648   1.04048   -1.000
 4633.00    1.02227   1.03861   -1.000
 4634.00    1.02371   1.03496   -1.000
 4635.00    1.02378   1.03124   -1.000
 4636.00    1.02119   1.02881   -1.000
 4637.00    1.01889   1.02838   -1.000
 4638.00    1.01743   1.03011   -1.000
 4639.00    1.02268   1.03399   -1.000
 4640.00    1.03013   1.03933   -1.000
 4641.00    1.03491   1.04454   -1.000
 4642.00    1.03392   1.04730   -1.000
 4643.00    1.03093   1.04564   -1.000
 4644.00    1.02853   1.03910   -1.000
 4645.00    1.02127   1.02924   -1.000
 4646.00    1.00916   1.01920   -1.000
 4647.00    1.00519   1.01276   -1.000
 4648.00    1.01226   1.01225  559.639
 4649.00    1.01866   1.01717  558.664
 4650.00    1.02247   1.02445  562.928
 4651.00    1.02173   1.03027   -1.000
 4652.00    1.01629   1.03232   -1.000
 4653.00    1.00889   1.03040   -1.000
 4654.00    1.00241   1.02653   -1.000
 4655.00    1.00314   1.02386   -1.000
 4656.00    1.00451   1.02558   -1.000
 4657.00    1.00919   1.03285   -1.000
 4658.00    1.02278   1.04391   -1.000
 4659.00    1.03447   1.05433   -1.000
 4660.00    1.04300   1.05992   -1.000
 4661.00    1.04119   1.05872   -1.000
 4662.00    1.03163   1.05161   -1.000
 4663.00    1.03218   1.04050   -1.000
 4664.00    1.03118   1.02694  610.413
 4665.00    1.02714   1.01190   -1.000
 4666.00    1.01310   0.99727   -1.000
 4667.00    0.98842   0.98628  580.682
 4668.00    0.97988   0.98248  562.366
 4669.00    0.99030   0.98695  555.727
 4670.00    1.00819   0.99779   -1.000
 4671.00    1.01623   1.01086  555.074
 4672.00    1.02320   1.02266  549.721
 4673.00    1.03253   1.03156  541.612
 4674.00    1.02602   1.03754   -1.000
 4675.00    1.02258   1.04075   -1.000
 4676.00    1.03119   1.04038   -1.000
 4677.00    1.03485   1.03582  571.759
 4678.00    1.02768   1.02788  578.390
 4679.00    1.01735   1.01908  574.725
 4680.00    1.01173   1.01231  561.994
 4681.00    1.00601   1.00921  552.549
 4682.00    1.00678   1.00986  551.974
 4683.00    1.02427   1.01304   -1.000
 4684.00    1.03474   1.01709   -1.000
 4685.00    1.02835   1.02063   -1.000
 4686.00    1.02499   1.02300  556.095
 4687.00    1.02990   1.02429   -1.000
 4688.00    1.03347   1.02472   -1.000
 4689.00    1.02600   1.02462  556.495
 4690.00    1.02302   1.02426  548.510
 4691.00    1.02922   1.02430  537.328
 4692.00    1.03172   1.02540   -1.000
 4693.00    1.02926   1.02755  529.093
 4694.00    1.03655   1.02979   -1.000
 4695.00    1.04668   1.03055   -1.000
 4696.00    1.04192   1.02848   -1.000
 4697.00    1.03067   1.02299   -1.000
 4698.00    1.02392   1.01491   -1.000
 4699.00    1.02203   1.00567   -1.000
 4700.00    1.02255   0.99682   -1.000
 4701.00    1.01877   0.98954   -1.000
 4702.00    1.00680   0.98494   -1.000
 4703.00    1.00159   0.98378   -1.000
 4704.00    1.00526   0.98552   -1.000
 4705.00    1.00781   0.98800   -1.000
 4706.00    1.00600   0.98904   -1.000
 4707.00    1.00538   0.98838   -1.000
 4708.00    1.00215   0.98797   -1.000
 4709.00    1.00133   0.99010   -1.000
 4710.00    1.00919   0.99507   -1.000
 4711.00    1.02396   1.00131   -1.000
 4712.00    1.03331   1.00641   -1.000
 4713.00    1.03374   1.00931   -1.000
 4714.00    1.02929   1.01109   -1.000
 4715.00    1.01917   1.01371   -1.000
 4716.00    1.01913   1.01849  534.516
 4717.00    1.02592   1.02457  532.686
 4718.00    1.03352   1.03019  535.563
 4719.00    1.03839   1.03390  539.700
 4720.00    1.03483   1.03555  538.331
 4721.00    1.03457   1.03603  533.046
 4722.00    1.03895   1.03613  532.106
 4723.00    1.03910   1.03603  541.999
 4724.00    1.03251   1.03475  560.971
 4725.00    1.02901   1.03097  576.018
 4726.00    1.03031   1.02389   -1.000
 4727.00    1.02501   1.01446   -1.000
 4728.00    1.02184   1.00495   -1.000
 4729.00    1.02189   0.99785   -1.000
 4730.00    1.02235   0.99442   -1.000
 4731.00    1.01698   0.99463   -1.000
 4732.00    1.01418   0.99735   -1.000
 4733.00    1.01663   1.00082   -1.000
 4734.00    1.01808   1.00345   -1.000
 4735.00    1.02125   1.00459   -1.000
 4736.00    1.01915   1.00485   -1.000
 4737.00    1.01888   1.00545   -1.000
 4738.00    1.02678   1.00717   -1.000
 4739.00    1.03099   1.00987   -1.000
 4740.00    1.02796   1.01284   -1.000
 4741.00    1.01953   1.01570  542.387
 4742.00    1.02373   1.01844  543.143
 4743.00    1.03708   1.02111   -1.000
 4744.00    1.03294   1.02360   -1.000
 4745.00    1.02920   1.02588  532.760
 4746.00    1.03037   1.02819  533.178
 4747.00    1.02922   1.03101  533.675
 4748.00    1.03093   1.03419  536.696
 4749.00    1.03102   1.03716   -1.000
 4750.00    1.02693   1.03880   -1.000
 4751.00    1.02584   1.03796   -1.000
 4752.00    1.02777   1.03434   -1.000
 4753.00    1.02738   1.02877  552.734
 4754.00    1.02658   1.02330  556.434
 4755.00    1.02391   1.01988  557.925
 4756.00    1.02167   1.01948  554.466
 4757.00    1.02573   1.02152  552.517
 4758.00    1.02741   1.02426  558.913
 4759.00    1.02280   1.02543  571.848
 4760.00    1.02594   1.02275  580.991
 4761.00    1.02535   1.01557   -1.000
 4762.00    1.00939   1.00510  582.484
 4763.00    0.99728   0.99481  579.027
 4764.00    0.99918   0.98798   -1.000
 4765.00    1.00790   0.98665   -1.000
 4766.00    1.01460   0.99084   -1.000
 4767.00    1.01610   0.99908   -1.000
 4768.00    1.01996   1.00883   -1.000
 4769.00    1.02563   1.01744   -1.000
 4770.00    1.02688   1.02301  554.961
 4771.00    1.02429   1.02581  544.117
 4772.00    1.02172   1.02761   -1.000
 4773.00    1.02424   1.03032   -1.000
 4774.00    1.02350   1.03442   -1.000
 4775.00    1.02544   1.03848   -1.000
 4776.00    1.03216   1.04080   -1.000
 4777.00    1.03389   1.04026   -1.000
 4778.00    1.02936   1.03739   -1.000
 4779.00    1.02211   1.03355   -1.000
 4780.00    1.01667   1.03002   -1.000
 4781.00    1.01750   1.02713   -1.000
 4782.00    1.02189   1.02434  562.588
 4783.00    1.02470   1.02126  567.411
 4784.00    1.02222   1.01773  571.283
 4785.00    1.01993   1.01424   -1.000
 4786.00    1.01290   1.01148  569.155
 4787.00    1.00613   1.01029  565.764
 4788.00    1.00571   1.01113  560.373
 4789.00    1.00944   1.01411  551.853
 4790.00    1.00943   1.01916   -1.000
 4791.00    1.01913   1.02597   -1.000
 4792.00    1.01964   1.03409   -1.000
 4793.00    1.02470   1.04229   -1.000
 4794.00    1.03300   1.04888   -1.000
 4795.00    1.03322   1.05210   -1.000
 4796.00    1.03008   1.05105   -1.000
 4797.00    1.02271   1.04667   -1.000
 4798.00    1.01838   1.04111   -1.000
 4799.00    1.01268   1.03705   -1.000
 4800.00    1.01848   1.03589   -1.000
 4801.00    1.02761   1.03720   -1.000
 4802.00    1.02312   1.03888   -1.000
 4803.00    1.01824   1.03902   -1.000
 4804.00    1.01684   1.03700   -1.000
 4805.00    1.01575   1.03379   -1.000
 4806.00    1.01820   1.03118   -1.000
 4807.00    1.02010   1.03016   -1.000
 4808.00    1.02211   1.03087   -1.000
 4809.00    1.02557   1.03261   -1.000
 4810.00    1.02438   1.03454   -1.000
 4811.00    1.02202   1.03637   -1.000
 4812.00    1.02241   1.03853   -1.000
 4813.00    1.02578   1.04138   -1.000
 4814.00    1.03283   1.04497   -1.000
 4815.00    1.03312   1.04876   -1.000
 4816.00    1.02929   1.05200   -1.000
 4817.00    1.03223   1.05413   -1.000
 4818.00    1.03461   1.05474   -1.000
 4819.00    1.03212   1.05342   -1.000
 4820.00    1.03069   1.04929   -1.000
 4821.00    1.02484   1.04168   -1.000
 4822.00    1.01739   1.03153   -1.000
 4823.00    1.01347   1.02153   -1.000
 4824.00    1.00891   1.01529   -1.000
 4825.00    1.01451   1.01459  544.041
 4826.00    1.02178   1.01781  548.101
 4827.00    1.02502   1.02191  548.626
 4828.00    1.02250   1.02395  552.633
 4829.00    1.01651   1.02327   -1.000
 4830.00    1.01836   1.02049  547.445
 4831.00    1.01621   1.01686  539.757
 4832.00    1.01835   1.01389  536.758
 4833.00    1.01794   1.01246  537.140
 4834.00    1.02783   1.01262   -1.000
 4835.00    1.02969   1.01347   -1.000
 4836.00    1.02226   1.01341   -1.000
 4837.00    1.01777   1.01133   -1.000
 4838.00    1.01424   1.00690   -1.000
 4839.00    1.00985   1.00107   -1.000
 4840.00    1.00319   0.99544   -1.000
 4841.00    1.00336   0.99149   -1.000
 4842.00    1.00492   0.98988   -1.000
 4843.00    1.00636   0.99014   -1.000
 4844.00    1.00725   0.99125   -1.000
 4845.00    1.00969   0.99187   -1.000
 4846.00    1.01111   0.99062   -1.000
 4847.00    1.00759   0.98701   -1.000
 4848.00    0.99141   0.98214   -1.000
 4849.00    0.98819   0.97732   -1.000
 4850.00    0.99012   0.97296   -1.000
 4851.00    0.98372   0.96736   -1.000
 4852.00    0.98165   0.95791   -1.000
 4853.00    0.97415   0.94305   -1.000
 4854.00    0.96325   0.92293   -1.000
 4855.00    0.94529   0.89962   -1.000
 4856.00    0.93398   0.87378   -1.000
 4857.00    0.92601   0.84398   -1.000
 4858.00    0.89356   0.80760   -1.000
 4859.00    0.83192   0.76531   -1.000
 4860.00    0.74646   0.72543   -1.000
 4861.00    0.68917   0.69970   -1.000
 4862.00    0.70774   0.69821   -1.000
 4863.00    0.77794   0.72088   -1.000
 4864.00    0.84546   0.75964   -1.000
 4865.00    0.88805   0.80311   -1.000
 4866.00    0.91865   0.84213   -1.000
 4867.00    0.93708   0.87213   -1.000
 4868.00    0.94997   0.89139   -1.000
 4869.00    0.96075   0.90072   -1.000
 4870.00    0.95258   0.90309   -1.000
 4871.00    0.93967   0.90312   -1.000
 4872.00    0.93702   0.90607   -1.000
 4873.00    0.94986   0.91399   -1.000
 4874.00    0.97285   0.92558   -1.000
 4875.00    0.97671   0.93759   -1.000
 4876.00    0.97699   0.94786   -1.000
 4877.00    0.97951   0.95693   -1.000
 4878.00    0.98157   0.96596   -1.000
 4879.00    0.99268   0.97481   -1.000
 4880.00    0.99723   0.98198   -1.000
 4881.00    1.00229   0.98543   -1.000
 4882.00    1.00468   0.98502   -1.000
 4883.00    1.00058   0.98191   -1.000
 4884.00    0.99652   0.97754   -1.000
 4885.00    0.99351   0.97325   -1.000
 4886.00    0.99033   0.96929   -1.000
 4887.00    0.99102   0.96540   -1.000
 4888.00    0.99169   0.96113   -1.000
 4889.00    0.99143   0.95656   -1.000
 4890.00    0.97429   0.95410   -1.000
 4891.00    0.95830   0.95732  525.220
 4892.00    0.97670   0.96854   -1.000
 4893.00    1.00303   0.98706   -1.000
 4894.00    1.02226   1.00767   -1.000
 4895.00    1.02842   1.02523  520.757
 4896.00    1.03076   1.03612  533.043
 4897.00    1.03539   1.03974  540.130
 4898.00    1.03216   1.03772  538.886
 4899.00    1.01854   1.03257   -1.000
 4900.00    1.01537   1.02661   -1.000
 4901.00    1.01234   1.02145   -1.000
 4902.00    1.00508   1.01798   -1.000
 4903.00    1.00705   1.01672   -1.000
 4904.00    1.00623   1.01822   -1.000
 4905.00    1.00802   1.02182   -1.000
 4906.00    1.01905   1.02470   -1.000
 4907.00    1.03008   1.02417   -1.000
 4908.00    1.02690   1.01851   -1.000
 4909.00    1.01421   1.00939  548.766
 4910.00    1.00429   1.00065  540.817
 4911.00    1.00546   0.99628   -1.000
 4912.00    1.00640   0.99809   -1.000
 4913.00    1.01132   1.00449   -1.000
 4914.00    1.01871   1.01159   -1.000
 4915.00    1.01716   1.01451  574.346
 4916.00    1.01599   1.00915   -1.000
 4917.00    1.01185   0.99442   -1.000
 4918.00    0.99000   0.97320   -1.000
 4919.00    0.96601   0.95147   -1.000
 4920.00    0.96070   0.93584   -1.000
 4921.00    0.96128   0.92969   -1.000
 4922.00    0.96933   0.93268   -1.000
 4923.00    0.97792   0.94162   -1.000
 4924.00    0.98194   0.95398   -1.000
 4925.00    0.98874   0.96860   -1.000
 4926.00    1.00120   0.98419   -1.000
 4927.00    1.02008   0.99963   -1.000
 4928.00    1.02128   1.01241   -1.000
 4929.00    1.02506   1.02037  537.452
 4930.00    1.02357   1.02197  556.398
 4931.00    1.02417   1.01701   -1.000
 4932.00    1.01306   1.00712   -1.000
 4933.00    0.99684   0.99594  550.377
 4934.00    0.98551   0.98680  564.145
 4935.00    0.99110   0.98105   -1.000
 4936.00    1.00169   0.97742   -1.000
 4937.00    0.99790   0.97396   -1.000
 4938.00    0.98545   0.97185   -1.000
 4939.00    0.97705   0.97350  531.087
 4940.00    0.98492   0.98090  525.527
 4941.00    1.00393   0.99313   -1.000
 4942.00    1.01381   1.00606   -1.000
 4943.00    1.01724   1.01610  530.014
 4944.00    1.01836   1.02149  526.078
 4945.00    1.01912   1.02334  519.999
 4946.00    1.01764   1.02399   -1.000
 4947.00    1.01745   1.02550   -1.000
 4948.00    1.01190   1.02822   -1.000
 4949.00    1.02042   1.03095   -1.000
 4950.00    1.01714   1.03218   -1.000
 4951.00    1.01958   1.03106   -1.000
 4952.00    1.02420   1.02765  546.536
 4953.00    1.01880   1.02152  572.927
 4954.00    1.01919   1.01183   -1.000
 4955.00    1.00741   0.99794   -1.000
 4956.00    0.98345   0.98167  559.071
 4957.00    0.96778   0.96908  537.895
 4958.00    0.96264   0.96565  531.767
 4959.00    0.98003   0.97338   -1.000
 4960.00    1.00665   0.98824   -1.000
 4961.00    1.01433   1.00331   -1.000
 4962.00    1.01365   1.01347  554.445
 4963.00    1.01705   1.01655  562.342
 4964.00    1.01758   1.01375  563.445
 4965.00    1.00980   1.00755  562.003
 4966.00    1.00084   1.00059  558.176
 4967.00    0.99981   0.99505  552.425
 4968.00    1.00255   0.99212   -1.000
 4969.00    1.00486   0.99243   -1.000
 4970.00    1.00780   0.99569   -1.000
 4971.00    1.00207   1.00109  532.180
 4972.00    1.00612   1.00733  535.120
 4973.00    1.01701   1.01308  540.544
 4974.00    1.01669   1.01686  547.700
 4975.00    1.01232   1.01777  556.474
 4976.00    1.01324   1.01560  563.642
 4977.00    1.01674   1.01039   -1.000
 4978.00    1.01512   1.00239   -1.000
 4979.00    1.00667   0.99142   -1.000
 4980.00    0.99424   0.97724   -1.000
 4981.00    0.97545   0.96065   -1.000
 4982.00    0.95820   0.94468   -1.000
 4983.00    0.95229   0.93388   -1.000
 4984.00    0.96006   0.93209   -1.000
 4985.00    0.96727   0.93974   -1.000
 4986.00    0.98401   0.95323   -1.000
 4987.00    1.00149   0.96744   -1.000
 4988.00    1.00260   0.97745   -1.000
 4989.00    0.99908   0.98151   -1.000
 4990.00    0.98999   0.98093   -1.000
 4991.00    0.98448   0.97862   -1.000
 4992.00    0.98671   0.97735   -1.000
 4993.00    0.99130   0.97830   -1.000
 4994.00    0.99323   0.98113   -1.000
 4995.00    0.99219   0.98426   -1.000
 4996.00    1.00036   0.98580   -1.000
 4997.00    1.00795   0.98409   -1.000
 4998.00    0.99897   0.97830   -1.000
 4999.00    0.98619   0.96945   -1.000
 5000.00    0.98360   0.95993   -1.000
 5001.00    0.98589   0.95228   -1.000
 5002.00    0.98459   0.94762   -1.000
 5003.00    0.98541   0.94461   -1.000
 5004.00    0.98723   0.94150   -1.000
 5005.00    0.97914   0.93798   -1.000
 5006.00    0.96417   0.93632   -1.000
 5007.00    0.96208   0.93887   -1.000
 5008.00    0.97867   0.94487   -1.000
 5009.00    0.99404   0.95107   -1.000
 5010.00    0.99438   0.95266   -1.000
 5011.00    0.98572   0.94772   -1.000
 5012.00    0.97337   0.93784   -1.000
 5013.00    0.95826   0.92732   -1.000
 5014.00    0.95020   0.91994   -1.000
 5015.00    0.95218   0.91659   -1.000
 5016.00    0.95927   0.91635   -1.000
 5017.00    0.96538   0.91749   -1.000
 5018.00    0.95824   0.91998   -1.000
 5019.00    0.95578   0.92449   -1.000
 5020.00    0.98047   0.93049   -1.000
 5021.00    0.98360   0.93730   -1.000
 5022.00    0.98071   0.94383   -1.000
 5023.00    0.98357   0.94977   -1.000
 5024.00    0.98518   0.95527   -1.000
 5025.00    0.98679   0.95932   -1.000
 5026.00    0.99141   0.96165   -1.000
 5027.00    0.99666   0.96303   -1.000
 5028.00    0.99365   0.96456   -1.000
 5029.00    0.99315   0.96767   -1.000
 5030.00    0.99831   0.97271   -1.000
 5031.00    1.00023   0.97849   -1.000
 5032.00    0.99210   0.98290   -1.000
 5033.00    0.99784   0.98365   -1.000
 5034.00    0.99123   0.97927   -1.000
 5035.00    0.98611   0.97073   -1.000
 5036.00    0.97761   0.95960   -1.000
 5037.00    0.97455   0.94743   -1.000
 5038.00    0.97862   0.93457   -1.000
 5039.00    0.98574   0.92123   -1.000
 5040.00    0.37645   0.91097   -1.000
 5041.00    0.03027   0.90816   -1.000
 5042.00   -0.01610   0.91579    0.000
 5043.00    0.47589   0.93301   -1.000
 5044.00    0.93685   0.95387   -1.000
 5045.00    1.00165   0.97202   -1.000
 5046.00    1.00665   0.98233   -1.000
 5047.00    1.01144   0.98311   -1.000
 5048.00    1.00082   0.97618   -1.000
 5049.00    0.98756   0.96560   -1.000
 5050.00    0.97666   0.95618   -1.000
 5051.00    0.96977   0.95165   -1.000
 5052.00    0.97714   0.95386   -1.000
 5053.00    0.99150   0.96181   -1.000
 5054.00    1.00356   0.97200   -1.000
 5055.00    1.01309   0.98178   -1.000
 5056.00    1.01435   0.98980   -1.000
 5057.00    1.01366   0.99568   -1.000
 5058.00    1.00905   1.00010   -1.000
 5059.00    1.00266   1.00315  537.414
 5060.00    1.00742   1.00420  552.489
 5061.00    1.00997   1.00248   -1.000
 5062.00    1.01085   0.99720   -1.000
 5063.00    1.01112   0.98822   -1.000
 5064.00    0.99587   0.97781   -1.000
 5065.00    0.98683   0.96848   -1.000
 5066.00    0.98786   0.96246   -1.000
 5067.00    0.98844   0.96016   -1.000
 5068.00    0.99002   0.96014   -1.000
 5069.00    0.99224   0.96103   -1.000
 5070.00    1.00087   0.96135   -1.000
 5071.00    1.00018   0.96056   -1.000
 5072.00    0.99858   0.95924   -1.000
 5073.00    0.99795   0.95840   -1.000
 5074.00    1.00650   0.95833   -1.000
 5075.00    1.00400   0.95826   -1.000
 5076.00    0.99669   0.95635   -1.000
 5077.00    0.99569   0.95103   -1.000
 5078.00    0.98175   0.94227   -1.000
 5079.00    0.96503   0.93260   -1.000
 5080.00    0.95379   0.92581   -1.000
 5081.00    0.95753   0.92386   -1.000
 5082.00    0.97071   0.92734   -1.000
 5083.00    0.97194   0.93467   -1.000
 5084.00    0.97877   0.94396   -1.000
 5085.00    0.99275   0.95368   -1.000
 5086.00    1.00729   0.96227   -1.000
 5087.00    1.02439   0.96938   -1.000
 5088.00    1.01360   0.97491   -1.000
 5089.00    1.00806   0.97921   -1.000
 5090.00    1.01334   0.98295   -1.000
 5091.00    1.01109   0.98638   -1.000
 5092.00    1.01242   0.98913   -1.000
 5093.00    1.01259   0.98991   -1.000
 5094.00    1.01209   0.98703   -1.000
 5095.00    1.01367   0.97953   -1.000
 5096.00    1.00447   0.96824   -1.000
 5097.00    0.99345   0.95591   -1.000
 5098.00    0.98163   0.94634   -1.000
 5099.00    0.97753   0.94237   -1.000
 5100.00    0.99595   0.94466   -1.000
 5101.00    1.00168   0.95135   -1.000
 5102.00    0.99630   0.95846   -1.000
 5103.00    1.00550   0.96295   -1.000
 5104.00    1.01102   0.96307   -1.000
 5105.00    1.00294   0.95892   -1.000
 5106.00    0.99330   0.95241   -1.000
 5107.00    0.97528   0.94595   -1.000
 5108.00    0.96956   0.94189   -1.000
 5109.00    0.96830   0.94160   -1.000
 5110.00    0.97447   0.94535   -1.000
 5111.00    0.98491   0.95245   -1.000
 5112.00    1.00190   0.96099   -1.000
 5113.00    1.00452   0.96945   -1.000
 5114.00    1.01271   0.97681   -1.000
 5115.00    1.01834   0.98260   -1.000
 5116.00    1.01253   0.98686   -1.000
 5117.00    1.01560   0.98903   -1.000
 5118.00    1.01963   0.98860   -1.000
 5119.00    1.02015   0.98487   -1.000
 5120.00    1.01331   0.97793   -1.000
 5121.00    1.00257   0.96859   -1.000
 5122.00    0.99892   0.95814   -1.000
 5123.00    0.98453   0.94800   -1.000
 5124.00    0.97617   0.93971   -1.000
 5125.00    0.97772   0.93406   -1.000
 5126.00    0.98353   0.93094   -1.000
 5127.00    0.98580   0.92981   -1.000
 5128.00    0.97515   0.93016   -1.000
 5129.00    0.98111   0.93195   -1.000
 5130.00    0.98430   0.93519   -1.000
 5131.00    0.99183   0.93966   -1.000
 5132.00    0.99014   0.94457   -1.000
 5133.00    0.99148   0.94904   -1.000
 5134.00    0.99671   0.95193   -1.000
 5135.00    0.99937   0.95230   -1.000
 5136.00    0.99823   0.94952   -1.000
 5137.00    0.98393   0.94411   -1.000
 5138.00    0.97095   0.93745   -1.000
 5139.00    0.96311   0.93146   -1.000
 5140.00    0.96834   0.92763   -1.000
 5141.00    0.97718   0.92608   -1.000
 5142.00    0.96971   0.92650   -1.000
 5143.00    0.97128   0.92817   -1.000
 5144.00    0.98049   0.93016   -1.000
 5145.00    0.98907   0.93168   -1.000
 5146.00    0.99881   0.93217   -1.000
 5147.00    0.99827   0.93206   -1.000
 5148.00    0.99461   0.93209   -1.000
 5149.00    0.98931   0.93167   -1.000
 5150.00    0.97993   0.93037   -1.000
 5151.00    0.97481   0.92837   -1.000
 5152.00    0.97136   0.92626   -1.000
 5153.00    0.97651   0.92603   -1.000
 5154.00    0.98867   0.92930   -1.000
 5155.00    0.99812   0.93651   -1.000
 5156.00    1.00405   0.94623   -1.000
 5157.00    1.00840   0.95627   -1.000
 5158.00    1.01588   0.96436   -1.000
 5159.00    1.01372   0.96885   -1.000
 5160.00    1.00983   0.96919   -1.000
 5161.00    1.00199   0.96500   -1.000
 5162.00    1.00478   0.95570   -1.000
 5163.00    1.00622   0.94031   -1.000
 5164.00    0.99494   0.91755   -1.000
 5165.00    0.96799   0.88797   -1.000
 5166.00    0.93164   0.85656   -1.000
 5167.00    0.89304   0.82965   -1.000
 5168.00    0.88315   0.81344   -1.000
 5169.00    0.89845   0.80798   -1.000
 5170.00    0.92400   0.80763   -1.000
 5171.00    0.92512   0.81000   -1.000
 5172.00    0.90451   0.81516   -1.000
 5173.00    0.89570   0.82810   -1.000
 5174.00    0.92595   0.85136   -1.000
 5175.00    0.97029   0.88020   -1.000
 5176.00    1.00464   0.90873   -1.000
 5177.00    1.01845   0.92951   -1.000
 5178.00    1.01891   0.93831   -1.000
 5179.00    1.01063   0.93432   -1.000
 5180.00    1.00607   0.91748   -1.000
 5181.00    0.99944   0.89125   -1.000
 5182.00    0.96544   0.86201   -1.000
 5183.00    0.92396   0.83999   -1.000
 5184.00    0.90617   0.83341   -1.000
 5185.00    0.92939   0.84347   -1.000
 5186.00    0.96780   0.86504   -1.000
 5187.00    0.98558   0.88810   -1.000
 5188.00    0.98384   0.90598   -1.000
 5189.00    0.97670   0.91596   -1.000
 5190.00    0.98037   0.91802   -1.000
 5191.00    0.96926   0.91524   -1.000
 5192.00    0.96092   0.91129   -1.000
 5193.00    0.96522   0.90855   -1.000
 5194.00    0.97269   0.90872   -1.000
 5195.00    0.97487   0.91190   -1.000
 5196.00    0.97427   0.91751   -1.000
 5197.00    0.98834   0.92534   -1.000
 5198.00    0.98520   0.93417   -1.000
 5199.00    0.98934   0.94218   -1.000
 5200.00    0.99111   0.94713   -1.000
 5201.00    0.99113   0.94665   -1.000
 5202.00    0.98968   0.93982   -1.000
 5203.00    0.97499   0.92755   -1.000
 5204.00    0.95267   0.91255   -1.000
 5205.00    0.94361   0.89822   -1.000
 5206.00    0.94418   0.88767   -1.000
 5207.00    0.95386   0.88267   -1.000
 5208.00    0.95725   0.88389   -1.000
 5209.00    0.95280   0.89146   -1.000
 5210.00    0.95774   0.90429   -1.000
 5211.00    0.98530   0.92019   -1.000
 5212.00    1.00214   0.93523   -1.000
 5213.00    1.00994   0.94571   -1.000
 5214.00    0.99804   0.94965   -1.000
 5215.00    0.98558   0.94835   -1.000
 5216.00    0.97995   0.94618   -1.000
 5217.00    0.98160   0.94698   -1.000
 5218.00    0.99068   0.95257   -1.000
 5219.00    1.00263   0.96115   -1.000
 5220.00    1.01286   0.96933   -1.000
 5221.00    1.01382   0.97326   -1.000
 5222.00    1.00768   0.97008   -1.000
 5223.00    1.01042   0.95903   -1.000
 5224.00    0.99797   0.94112   -1.000
 5225.00    0.96663   0.92040   -1.000
 5226.00    0.93947   0.90377   -1.000
 5227.00    0.92523   0.89663   -1.000
 5228.00    0.94013   0.90069   -1.000
 5229.00    0.97307   0.91178   -1.000
 5230.00    0.99489   0.92347   -1.000
 5231.00    0.99828   0.93094   -1.000
 5232.00    0.99940   0.93261   -1.000
 5233.00    0.98657   0.93153   -1.000
 5234.00    0.98086   0.93221   -1.000
 5235.00    0.98688   0.93739   -1.000
 5236.00    0.99547   0.94658   -1.000
 5237.00    1.00579   0.95749   -1.000
 5238.00    1.00469   0.96705   -1.000
 5239.00    1.00985   0.97359   -1.000
 5240.00    1.00745   0.97718   -1.000
 5241.00    1.01417   0.97862   -1.000
 5242.00    1.01222   0.97908   -1.000
 5243.00    1.01190   0.97910   -1.000
 5244.00    1.01207   0.97793   -1.000
 5245.00    1.01034   0.97426   -1.000
 5246.00    1.00198   0.96798   -1.000
 5247.00    0.99321   0.96003   -1.000
 5248.00    0.98647   0.95238   -1.000
 5249.00    0.98147   0.94659   -1.000
 5250.00    0.97472   0.94347   -1.000
 5251.00    0.97790   0.94307   -1.000
 5252.00    0.99496   0.94459   -1.000
 5253.00    0.99154   0.94704   -1.000
 5254.00    0.97907   0.95040   -1.000
 5255.00    0.98570   0.95538   -1.000
 5256.00    0.99275   0.96167   -1.000
 5257.00    1.00759   0.96778   -1.000
 5258.00    1.01240   0.97078   -1.000
 5259.00    1.01149   0.96761   -1.000
 5260.00    1.00799   0.95668   -1.000
 5261.00    0.98974   0.93866   -1.000
 5262.00    0.96817   0.91680   -1.000
 5263.00    0.95224   0.89532   -1.000
 5264.00    0.93800   0.87797   -1.000
 5265.00    0.93262   0.86718   -1.000
 5266.00    0.94168   0.86206   -1.000
 5267.00    0.95034   0.85974   -1.000
 5268.00    0.94261   0.85833   -1.000
 5269.00    0.92399   0.85774   -1.000
 5270.00    0.91011   0.86113   -1.000
 5271.00    0.92769   0.86994   -1.000
 5272.00    0.95799   0.88206   -1.000
 5273.00    0.96891   0.89531   -1.000
 5274.00    0.97821   0.90740   -1.000
 5275.00    0.97408   0.91848   -1.000
 5276.00    0.98116   0.92982   -1.000
 5277.00    0.99455   0.94114   -1.000
 5278.00    1.00399   0.95040   -1.000
 5279.00    1.00261   0.95443   -1.000
 5280.00    1.00759   0.95241   -1.000
 5281.00    0.98785   0.94621   -1.000
 5282.00    0.97697   0.93955   -1.000
 5283.00    0.97833   0.93665   -1.000
 5284.00    0.97727   0.94040   -1.000
 5285.00    0.98926   0.95032   -1.000
 5286.00    0.99878   0.96345   -1.000
 5287.00    1.00729   0.97603   -1.000
 5288.00    1.01079   0.98551   -1.000
 5289.00    1.00859   0.99147   -1.000
 5290.00    1.00833   0.99411   -1.000
 5291.00    1.01233   0.99407   -1.000
 5292.00    1.00905   0.99203   -1.000
 5293.00    1.01084   0.98736   -1.000
 5294.00    1.00657   0.97952   -1.000
 5295.00    0.99992   0.96870   -1.000
 5296.00    0.99137   0.95606   -1.000
 5297.00    0.98028   0.94489   -1.000
 5298.00    0.96843   0.93832   -1.000
 5299.00    0.97759   0.93727   -1.000
 5300.00    0.98689   0.94127   -1.000
 5301.00    0.98841   0.94810   -1.000
 5302.00    0.99332   0.95624   -1.000
 5303.00    0.99631   0.96471   -1.000
 5304.00    1.00123   0.97174   -1.000
 5305.00    1.00245   0.97669   -1.000
 5306.00    0.99548   0.97956   -1.000
 5307.00    0.99490   0.98109   -1.000
 5308.00    0.99963   0.98296   -1.000
 5309.00    1.00133   0.98555   -1.000
 5310.00    1.00651   0.98821   -1.000
 5311.00    1.01322   0.98954   -1.000
 5312.00    1.01040   0.98805   -1.000
 5313.00    1.00829   0.98339   -1.000
 5314.00    1.00818   0.97624   -1.000
 5315.00    0.99692   0.96834   -1.000
 5316.00    0.98679   0.96242   -1.000
 5317.00    0.98174   0.96042   -1.000
 5318.00    0.98433   0.96235   -1.000
 5319.00    0.99564   0.96576   -1.000
 5320.00    1.00208   0.96737   -1.000
 5321.00    0.99957   0.96517   -1.000
 5322.00    0.98658   0.95831   -1.000
 5323.00    0.97956   0.94787   -1.000
 5324.00    0.97603   0.93531   -1.000
 5325.00    0.97206   0.92183   -1.000
 5326.00    0.97184   0.90802   -1.000
 5327.00    0.94930   0.89570   -1.000
 5328.00    0.91654   0.88951   -1.000
 5329.00    0.92229   0.89193   -1.000
 5330.00    0.95535   0.90283   -1.000
 5331.00    0.98190   0.91831   -1.000
 5332.00    0.98206   0.93335   -1.000
 5333.00    0.98368   0.94538   -1.000
 5334.00    0.99128   0.95305   -1.000
 5335.00    0.98886   0.95625   -1.000
 5336.00    0.99065   0.95584   -1.000
 5337.00    0.99314   0.95237   -1.000
 5338.00    0.99362   0.94648   -1.000
 5339.00    0.98384   0.93976   -1.000
 5340.00    0.96713   0.93497   -1.000
 5341.00    0.97030   0.93410   -1.000
 5342.00    0.97669   0.93757   -1.000
 5343.00    0.97669   0.94287   -1.000
 5344.00    0.97669   0.94706   -1.000
 5345.00    0.97702   0.94862   -1.000
 5346.00    0.98299   0.94749   -1.000
 5347.00    0.98299   0.94544   -1.000
 5348.00    0.98299   0.94434   -1.000
 5349.00    0.98305   0.94561   -1.000
 5350.00    0.98443   0.94969   -1.000
 5351.00    0.98995   0.95592   -1.000
 5352.00    1.00103   0.96289   -1.000
 5353.00    1.00071   0.96974   -1.000
 5354.00    0.99931   0.97627   -1.000
 5355.00    1.00759   0.98195   -1.000
 5356.00    1.01065   0.98643   -1.000
 5357.00    1.01087   0.98908   -1.000
 5358.00    1.00743   0.98931   -1.000
 5359.00    1.00690   0.98681   -1.000
 5360.00    1.01100   0.98130   -1.000
 5361.00    1.00515   0.97328   -1.000
 5362.00    0.99806   0.96411   -1.000
 5363.00    0.99806   0.95533   -1.000
 5364.00    0.99806   0.94824   -1.000
 5365.00    0.99806   0.94319   -1.000
 5366.00    0.99473   0.93941   -1.000
 5367.00    0.94638   0.93511   -1.000
 5368.00    0.94638   0.92915   -1.000
 5369.00    0.94638   0.92165   -1.000
 5370.00    0.94638   0.91493   -1.000
 5371.00    0.94687   0.91268   -1.000
 5372.00    0.95556   0.91724   -1.000
 5373.00    0.98357   0.92848   -1.000
 5374.00    0.99714   0.94267   -1.000
 5375.00    0.99546   0.95591   -1.000
 5376.00    1.00196   0.96508   -1.000
 5377.00    1.00744   0.96905   -1.000
 5378.00    1.00284   0.96847   -1.000
 5379.00    0.99272   0.96493   -1.000
 5380.00    0.99267   0.96017   -1.000
 5381.00    0.99430   0.95570   -1.000
 5382.00    0.98895   0.95280   -1.000
 5383.00    0.97862   0.95243   -1.000
 5384.00    0.98279   0.95477   -1.000
 5385.00    0.98944   0.95887   -1.000
 5386.00    0.99774   0.96264   -1.000
 5387.00    0.99734   0.96440   -1.000
 5388.00    0.99928   0.96320   -1.000
 5389.00    0.99916   0.95904   -1.000
 5390.00    0.99543   0.95305   -1.000
 5391.00    0.99361   0.94641   -1.000
 5392.00    0.98791   0.93987   -1.000
 5393.00    0.98174   0.93406   -1.000
 5394.00    0.97880   0.92841   -1.000
 5395.00    0.97690   0.92257   -1.000
 5396.00    0.96609   0.91757   -1.000
 5397.00    0.95605   0.91490   -1.000
 5398.00    0.96448   0.91626   -1.000
 5399.00    0.97635   0.92085   -1.000
 5400.00    0.98231   0.92592   -1.000
 5401.00    0.98594   0.92861   -1.000
 5402.00    0.98467   0.92651   -1.000
 5403.00    0.97452   0.91926   -1.000
 5404.00    0.96318   0.90977   -1.000
 5405.00    0.95572   0.90200   -1.000
 5406.00    0.95816   0.89828   -1.000
 5407.00    0.96114   0.89923   -1.000
 5408.00    0.96946   0.90255   -1.000
 5409.00    0.97069   0.90685   -1.000
 5410.00    0.96460   0.91209   -1.000
 5411.00    0.97292   0.91811   -1.000
 5412.00    0.97383   0.92479   -1.000
 5413.00    0.98040   0.93110   -1.000
 5414.00    0.98856   0.93657   -1.000
 5415.00    0.98160   0.94171   -1.000
 5416.00    0.98203   0.94628   -1.000
 5417.00    0.98811   0.95010   -1.000
 5418.00    0.98752   0.95268   -1.000
 5419.00    0.98325   0.95342   -1.000
 5420.00    0.98218   0.95249   -1.000
 5421.00    0.98692   0.95000   -1.000
 5422.00    0.98453   0.94639   -1.000
 5423.00    0.97918   0.94301   -1.000
 5424.00    0.97611   0.94081   -1.000
 5425.00    0.97380   0.94072   -1.000
 5426.00    0.98288   0.94148   -1.000
 5427.00    0.98821   0.94013   -1.000
 5428.00    0.97905   0.93619   -1.000
 5429.00    0.96380   0.93045   -1.000
 5430.00    0.96041   0.92529   -1.000
 5431.00    0.96657   0.92206   -1.000
 5432.00    0.97085   0.92003   -1.000
 5433.00    0.96436   0.91924   -1.000
 5434.00    0.95400   0.92020   -1.000
 5435.00    0.94782   0.92412   -1.000
 5436.00    0.96135   0.93198   -1.000
 5437.00    0.97837   0.94268   -1.000
 5438.00    0.98157   0.95416   -1.000
 5439.00    0.98157   0.96359   -1.000
 5440.00    0.98282   0.96966   -1.000
 5441.00    0.99324   0.97145   -1.000
 5442.00    0.99324   0.96850   -1.000
 5443.00    0.99211   0.96097   -1.000
 5444.00    0.98107   0.94958   -1.000
 5445.00    0.96482   0.93714   -1.000
 5446.00    0.94786   0.92748   -1.000
 5447.00    0.94560   0.92405   -1.000
 5448.00    0.95563   0.92785   -1.000
 5449.00    0.97579   0.93607   -1.000
 5450.00    0.98876   0.94503   -1.000
 5451.00    0.99259   0.95070   -1.000
 5452.00    0.99061   0.95077   -1.000
 5453.00    0.98219   0.94548   -1.000
 5454.00    0.96576   0.93784   -1.000
 5455.00    0.94861   0.93178   -1.000
 5456.00    0.94235   0.93118   -1.000
 5457.00    0.96503   0.93583   -1.000
 5458.00    0.98125   0.94300   -1.000
 5459.00    0.98553   0.94893   -1.000
 5460.00    0.98000   0.95092   -1.000
 5461.00    0.97716   0.94859   -1.000
 5462.00    0.98088   0.94404   -1.000
 5463.00    0.97524   0.94043   -1.000
 5464.00    0.97216   0.93978   -1.000
 5465.00    0.98176   0.94225   -1.000
 5466.00    0.98305   0.94641   -1.000
 5467.00    0.98558   0.95084   -1.000
 5468.00    0.98754   0.95422   -1.000
 5469.00    0.98804   0.95557   -1.000
 5470.00    0.98388   0.95465   -1.000
 5471.00    0.98045   0.95163   -1.000
 5472.00    0.98094   0.94644   -1.000
 5473.00    0.97675   0.93935   -1.000
 5474.00    0.97022   0.93081   -1.000
 5475.00    0.96617   0.92209   -1.000
 5476.00    0.95625   0.91568   -1.000
 5477.00    0.94544   0.91353   -1.000
 5478.00    0.94955   0.91612   -1.000
 5479.00    0.96667   0.92171   -1.000
 5480.00    0.97780   0.92766   -1.000
 5481.00    0.97787   0.93320   -1.000
 5482.00    0.97469   0.93801   -1.000
 5483.00    0.97289   0.94253   -1.000
 5484.00    0.97257   0.94664   -1.000
 5485.00    0.97372   0.94938   -1.000
 5486.00    0.98011   0.95018   -1.000
 5487.00    0.98095   0.94934   -1.000
 5488.00    0.97349   0.94819   -1.000
 5489.00    0.97265   0.94772   -1.000
 5490.00    0.97652   0.94822   -1.000
 5491.00    0.97871   0.94944   -1.000
 5492.00    0.98052   0.95056   -1.000
 5493.00    0.98159   0.95107   -1.000
 5494.00    0.98601   0.95063   -1.000
 5495.00    0.97887   0.94905   -1.000
 5496.00    0.96960   0.94674   -1.000
 5497.00    0.96311   0.94431   -1.000
 5498.00    0.96021   0.94219   -1.000
 5499.00    0.96636   0.94031   -1.000
 5500.00    0.96676   0.93789   -1.000
 5501.00    0.96026   0.93512   -1.000
 5502.00    0.96103   0.93295   -1.000
 5503.00    0.96682   0.93114   -1.000
 5504.00    0.97165   0.92945   -1.000
 5505.00    0.97219   0.92771   -1.000
 5506.00    0.96271   0.92628   -1.000
 5507.00    0.95342   0.92617   -1.000
 5508.00    0.96004   0.92717   -1.000
 5509.00    0.96855   0.92850   -1.000
 5510.00    0.97914   0.92894   -1.000
 5511.00    0.97644   0.92783   -1.000
 5512.00    0.96545   0.92588   -1.000
 5513.00    0.95735   0.92474   -1.000
 5514.00    0.96167   0.92602   -1.000
 5515.00    0.96970   0.92998   -1.000
 5516.00    0.97558   0.93608   -1.000
 5517.00    0.97875   0.94298   -1.000
 5518.00    0.98091   0.94936   -1.000
 5519.00    0.98476   0.95402   -1.000
 5520.00    0.98378   0.95660   -1.000
 5521.00    0.98117   0.95701   -1.000
 5522.00    0.98243   0.95538   -1.000
 5523.00    0.98188   0.95151   -1.000
 5524.00    0.97706   0.94505   -1.000
 5525.00    0.97115   0.93634   -1.000
 5526.00    0.95976   0.92667   -1.000
 5527.00    0.94527   0.91873   -1.000
 5528.00    0.93936   0.91499   -1.000
 5529.00    0.94504   0.91680   -1.000
 5530.00    0.95675   0.92268   -1.000
 5531.00    0.96631   0.92939   -1.000
 5532.00    0.97216   0.93437   -1.000
 5533.00    0.97193   0.93652   -1.000
 5534.00    0.96712   0.93673   -1.000
 5535.00    0.96045   0.93679   -1.000
 5536.00    0.96586   0.93817   -1.000
 5537.00    0.97280   0.94083   -1.000
 5538.00    0.96926   0.94415   -1.000
 5539.00    0.97376   0.94743   -1.000
 5540.00    0.97460   0.94980   -1.000
 5541.00    0.97345   0.95038   -1.000
 5542.00    0.97835   0.94935   -1.000
 5543.00    0.97497   0.94756   -1.000
 5544.00    0.97507   0.94620   -1.000
 5545.00    0.97521   0.94609   -1.000
 5546.00    0.97418   0.94745   -1.000
 5547.00    0.97355   0.95014   -1.000
 5548.00    0.97645   0.95346   -1.000
 5549.00    0.98365   0.95625   -1.000
 5550.00    0.98005   0.95777   -1.000
 5551.00    0.97681   0.95779   -1.000
 5552.00    0.97524   0.95640   -1.000
 5553.00    0.96872   0.95436   -1.000
 5554.00    0.96647   0.95265   -1.000
 5555.00    0.96629   0.95195   -1.000
 5556.00    0.97252   0.95213   -1.000
 5557.00    0.97365   0.95278   -1.000
 5558.00    0.97406   0.95332   -1.000
 5559.00    0.96858   0.95306   -1.000
 5560.00    0.97113   0.95152   -1.000
 5561.00    0.97322   0.94868   -1.000
 5562.00    0.96630   0.94506   -1.000
 5563.00    0.96358   0.94139   -1.000
 5564.00    0.96464   0.93819   -1.000
 5565.00    0.96345   0.93568   -1.000
 5566.00    0.95749   0.93377   -1.000
 5567.00    0.95770   0.93217   -1.000
 5568.00    0.96053   0.93056   -1.000
 5569.00    0.96852   0.92893   -1.000
 5570.00    1.00587   0.92731   -1.000
 5571.00    1.11103   0.92587   -1.000
 5572.00    1.23385   0.92503   -1.000
 5573.00    1.11130   0.92547   -1.000
 5574.00    0.77733   0.92723   -1.000
 5575.00    0.62059   0.92973   -1.000
 5576.00    0.73425   0.93282   -1.000
 5577.00    0.90773   0.93623   -1.000
 5578.00    0.94914   0.93932   -1.000
 5579.00    0.96353   0.94154   -1.000
 5580.00    0.96404   0.94264   -1.000
 5581.00    0.95757   0.94257   -1.000
 5582.00    0.96052   0.94111   -1.000
 5583.00    0.96307   0.93773   -1.000
 5584.00    0.96261   0.93176   -1.000
 5585.00    0.96347   0.92266   -1.000
 5586.00    0.94775   0.91153   -1.000
 5587.00    0.93357   0.90122   -1.000
 5588.00    0.92667   0.89430   -1.000
 5589.00    0.92522   0.89243   -1.000
 5590.00    0.93211   0.89524   -1.000
 5591.00    0.94442   0.90093   -1.000
 5592.00    0.94938   0.90686   -1.000
 5593.00    0.95090   0.91181   -1.000
 5594.00    0.94584   0.91550   -1.000
 5595.00    0.94522   0.91805   -1.000
 5596.00    0.95348   0.91921   -1.000
 5597.00    0.95565   0.91842   -1.000
 5598.00    0.94992   0.91613   -1.000
 5599.00    0.94244   0.91321   -1.000
 5600.00    0.94027   0.91019   -1.000
 5601.00    0.94244   0.90848   -1.000
 5602.00    0.93511   0.91013   -1.000
 5603.00    0.93625   0.91592   -1.000
 5604.00    0.94929   0.92521   -1.000
 5605.00    0.96567   0.93615   -1.000
 5606.00    0.96822   0.94653   -1.000
 5607.00    0.96523   0.95478   -1.000
 5608.00    0.96569   0.96013  521.572
 5609.00    0.96671   0.96265  526.335
 5610.00    0.96910   0.96253   -1.000
 5611.00    0.96992   0.95959   -1.000
 5612.00    0.97002   0.95315   -1.000
 5613.00    0.96853   0.94345   -1.000
 5614.00    0.95361   0.93241   -1.000
 5615.00    0.93622   0.92317   -1.000
 5616.00    0.93516   0.91899   -1.000
 5617.00    0.94510   0.92005   -1.000
 5618.00    0.95641   0.92486   -1.000
 5619.00    0.96869   0.93099   -1.000
 5620.00    0.97396   0.93621   -1.000
 5621.00    0.96757   0.93877   -1.000
 5622.00    0.96464   0.93834   -1.000
 5623.00    0.96058   0.93575   -1.000
 5624.00    0.95081   0.93307   -1.000
 5625.00    0.95203   0.93215   -1.000
 5626.00    0.95633   0.93395   -1.000
 5627.00    0.95777   0.93820   -1.000
 5628.00    0.96240   0.94367   -1.000
 5629.00    0.96930   0.94895   -1.000
 5630.00    0.97259   0.95269   -1.000
 5631.00    0.96702   0.95406   -1.000
 5632.00    0.96741   0.95305   -1.000
 5633.00    0.97179   0.95037   -1.000
 5634.00    0.96445   0.94667   -1.000
 5635.00    0.96377   0.94273   -1.000
 5636.00    0.96030   0.93917   -1.000
 5637.00    0.95579   0.93640   -1.000
 5638.00    0.96221   0.93450   -1.000
 5639.00    0.96282   0.93327   -1.000
 5640.00    0.95479   0.93252   -1.000
 5641.00    0.95180   0.93245   -1.000
 5642.00    0.95585   0.93315   -1.000
 5643.00    0.95980   0.93443   -1.000
 5644.00    0.95904   0.93612   -1.000
 5645.00    0.96258   0.93796   -1.000
 5646.00    0.96777   0.93944   -1.000
 5647.00    0.96419   0.94024   -1.000
 5648.00    0.96559   0.94036   -1.000
 5649.00    0.96437   0.93998   -1.000
 5650.00    0.96165   0.93944   -1.000
 5651.00    0.96136   0.93859   -1.000
 5652.00    0.96473   0.93703   -1.000
 5653.00    0.96296   0.93420   -1.000
 5654.00    0.95942   0.92966   -1.000
 5655.00    0.95546   0.92336   -1.000
 5656.00    0.94815   0.91577   -1.000
 5657.00    0.94244   0.90837   -1.000
 5658.00    0.93554   0.90333   -1.000
 5659.00    0.93552   0.90180   -1.000
 5660.00    0.94325   0.90337   -1.000
 5661.00    0.95106   0.90706   -1.000
 5662.00    0.95141   0.91179   -1.000
 5663.00    0.94644   0.91691   -1.000
 5664.00    0.95267   0.92173   -1.000
 5665.00    0.95964   0.92540   -1.000
 5666.00    0.95767   0.92759   -1.000
 5667.00    0.95695   0.92872   -1.000
 5668.00    0.95390   0.92951   -1.000
 5669.00    0.95281   0.93072   -1.000
 5670.00    0.95826   0.93281   -1.000
 5671.00    0.95939   0.93567   -1.000
 5672.00    0.96237   0.93865   -1.000
 5673.00    0.97034   0.94119   -1.000
 5674.00    0.96961   0.94283   -1.000
 5675.00    0.96082   0.94365   -1.000
 5676.00    0.96083   0.94372   -1.000
 5677.00    0.96075   0.94297   -1.000
 5678.00    0.96037   0.94112   -1.000
 5679.00    0.95584   0.93794   -1.000
 5680.00    0.95377   0.93339   -1.000
 5681.00    0.95415   0.92799   -1.000
 5682.00    0.94596   0.92275   -1.000
 5683.00    0.93982   0.91868   -1.000
 5684.00    0.94325   0.91633   -1.000
 5685.00    0.93762   0.91536   -1.000
 5686.00    0.93400   0.91506   -1.000
 5687.00    0.92867   0.91528   -1.000
 5688.00    0.93557   0.91634   -1.000
 5689.00    0.94263   0.91873   -1.000
 5690.00    0.94423   0.92242   -1.000
 5691.00    0.95514   0.92684   -1.000
 5692.00    0.95841   0.93122   -1.000
 5693.00    0.95565   0.93482   -1.000
 5694.00    0.95468   0.93720   -1.000
 5695.00    0.95509   0.93807   -1.000
 5696.00    0.95860   0.93744   -1.000
 5697.00    0.95619   0.93531   -1.000
 5698.00    0.95445   0.93202   -1.000
 5699.00    0.95295   0.92815   -1.000
 5700.00    0.95229   0.92445   -1.000
 5701.00    0.94712   0.92163   -1.000
 5702.00    0.94369   0.91986   -1.000
 5703.00    0.94750   0.91875   -1.000
 5704.00    0.94855   0.91722   -1.000
 5705.00    0.94964   0.91439   -1.000
 5706.00    0.94983   0.90995   -1.000
 5707.00    0.94129   0.90423   -1.000
 5708.00    0.93143   0.89836   -1.000
 5709.00    0.92668   0.89414   -1.000
 5710.00    0.92108   0.89303   -1.000
 5711.00    0.92335   0.89567   -1.000
 5712.00    0.93433   0.90172   -1.000
 5713.00    0.94127   0.90972   -1.000
 5714.00    0.94936   0.91786   -1.000
 5715.00    0.95120   0.92476   -1.000
 5716.00    0.94844   0.93019   -1.000
 5717.00    0.94920   0.93434   -1.000
 5718.00    0.94837   0.93777   -1.000
 5719.00    0.95429   0.94089   -1.000
 5720.00    0.95821   0.94377   -1.000
 5721.00    0.96048   0.94617   -1.000
 5722.00    0.96121   0.94775   -1.000
 5723.00    0.96223   0.94822   -1.000
 5724.00    0.95411   0.94744   -1.000
 5725.00    0.95446   0.94548   -1.000
 5726.00    0.95834   0.94294   -1.000
 5727.00    0.95692   0.94059   -1.000
 5728.00    0.95626   0.93899   -1.000
 5729.00    0.95512   0.93822   -1.000
 5730.00    0.95108   0.93803   -1.000
 5731.00    0.95335   0.93838   -1.000
 5732.00    0.95275   0.93932   -1.000
 5733.00    0.95600   0.94085   -1.000
 5734.00    0.95422   0.94268   -1.000
 5735.00    0.95616   0.94435   -1.000
 5736.00    0.95404   0.94554   -1.000
 5737.00    0.95411   0.94610   -1.000
 5738.00    0.95334   0.94611   -1.000
 5739.00    0.95213   0.94570   -1.000
 5740.00    0.95243   0.94500   -1.000
 5741.00    0.95359   0.94416   -1.000
 5742.00    0.95253   0.94352   -1.000
 5743.00    0.95278   0.94320   -1.000
 5744.00    0.95379   0.94309   -1.000
 5745.00    0.95195   0.94281   -1.000
 5746.00    0.95060   0.94224   -1.000
 5747.00    0.94965   0.94147   -1.000
 5748.00    0.94831   0.94057   -1.000
 5749.00    0.94722   0.93929   -1.000
 5750.00    0.94747   0.93706   -1.000
 5751.00    0.95209   0.93384   -1.000
 5752.00    0.95225   0.93037   -1.000
 5753.00    0.94631   0.92794   -1.000
 5754.00    0.94315   0.92779   -1.000
 5755.00    0.94657   0.93008   -1.000
 5756.00    0.94666   0.93394   -1.000
 5757.00    0.94637   0.93773   -1.000
 5758.00    0.94955   0.94000   -1.000
 5759.00    0.95285   0.94001   -1.000
 5760.00    0.95528   0.93803   -1.000
 5761.00    0.95509   0.93528   -1.000
 5762.00    0.94724   0.93351   -1.000
 5763.00    0.93931   0.93390  517.097
 5764.00    0.94219   0.93656  516.501
 5765.00    0.94687   0.94046   -1.000
 5766.00    0.94914   0.94419  517.706
 5767.00    0.95326   0.94674   -1.000
 5768.00    0.95721   0.94764   -1.000
 5769.00    0.95607   0.94698   -1.000
 5770.00    0.95814   0.94519   -1.000
 5771.00    0.96214   0.94278   -1.000
 5772.00    0.96087   0.94027   -1.000
 5773.00    0.95245   0.93814   -1.000
 5774.00    0.94785   0.93662   -1.000
 5775.00    0.94789   0.93567   -1.000
 5776.00    0.95019   0.93474   -1.000
 5777.00    0.95345   0.93288   -1.000
 5778.00    0.95015   0.92945   -1.000
 5779.00    0.94834   0.92465   -1.000
 5780.00    0.95044   0.91940   -1.000
 5781.00    0.94859   0.91497   -1.000
 5782.00    0.94670   0.91222   -1.000
 5783.00    0.94521   0.91149   -1.000
 5784.00    0.94871   0.91252   -1.000
 5785.00    0.95344   0.91494   -1.000
 5786.00    0.95112   0.91834   -1.000
 5787.00    0.94955   0.92187   -1.000
 5788.00    0.94869   0.92471   -1.000
 5789.00    0.94861   0.92648   -1.000
 5790.00    0.95037   0.92748   -1.000
 5791.00    0.95393   0.92846   -1.000
 5792.00    0.94759   0.92993   -1.000
 5793.00    0.94511   0.93200   -1.000
 5794.00    0.94957   0.93428   -1.000
 5795.00    0.95894   0.93613   -1.000
 5796.00    0.96110   0.93713   -1.000
 5797.00    0.95631   0.93757   -1.000
 5798.00    0.95596   0.93810   -1.000
 5799.00    0.95588   0.93899   -1.000
 5800.00    0.95877   0.94012   -1.000
 5801.00    0.96090   0.94099   -1.000
 5802.00    0.96120   0.94108   -1.000
 5803.00    0.96156   0.94020   -1.000
 5804.00    0.96136   0.93873   -1.000
 5805.00    0.95854   0.93742   -1.000
 5806.00    0.95356   0.93685   -1.000
 5807.00    0.95004   0.93716   -1.000
 5808.00    0.95537   0.93816   -1.000
 5809.00    0.96260   0.93954   -1.000
 5810.00    0.96249   0.94083   -1.000
 5811.00    0.95950   0.94152   -1.000
 5812.00    0.96017   0.94137   -1.000
 5813.00    0.96014   0.94043   -1.000
 5814.00    0.95568   0.93901   -1.000
 5815.00    0.95472   0.93780   -1.000
 5816.00    0.95984   0.93755   -1.000
 5817.00    0.96131   0.93854   -1.000
 5818.00    0.95735   0.94039   -1.000
 5819.00    0.95854   0.94249   -1.000
 5820.00    0.96484   0.94434   -1.000
 5821.00    0.96670   0.94570   -1.000
 5822.00    0.96226   0.94659   -1.000
 5823.00    0.95855   0.94707   -1.000
 5824.00    0.95748   0.94731   -1.000
 5825.00    0.96254   0.94746   -1.000
 5826.00    0.96020   0.94763   -1.000
 5827.00    0.96173   0.94782   -1.000
 5828.00    0.96799   0.94794   -1.000
 5829.00    0.96724   0.94789   -1.000
 5830.00    0.96670   0.94761   -1.000
 5831.00    0.96602   0.94701   -1.000
 5832.00    0.96315   0.94613   -1.000
 5833.00    0.96385   0.94516   -1.000
 5834.00    0.96509   0.94442   -1.000
 5835.00    0.96248   0.94419   -1.000
 5836.00    0.96317   0.94450   -1.000
 5837.00    0.95801   0.94512   -1.000
 5838.00    0.95983   0.94579   -1.000
 5839.00    0.96272   0.94634   -1.000
 5840.00    0.96437   0.94665   -1.000
 5841.00    0.96183   0.94653   -1.000
 5842.00    0.95469   0.94589   -1.000
 5843.00    0.96083   0.94468   -1.000
 5844.00    0.96318   0.94293   -1.000
 5845.00    0.96217   0.94084   -1.000
 5846.00    0.96117   0.93880   -1.000
 5847.00    0.96186   0.93712   -1.000
 5848.00    0.96188   0.93570   -1.000
 5849.00    0.96068   0.93406   -1.000
 5850.00    0.95932   0.93168   -1.000
 5851.00    0.96134   0.92829   -1.000
 5852.00    0.95395   0.92405   -1.000
 5853.00    0.94373   0.91935   -1.000
 5854.00    0.94164   0.91448   -1.000
 5855.00    0.94612   0.90956   -1.000
 5856.00    0.94929   0.90501   -1.000
 5857.00    0.94301   0.90201   -1.000
 5858.00    0.94046   0.90147   -1.000
 5859.00    0.94684   0.90349   -1.000
 5860.00    0.95185   0.90742   -1.000
 5861.00    0.95455   0.91213   -1.000
 5862.00    0.95395   0.91664   -1.000
 5863.00    0.95242   0.92013   -1.000
 5864.00    0.94789   0.92210   -1.000
 5865.00    0.94648   0.92279   -1.000
 5866.00    0.94748   0.92294   -1.000
 5867.00    0.94659   0.92346   -1.000
 5868.00    0.94594   0.92494   -1.000
 5869.00    0.94701   0.92718   -1.000
 5870.00    0.95204   0.92945   -1.000
 5871.00    0.95867   0.93098   -1.000
 5872.00    0.95927   0.93130   -1.000
 5873.00    0.95341   0.93047   -1.000
 5874.00    0.95127   0.92886   -1.000
 5875.00    0.95191   0.92694   -1.000
 5876.00    0.95161   0.92501   -1.000
 5877.00    0.94906   0.92312   -1.000
 5878.00    0.94481   0.92114   -1.000
 5879.00    0.94309   0.91892   -1.000
 5880.00    0.94985   0.91633   -1.000
 5881.00    0.95115   0.91322   -1.000
 5882.00    0.95102   0.90945   -1.000
 5883.00    0.95707   0.90476   -1.000
 5884.00    0.95633   0.89845   -1.000
 5885.00    0.92732   0.88898   -1.000
 5886.00    0.87662   0.87448  639.771
 5887.00    0.83315   0.85453   -1.000
 5888.00    0.83312   0.83173  614.349
 5889.00    0.85847   0.81167   -1.000
 5890.00    0.87334   0.79919   -1.000
 5891.00    0.86781   0.79499   -1.000
 5892.00    0.85225   0.79620   -1.000
 5893.00    0.84753   0.79863   -1.000
 5894.00    0.85716   0.80005   -1.000
 5895.00    0.86834   0.80159   -1.000
 5896.00    0.87228   0.80619   -1.000
 5897.00    0.88475   0.81590   -1.000
 5898.00    0.90107   0.83012   -1.000
 5899.00    0.92153   0.84689   -1.000
 5900.00    0.93608   0.86367   -1.000
 5901.00    0.94113   0.87819   -1.000
 5902.00    0.94180   0.88938   -1.000
 5903.00    0.93976   0.89714   -1.000
 5904.00    0.93772   0.90222   -1.000
 5905.00    0.93551   0.90556   -1.000
 5906.00    0.93240   0.90790   -1.000
 5907.00    0.93657   0.90964   -1.000
 5908.00    0.93717   0.91095   -1.000
 5909.00    0.93740   0.91165   -1.000
 5910.00    0.94239   0.91146   -1.000
 5911.00    0.94288   0.91005   -1.000
 5912.00    0.93288   0.90743   -1.000
 5913.00    0.92590   0.90425   -1.000
 5914.00    0.92319   0.90146   -1.000
 5915.00    0.92024   0.89989   -1.000
 5916.00    0.92046   0.89995   -1.000
 5917.00    0.92313   0.90150   -1.000
 5918.00    0.92882   0.90389   -1.000
 5919.00    0.93187   0.90633   -1.000
 5920.00    0.93176   0.90827   -1.000
 5921.00    0.93098   0.90959   -1.000
 5922.00    0.93085   0.91050   -1.000
 5923.00    0.93564   0.91130   -1.000
 5924.00    0.94184   0.91207   -1.000
 5925.00    0.94117   0.91253   -1.000
 5926.00    0.93508   0.91217   -1.000
 5927.00    0.93450   0.91077   -1.000
 5928.00    0.93705   0.90869   -1.000
 5929.00    0.93585   0.90671   -1.000
 5930.00    0.93172   0.90565   -1.000
 5931.00    0.92845   0.90566   -1.000
 5932.00    0.93083   0.90635   -1.000
 5933.00    0.93206   0.90740   -1.000
 5934.00    0.92789   0.90863   -1.000
 5935.00    0.91975   0.90998   -1.000
 5936.00    0.91638   0.91128  533.621
 5937.00    0.91862   0.91214   -1.000
 5938.00    0.91977   0.91220   -1.000
 5939.00    0.92216   0.91138   -1.000
 5940.00    0.92325   0.91005   -1.000
 5941.00    0.92210   0.90880   -1.000
 5942.00    0.91729   0.90804   -1.000
 5943.00    0.92034   0.90782   -1.000
 5944.00    0.92335   0.90783   -1.000
 5945.00    0.92241   0.90758   -1.000
 5946.00    0.92582   0.90678   -1.000
 5947.00    0.92996   0.90562   -1.000
 5948.00    0.93186   0.90455   -1.000
 5949.00    0.92778   0.90390   -1.000
 5950.00    0.92083   0.90359   -1.000
 5951.00    0.92343   0.90334   -1.000
 5952.00    0.92543   0.90314   -1.000
 5953.00    0.92221   0.90294   -1.000
 5954.00    0.92465   0.90260   -1.000
 5955.00    0.92552   0.90230   -1.000
 5956.00    0.92485   0.90238   -1.000
 5957.00    0.92549   0.90320   -1.000
 5958.00    0.92956   0.90494   -1.000
 5959.00    0.92821   0.90732   -1.000
 5960.00    0.92838   0.90984   -1.000
 5961.00    0.92800   0.91193   -1.000
 5962.00    0.92492   0.91313   -1.000
 5963.00    0.92110   0.91330   -1.000
 5964.00    0.92103   0.91268   -1.000
 5965.00    0.92287   0.91179   -1.000
 5966.00    0.92343   0.91115   -1.000
 5967.00    0.92900   0.91107   -1.000
 5968.00    0.93079   0.91164   -1.000
 5969.00    0.93358   0.91268   -1.000
 5970.00    0.93603   0.91373   -1.000
 5971.00    0.93028   0.91429   -1.000
 5972.00    0.92565   0.91385   -1.000
 5973.00    0.92358   0.91220   -1.000
 5974.00    0.92153   0.90956   -1.000
 5975.00    0.92186   0.90658   -1.000
 5976.00    0.92340   0.90418   -1.000
 5977.00    0.92315   0.90303   -1.000
 5978.00    0.92331   0.90321   -1.000
 5979.00    0.92449   0.90414   -1.000
 5980.00    0.92455   0.90482   -1.000
 5981.00    0.92415   0.90442   -1.000
 5982.00    0.92186   0.90278   -1.000
 5983.00    0.92203   0.90055   -1.000
 5984.00    0.92246   0.89873   -1.000
 5985.00    0.91987   0.89810   -1.000
 5986.00    0.91836   0.89879   -1.000
 5987.00    0.91778   0.90042   -1.000
 5988.00    0.91834   0.90231   -1.000
 5989.00    0.92273   0.90397   -1.000
 5990.00    0.92555   0.90530   -1.000
 5991.00    0.92494   0.90656   -1.000
 5992.00    0.92445   0.90787   -1.000
 5993.00    0.92227   0.90893   -1.000
 5994.00    0.91885   0.90936   -1.000
 5995.00    0.92046   0.90897   -1.000
 5996.00    0.92351   0.90792   -1.000
 5997.00    0.91836   0.90662   -1.000
 5998.00    0.91503   0.90542   -1.000
 5999.00    0.92000   0.90444   -1.000
 6000.00    0.92154   0.90354   -1.000
 6001.00    0.91676   0.90256   -1.000
 6002.00    0.91509   0.90147   -1.000
 6003.00    0.91505   0.90029   -1.000
 6004.00    0.91215   0.89887   -1.000
 6005.00    0.91433   0.89703   -1.000
 6006.00    0.91554   0.89501   -1.000
 6007.00    0.91384   0.89340   -1.000
 6008.00    0.91403   0.89290   -1.000
 6009.00    0.91548   0.89365   -1.000
 6010.00    0.91443   0.89502   -1.000
 6011.00    0.91155   0.89631   -1.000
 6012.00    0.91286   0.89702   -1.000
 6013.00    0.91541   0.89705   -1.000
 6014.00    0.91469   0.89660   -1.000
 6015.00    0.91261   0.89590   -1.000
 6016.00    0.91098   0.89504   -1.000
 6017.00    0.91019   0.89393   -1.000
 6018.00    0.91324   0.89245   -1.000
 6019.00    0.91413   0.89074   -1.000
 6020.00    0.91042   0.88928   -1.000
 6021.00    0.90736   0.88851   -1.000
 6022.00    0.91039   0.88864   -1.000
 6023.00    0.91024   0.88992   -1.000
 6024.00    0.90685   0.89228   -1.000
 6025.00    0.90820   0.89532   -1.000
 6026.00    0.91084   0.89869   -1.000
 6027.00    0.90879   0.90208   -1.000
 6028.00    0.91267   0.90519   -1.000
 6029.00    0.91671   0.90782   -1.000
 6030.00    0.91785   0.90991   -1.000
 6031.00    0.92128   0.91151   -1.000
 6032.00    0.92049   0.91271   -1.000
 6033.00    0.91839   0.91360  524.788
 6034.00    0.91260   0.91413  526.781
 6035.00    0.91340   0.91425  528.961
 6036.00    0.91744   0.91384  530.160
 6037.00    0.91801   0.91283  530.451
 6038.00    0.91352   0.91129  529.288
 6039.00    0.90930   0.90946  527.590
 6040.00    0.90990   0.90773  523.901
 6041.00    0.90740   0.90653  521.987
 6042.00    0.90776   0.90618  522.576
 6043.00    0.91124   0.90674  522.099
 6044.00    0.91205   0.90794  521.900
 6045.00    0.90649   0.90957  523.239
 6046.00    0.90415   0.91130   -1.000
 6047.00    0.91041   0.91281  525.548
 6048.00    0.91293   0.91386  526.262
 6049.00    0.91224   0.91432  527.935
 6050.00    0.91354   0.91410  529.892
 6051.00    0.91169   0.91306  532.164
 6052.00    0.91058   0.91123  534.530
 6053.00    0.90774   0.90886  534.671
 6054.00    0.91227   0.90647   -1.000
 6055.00    0.92074   0.90468   -1.000
 6056.00    0.93569   0.90395   -1.000
 6057.00    0.73121   0.90426   -1.000
 6058.00    0.34394   0.90519   -1.000
 6059.00    0.43066   0.90602   -1.000
 6060.00    0.80813   0.90598   -1.000
 6061.00    0.92471   0.90456   -1.000
 6062.00    0.94282   0.90172   -1.000
 6063.00    0.73852   0.89808   -1.000
 6064.00    0.40680   0.89496   -1.000
 6065.00    0.62012   0.89359   -1.000
 6066.00    0.91538   0.89438   -1.000
 6067.00    0.88949   0.89714   -1.000
 6068.00    0.89790   0.90097  514.939
 6069.00    0.90328   0.90487  523.297
 6070.00    0.90486   0.90813  524.483
 6071.00    0.89737   0.91047   -1.000
 6072.00    0.89649   0.91185   -1.000
 6073.00    0.90076   0.91228   -1.000
 6074.00    0.89884   0.91173   -1.000
 6075.00    0.89593   0.91022   -1.000
 6076.00    0.89680   0.90782   -1.000
 6077.00    0.90044   0.90500  540.131
 6078.00    0.89898   0.90235  541.254
 6079.00    0.89770   0.90008  542.012
 6080.00    0.89761   0.89822  541.649
 6081.00    0.89435   0.89672  541.149
 6082.00    0.89520   0.89547  540.014
 6083.00    0.89694   0.89456  538.034
 6084.00    0.89520   0.89423  537.598
 6085.00    0.89337   0.89461  540.111
 6086.00    0.89234   0.89546  542.977
 6087.00    0.89155   0.89634  543.772
 6088.00    0.89363   0.89689  541.545
 6089.00    0.89701   0.89698  538.295
 6090.00    0.89726   0.89686  535.489
 6091.00    0.89613   0.89688  532.809
 6092.00    0.89472   0.89739  531.937
 6093.00    0.89317   0.89847  532.928
 6094.00    0.89244   0.89996   -1.000
 6095.00    0.89046   0.90151   -1.000
 6096.00    0.88980   0.90254   -1.000
 6097.00    0.89060   0.90239   -1.000
 6098.00    0.88751   0.90032   -1.000
 6099.00    0.88616   0.89593   -1.000
 6100.00    0.88743   0.88965  552.111
 6101.00    0.88231   0.88300  542.478
 6102.00    0.87407   0.87826  538.001
 6103.00    0.87169   0.87676  538.715
 6104.00    0.87285   0.87871   -1.000
 6105.00    0.87910   0.88320  540.956
 6106.00    0.88524   0.88872  540.107
 6107.00    0.88617   0.89400   -1.000
 6108.00    0.88611   0.89819   -1.000
 6109.00    0.88293   0.90107   -1.000
 6110.00    0.88171   0.90281   -1.000
 6111.00    0.88030   0.90375   -1.000
 6112.00    0.88530   0.90423   -1.000
 6113.00    0.89144   0.90442   -1.000
 6114.00    0.88736   0.90433   -1.000
 6115.00    0.88296   0.90385   -1.000
 6116.00    0.88410   0.90268   -1.000
 6117.00    0.88477   0.90031   -1.000
 6118.00    0.88072   0.89626   -1.000
 6119.00    0.87640   0.89041   -1.000
 6120.00    0.87346   0.88354   -1.000
 6121.00    0.87147   0.87727   -1.000
 6122.00    0.86624   0.87321   -1.000
 6123.00    0.86470   0.87233   -1.000
 6124.00    0.87205   0.87436  548.074
 6125.00    0.87623   0.87822  544.997
 6126.00    0.87807   0.88246  539.924
 6127.00    0.87884   0.88633   -1.000
 6128.00    0.87933   0.88978   -1.000
 6129.00    0.87877   0.89287   -1.000
 6130.00    0.87730   0.89553   -1.000
 6131.00    0.88055   0.89715   -1.000
 6132.00    0.88265   0.89651   -1.000
 6133.00    0.87853   0.89260   -1.000
 6134.00    0.87004   0.88527   -1.000
 6135.00    0.86150   0.87600   -1.000
 6136.00    0.85208   0.86734   -1.000
 6137.00    0.84194   0.86124   -1.000
 6138.00    0.84284   0.85852   -1.000
 6139.00    0.85054   0.85917   -1.000
 6140.00    0.85183   0.86250   -1.000
 6141.00    0.85061   0.86760   -1.000
 6142.00    0.85380   0.87352   -1.000
 6143.00    0.86088   0.87917   -1.000
 6144.00    0.86770   0.88366   -1.000
 6145.00    0.87265   0.88633   -1.000
 6146.00    0.87265   0.88714   -1.000
 6147.00    0.86825   0.88658   -1.000
 6148.00    0.86468   0.88548   -1.000
 6149.00    0.86478   0.88457   -1.000
 6150.00    0.86735   0.88423   -1.000
 6151.00    0.86984   0.88432   -1.000
 6152.00    0.87104   0.88431   -1.000
 6153.00    0.87192   0.88378   -1.000
 6154.00    0.87079   0.88256   -1.000
 6155.00    0.86893   0.88059   -1.000
 6156.00    0.86491   0.87774   -1.000
 6157.00    0.86170   0.87353   -1.000
 6158.00    0.86277   0.86726  612.284
 6159.00    0.85941   0.85870  608.502
 6160.00    0.85411   0.84878   -1.000
 6161.00    0.84719   0.83961   -1.000
 6162.00    0.84231   0.83343   -1.000
 6163.00    0.84154   0.83141   -1.000
 6164.00    0.84417   0.83326   -1.000
 6165.00    0.85319   0.83717   -1.000
 6166.00    0.85965   0.84100   -1.000
 6167.00    0.85823   0.84343   -1.000
 6168.00    0.85429   0.84485   -1.000
 6169.00    0.85125   0.84632  567.537
 6170.00    0.84952   0.84890  568.511
 6171.00    0.85092   0.85301  567.753
 6172.00    0.85016   0.85820   -1.000
 6173.00    0.85345   0.86354   -1.000
 6174.00    0.85982   0.86822   -1.000
 6175.00    0.86310   0.87189   -1.000
 6176.00    0.86273   0.87459   -1.000
 6177.00    0.85984   0.87659   -1.000
 6178.00    0.86234   0.87819   -1.000
 6179.00    0.86395   0.87969   -1.000
 6180.00    0.86181   0.88120   -1.000
 6181.00    0.86289   0.88255   -1.000
 6182.00    0.86456   0.88343   -1.000
 6183.00    0.86894   0.88353   -1.000
 6184.00    0.86677   0.88260   -1.000
 6185.00    0.86490   0.88059   -1.000
 6186.00    0.86465   0.87757   -1.000
 6187.00    0.85979   0.87365   -1.000
 6188.00    0.85566   0.86901   -1.000
 6189.00    0.85066   0.86429   -1.000
 6190.00    0.84462   0.86072   -1.000
 6191.00    0.83675   0.85931   -1.000
 6192.00    0.83628   0.86046   -1.000
 6193.00    0.84437   0.86384   -1.000
 6194.00    0.85462   0.86837   -1.000
 6195.00    0.86004   0.87275   -1.000
 6196.00    0.86062   0.87592   -1.000
 6197.00    0.86164   0.87746   -1.000
 6198.00    0.85993   0.87771   -1.000
 6199.00    0.85475   0.87750   -1.000
 6200.00    0.85027   0.87768   -1.000
 6201.00    0.84973   0.87878   -1.000
 6202.00    0.85133   0.88086   -1.000
 6203.00    0.85487   0.88352   -1.000
 6204.00    0.85721   0.88615   -1.000
 6205.00    0.85523   0.88829   -1.000
 6206.00    0.85366   0.88959   -1.000
 6207.00    0.85476   0.88983   -1.000
 6208.00    0.85524   0.88884   -1.000
 6209.00    0.85443   0.88644   -1.000
 6210.00    0.85281   0.88262   -1.000
 6211.00    0.85021   0.87770   -1.000
 6212.00    0.84741   0.87238   -1.000
 6213.00    0.84287   0.86750   -1.000
 6214.00    0.83999   0.86368   -1.000
 6215.00    0.84182   0.86111   -1.000
 6216.00    0.84633   0.85956   -1.000
 6217.00    0.84806   0.85876   -1.000
 6218.00    0.84586   0.85859   -1.000
 6219.00    0.83873   0.85916   -1.000
 6220.00    0.83563   0.86048   -1.000
 6221.00    0.83881   0.86237   -1.000
 6222.00    0.84378   0.86445   -1.000
 6223.00    0.84636   0.86617   -1.000
 6224.00    0.84655   0.86702   -1.000
 6225.00    0.84773   0.86655   -1.000
 6226.00    0.84748   0.86440   -1.000
 6227.00    0.84334   0.86053   -1.000
 6228.00    0.83833   0.85546   -1.000
 6229.00    0.83327   0.85036   -1.000
 6230.00    0.82634   0.84665   -1.000
 6231.00    0.82405   0.84540   -1.000
 6232.00    0.82141   0.84675   -1.000
 6233.00    0.82105   0.84986   -1.000
 6234.00    0.82983   0.85331   -1.000
 6235.00    0.83777   0.85577   -1.000
 6236.00    0.83882   0.85662   -1.000
 6237.00    0.83564   0.85597   -1.000
 6238.00    0.83350   0.85435   -1.000
 6239.00    0.83446   0.85231   -1.000
 6240.00    0.83109   0.85001   -1.000
 6241.00    0.82849   0.84739   -1.000
 6242.00    0.82909   0.84438   -1.000
 6243.00    0.82609   0.84120   -1.000
 6244.00    0.82006   0.83859   -1.000
 6245.00    0.81815   0.83745   -1.000
 6246.00    0.81923   0.83833   -1.000
 6247.00    0.82098   0.84095   -1.000
 6248.00    0.82549   0.84418   -1.000
 6249.00    0.82947   0.84651   -1.000
 6250.00    0.82763   0.84684   -1.000
 6251.00    0.82325   0.84500   -1.000
 6252.00    0.81812   0.84173   -1.000
 6253.00    0.81138   0.83816   -1.000
 6254.00    0.80836   0.83527   -1.000
 6255.00    0.81019   0.83357   -1.000
 6256.00    0.81170   0.83323   -1.000
 6257.00    0.81045   0.83421   -1.000
 6258.00    0.81019   0.83645   -1.000
 6259.00    0.81221   0.83984   -1.000
 6260.00    0.81716   0.84406   -1.000
 6261.00    0.81846   0.84854   -1.000
 6262.00    0.81505   0.85265   -1.000
 6263.00    0.81685   0.85598   -1.000
 6264.00    0.81647   0.85846   -1.000
 6265.00    0.81489   0.86016   -1.000
 6266.00    0.82144   0.86116   -1.000
 6267.00    0.82517   0.86149   -1.000
 6268.00    0.82473   0.86123   -1.000
 6269.00    0.82313   0.86052   -1.000
 6270.00    0.81383   0.85947   -1.000
 6271.00    0.79946   0.85800   -1.000
 6272.00    0.78472   0.85577   -1.000
 6273.00    0.77311   0.85241   -1.000
 6274.00    0.77049   0.84780   -1.000
 6275.00    0.77663   0.84228   -1.000
 6276.00    0.78291   0.83659   -1.000
 6277.00    0.78741   0.83168   -1.000
 6278.00    0.79610   0.82848   -1.000
 6279.00    0.80231   0.82762   -1.000
 6280.00    0.80136   0.82927   -1.000
 6281.00    0.80374   0.83308   -1.000
 6282.00    0.80995   0.83828   -1.000
 6283.00    0.81201   0.84393   -1.000
 6284.00    0.80618   0.84915   -1.000
 6285.00    0.80381   0.85330   -1.000
 6286.00    0.80744   0.85601   -1.000
 6287.00    0.80910   0.85720   -1.000
 6288.00    0.80827   0.85708   -1.000
 6289.00    0.81100   0.85603   -1.000
 6290.00    0.82298   0.85455   -1.000
 6291.00    0.84954   0.85305  596.451
 6292.00    0.90088   0.85168   -1.000
 6293.00    0.97147   0.85027   -1.000
 6294.00    1.08098   0.84853   -1.000
 6295.00    1.17307   0.84629   -1.000
 6296.00    1.05817   0.84365   -1.000
 6297.00    0.81572   0.84084   -1.000
 6298.00    0.69456   0.83820   -1.000
 6299.00    0.73254   0.83617   -1.000
 6300.00    0.78840   0.83530   -1.000
 6301.00    0.79927   0.83605   -1.000
 6302.00    0.79609   0.83856   -1.000
 6303.00    0.79341   0.84252   -1.000
 6304.00    0.79367   0.84720   -1.000
 6305.00    0.79926   0.85167   -1.000
 6306.00    0.80474   0.85517   -1.000
 6307.00    0.81072   0.85738   -1.000
 6308.00    0.81394   0.85832   -1.000
 6309.00    0.81293   0.85821   -1.000
 6310.00    0.81063   0.85723   -1.000
 6311.00    0.81025   0.85551   -1.000
 6312.00    0.81113   0.85314   -1.000
 6313.00    0.80717   0.85028   -1.000
 6314.00    0.80431   0.84720   -1.000
 6315.00    0.80370   0.84437   -1.000
 6316.00    0.80491   0.84238   -1.000
 6317.00    0.80642   0.84176   -1.000
 6318.00    0.80810   0.84273   -1.000
 6319.00    0.80724   0.84512   -1.000
 6320.00    0.80582   0.84857   -1.000
 6321.00    0.80796   0.85254   -1.000
 6322.00    0.81029   0.85650   -1.000
 6323.00    0.80994   0.86002   -1.000
 6324.00    0.81270   0.86280   -1.000
 6325.00    0.81694   0.86469   -1.000
 6326.00    0.81956   0.86570   -1.000
 6327.00    0.82250   0.86600   -1.000
 6328.00    0.81689   0.86582   -1.000
 6329.00    0.81347   0.86534   -1.000
 6330.00    0.81673   0.86445   -1.000
 6331.00    0.81542   0.86287   -1.000
 6332.00    0.81512   0.86030   -1.000
 6333.00    0.81730   0.85683   -1.000
 6334.00    0.81469   0.85307   -1.000
 6335.00    0.81251   0.84993   -1.000
 6336.00    0.80526   0.84830   -1.000
 6337.00    0.80301   0.84861   -1.000
 6338.00    0.80752   0.85065   -1.000
 6339.00    0.81520   0.85357   -1.000
 6340.00    0.82031   0.85638   -1.000
 6341.00    0.81418   0.85828   -1.000
 6342.00    0.81650   0.85895   -1.000
 6343.00    0.81846   0.85860   -1.000
 6344.00    0.81830   0.85789   -1.000
 6345.00    0.81858   0.85764   -1.000
 6346.00    0.81905   0.85841   -1.000
 6347.00    0.81948   0.86032   -1.000
 6348.00    0.81999   0.86296   -1.000
 6349.00    0.82256   0.86560   -1.000
 6350.00    0.82366   0.86746   -1.000
 6351.00    0.82343   0.86803   -1.000
 6352.00    0.82037   0.86730   -1.000
 6353.00    0.81980   0.86557   -1.000
 6354.00    0.82687   0.86330   -1.000
 6355.00    0.84201   0.86084   -1.000
 6356.00    0.85984   0.85846  581.345
 6357.00    0.88028   0.85625   -1.000
 6358.00    0.91202   0.85419   -1.000
 6359.00    0.90347   0.85233   -1.000
 6360.00    0.83934   0.85075   -1.000
 6361.00    0.77838   0.84964   -1.000
 6362.00    0.77119   0.84916   -1.000
 6363.00    0.79109   0.84944   -1.000
 6364.00    0.80434   0.85045   -1.000
 6365.00    0.80634   0.85193   -1.000
 6366.00    0.81062   0.85346   -1.000
 6367.00    0.81115   0.85468   -1.000
 6368.00    0.80691   0.85548   -1.000
 6369.00    0.80014   0.85606   -1.000
 6370.00    0.80321   0.85675   -1.000
 6371.00    0.80444   0.85776   -1.000
 6372.00    0.79990   0.85904   -1.000
 6373.00    0.80059   0.86025   -1.000
 6374.00    0.79622   0.86096   -1.000
 6375.00    0.79340   0.86090   -1.000
 6376.00    0.78706   0.86010   -1.000
 6377.00    0.78756   0.85879   -1.000
 6378.00    0.79258   0.85730   -1.000
 6379.00    0.78984   0.85593   -1.000
 6380.00    0.78314   0.85487   -1.000
 6381.00    0.77888   0.85424   -1.000
 6382.00    0.77572   0.85414   -1.000
 6383.00    0.76955   0.85461   -1.000
 6384.00    0.76692   0.85552   -1.000
 6385.00    0.76910   0.85664   -1.000
 6386.00    0.76590   0.85764   -1.000
 6387.00    0.76259   0.85812   -1.000
 6388.00    0.75749   0.85771   -1.000
 6389.00    0.75353   0.85619   -1.000
 6390.00    0.74694   0.85369   -1.000
 6391.00    0.74210   0.85074   -1.000
 6392.00    0.73662   0.84816   -1.000
 6393.00    0.72970   0.84664   -1.000
 6394.00    0.72315   0.84632   -1.000
 6395.00    0.71877   0.84670   -1.000
 6396.00    0.72087   0.84692   -1.000
 6397.00    0.72385   0.84644   -1.000
 6398.00    0.71802   0.84539   -1.000
 6399.00    0.70539   0.84455   -1.000
 6400.00    0.69798   0.84473   -1.000
 6401.00    0.69720   0.84626   -1.000
 6402.00    0.69660   0.84868   -1.000
 6403.00    0.69566   0.85097   -1.000
 6404.00    0.69431   0.85223   -1.000
 6405.00    0.69036   0.85211   -1.000
 6406.00    0.68423   0.85087   -1.000
 6407.00    0.68051   0.84914   -1.000
 6408.00    0.67516   0.84755   -1.000
 6409.00    0.66885   0.84653   -1.000
 6410.00    0.66659   0.84620   -1.000
 6411.00    0.65706   0.84647   -1.000
 6412.00    0.64942   0.84717   -1.000
 6413.00    0.65110   0.84811   -1.000
 6414.00    0.64629   0.84902   -1.000
 6415.00    0.63905   0.84956   -1.000
 6416.00    0.63311   0.84944   -1.000
 6417.00    0.63022   0.84858   -1.000
 6418.00    0.62633   0.84726   -1.000
 6419.00    0.61452   0.84615   -1.000
 6420.00    0.60258   0.84600   -1.000
 6421.00    0.59220   0.84735   -1.000
 6422.00    0.58569   0.85022   -1.000
 6423.00    0.58510   0.85402   -1.000
 6424.00    0.58435   0.85779   -1.000
 6425.00    0.58081   0.86052   -1.000
 6426.00    0.57383   0.86145   -1.000
 6427.00    0.18851   0.86030   -1.000
 6428.00    0.00000   0.85742   -2.000
