###################################################################
## OUTPUT of StarlightChains_v04.for    [Cid@UFSC - 01/Apr/2007] ##
###################################################################

## Some input info
NGC1904_b_1.cxt                          [arq_obs]
Base.BC03.N                              [arq_base]
NGC1904_b_1.msk                          [arq_masks]
StCv04.C11.config                        [arq_config]
   45                                    [N_base]
    0                                    [N_YAV_components = # of components with extra extinction!]
    0                                    [i_FitPowerLaw (1/0 = Yes/No)]
-9.99                                    [alpha_PowerLaw]
CCM                                      [red_law_option]
 1.458241                                [q_norm = A(l_norm)/A(V)]

## (Re)Sampling Parameters
 3359.00                                 [l_ini (A)]
 6428.00                                 [l_fin (A)]
    1.00                                 [dl    (A)]     (OBS: dl_cushion =    50.00 A)

## Normalization info
 4020.00                                 [l_norm (A) - for base]
 4010.00                                 [llow_norm (A) - window for f_obs]
 4060.00                                 [lupp_norm (A) - window for f_obs]
3.423556E-14                             [fobs_norm (in input units)]

## S/N
 4730.00                                 [llow_SN (A) - window for S/N]
 4780.00                                 [lupp_SN (A) - window for S/N]
 126.287                                 [S/N in S/N window]
 125.997                                 [S/N in norm. window]
 129.607                                 [S/N_err in S/N window]
 129.310                                 [S/N_err in norm. window]
  1.0000                                 [fscale_chi2]

## etc...
  2147483645                             [idum_orig]
  3066                                   [NOl_eff]
  1975                                   [Nl_eff]
  1091    NSIGMA                         [Ntot_cliped & clip_method]
   698040                                [Nglobal_steps]
   7                                     [N_chains]
   8                                     [NEX0s_base = N_base in EX0s-fits]
 0   0   1      245   2.0   2.750E+02    [Clip-Bug, RC-Crash & Burn-In warning-flags, n_censored_weights, wei_nsig_threshold & wei_limit]
     9      9.242      9.238      0.004  [idt_all, wdt_TotTime, wdt_UsrTime & wdt_SysTime (sec)]

## Synthesis Results - Best model ##

 2.33092E+00                             [chi2/Nl_eff]
     1.15980                             [adev (%)]

   102.75027                             [sum-of-x (%)]
 5.55676E-14                             [Flux_tot (units of input spectrum!)]
 3.17016E-10                             [Mini_tot (???)]
 1.74499E-10                             [Mcor_tot (???)]

  -9.26                                  [v0_min  (km/s)]
 115.12                                  [vd_min  (km/s)]
 0.3404                                  [AV_min  (mag)]
 0.0000                                  [YAV_min (mag)]

# j     x_j(%)      Mini_j(%)     Mcor_j(%)     age_j(yr)     Z_j      (L/M)_j    YAV?  Mstars   component_j        a/Fe...       SSP_chi2r SSP_adev(%)   SSP_AV   SSP_x(%)
  1      0.0000     0.0000E+00    0.0000E+00    1.000000E+06  0.00400  1.114E-02    0   1.0000   age020_m42            0.0000     3.2577E+02    10.3287   3.3363    76.3882
  2      9.5418     3.9964E-02    7.2597E-02    3.160000E+06  0.00400  4.073E-02    0   0.9999   age045_m42            0.0000     6.0341E+01     4.6890   2.3332    91.8225
  3      0.0000     0.0000E+00    0.0000E+00    5.010000E+06  0.00400  2.534E-02    0   0.9488   age055_m42            0.0000     1.6078E+02     7.5106   2.7621    84.6686
  4      5.6162     7.5380E-02    1.2136E-01    1.000000E+07  0.00400  1.271E-02    0   0.8862   age070_m42            0.0000     1.3564E+02     7.4007   1.9727    88.4389
  5      0.0000     0.0000E+00    0.0000E+00    2.512000E+07  0.00400  5.070E-03    0   0.8174   age090_m42            0.0000     1.1630E+02     6.8484   1.8426    90.0029
  6      0.0000     0.0000E+00    0.0000E+00    4.000000E+07  0.00400  3.505E-03    0   0.7851   age104_m42            0.0000     6.5180E+01     5.0962   1.5188    93.2634
  7     12.7773     9.6107E-01    1.2583E+00    1.015200E+08  0.00400  2.268E-03    0   0.7207   age116_m42            0.0000     1.0152E+02     4.0091   1.4634   105.1868
  8      0.0000     0.0000E+00    0.0000E+00    2.861200E+08  0.00400  1.079E-03    0   0.6613   age125_m42            0.0000     1.1808E+02     4.7477   0.9665   107.4253
  9      0.0000     0.0000E+00    0.0000E+00    6.405400E+08  0.00400  5.077E-04    0   0.6197   age132_m42            0.0000     1.3820E+02     5.1345   0.6038   111.6305
 10     19.7209     9.5169E+00    1.0415E+01    9.047900E+08  0.00400  3.535E-04    0   0.6024   age135_m42            0.0000     7.6375E+01     4.1034   0.3728   110.4007
 11     19.2943     1.7233E+01    1.7895E+01    1.434000E+09  0.00400  1.910E-04    0   0.5716   age139_m42            0.0000     3.5955E+01     3.6575  -0.1468   108.4992
 12     22.5355     3.9156E+01    3.8862E+01    2.500000E+09  0.00400  9.818E-05    0   0.5463   age150_m42            0.0000     3.3094E+01     3.1866  -0.4092   103.1014
 13      9.1255     3.2996E+01    3.1339E+01    5.000000E+09  0.00400  4.718E-05    0   0.5228   age161_m42            0.0000     5.8688E+01     3.6172  -0.5681    99.3232
 14      0.0000     0.0000E+00    0.0000E+00    1.100000E+10  0.00400  2.205E-05    0   0.4980   age185_m42            0.0000     1.1840E+02     5.0206  -0.8293    97.0468
 15      0.0000     0.0000E+00    0.0000E+00    1.300000E+10  0.00400  1.883E-05    0   0.4927   age193_m42            0.0000     1.2813E+02     5.1872  -0.8460    96.8425
 16      0.0000     0.0000E+00    0.0000E+00    1.000000E+06  0.02000  1.989E-02    0   1.0000   age020_m62            0.0000     3.2583E+02    10.3101   3.3016    77.0343
 17      0.0000     0.0000E+00    0.0000E+00    3.160000E+06  0.02000  3.772E-02    0   0.9858   age045_m62            0.0000     2.8766E+02     9.7870   3.1599    79.2947
 18      4.1387     2.1879E-02    3.7132E-02    5.010000E+06  0.02000  3.227E-02    0   0.9342   age055_m62            0.0000     1.0099E+02     5.9689   2.6113    87.9812
 19      0.0000     0.0000E+00    0.0000E+00    1.000000E+07  0.02000  1.011E-02    0   0.8751   age070_m62            0.0000     3.2735E+02    11.3961   2.0230    83.6115
 20      0.0000     0.0000E+00    0.0000E+00    2.512000E+07  0.02000  4.206E-03    0   0.8099   age090_m62            0.0000     2.3778E+02     9.4072   1.9513    84.8689
 21      0.0000     0.0000E+00    0.0000E+00    4.000000E+07  0.02000  3.373E-03    0   0.7799   age104_m62            0.0000     5.0361E+01     4.5530   1.7297    94.9931
 22      0.0000     0.0000E+00    0.0000E+00    1.015200E+08  0.02000  1.878E-03    0   0.7221   age116_m62            0.0000     7.4622E+01     3.4367   1.5027   105.0062
 23      0.0000     0.0000E+00    0.0000E+00    2.861200E+08  0.02000  8.869E-04    0   0.6700   age125_m62            0.0000     2.4196E+02     6.7708   0.9641   113.0207
 24      0.0000     0.0000E+00    0.0000E+00    6.405400E+08  0.02000  3.657E-04    0   0.6322   age132_m62            0.0000     1.6467E+02     6.8117   0.2896   116.0679
 25      0.0000     0.0000E+00    0.0000E+00    9.047900E+08  0.02000  2.312E-04    0   0.6152   age135_m62            0.0000     9.2335E+01     5.6919  -0.0743   114.5137
 26      0.0000     0.0000E+00    0.0000E+00    1.434000E+09  0.02000  1.168E-04    0   0.5865   age139_m62            0.0000     4.8566E+01     4.2373  -0.4741   107.6096
 27      0.0000     0.0000E+00    0.0000E+00    2.500000E+09  0.02000  5.505E-05    0   0.5610   age150_m62            0.0000     9.5700E+01     5.2940  -0.8414   104.3061
 28      0.0000     0.0000E+00    0.0000E+00    5.000000E+09  0.02000  2.596E-05    0   0.5353   age161_m62            0.0000     2.1250E+02     6.9992  -1.0000    99.7598
 29      0.0000     0.0000E+00    0.0000E+00    1.100000E+10  0.02000  1.169E-05    0   0.5103   age185_m62            0.0000     5.0540E+02    11.8147  -1.0000    91.0099
 30      0.0000     0.0000E+00    0.0000E+00    1.300000E+10  0.02000  9.691E-06    0   0.5047   age193_m62            0.0000     5.6163E+02    12.5238  -1.0000    89.8705
 31      0.0000     0.0000E+00    0.0000E+00    1.000000E+06  0.05000  2.651E-02    0   0.9998   age020_m72            0.0000     3.0257E+02     9.8009   3.3052    77.9115
 32      0.0000     0.0000E+00    0.0000E+00    3.160000E+06  0.05000  4.817E-02    0   0.9577   age045_m72            0.0000     1.9904E+02     8.0094   3.0088    82.9066
 33      0.0000     0.0000E+00    0.0000E+00    5.010000E+06  0.05000  3.101E-02    0   0.9147   age055_m72            0.0000     1.8087E+02     7.8711   2.6452    85.5216
 34      0.0000     0.0000E+00    0.0000E+00    1.000000E+07  0.05000  8.954E-03    0   0.8524   age070_m72            0.0000     1.9481E+02     7.8488   2.8905    84.0133
 35      0.0000     0.0000E+00    0.0000E+00    2.512000E+07  0.05000  4.207E-03    0   0.7902   age090_m72            0.0000     8.2845E+01     5.2162   2.4360    90.3108
 36      0.0000     0.0000E+00    0.0000E+00    4.000000E+07  0.05000  3.198E-03    0   0.7618   age104_m72            0.0000     3.3118E+01     2.6042   1.8869   100.0661
 37      0.0000     0.0000E+00    0.0000E+00    1.015200E+08  0.05000  1.716E-03    0   0.7092   age116_m72            0.0000     1.0123E+02     4.0609   1.5809   105.4884
 38      0.0000     0.0000E+00    0.0000E+00    2.861200E+08  0.05000  7.047E-04    0   0.6618   age125_m72            0.0000     2.4102E+02     7.2584   0.7528   113.6121
 39      0.0000     0.0000E+00    0.0000E+00    6.405400E+08  0.05000  2.633E-04    0   0.6253   age132_m72            0.0000     1.3292E+02     6.6209  -0.0921   115.3913
 40      0.0000     0.0000E+00    0.0000E+00    9.047900E+08  0.05000  1.484E-04    0   0.6088   age135_m72            0.0000     7.9822E+01     5.5754  -0.5602   109.3460
 41      0.0000     0.0000E+00    0.0000E+00    1.434000E+09  0.05000  7.827E-05    0   0.5847   age139_m72            0.0000     1.2819E+02     6.4950  -0.9424   105.2655
 42      0.0000     0.0000E+00    0.0000E+00    2.500000E+09  0.05000  3.759E-05    0   0.5583   age150_m72            0.0000     2.5399E+02     7.8887  -1.0000    97.4244
 43      0.0000     0.0000E+00    0.0000E+00    5.000000E+09  0.05000  1.548E-05    0   0.5320   age161_m72            0.0000     6.1888E+02    13.5259  -1.0000    85.6384
 44      0.0000     0.0000E+00    0.0000E+00    1.100000E+10  0.05000  6.532E-06    0   0.5070   age185_m72            0.0000     1.1271E+03    18.3661  -1.0000    75.0571
 45      0.0000     0.0000E+00    0.0000E+00    1.300000E+10  0.05000  5.316E-06    0   0.5018   age193_m72            0.0000     1.3144E+03    19.6686  -1.0000    71.9580


## Synthesis Results - Average & Chains ##

# j      x_j: min, <> & last-chain-values for 1 ...  7 chains
  1      0.0000      0.0033      0.0000      0.0540      0.0130      0.0000      0.0000      0.0000      0.0000
  2      9.5418      7.3569      7.6155      7.4772      7.5356      7.6651      7.4422      7.5395      7.5669
  3      0.0000      0.0091      0.0000      0.0000      0.0000      0.0000      0.0000      0.0000      0.0000
  4      5.6162      6.5948      6.5511      6.4882      6.4500      6.8476      6.6200      6.7031      6.6398
  5      0.0000      0.0337      0.0000      0.0000      0.0000      0.0000      0.0000      0.0000      0.0000
  6      0.0000      0.0232      0.0015      0.0048      0.0000      0.0076      0.0000      0.0000      0.0000
  7     12.7773     12.1498     12.1289     12.3049     12.2075     12.1795     12.1479     12.2361     12.1789
  8      0.0000      0.0557      0.0000      0.0733      0.0000      0.0432      0.0475      0.0000      0.2316
  9      0.0000      0.1269      0.2256      0.1555      0.1221      0.0000      0.0789      0.0447      0.0000
 10     19.7209     19.1640     19.6365     18.9538     19.5075     19.2966     19.1295     19.4984     19.3333
 11     19.2943     22.0761     21.5816     22.1603     22.0624     22.0300     21.9500     21.8976     21.8854
 12     22.5355     19.9522     20.0288     20.0845     20.1395     19.8309     20.1483     20.0494     20.0972
 13      9.1255      9.4082      9.3495      9.5048      9.2180      9.4425      9.4598      9.4283      9.4944
 14      0.0000      0.0209      0.0000      0.0000      0.0000      0.0651      0.0741      0.0000      0.0556
 15      0.0000      0.0168      0.0000      0.0000      0.0000      0.0000      0.0000      0.0000      0.0000
 16      0.0000      0.0026      0.0031      0.0000      0.0000      0.0000      0.0000      0.0000      0.0000
 17      0.0000      0.0041      0.0000      0.0000      0.0000      0.0000      0.0000      0.0000      0.0000
 18      4.1387      4.9802      5.0157      5.0151      4.9172      4.7101      4.9990      4.8861      4.8380
 19      0.0000      0.0055      0.0000      0.0000      0.0000      0.0000      0.0000      0.0000      0.0000
 20      0.0000      0.0047      0.0000      0.0000      0.0000      0.0000      0.0000      0.0000      0.0000
 21      0.0000      0.0144      0.0000      0.0000      0.0000      0.0000      0.0100      0.0000      0.0079
 22      0.0000      0.0236      0.0000      0.0000      0.0000      0.0000      0.0000      0.0000      0.0000
 23      0.0000      0.0148      0.0072      0.0000      0.0000      0.0027      0.0624      0.0000      0.0000
 24      0.0000      0.0187      0.0000      0.0000      0.0000      0.0000      0.0000      0.0000      0.0000
 25      0.0000      0.0402      0.0000      0.0000      0.0000      0.0000      0.0000      0.0000      0.0000
 26      0.0000      0.0821      0.1428      0.0000      0.0664      0.0428      0.1102      0.0000      0.0447
 27      0.0000      0.0232      0.0000      0.0167      0.0000      0.0000      0.0000      0.0000      0.0000
 28      0.0000      0.0158      0.0085      0.0000      0.0000      0.0623      0.0000      0.0000      0.0000
 29      0.0000      0.0073      0.0000      0.0000      0.0000      0.0000      0.0000      0.0326      0.0000
 30      0.0000      0.0046      0.0000      0.0000      0.0000      0.0000      0.0000      0.0000      0.0000
 31      0.0000      0.0029      0.0000      0.0000      0.0000      0.0000      0.0000      0.0000      0.0076
 32      0.0000      0.0075      0.0000      0.0000      0.0000      0.0000      0.0239      0.0000      0.0000
 33      0.0000      0.0184      0.0009      0.0000      0.1323      0.0433      0.0000      0.0000      0.0000
 34      0.0000      0.0052      0.0000      0.0000      0.0000      0.0000      0.0000      0.0000      0.0000
 35      0.0000      0.0085      0.0000      0.0000      0.0000      0.0000      0.0000      0.0000      0.0424
 36      0.0000      0.0189      0.0000      0.0000      0.0000      0.0000      0.0000      0.0000      0.0000
 37      0.0000      0.0221      0.0000      0.0000      0.0000      0.0000      0.1698      0.0582      0.0000
 38      0.0000      0.0289      0.0000      0.0000      0.0000      0.0000      0.0000      0.0000      0.0000
 39      0.0000      0.0636      0.0000      0.0631      0.0000      0.2343      0.0640      0.0480      0.0033
 40      0.0000      0.0638      0.1846      0.0600      0.0000      0.0000      0.0000      0.0000      0.0000
 41      0.0000      0.3273      0.3344      0.3781      0.4331      0.3024      0.2600      0.3359      0.3402
 42      0.0000      0.0091      0.0000      0.0000      0.0048      0.0000      0.0000      0.0551      0.0000
 43      0.0000      0.0011      0.0000      0.0000      0.0000      0.0000      0.0000      0.0000      0.0000
 44      0.0000      0.0020      0.0000      0.0000      0.0000      0.0000      0.0000      0.0000      0.0000
 45      0.0000      0.0009      0.0000      0.0000      0.0000      0.0000      0.0000      0.0000      0.0000

# j      m_j: min, <> & last-chain-values for 1 ...  7 chains
  1  0.0000E+00  9.1553E-05  0.0000E+00  1.4955E-03  3.6264E-04  0.0000E+00  0.0000E+00  0.0000E+00  0.0000E+00
  2  7.2597E-02  5.5612E-02  5.8030E-02  5.6652E-02  5.7465E-02  5.8028E-02  5.6313E-02  5.7053E-02  5.7279E-02
  3  0.0000E+00  1.0528E-04  0.0000E+00  0.0000E+00  0.0000E+00  0.0000E+00  0.0000E+00  0.0000E+00  0.0000E+00
  4  1.2136E-01  1.4159E-01  1.4178E-01  1.3962E-01  1.3970E-01  1.4723E-01  1.4227E-01  1.4406E-01  1.4275E-01
  5  0.0000E+00  1.6718E-03  0.0000E+00  0.0000E+00  0.0000E+00  0.0000E+00  0.0000E+00  0.0000E+00  0.0000E+00
  6  0.0000E+00  1.6014E-03  1.0477E-04  3.3155E-04  0.0000E+00  5.2584E-04  0.0000E+00  0.0000E+00  0.0000E+00
  7  1.2583E+00  1.1888E+00  1.1963E+00  1.2068E+00  1.2050E+00  1.1935E+00  1.1898E+00  1.1985E+00  1.1933E+00
  8  0.0000E+00  1.0520E-02  0.0000E+00  1.3870E-02  0.0000E+00  8.1613E-03  8.9794E-03  0.0000E+00  4.3761E-02
  9  0.0000E+00  4.7705E-02  8.5491E-02  5.8580E-02  4.6299E-02  0.0000E+00  2.9675E-02  1.6799E-02  0.0000E+00
 10  1.0415E+01  1.0056E+01  1.0387E+01  9.9683E+00  1.0326E+01  1.0140E+01  1.0048E+01  1.0242E+01  1.0159E+01
 11  1.7895E+01  2.0343E+01  2.0047E+01  2.0468E+01  2.0510E+01  2.0331E+01  2.0247E+01  2.0200E+01  2.0195E+01
 12  3.8862E+01  3.4185E+01  3.4592E+01  3.4491E+01  3.4810E+01  3.4028E+01  3.4555E+01  3.4388E+01  3.4481E+01
 13  3.1339E+01  3.2101E+01  3.2157E+01  3.2505E+01  3.1729E+01  3.2266E+01  3.2309E+01  3.2204E+01  3.2440E+01
 14  0.0000E+00  1.4527E-01  0.0000E+00  0.0000E+00  0.0000E+00  4.5326E-01  5.1587E-01  0.0000E+00  3.8718E-01
 15  0.0000E+00  1.3525E-01  0.0000E+00  0.0000E+00  0.0000E+00  0.0000E+00  0.0000E+00  0.0000E+00  0.0000E+00
 16  0.0000E+00  4.0280E-05  4.8452E-05  0.0000E+00  0.0000E+00  0.0000E+00  0.0000E+00  0.0000E+00  0.0000E+00
 17  0.0000E+00  3.2726E-05  0.0000E+00  0.0000E+00  0.0000E+00  0.0000E+00  0.0000E+00  0.0000E+00  0.0000E+00
 18  3.7132E-02  4.4394E-02  4.5069E-02  4.4808E-02  4.4218E-02  4.2049E-02  4.4606E-02  4.3601E-02  4.3186E-02
 19  0.0000E+00  1.4688E-04  0.0000E+00  0.0000E+00  0.0000E+00  0.0000E+00  0.0000E+00  0.0000E+00  0.0000E+00
 20  0.0000E+00  2.7832E-04  0.0000E+00  0.0000E+00  0.0000E+00  0.0000E+00  0.0000E+00  0.0000E+00  0.0000E+00
 21  0.0000E+00  1.0254E-03  0.0000E+00  0.0000E+00  0.0000E+00  0.0000E+00  7.1329E-04  0.0000E+00  5.6586E-04
 22  0.0000E+00  2.7985E-03  0.0000E+00  0.0000E+00  0.0000E+00  0.0000E+00  0.0000E+00  0.0000E+00  0.0000E+00
 23  0.0000E+00  3.4404E-03  1.6906E-03  0.0000E+00  0.0000E+00  6.1934E-04  1.4530E-02  0.0000E+00  0.0000E+00
 24  0.0000E+00  9.9502E-03  0.0000E+00  0.0000E+00  0.0000E+00  0.0000E+00  0.0000E+00  0.0000E+00  0.0000E+00
 25  0.0000E+00  3.2956E-02  0.0000E+00  0.0000E+00  0.0000E+00  0.0000E+00  0.0000E+00  0.0000E+00  0.0000E+00
 26  0.0000E+00  1.2693E-01  2.2253E-01  0.0000E+00  1.0357E-01  6.6326E-02  1.7049E-01  0.0000E+00  6.9250E-02
 27  0.0000E+00  7.2767E-02  0.0000E+00  5.2624E-02  0.0000E+00  0.0000E+00  0.0000E+00  0.0000E+00  0.0000E+00
 28  0.0000E+00  1.0058E-01  5.4707E-02  0.0000E+00  0.0000E+00  3.9641E-01  0.0000E+00  0.0000E+00  0.0000E+00
 29  0.0000E+00  9.8276E-02  0.0000E+00  0.0000E+00  0.0000E+00  0.0000E+00  0.0000E+00  4.3878E-01  0.0000E+00
 30  0.0000E+00  7.4390E-02  0.0000E+00  0.0000E+00  0.0000E+00  0.0000E+00  0.0000E+00  0.0000E+00  0.0000E+00
 31  0.0000E+00  3.3264E-05  0.0000E+00  0.0000E+00  0.0000E+00  0.0000E+00  0.0000E+00  0.0000E+00  8.8345E-05
 32  0.0000E+00  4.6084E-05  0.0000E+00  0.0000E+00  0.0000E+00  0.0000E+00  1.4662E-04  0.0000E+00  0.0000E+00
 33  0.0000E+00  1.6667E-04  7.8443E-06  0.0000E+00  1.2124E-03  3.9430E-04  0.0000E+00  0.0000E+00  0.0000E+00
 34  0.0000E+00  1.5132E-04  0.0000E+00  0.0000E+00  0.0000E+00  0.0000E+00  0.0000E+00  0.0000E+00  0.0000E+00
 35  0.0000E+00  4.8907E-04  0.0000E+00  0.0000E+00  0.0000E+00  0.0000E+00  0.0000E+00  0.0000E+00  2.4565E-03
 36  0.0000E+00  1.3892E-03  0.0000E+00  0.0000E+00  0.0000E+00  0.0000E+00  0.0000E+00  0.0000E+00  0.0000E+00
 37  0.0000E+00  2.8144E-03  0.0000E+00  0.0000E+00  0.0000E+00  0.0000E+00  2.1626E-02  7.4120E-03  0.0000E+00
 38  0.0000E+00  8.3562E-03  0.0000E+00  0.0000E+00  0.0000E+00  0.0000E+00  0.0000E+00  0.0000E+00  0.0000E+00
 39  0.0000E+00  4.6526E-02  0.0000E+00  4.6258E-02  0.0000E+00  1.7160E-01  4.6844E-02  3.5118E-02  2.4307E-03
 40  0.0000E+00  8.0578E-02  2.3510E-01  7.5942E-02  0.0000E+00  0.0000E+00  0.0000E+00  0.0000E+00  0.0000E+00
 41  0.0000E+00  7.5294E-01  7.7549E-01  8.7172E-01  1.0051E+00  6.9664E-01  5.9873E-01  7.7344E-01  7.8373E-01
 42  0.0000E+00  4.1632E-02  0.0000E+00  0.0000E+00  2.2067E-02  0.0000E+00  0.0000E+00  2.5234E-01  0.0000E+00
 43  0.0000E+00  1.2111E-02  0.0000E+00  0.0000E+00  0.0000E+00  0.0000E+00  0.0000E+00  0.0000E+00  0.0000E+00
 44  0.0000E+00  4.7640E-02  0.0000E+00  0.0000E+00  0.0000E+00  0.0000E+00  0.0000E+00  0.0000E+00  0.0000E+00
 45  0.0000E+00  2.4893E-02  0.0000E+00  0.0000E+00  0.0000E+00  0.0000E+00  0.0000E+00  0.0000E+00  0.0000E+00

# AV, chi2 & Mass for <> & i_chain = 1 ...  7 solutions
AV       0.3404      0.3295      0.3330      0.3294      0.3313      0.3320      0.3317      0.3310      0.3312
chi2 2.3309E+00  2.3686E+00  2.3606E+00  2.3639E+00  2.3629E+00  2.3632E+00  2.3651E+00  2.3626E+00  2.3619E+00
Mass 1.7450E-10  1.7309E-10  1.7251E-10  1.7267E-10  1.7199E-10  1.7339E-10  1.7341E-10  1.7324E-10  1.7323E-10
  -9.26                                  [v0_min (km/s) before EX0s...]
 115.12                                  [vd_min (km/s) before EX0s...]


## Synthetic spectrum (Best Model) ##l_obs f_obs f_syn wei
 3070    [Nl_obs]
 3359.00    0.27357   0.54116   -1.000
 3360.00    0.27108   0.52657   -1.000
 3361.00    0.28301   0.52467   -1.000
 3362.00    0.29706   0.53621   -1.000
 3363.00    0.30788   0.55416   -1.000
 3364.00    0.32501   0.56820   -1.000
 3365.00    0.34501   0.57091   -1.000
 3366.00    0.34984   0.56171   -1.000
 3367.00    0.34951   0.54645   -1.000
 3368.00    0.34390   0.53278   -1.000
 3369.00    0.32811   0.52469   -1.000
 3370.00    0.32409   0.52113   -1.000
 3371.00    0.32998   0.51974   -1.000
 3372.00    0.33165   0.52158   -1.000
 3373.00    0.34024   0.53060   -1.000
 3374.00    0.36068   0.54772   -1.000
 3375.00    0.37980   0.56666   -1.000
 3376.00    0.39502   0.57725   -1.000
 3377.00    0.40492   0.57406   -1.000
 3378.00    0.40839   0.56118   -1.000
 3379.00    0.39926   0.54856   -1.000
 3380.00    0.39375   0.54446   -1.000
 3381.00    0.40198   0.55048   -1.000
 3382.00    0.40722   0.56221   -1.000
 3383.00    0.41106   0.57404   -1.000
 3384.00    0.41603   0.58329   -1.000
 3385.00    0.41694   0.58977   -1.000
 3386.00    0.42241   0.59336   -1.000
 3387.00    0.43248   0.59400   -1.000
 3388.00    0.43027   0.59271   -1.000
 3389.00    0.42466   0.59052   -1.000
 3390.00    0.43083   0.58699   -1.000
 3391.00    0.43374   0.58145   -1.000
 3392.00    0.43157   0.57564   -1.000
 3393.00    0.43180   0.57385   -1.000
 3394.00    0.43321   0.57924   -1.000
 3395.00    0.44313   0.59080   -1.000
 3396.00    0.45831   0.60409   -1.000
 3397.00    0.46696   0.61430   -1.000
 3398.00    0.47536   0.61833   -1.000
 3399.00    0.48219   0.61555   -1.000
 3400.00    0.47806   0.60752   -1.000
 3401.00    0.47835   0.59694   -1.000
 3402.00    0.47823   0.58668   -1.000
 3403.00    0.46629   0.57893   -1.000
 3404.00    0.45670   0.57395   -1.000
 3405.00    0.45489   0.56993   -1.000
 3406.00    0.45738   0.56540   -1.000
 3407.00    0.45304   0.56148   -1.000
 3408.00    0.44286   0.56088   -1.000
 3409.00    0.45350   0.56463   -1.000
 3410.00    0.46567   0.57029   -1.000
 3411.00    0.46185   0.57403   -1.000
 3412.00    0.46013   0.57409   -1.000
 3413.00    0.45852   0.57204   -1.000
 3414.00    0.45502   0.57105   -1.000
 3415.00    0.45896   0.57363   -1.000
 3416.00    0.46715   0.58068   -1.000
 3417.00    0.47783   0.59134   -1.000
 3418.00    0.48926   0.60316   -1.000
 3419.00    0.50065   0.61256   -1.000
 3420.00    0.50313   0.61653   -1.000
 3421.00    0.49686   0.61461   -1.000
 3422.00    0.49163   0.60919   -1.000
 3423.00    0.49374   0.60350   -1.000
 3424.00    0.49043   0.59981   -1.000
 3425.00    0.49028   0.59941   -1.000
 3426.00    0.49858   0.60330   -1.000
 3427.00    0.50454   0.61155   -1.000
 3428.00    0.51379   0.62150   -1.000
 3429.00    0.52336   0.62799   -1.000
 3430.00    0.52214   0.62724   -1.000
 3431.00    0.51902   0.62013   -1.000
 3432.00    0.52008   0.61144   -1.000
 3433.00    0.51427   0.60596   -1.000
 3434.00    0.51299   0.60520   -1.000
 3435.00    0.52212   0.60671   35.508
 3436.00    0.52408   0.60606   -1.000
 3437.00    0.51825   0.59963   -1.000
 3438.00    0.50704   0.58619   -1.000
 3439.00    0.49650   0.56736   43.195
 3440.00    0.48202   0.54777   43.111
 3441.00    0.47001   0.53364   42.030
 3442.00    0.47172   0.52901   39.977
 3443.00    0.47789   0.53310   37.768
 3444.00    0.48288   0.54230   36.131
 3445.00    0.49135   0.55438   -1.000
 3446.00    0.50238   0.56938   -1.000
 3447.00    0.51622   0.58641   -1.000
 3448.00    0.53201   0.60130   -1.000
 3449.00    0.53967   0.60831   -1.000
 3450.00    0.53497   0.60463   -1.000
 3451.00    0.53675   0.59301   -1.000
 3452.00    0.53748   0.58025   -1.000
 3453.00    0.53079   0.57279   -1.000
 3454.00    0.53324   0.57256   -1.000
 3455.00    0.54593   0.57597   -1.000
 3456.00    0.55902   0.57733   55.664
 3457.00    0.55640   0.57359   34.978
 3458.00    0.54312   0.56593   35.038
 3459.00    0.53757   0.55782   73.046
 3460.00    0.54197   0.55290  275.035
 3461.00    0.54461   0.55393  275.035
 3462.00    0.54341   0.56101   -1.000
 3463.00    0.54743   0.57058   -1.000
 3464.00    0.55391   0.57823   -1.000
 3465.00    0.55595   0.58264   -1.000
 3466.00    0.55409   0.58561   -1.000
 3467.00    0.56183   0.58913   -1.000
 3468.00    0.57196   0.59342   -1.000
 3469.00    0.57779   0.59708   -1.000
 3470.00    0.57932   0.59819   -1.000
 3471.00    0.57980   0.59497   -1.000
 3472.00    0.57075   0.58648   55.164
 3473.00    0.55912   0.57360   35.769
 3474.00    0.54907   0.55976   35.832
 3475.00    0.53432   0.55016   75.484
 3476.00    0.52437   0.54882   -1.000
 3477.00    0.53814   0.55547   -1.000
 3478.00    0.55689   0.56601  275.035
 3479.00    0.57644   0.57557  275.035
 3480.00    0.58722   0.58105  275.035
 3481.00    0.58704   0.58167  275.035
 3482.00    0.57971   0.57899  275.035
 3483.00    0.57200   0.57656  275.035
 3484.00    0.57461   0.57836  275.035
 3485.00    0.58569   0.58552  275.035
 3486.00    0.59143   0.59408  275.035
 3487.00    0.59373   0.59747  275.035
 3488.00    0.59282   0.59225  275.035
 3489.00    0.57591   0.58142  275.035
 3490.00    0.55830   0.57164   -1.000
 3491.00    0.54873   0.56723   -1.000
 3492.00    0.54802   0.56684   -1.000
 3493.00    0.55644   0.56602  275.035
 3494.00    0.55532   0.56243  275.035
 3495.00    0.54993   0.55840  275.035
 3496.00    0.55184   0.55876  275.035
 3497.00    0.55378   0.56600   -1.000
 3498.00    0.56396   0.57715   -1.000
 3499.00    0.57883   0.58641  271.992
 3500.00    0.58208   0.59100  269.533
 3501.00    0.58194   0.59287  273.540
 3502.00    0.59463   0.59425  275.035
 3503.00    0.60297   0.59443  275.035
 3504.00    0.59577   0.59158  275.035
 3505.00    0.59364   0.58621  275.035
 3506.00    0.59216   0.58135   -1.000
 3507.00    0.59145   0.57898   -1.000
 3508.00    0.59245   0.57812   -1.000
 3509.00    0.58654   0.57636   -1.000
 3510.00    0.57753   0.57224  275.035
 3511.00    0.57072   0.56620  275.035
 3512.00    0.56835   0.56020  275.035
 3513.00    0.56523   0.55734  275.035
 3514.00    0.56059   0.56078  275.035
 3515.00    0.57199   0.57117  275.035
 3516.00    0.59293   0.58494  275.035
 3517.00    0.59987   0.59619  275.035
 3518.00    0.59411   0.60009  275.035
 3519.00    0.58707   0.59539  275.035
 3520.00    0.57781   0.58479  275.035
 3521.00    0.56824   0.57232   52.055
 3522.00    0.55767   0.56059   35.472
 3523.00    0.55240   0.55048   35.791
 3524.00    0.54669   0.54330   81.702
 3525.00    0.53412   0.54173  275.035
 3526.00    0.53042   0.54786   -1.000
 3527.00    0.54188   0.56065   -1.000
 3528.00    0.56257   0.57538   -1.000
 3529.00    0.57454   0.58648   -1.000
 3530.00    0.58736   0.59151  275.035
 3531.00    0.58759   0.59236  275.035
 3532.00    0.59171   0.59291  275.035
 3533.00    0.59744   0.59556  275.035
 3534.00    0.59457   0.59985  275.035
 3535.00    0.59163   0.60403   -1.000
 3536.00    0.59219   0.60751   -1.000
 3537.00    0.59170   0.61103   -1.000
 3538.00    0.59537   0.61496   -1.000
 3539.00    0.59714   0.61812   -1.000
 3540.00    0.59997   0.61928   -1.000
 3541.00    0.59602   0.61930   -1.000
 3542.00    0.59214   0.62031   -1.000
 3543.00    0.59923   0.62301   -1.000
 3544.00    0.60709   0.62573   -1.000
 3545.00    0.60235   0.62667   -1.000
 3546.00    0.60076   0.62563   -1.000
 3547.00    0.60065   0.62411   -1.000
 3548.00    0.59428   0.62353   -1.000
 3549.00    0.59435   0.62393   -1.000
 3550.00    0.59522   0.62404   -1.000
 3551.00    0.59044   0.62232   -1.000
 3552.00    0.58194   0.61836   -1.000
 3553.00    0.57756   0.61345   -1.000
 3554.00    0.57739   0.60970   -1.000
 3555.00    0.58051   0.60806   -1.000
 3556.00    0.58083   0.60754   -1.000
 3557.00    0.57377   0.60662   -1.000
 3558.00    0.57650   0.60536   -1.000
 3559.00    0.58143   0.60581   -1.000
 3560.00    0.58255   0.60962   -1.000
 3561.00    0.58418   0.61503   -1.000
 3562.00    0.58502   0.61638   50.360
 3563.00    0.58123   0.60827   35.982
 3564.00    0.57003   0.59134   36.194
 3565.00    0.54667   0.57278   35.914
 3566.00    0.53714   0.56010   36.662
 3567.00    0.53513   0.55388   37.539
 3568.00    0.53404   0.54934   36.960
 3569.00    0.52610   0.54320   35.454
 3570.00    0.52008   0.53731   86.337
 3571.00    0.52677   0.53573  275.035
 3572.00    0.53676   0.53918  275.035
 3573.00    0.54123   0.54449  275.035
 3574.00    0.54888   0.54850  275.035
 3575.00    0.55357   0.55055  275.035
 3576.00    0.55534   0.55108   51.446
 3577.00    0.55757   0.54924   38.117
 3578.00    0.56104   0.54322   40.533
 3579.00    0.55282   0.53294   41.425
 3580.00    0.53272   0.52143   41.620
 3581.00    0.52123   0.51299   42.388
 3582.00    0.52019   0.50921   43.688
 3583.00    0.52685   0.50781   44.573
 3584.00    0.52282   0.50540   43.196
 3585.00    0.51073   0.50149   40.915
 3586.00    0.50366   0.49937   38.873
 3587.00    0.50014   0.50286   35.861
 3588.00    0.50602   0.51306   88.097
 3589.00    0.52496   0.52810  275.035
 3590.00    0.54100   0.54412  275.035
 3591.00    0.55355   0.55733  275.035
 3592.00    0.56986   0.56606  275.035
 3593.00    0.57213   0.57188  275.035
 3594.00    0.57241   0.57800  274.101
 3595.00    0.57770   0.58646  266.683
 3596.00    0.58399   0.59652   -1.000
 3597.00    0.59285   0.60565   -1.000
 3598.00    0.59964   0.61145   -1.000
 3599.00    0.60894   0.61214  275.035
 3600.00    0.60620   0.60677  275.035
 3601.00    0.58760   0.59610  275.035
 3602.00    0.58138   0.58302  275.035
 3603.00    0.57064   0.57171  275.035
 3604.00    0.56405   0.56518  275.035
 3605.00    0.56795   0.56310  275.035
 3606.00    0.57548   0.56237   -1.000
 3607.00    0.57319   0.56007   -1.000
 3608.00    0.56619   0.55660  275.035
 3609.00    0.55001   0.55493  275.035
 3610.00    0.54617   0.55720  275.035
 3611.00    0.56243   0.56256  275.035
 3612.00    0.57233   0.56866  275.035
 3613.00    0.56945   0.57461  275.035
 3614.00    0.57839   0.57987  275.035
 3615.00    0.59043   0.58198  275.035
 3616.00    0.59146   0.57773   47.319
 3617.00    0.57723   0.56762   92.100
 3618.00    0.55567   0.55799  275.035
 3619.00    0.54727   0.55643  275.035
 3620.00    0.56386   0.56452  274.111
 3621.00    0.58150   0.57794  269.860
 3622.00    0.58984   0.59124  261.703
 3623.00    0.59582   0.60250  251.013
 3624.00    0.59895   0.61338   -1.000
 3625.00    0.61449   0.62558  247.598
 3626.00    0.62989   0.63707  259.781
 3627.00    0.63645   0.64203  275.035
 3628.00    0.63220   0.63532  275.035
 3629.00    0.61050   0.61709  275.035
 3630.00    0.57478   0.59438   -1.000
 3631.00    0.55726   0.57717   -1.000
 3632.00    0.56089   0.57118  275.035
 3633.00    0.56867   0.57498  275.035
 3634.00    0.58450   0.58249  275.035
 3635.00    0.59503   0.58921  262.748
 3636.00    0.59849   0.59511  253.115
 3637.00    0.60723   0.60265  250.587
 3638.00    0.61810   0.61212  255.124
 3639.00    0.62783   0.61994  263.193
 3640.00    0.62471   0.62183  275.035
 3641.00    0.61680   0.61611  275.035
 3642.00    0.60603   0.60527  275.035
 3643.00    0.59304   0.59368  275.035
 3644.00    0.58595   0.58459  275.035
 3645.00    0.58478   0.57869  275.035
 3646.00    0.58270   0.57495  275.035
 3647.00    0.57816   0.57301  275.035
 3648.00    0.58164   0.57405  272.897
 3649.00    0.58532   0.57926  260.954
 3650.00    0.58791   0.58858  253.368
 3651.00    0.60076   0.60033  249.156
 3652.00    0.61015   0.61204  247.646
 3653.00    0.61352   0.62173  245.308
 3654.00    0.62053   0.62913  242.680
 3655.00    0.63052   0.63514  238.937
 3656.00    0.63263   0.64081  238.070
 3657.00    0.62904   0.64588   -1.000
 3658.00    0.63493   0.64881   -1.000
 3659.00    0.63438   0.64843   -1.000
 3660.00    0.63644   0.64469  246.503
 3661.00    0.63459   0.63861  248.997
 3662.00    0.63186   0.63196  247.176
 3663.00    0.63155   0.62666  246.511
 3664.00    0.62826   0.62374  250.477
 3665.00    0.63120   0.62262  253.902
 3666.00    0.62843   0.62136  259.322
 3667.00    0.62199   0.61881  259.680
 3668.00    0.61258   0.61611  251.784
 3669.00    0.61479   0.61596  245.603
 3670.00    0.62042   0.61997  243.760
 3671.00    0.62668   0.62639  243.527
 3672.00    0.62983   0.63170  243.941
 3673.00    0.63480   0.63310  249.795
 3674.00    0.63283   0.62971  257.629
 3675.00    0.63361   0.62240   -1.000
 3676.00    0.63052   0.61275   -1.000
 3677.00    0.61512   0.60309   -1.000
 3678.00    0.59789   0.59576  267.966
 3679.00    0.59781   0.59218  260.334
 3680.00    0.60337   0.59250  256.701
 3681.00    0.60544   0.59531  260.918
 3682.00    0.61237   0.59819   -1.000
 3683.00    0.61081   0.59819   -1.000
 3684.00    0.60960   0.59340   -1.000
 3685.00    0.60004   0.58516   -1.000
 3686.00    0.59453   0.57847   -1.000
 3687.00    0.59436   0.57895   -1.000
 3688.00    0.60435   0.58813   -1.000
 3689.00    0.62059   0.60238   -1.000
 3690.00    0.63318   0.61580   -1.000
 3691.00    0.63459   0.62468  249.072
 3692.00    0.63974   0.62886  248.983
 3693.00    0.64269   0.63003   -1.000
 3694.00    0.64244   0.62905   -1.000
 3695.00    0.63621   0.62675  237.203
 3696.00    0.63055   0.62633  230.757
 3697.00    0.63677   0.63198  227.064
 3698.00    0.64443   0.64451  229.763
 3699.00    0.66671   0.65800  238.986
 3700.00    0.68017   0.66241   -1.000
 3701.00    0.66616   0.65056   -1.000
 3702.00    0.64356   0.62368   -1.000
 3703.00    0.60922   0.59142   -1.000
 3704.00    0.57939   0.56629   -1.000
 3705.00    0.57513   0.55601   -1.000
 3706.00    0.58913   0.55983   -1.000
 3707.00    0.60594   0.57033   -1.000
 3708.00    0.61480   0.57977   -1.000
 3709.00    0.61760   0.58448   -1.000
 3710.00    0.61503   0.58648   -1.000
 3711.00    0.60275   0.59225  226.268
 3712.00    0.61310   0.60724  224.537
 3713.00    0.63936   0.63084  229.086
 3714.00    0.67663   0.65651   -1.000
 3715.00    0.70244   0.67567   -1.000
 3716.00    0.70071   0.68107   -1.000
 3717.00    0.68999   0.66850   -1.000
 3718.00    0.66467   0.63791   44.123
 3719.00    0.61568   0.59582  114.584
 3720.00    0.56747   0.55579   -1.000
 3721.00    0.53826   0.53344  266.921
 3722.00    0.55047   0.53741   -1.000
 3723.00    0.58844   0.56483   -1.000
 3724.00    0.63862   0.60343   -1.000
 3725.00    0.67342   0.63911   -1.000
 3726.00    0.69247   0.66386   -1.000
 3727.00    0.69212   0.67800   -1.000
 3728.00    0.68559   0.68382  270.707
 3729.00    0.68776   0.67916  275.035
 3730.00    0.68096   0.65887   42.758
 3731.00    0.64737   0.62108   37.789
 3732.00    0.59633   0.57200   39.890
 3733.00    0.54626   0.52503   38.577
 3734.00    0.50584   0.49476   35.253
 3735.00    0.50235   0.49088  114.547
 3736.00    0.52402   0.51467  275.035
 3737.00    0.57151   0.55928   -1.000
 3738.00    0.63039   0.61265   -1.000
 3739.00    0.67655   0.66163   -1.000
 3740.00    0.70122   0.69581  275.035
 3741.00    0.71580   0.71058  275.035
 3742.00    0.70697   0.70703  275.035
 3743.00    0.69158   0.68963  275.035
 3744.00    0.66669   0.66324   42.972
 3745.00    0.63646   0.63076   36.859
 3746.00    0.60493   0.59318   37.657
 3747.00    0.56776   0.55295  129.316
 3748.00    0.53424   0.51737   -1.000
 3749.00    0.50337   0.49813  273.125
 3750.00    0.51236   0.50500  251.270
 3751.00    0.56280   0.53851   -1.000
 3752.00    0.62097   0.58938   -1.000
 3753.00    0.67244   0.64353   -1.000
 3754.00    0.71579   0.68769   -1.000
 3755.00    0.74448   0.71323   -1.000
 3756.00    0.74036   0.71852   -1.000
 3757.00    0.71612   0.70955  275.035
 3758.00    0.69674   0.69728  275.035
 3759.00    0.68695   0.69083  268.423
 3760.00    0.69654   0.69285  265.673
 3761.00    0.72024   0.69981   -1.000
 3762.00    0.73364   0.70599   -1.000
 3763.00    0.72787   0.70663   -1.000
 3764.00    0.72061   0.69866   -1.000
 3765.00    0.71601   0.68107   -1.000
 3766.00    0.70072   0.65483   -1.000
 3767.00    0.67346   0.62263   -1.000
 3768.00    0.63436   0.58915   -1.000
 3769.00    0.60944   0.56188   -1.000
 3770.00    0.58420   0.54979   -1.000
 3771.00    0.59338   0.55872   -1.000
 3772.00    0.63291   0.58664   -1.000
 3773.00    0.68066   0.62439   -1.000
 3774.00    0.70919   0.66250   -1.000
 3775.00    0.72458   0.69696   -1.000
 3776.00    0.74875   0.72826   -1.000
 3777.00    0.77264   0.75774  222.459
 3778.00    0.79398   0.78523  220.371
 3779.00    0.81316   0.80923  219.020
 3780.00    0.82420   0.82814  218.912
 3781.00    0.83497   0.84099  223.194
 3782.00    0.83887   0.84728  234.061
 3783.00    0.84049   0.84614  250.950
 3784.00    0.83375   0.83676  264.590
 3785.00    0.81130   0.81989  270.801
 3786.00    0.79102   0.79905  271.392
 3787.00    0.78131   0.77928  267.217
 3788.00    0.77409   0.76390  264.147
 3789.00    0.76647   0.75254   -1.000
 3790.00    0.76829   0.74173   -1.000
 3791.00    0.75944   0.72662   -1.000
 3792.00    0.74045   0.70314   -1.000
 3793.00    0.70660   0.66992   -1.000
 3794.00    0.67148   0.62861   -1.000
 3795.00    0.63161   0.58357   -1.000
 3796.00    0.59147   0.54213   -1.000
 3797.00    0.55913   0.51449   -1.000
 3798.00    0.54656   0.51083   -1.000
 3799.00    0.57725   0.53562   -1.000
 3800.00    0.62841   0.58294   -1.000
 3801.00    0.68701   0.63957   -1.000
 3802.00    0.73424   0.69237   -1.000
 3803.00    0.76190   0.73299   -1.000
 3804.00    0.78382   0.75945   -1.000
 3805.00    0.79446   0.77493   -1.000
 3806.00    0.79380   0.78595  246.240
 3807.00    0.79539   0.79921  242.533
 3808.00    0.81209   0.81751  246.285
 3809.00    0.82920   0.83715  258.493
 3810.00    0.84612   0.85056  274.370
 3811.00    0.84318   0.85091   -1.000
 3812.00    0.82543   0.83669   -1.000
 3813.00    0.80527   0.81436   -1.000
 3814.00    0.78137   0.79443   -1.000
 3815.00    0.78514   0.78433  275.035
 3816.00    0.80228   0.78359   -1.000
 3817.00    0.80304   0.78466   -1.000
 3818.00    0.80878   0.78040   -1.000
 3819.00    0.79300   0.77034   -1.000
 3820.00    0.77399   0.75963   -1.000
 3821.00    0.77328   0.75254   -1.000
 3822.00    0.78607   0.74690   41.754
 3823.00    0.77591   0.73664   36.906
 3824.00    0.74729   0.71945   36.726
 3825.00    0.71712   0.69893   36.161
 3826.00    0.70345   0.68033   35.566
 3827.00    0.70652   0.66527   35.882
 3828.00    0.70065   0.65080   37.380
 3829.00    0.69211   0.63230   40.234
 3830.00    0.67579   0.60614   41.723
 3831.00    0.65109   0.57141   -1.000
 3832.00    0.60549   0.53100   -1.000
 3833.00    0.56006   0.49175   38.605
 3834.00    0.52191   0.46246   39.234
 3835.00    0.51009   0.45022   40.181
 3836.00    0.53348   0.45695   -1.000
 3837.00    0.56466   0.47968   -1.000
 3838.00    0.59460   0.51371   -1.000
 3839.00    0.62054   0.55525   -1.000
 3840.00    0.65693   0.60174   -1.000
 3841.00    0.70164   0.64982   -1.000
 3842.00    0.73634   0.69510   -1.000
 3843.00    0.77276   0.73381   -1.000
 3844.00    0.80086   0.76439   -1.000
 3845.00    0.81167   0.78788   -1.000
 3846.00    0.81090   0.80567  275.035
 3847.00    0.81955   0.81806  275.035
 3848.00    0.82533   0.82520  275.035
 3849.00    0.81797   0.82933   -1.000
 3850.00    0.81201   0.83409   -1.000
 3851.00    0.81572   0.84078   -1.000
 3852.00    0.84091   0.84707  275.035
 3853.00    0.85251   0.84910  275.035
 3854.00    0.84933   0.84514  275.035
 3855.00    0.83747   0.83679   38.567
 3856.00    0.82438   0.82679   36.241
 3857.00    0.81643   0.81749   35.745
 3858.00    0.80559   0.81141  162.883
 3859.00    0.79055   0.81116   -1.000
 3860.00    0.79175   0.81827   -1.000
 3861.00    0.82705   0.83051  275.035
 3862.00    0.86151   0.84281   -1.000
 3863.00    0.87553   0.85079   -1.000
 3864.00    0.86693   0.85355  275.035
 3865.00    0.86299   0.85357  275.035
 3866.00    0.86924   0.85308   -1.000
 3867.00    0.86550   0.85193  275.035
 3868.00    0.86159   0.84777   38.707
 3869.00    0.84741   0.83786  170.520
 3870.00    0.82118   0.82266  275.035
 3871.00    0.79764   0.80676  275.035
 3872.00    0.77651   0.79697   -1.000
 3873.00    0.78165   0.79663   -1.000
 3874.00    0.80997   0.80215  275.035
 3875.00    0.82777   0.80509   -1.000
 3876.00    0.81513   0.79896   -1.000
 3877.00    0.78838   0.78498  275.035
 3878.00    0.76484   0.76939  275.035
 3879.00    0.75367   0.75681  275.035
 3880.00    0.75797   0.74642   -1.000
 3881.00    0.75487   0.73408   -1.000
 3882.00    0.74444   0.71642   -1.000
 3883.00    0.73503   0.69156   -1.000
 3884.00    0.72368   0.65811   -1.000
 3885.00    0.68965   0.61644   -1.000
 3886.00    0.63834   0.57093   -1.000
 3887.00    0.59277   0.53163   -1.000
 3888.00    0.56164   0.51006   -1.000
 3889.00    0.56495   0.51358   -1.000
 3890.00    0.60651   0.54106   -1.000
 3891.00    0.66074   0.58310   -1.000
 3892.00    0.70991   0.62734   -1.000
 3893.00    0.72804   0.66553   -1.000
 3894.00    0.74497   0.69651   -1.000
 3895.00    0.76937   0.72270   -1.000
 3896.00    0.78214   0.74570   -1.000
 3897.00    0.80050   0.76488   -1.000
 3898.00    0.80317   0.77996   -1.000
 3899.00    0.79851   0.79252  229.195
 3900.00    0.82153   0.80444   -1.000
 3901.00    0.83446   0.81509   -1.000
 3902.00    0.84573   0.82202   -1.000
 3903.00    0.84263   0.82422   -1.000
 3904.00    0.83318   0.82419  236.563
 3905.00    0.82080   0.82736  220.648
 3906.00    0.82750   0.83815  214.814
 3907.00    0.84890   0.85654  212.707
 3908.00    0.87948   0.87830  210.684
 3909.00    0.89472   0.89719  209.391
 3910.00    0.90744   0.90913  211.666
 3911.00    0.90921   0.91371  215.984
 3912.00    0.90364   0.91253  221.058
 3913.00    0.89532   0.90810   -1.000
 3914.00    0.88447   0.90288   -1.000
 3915.00    0.89175   0.89821  233.461
 3916.00    0.88070   0.89375   -1.000
 3917.00    0.87153   0.88829   -1.000
 3918.00    0.86614   0.88109   -1.000
 3919.00    0.85919   0.87324   -1.000
 3920.00    0.85736   0.86705   -1.000
 3921.00    0.85420   0.86437   -1.000
 3922.00    0.85623   0.86449   -1.000
 3923.00    0.86214   0.86380  275.035
 3924.00    0.85320   0.85773  275.035
 3925.00    0.83422   0.84273   40.942
 3926.00    0.81067   0.81794   44.471
 3927.00    0.77777   0.78449   52.037
 3928.00    0.73108   0.74382   61.559
 3929.00    0.67027   0.69676   72.069
 3930.00    0.59595   0.64384   -1.000
 3931.00    0.51691   0.58928   -1.000
 3932.00    0.44217   0.54288   -1.000
 3933.00    0.40626   0.51792   -1.000
 3934.00    0.41324   0.52357   -1.000
 3935.00    0.47320   0.55891   -1.000
 3936.00    0.57057   0.61291   -1.000
 3937.00    0.64551   0.67207   -1.000
 3938.00    0.71530   0.72589   -1.000
 3939.00    0.76728   0.76885  275.035
 3940.00    0.79700   0.79935  275.035
 3941.00    0.80614   0.81762   -1.000
 3942.00    0.81747   0.82659   -1.000
 3943.00    0.82615   0.83108  239.503
 3944.00    0.82748   0.83566  236.504
 3945.00    0.85086   0.84242  234.771
 3946.00    0.87477   0.85023   -1.000
 3947.00    0.87295   0.85685  218.877
 3948.00    0.86413   0.86119  219.626
 3949.00    0.87082   0.86344  222.827
 3950.00    0.87823   0.86404  219.088
 3951.00    0.88087   0.86363   -1.000
 3952.00    0.87661   0.86313  215.731
 3953.00    0.87608   0.86213  223.548
 3954.00    0.88606   0.85882   -1.000
 3955.00    0.87138   0.85185   -1.000
 3956.00    0.85501   0.84205  228.453
 3957.00    0.84912   0.83110   -1.000
 3958.00    0.85379   0.81777   -1.000
 3959.00    0.84949   0.79790   -1.000
 3960.00    0.81483   0.76918   -1.000
 3961.00    0.76923   0.73306   37.577
 3962.00    0.73209   0.69305   42.097
 3963.00    0.69432   0.65004   51.874
 3964.00    0.64325   0.60046   63.501
 3965.00    0.57169   0.54192   70.383
 3966.00    0.47564   0.47715   65.652
 3967.00    0.38001   0.41685   54.239
 3968.00    0.31862   0.37514   44.554
 3969.00    0.31245   0.36281   37.252
 3970.00    0.36476   0.38228   -1.000
 3971.00    0.45231   0.42764   -1.000
 3972.00    0.54833   0.48819   -1.000
 3973.00    0.62502   0.55334   -1.000
 3974.00    0.69207   0.61581   -1.000
 3975.00    0.74614   0.67166   -1.000
 3976.00    0.78088   0.72047   -1.000
 3977.00    0.81366   0.76249   -1.000
 3978.00    0.84460   0.79782   -1.000
 3979.00    0.87471   0.82520   -1.000
 3980.00    0.88192   0.84378   -1.000
 3981.00    0.88594   0.85529   -1.000
 3982.00    0.88774   0.86369   -1.000
 3983.00    0.89490   0.87280   -1.000
 3984.00    0.91600   0.88373   -1.000
 3985.00    0.92926   0.89547   -1.000
 3986.00    0.93177   0.90707   -1.000
 3987.00    0.93837   0.91823   -1.000
 3988.00    0.94641   0.92912  178.295
 3989.00    0.95013   0.93955  173.947
 3990.00    0.96251   0.94934  176.092
 3991.00    0.96816   0.95788  180.390
 3992.00    0.98191   0.96379  184.551
 3993.00    0.98572   0.96526   -1.000
 3994.00    0.97530   0.96169  189.655
 3995.00    0.95523   0.95507  185.310
 3996.00    0.94330   0.94937  176.691
 3997.00    0.93705   0.94823  170.723
 3998.00    0.94514   0.95323  168.032
 3999.00    0.96831   0.96241  165.631
 4000.00    0.98054   0.97170  168.999
 4001.00    0.99518   0.97662  180.739
 4002.00    0.99436   0.97433  190.072
 4003.00    0.98686   0.96492   -1.000
 4004.00    0.96519   0.95313  177.282
 4005.00    0.94578   0.94561  170.317
 4006.00    0.95914   0.94755  168.161
 4007.00    0.96624   0.95883  166.348
 4008.00    0.98288   0.97381  165.819
 4009.00    0.99718   0.98672  167.060
 4010.00    1.00000   0.99473  167.963
 4011.00    0.99390   0.99855  166.651
 4012.00    1.00054   1.00047  164.238
 4013.00    0.99403   1.00218  165.765
 4014.00    0.99769   1.00434  167.846
 4015.00    1.00613   1.00671  166.959
 4016.00    1.00553   1.00944  164.302
 4017.00    1.00289   1.01285  164.785
 4018.00    1.00894   1.01680  167.285
 4019.00    1.01240   1.02017  168.221
 4020.00    1.01266   1.02134  169.330
 4021.00    1.00390   1.01912   -1.000
 4022.00    0.99879   1.01380   -1.000
 4023.00    0.99926   1.00761  160.222
 4024.00    0.99382   1.00378  157.071
 4025.00    0.99932   1.00469  158.670
 4026.00    1.01166   1.00895  165.454
 4027.00    1.01356   1.01179  177.015
 4028.00    1.00613   1.00837  184.298
 4029.00    0.99322   0.99770  186.308
 4030.00    0.97375   0.98425  183.762
 4031.00    0.95250   0.97372   -1.000
 4032.00    0.96108   0.97063  168.675
 4033.00    0.96988   0.97591  160.364
 4034.00    0.97672   0.98828  154.843
 4035.00    0.99648   1.00510  154.456
 4036.00    1.02148   1.02268  157.892
 4037.00    1.03053   1.03660  161.669
 4038.00    1.03080   1.04352  163.350
 4039.00    1.02934   1.04292  164.213
 4040.00    1.01620   1.03690   -1.000
 4041.00    1.00620   1.02700   -1.000
 4042.00    1.00549   1.01186  204.021
 4043.00    0.99054   0.99212  194.714
 4044.00    0.96283   0.97228  175.517
 4045.00    0.93767   0.96126   -1.000
 4046.00    0.94108   0.96541   -1.000
 4047.00    0.97529   0.98236  158.929
 4048.00    1.00294   1.00381  160.195
 4049.00    1.01562   1.02054  164.733
 4050.00    1.01369   1.02785   -1.000
 4051.00    1.02090   1.02598  171.505
 4052.00    1.01186   1.01852  172.827
 4053.00    0.99757   1.00954  174.007
 4054.00    0.99784   1.00209  175.756
 4055.00    0.99115   0.99752  173.429
 4056.00    0.98936   0.99565  167.046
 4057.00    0.98209   0.99682  163.996
 4058.00    0.99173   1.00044  167.285
 4059.00    1.00286   1.00324  179.961
 4060.00    1.01483   1.00079  191.978
 4061.00    1.00788   0.98985  188.274
 4062.00    0.97465   0.97331  178.899
 4063.00    0.95218   0.95744  174.662
 4064.00    0.95345   0.94824  169.878
 4065.00    0.96745   0.94749  164.461
 4066.00    0.97881   0.95310   -1.000
 4067.00    0.97829   0.96064  169.560
 4068.00    0.98776   0.96539   -1.000
 4069.00    0.99097   0.96435   -1.000
 4070.00    0.98534   0.95775   -1.000
 4071.00    0.97092   0.94999   -1.000
 4072.00    0.96267   0.94495  177.238
 4073.00    0.97746   0.94208   -1.000
 4074.00    0.97591   0.93710   -1.000
 4075.00    0.96426   0.92684   -1.000
 4076.00    0.94146   0.91467   -1.000
 4077.00    0.92146   0.90748  164.843
 4078.00    0.92851   0.91105  160.376
 4079.00    0.95109   0.92406   -1.000
 4080.00    0.97461   0.93958   -1.000
 4081.00    0.98498   0.94946   -1.000
 4082.00    0.98325   0.95013   -1.000
 4083.00    0.97211   0.94469   -1.000
 4084.00    0.96087   0.93931   -1.000
 4085.00    0.95789   0.93909  151.604
 4086.00    0.97216   0.94401   -1.000
 4087.00    0.97974   0.95021   -1.000
 4088.00    0.98367   0.95249   -1.000
 4089.00    0.98152   0.94838   -1.000
 4090.00    0.97162   0.93863   -1.000
 4091.00    0.95225   0.92541   -1.000
 4092.00    0.94456   0.90981   -1.000
 4093.00    0.94102   0.89069   -1.000
 4094.00    0.92412   0.86682   -1.000
 4095.00    0.89698   0.83775   -1.000
 4096.00    0.87680   0.80381   -1.000
 4097.00    0.85815   0.76458   -1.000
 4098.00    0.82888   0.71925   -1.000
 4099.00    0.77381   0.67041   -1.000
 4100.00    0.70506   0.62674   -1.000
 4101.00    0.64290   0.60115   -1.000
 4102.00    0.63858   0.60388   -1.000
 4103.00    0.69462   0.63442   -1.000
 4104.00    0.76684   0.68233   -1.000
 4105.00    0.82525   0.73308   -1.000
 4106.00    0.86114   0.77626   -1.000
 4107.00    0.87507   0.80866   -1.000
 4108.00    0.88397   0.83209   -1.000
 4109.00    0.88937   0.85035   -1.000
 4110.00    0.90872   0.86691   -1.000
 4111.00    0.91447   0.88372   -1.000
 4112.00    0.93298   0.90132   -1.000
 4113.00    0.95202   0.91875   -1.000
 4114.00    0.96081   0.93431   -1.000
 4115.00    0.96916   0.94544   -1.000
 4116.00    0.97698   0.95063   -1.000
 4117.00    0.97137   0.95037   -1.000
 4118.00    0.95999   0.94757  170.840
 4119.00    0.95379   0.94555  170.927
 4120.00    0.95032   0.94620  168.920
 4121.00    0.95639   0.94967  166.057
 4122.00    0.95757   0.95498  165.800
 4123.00    0.96485   0.96101  168.251
 4124.00    0.97924   0.96595  171.774
 4125.00    0.98800   0.96786  173.073
 4126.00    0.98652   0.96591   -1.000
 4127.00    0.98004   0.96144  176.556
 4128.00    0.97329   0.95653  182.280
 4129.00    0.97351   0.95185   -1.000
 4130.00    0.97024   0.94694   -1.000
 4131.00    0.95620   0.94214  180.632
 4132.00    0.94011   0.94045  171.651
 4133.00    0.94348   0.94515  166.409
 4134.00    0.95229   0.95751  163.817
 4135.00    0.97210   0.97491  161.426
 4136.00    0.99224   0.99331  161.202
 4137.00    0.99986   1.00849  165.114
 4138.00    1.00556   1.01752  174.516
 4139.00    1.00657   1.01788  189.093
 4140.00    1.00273   1.00880  197.270
 4141.00    0.98992   0.99216  189.022
 4142.00    0.96497   0.97426  177.878
 4143.00    0.93269   0.96269   -1.000
 4144.00    0.94550   0.96190   -1.000
 4145.00    0.96610   0.97042  174.259
 4146.00    0.98446   0.98169  178.962
 4147.00    0.98653   0.99001  180.746
 4148.00    0.98125   0.99377  179.333
 4149.00    0.97932   0.99468   -1.000
 4150.00    0.99620   0.99450  180.483
 4151.00    1.04267   0.99300   -1.000
 4152.00    0.97626   0.98941  178.200
 4153.00    0.91934   0.98441   -1.000
 4154.00    0.94706   0.98057   -1.000
 4155.00    0.98209   0.98052  171.409
 4156.00    0.96713   0.98527   -1.000
 4157.00    0.97048   0.99343   -1.000
 4158.00    0.98417   1.00246   -1.000
 4159.00    0.99562   1.01015  164.959
 4160.00    1.00371   1.01576  166.233
 4161.00    0.99689   1.01990   -1.000
 4162.00    0.99420   1.02337   -1.000
 4163.00    1.00106   1.02587   -1.000
 4164.00    1.00327   1.02625   -1.000
 4165.00    1.00014   1.02359   -1.000
 4166.00    0.99272   1.01844   -1.000
 4167.00    0.99080   1.01193   -1.000
 4168.00    0.99372   1.00400  187.280
 4169.00    0.98977   0.99299  197.494
 4170.00    0.97571   0.97736  196.753
 4171.00    0.95376   0.95981  189.388
 4172.00    0.93066   0.94607   -1.000
 4173.00    0.92174   0.94146   -1.000
 4174.00    0.92656   0.94594   -1.000
 4175.00    0.94511   0.95471  183.317
 4176.00    0.94819   0.96281   -1.000
 4177.00    0.94671   0.96880   -1.000
 4178.00    0.94814   0.97396   -1.000
 4179.00    0.96202   0.97918   -1.000
 4180.00    0.97316   0.98355  173.182
 4181.00    0.96989   0.98629   -1.000
 4182.00    0.96548   0.98800   -1.000
 4183.00    0.96795   0.98944   -1.000
 4184.00    0.97142   0.99018   -1.000
 4185.00    0.96711   0.98873   -1.000
 4186.00    0.95815   0.98528   -1.000
 4187.00    0.95149   0.98202   -1.000
 4188.00    0.94881   0.98145   -1.000
 4189.00    0.96030   0.98444   -1.000
 4190.00    0.96310   0.98994   -1.000
 4191.00    0.96842   0.99600   -1.000
 4192.00    0.97813   1.00025   -1.000
 4193.00    0.99016   0.99997  187.291
 4194.00    0.98739   0.99323  190.095
 4195.00    0.97101   0.98064  190.052
 4196.00    0.95217   0.96507  187.733
 4197.00    0.94052   0.95057  185.017
 4198.00    0.93039   0.94026  184.518
 4199.00    0.93051   0.93542  183.048
 4200.00    0.93398   0.93563  180.309
 4201.00    0.93954   0.93971  178.761
 4202.00    0.94209   0.94676  175.032
 4203.00    0.94607   0.95632  170.743
 4204.00    0.95342   0.96794   -1.000
 4205.00    0.95421   0.98028   -1.000
 4206.00    0.94873   0.99152   -1.000
 4207.00    0.96573   0.99983   -1.000
 4208.00    0.96839   1.00466   -1.000
 4209.00    0.96705   1.00703   -1.000
 4210.00    0.96947   1.00845   -1.000
 4211.00    0.97248   1.00898   -1.000
 4212.00    0.97811   1.00667   -1.000
 4213.00    0.97509   0.99986   -1.000
 4214.00    0.96338   0.98990   -1.000
 4215.00    0.94493   0.98152   -1.000
 4216.00    0.93102   0.97971   -1.000
 4217.00    0.94448   0.98564   -1.000
 4218.00    0.96190   0.99608   -1.000
 4219.00    0.97360   1.00511   -1.000
 4220.00    0.97899   1.00765   -1.000
 4221.00    0.97656   1.00036   -1.000
 4222.00    0.96652   0.98232   -1.000
 4223.00    0.94897   0.95511  232.858
 4224.00    0.92532   0.92459  214.110
 4225.00    0.88967   0.89962  185.866
 4226.00    0.85835   0.88990   -1.000
 4227.00    0.86469   0.89937   -1.000
 4228.00    0.90842   0.92384  161.127
 4229.00    0.95038   0.95164  165.073
 4230.00    0.97329   0.97161  169.011
 4231.00    0.97465   0.97863  170.941
 4232.00    0.96380   0.97503  174.936
 4233.00    0.95431   0.96678  177.319
 4234.00    0.94696   0.95930  175.326
 4235.00    0.93540   0.95515   -1.000
 4236.00    0.93149   0.95499   -1.000
 4237.00    0.93191   0.95846   -1.000
 4238.00    0.94118   0.96490   -1.000
 4239.00    0.94515   0.97282   -1.000
 4240.00    0.94795   0.98069   -1.000
 4241.00    0.95744   0.98739   -1.000
 4242.00    0.96021   0.99240   -1.000
 4243.00    0.95791   0.99487   -1.000
 4244.00    0.95625   0.99326   -1.000
 4245.00    0.95112   0.98652   -1.000
 4246.00    0.93937   0.97589   -1.000
 4247.00    0.92213   0.96492   -1.000
 4248.00    0.91524   0.95773   -1.000
 4249.00    0.91455   0.95611   -1.000
 4250.00    0.91468   0.95922   -1.000
 4251.00    0.92724   0.96386   -1.000
 4252.00    0.94390   0.96710   -1.000
 4253.00    0.94596   0.96788   -1.000
 4254.00    0.94297   0.96759   -1.000
 4255.00    0.94358   0.96787   -1.000
 4256.00    0.95558   0.96769  180.539
 4257.00    0.95791   0.96434  182.846
 4258.00    0.95023   0.95723  174.605
 4259.00    0.93491   0.95010  164.003
 4260.00    0.92343   0.94913   -1.000
 4261.00    0.92364   0.95738   -1.000
 4262.00    0.94176   0.97280   -1.000
 4263.00    0.96166   0.98915   -1.000
 4264.00    0.97365   1.00081   -1.000
 4265.00    0.97934   1.00468   -1.000
 4266.00    0.97343   1.00056   -1.000
 4267.00    0.96020   0.98928   -1.000
 4268.00    0.95346   0.97225   -1.000
 4269.00    0.94346   0.95144  197.350
 4270.00    0.91871   0.93065  192.541
 4271.00    0.89791   0.91438   -1.000
 4272.00    0.89263   0.90666  177.553
 4273.00    0.90085   0.90895  166.512
 4274.00    0.90708   0.92021  160.414
 4275.00    0.92003   0.93726   -1.000
 4276.00    0.94099   0.95565   -1.000
 4277.00    0.95860   0.96987  174.078
 4278.00    0.96688   0.97650  173.698
 4279.00    0.95294   0.97562   -1.000
 4280.00    0.93409   0.97097   -1.000
 4281.00    0.92606   0.96611   -1.000
 4282.00    0.92742   0.96237   -1.000
 4283.00    0.93207   0.95853   -1.000
 4284.00    0.92972   0.95271   -1.000
 4285.00    0.92353   0.94389   -1.000
 4286.00    0.91469   0.93168   -1.000
 4287.00    0.89998   0.91697   -1.000
 4288.00    0.88224   0.90237   -1.000
 4289.00    0.86825   0.89220   -1.000
 4290.00    0.86274   0.89003   -1.000
 4291.00    0.87161   0.89556   -1.000
 4292.00    0.89582   0.90387  181.499
 4293.00    0.90896   0.90915  186.763
 4294.00    0.90711   0.90769  197.884
 4295.00    0.90314   0.89920  215.007
 4296.00    0.89846   0.88440  228.071
 4297.00    0.88063   0.86495   -1.000
 4298.00    0.84910   0.84342  221.734
 4299.00    0.82623   0.82431  218.510
 4300.00    0.81281   0.81174  215.331
 4301.00    0.80799   0.80781  213.534
 4302.00    0.81391   0.81130  216.025
 4303.00    0.82269   0.81853  224.767
 4304.00    0.83248   0.82472  235.731
 4305.00    0.84062   0.82603  238.894
 4306.00    0.83392   0.82187  231.764
 4307.00    0.81639   0.81591  218.276
 4308.00    0.80149   0.81348  204.639
 4309.00    0.80058   0.81805   -1.000
 4310.00    0.81549   0.82892  186.329
 4311.00    0.83557   0.84345  174.027
 4312.00    0.84762   0.86030  159.085
 4313.00    0.85939   0.88097   -1.000
 4314.00    0.87504   0.90659   -1.000
 4315.00    0.90005   0.93573   -1.000
 4316.00    0.93425   0.96275   -1.000
 4317.00    0.95693   0.98165   -1.000
 4318.00    0.96164   0.98860   -1.000
 4319.00    0.96066   0.98369   -1.000
 4320.00    0.95054   0.96898   -1.000
 4321.00    0.94088   0.94694  194.206
 4322.00    0.92737   0.92026  196.499
 4323.00    0.89783   0.89347  180.874
 4324.00    0.86772   0.87309  162.908
 4325.00    0.85769   0.86550  153.538
 4326.00    0.86610   0.87205  151.816
 4327.00    0.88695   0.88796  152.259
 4328.00    0.91599   0.90414  150.879
 4329.00    0.92899   0.91415  148.411
 4330.00    0.92529   0.91622  147.245
 4331.00    0.91254   0.91227  147.678
 4332.00    0.90789   0.90362  152.022
 4333.00    0.90402   0.88871  163.401
 4334.00    0.89582   0.86407   -1.000
 4335.00    0.87683   0.82654   -1.000
 4336.00    0.83705   0.77656   -1.000
 4337.00    0.78702   0.71965   -1.000
 4338.00    0.72244   0.66690   -1.000
 4339.00    0.65716   0.63080   -1.000
 4340.00    0.62536   0.62104  164.258
 4341.00    0.65332   0.63909  159.472
 4342.00    0.71658   0.67812   -1.000
 4343.00    0.77884   0.72642   -1.000
 4344.00    0.81551   0.77418   -1.000
 4345.00    0.85355   0.81593   -1.000
 4346.00    0.87761   0.84988   -1.000
 4347.00    0.88952   0.87472  161.872
 4348.00    0.90359   0.88894  171.680
 4349.00    0.91330   0.89232   -1.000
 4350.00    0.90091   0.88844  163.400
 4351.00    0.87915   0.88446  156.590
 4352.00    0.87089   0.88740  152.294
 4353.00    0.89208   0.89938  150.047
 4354.00    0.91921   0.91719  151.117
 4355.00    0.93300   0.93500  154.211
 4356.00    0.94116   0.94885  154.705
 4357.00    0.94472   0.95792  151.001
 4358.00    0.93844   0.96427   -1.000
 4359.00    0.93606   0.97066   -1.000
 4360.00    0.94362   0.97878   -1.000
 4361.00    0.95580   0.98835   -1.000
 4362.00    0.96949   0.99763   -1.000
 4363.00    0.97435   1.00462   -1.000
 4364.00    0.97742   1.00727   -1.000
 4365.00    0.97344   1.00431   -1.000
 4366.00    0.96310   0.99613   -1.000
 4367.00    0.95635   0.98524   -1.000
 4368.00    0.95178   0.97471   -1.000
 4369.00    0.94741   0.96620   -1.000
 4370.00    0.95411   0.95909  162.728
 4371.00    0.95417   0.95142  167.413
 4372.00    0.95347   0.94208  165.161
 4373.00    0.94545   0.93269  157.574
 4374.00    0.92339   0.92729  151.046
 4375.00    0.91681   0.92951  149.623
 4376.00    0.92528   0.93947  151.188
 4377.00    0.94625   0.95251  155.224
 4378.00    0.96190   0.96190  165.475
 4379.00    0.96611   0.96139  184.613
 4380.00    0.96631   0.94802   -1.000
 4381.00    0.95258   0.92335   -1.000
 4382.00    0.92526   0.89468   -1.000
 4383.00    0.89372   0.87229   -1.000
 4384.00    0.87784   0.86484  159.336
 4385.00    0.89244   0.87302  160.152
 4386.00    0.92630   0.89023   -1.000
 4387.00    0.94688   0.90784   -1.000
 4388.00    0.94847   0.92064   -1.000
 4389.00    0.94549   0.92864  155.305
 4390.00    0.94678   0.93392  157.301
 4391.00    0.94996   0.93795  159.717
 4392.00    0.95629   0.94057  156.833
 4393.00    0.95186   0.94165  150.115
 4394.00    0.93992   0.94285  147.805
 4395.00    0.93623   0.94610  151.211
 4396.00    0.94769   0.95101  156.682
 4397.00    0.96413   0.95450  159.299
 4398.00    0.96515   0.95395  156.796
 4399.00    0.95310   0.95006  156.397
 4400.00    0.94024   0.94548  163.449
 4401.00    0.94269   0.94181  170.757
 4402.00    0.95385   0.93813  169.479
 4403.00    0.95378   0.93336   -1.000
 4404.00    0.93761   0.92875  162.513
 4405.00    0.93163   0.92690  159.580
 4406.00    0.94095   0.92950  152.988
 4407.00    0.94591   0.93664  146.827
 4408.00    0.94953   0.94737  142.924
 4409.00    0.95597   0.96043  143.094
 4410.00    0.96660   0.97292  148.601
 4411.00    0.98357   0.98039  156.472
 4412.00    0.99279   0.97916  159.878
 4413.00    0.98290   0.96894  157.135
 4414.00    0.95948   0.95432  151.076
 4415.00    0.94233   0.94277  145.394
 4416.00    0.93764   0.94059  142.951
 4417.00    0.94362   0.94922  144.959
 4418.00    0.96122   0.96443  148.576
 4419.00    0.97790   0.97948  150.061
 4420.00    0.98858   0.98858  149.079
 4421.00    0.98690   0.99076  148.775
 4422.00    0.98129   0.98858  149.449
 4423.00    0.98012   0.98550  149.590
 4424.00    0.98156   0.98339  148.606
 4425.00    0.98252   0.98238  148.707
 4426.00    0.97473   0.98230  149.996
 4427.00    0.97017   0.98321  149.695
 4428.00    0.97166   0.98474  148.011
 4429.00    0.97487   0.98613  148.840
 4430.00    0.97712   0.98612  154.882
 4431.00    0.97698   0.98355  160.700
 4432.00    0.97647   0.97812  159.397
 4433.00    0.96483   0.97128  151.456
 4434.00    0.94847   0.96656  142.969
 4435.00    0.94405   0.96808   -1.000
 4436.00    0.95488   0.97690   -1.000
 4437.00    0.97960   0.98964  145.865
 4438.00    1.00080   0.99967  152.747
 4439.00    1.00040   1.00144  157.175
 4440.00    0.98597   0.99384  155.199
 4441.00    0.96805   0.98112  148.812
 4442.00    0.94334   0.97076   -1.000
 4443.00    0.93158   0.96859   -1.000
 4444.00    0.93777   0.97588   -1.000
 4445.00    0.95438   0.98846   -1.000
 4446.00    0.96989   1.00055   -1.000
 4447.00    0.97506   1.00813   -1.000
 4448.00    0.97820   1.01062   -1.000
 4449.00    0.97654   1.00939   -1.000
 4450.00    0.97337   1.00564   -1.000
 4451.00    0.97802   0.99930   -1.000
 4452.00    0.97821   0.98965  160.185
 4453.00    0.96864   0.97713  157.149
 4454.00    0.95426   0.96470  155.359
 4455.00    0.94314   0.95598  155.842
 4456.00    0.94758   0.95316  156.970
 4457.00    0.95679   0.95517  158.576
 4458.00    0.95828   0.95944  158.357
 4459.00    0.95848   0.96380  153.884
 4460.00    0.95130   0.96766  148.544
 4461.00    0.94858   0.97161   -1.000
 4462.00    0.95441   0.97623   -1.000
 4463.00    0.96512   0.98119  147.026
 4464.00    0.97097   0.98488  149.200
 4465.00    0.97233   0.98562  151.445
 4466.00    0.96729   0.98282  151.166
 4467.00    0.95886   0.97801  147.944
 4468.00    0.95292   0.97437   -1.000
 4469.00    0.95161   0.97519   -1.000
 4470.00    0.95878   0.98184   -1.000
 4471.00    0.97131   0.99327   -1.000
 4472.00    0.98550   1.00671   -1.000
 4473.00    0.99551   1.01899   -1.000
 4474.00    1.00116   1.02792   -1.000
 4475.00    1.00218   1.03251   -1.000
 4476.00    0.99937   1.03235   -1.000
 4477.00    1.00023   1.02686   -1.000
 4478.00    1.00046   1.01566  149.617
 4479.00    0.99255   1.00049  145.925
 4480.00    0.97884   0.98596  139.799
 4481.00    0.96546   0.97837  135.401
 4482.00    0.96079   0.98138  133.743
 4483.00    0.96811   0.99369   -1.000
 4484.00    0.98133   1.00957   -1.000
 4485.00    0.99599   1.02193   -1.000
 4486.00    1.00199   1.02636   -1.000
 4487.00    0.99970   1.02273   -1.000
 4488.00    0.99257   1.01500   -1.000
 4489.00    0.97974   1.00817   -1.000
 4490.00    0.97153   1.00580   -1.000
 4491.00    0.97971   1.00764   -1.000
 4492.00    0.99362   1.01129  146.987
 4493.00    0.99174   1.01400   -1.000
 4494.00    0.98068   1.01520   -1.000
 4495.00    0.97575   1.01629   -1.000
 4496.00    0.97576   1.01821   -1.000
 4497.00    0.98278   1.02080   -1.000
 4498.00    0.99140   1.02262   -1.000
 4499.00    0.99541   1.02325   -1.000
 4500.00    0.99185   1.02383   -1.000
 4501.00    0.98335   1.02691   -1.000
 4502.00    0.98942   1.03388   -1.000
 4503.00    1.00573   1.04336   -1.000
 4504.00    1.01151   1.05221   -1.000
 4505.00    1.01529   1.05717   -1.000
 4506.00    1.01601   1.05767   -1.000
 4507.00    1.00782   1.05525   -1.000
 4508.00    1.00651   1.05268   -1.000
 4509.00    1.00730   1.05122   -1.000
 4510.00    1.00677   1.05023   -1.000
 4511.00    1.00942   1.04799   -1.000
 4512.00    1.00780   1.04335   -1.000
 4513.00    1.00012   1.03694   -1.000
 4514.00    0.99651   1.03026   -1.000
 4515.00    0.99482   1.02487   -1.000
 4516.00    0.99344   1.02140   -1.000
 4517.00    0.99288   1.01927   -1.000
 4518.00    0.98970   1.01789   -1.000
 4519.00    0.98603   1.01682   -1.000
 4520.00    0.98362   1.01550   -1.000
 4521.00    0.98243   1.01335   -1.000
 4522.00    0.98002   1.00966   -1.000
 4523.00    0.98078   1.00427   -1.000
 4524.00    0.97676   0.99734   -1.000
 4525.00    0.97693   0.98878  153.941
 4526.00    0.97428   0.97901  152.052
 4527.00    0.96481   0.96917  149.270
 4528.00    0.95290   0.96141  147.348
 4529.00    0.94887   0.95745  148.654
 4530.00    0.95517   0.95669  153.402
 4531.00    0.95823   0.95700  155.693
 4532.00    0.95695   0.95610  150.472
 4533.00    0.94385   0.95485  141.505
 4534.00    0.93304   0.95644   -1.000
 4535.00    0.93706   0.96429   -1.000
 4536.00    0.95623   0.97855   -1.000
 4537.00    0.98375   0.99541  137.813
 4538.00    0.98864   1.00974   -1.000
 4539.00    0.64266   1.01769   -1.000
 4540.00    0.07302   1.01960   -1.000
 4541.00   -0.00189   1.01792    0.000
 4542.00    0.35779   1.01528   -1.000
 4543.00    0.59485   1.01258   -1.000
 4544.00    0.43756   1.00915   -1.000
 4545.00    0.85896   1.00419   -1.000
 4546.00    1.00221   0.99731   81.124
 4547.00    0.97036   0.98882  151.876
 4548.00    0.95845   0.98034   -1.000
 4549.00    0.94357   0.97429   -1.000
 4550.00    0.94561   0.97243   -1.000
 4551.00    0.96016   0.97413  145.350
 4552.00    0.96667   0.97660  141.678
 4553.00    0.96191   0.97786  136.151
 4554.00    0.95497   0.97873   -1.000
 4555.00    0.95597   0.98168   -1.000
 4556.00    0.96838   0.98895  131.547
 4557.00    0.98326   0.99998  131.488
 4558.00    0.99303   1.01208  132.822
 4559.00    0.99923   1.02233   -1.000
 4560.00    1.00690   1.02820   -1.000
 4561.00    1.00493   1.02869   -1.000
 4562.00    0.99354   1.02436   -1.000
 4563.00    0.98397   1.01749   -1.000
 4564.00    0.98077   1.01184   -1.000
 4565.00    0.98249   1.01019   -1.000
 4566.00    0.99042   1.01304  133.275
 4567.00    1.00037   1.01806  136.795
 4568.00    1.00324   1.02138  138.395
 4569.00    0.99961   1.02071  135.812
 4570.00    0.98696   1.01630   -1.000
 4571.00    0.97266   1.01133   -1.000
 4572.00    0.97110   1.00921   -1.000
 4573.00    0.98066   1.01153   -1.000
 4574.00    0.99240   1.01651   -1.000
 4575.00    1.00099   1.02102  137.211
 4576.00    1.00248   1.02238  140.843
 4577.00    0.99807   1.01926   -1.000
 4578.00    0.99573   1.01193  141.014
 4579.00    0.99251   1.00164  139.388
 4580.00    0.98555   0.99053  139.034
 4581.00    0.97988   0.98095  139.705
 4582.00    0.97677   0.97481  139.338
 4583.00    0.97281   0.97288  136.524
 4584.00    0.97178   0.97504  133.185
 4585.00    0.97796   0.98011  131.556
 4586.00    0.98661   0.98692  132.396
 4587.00    0.99298   0.99376  134.653
 4588.00    0.99486   0.99926  137.122
 4589.00    0.99145   1.00225  138.499
 4590.00    0.98759   1.00240  137.957
 4591.00    0.98341   1.00069  136.779
 4592.00    0.97899   0.99880  136.029
 4593.00    0.97835   0.99843  135.725
 4594.00    0.98542   1.00019  135.432
 4595.00    0.99848   1.00348  135.807
 4596.00    1.00161   1.00709  137.070
 4597.00    0.99799   1.00970  137.916
 4598.00    1.00007   1.01047  137.421
 4599.00    1.00297   1.00927  135.860
 4600.00    0.99540   1.00683  135.135
 4601.00    0.98651   1.00421  135.211
 4602.00    0.98070   1.00273  134.389
 4603.00    0.98041   1.00298  132.324
 4604.00    0.98909   1.00505  129.561
 4605.00    0.99768   1.00879  127.357
 4606.00    1.00267   1.01379  126.856
 4607.00    1.00688   1.01948  128.040
 4608.00    1.00659   1.02474  129.690
 4609.00    1.00674   1.02838  130.840
 4610.00    1.00895   1.02938  130.968
 4611.00    1.00754   1.02792  130.024
 4612.00    1.00251   1.02523  129.148
 4613.00    0.99758   1.02227   -1.000
 4614.00    0.99666   1.01980  130.260
 4615.00    0.99570   1.01734  130.716
 4616.00    0.99783   1.01461  130.019
 4617.00    0.99856   1.01184  128.341
 4618.00    0.99588   1.01008  127.220
 4619.00    0.99428   1.01067  127.420
 4620.00    0.99843   1.01391  127.718
 4621.00    1.00688   1.01903  128.408
 4622.00    1.01164   1.02416  129.210
 4623.00    1.00858   1.02749  129.312
 4624.00    1.00040   1.02847   -1.000
 4625.00    0.99687   1.02722   -1.000
 4626.00    0.99995   1.02454   -1.000
 4627.00    1.00255   1.02151  128.979
 4628.00    0.99904   1.01892  128.454
 4629.00    0.99170   1.01772   -1.000
 4630.00    0.99126   1.01798   -1.000
 4631.00    1.00052   1.01896  132.123
 4632.00    1.00626   1.01919  132.529
 4633.00    1.00535   1.01768  133.982
 4634.00    1.00583   1.01480  135.188
 4635.00    1.00598   1.01174  135.337
 4636.00    0.99965   1.00962  134.082
 4637.00    0.99555   1.00917  131.232
 4638.00    0.99937   1.01065  128.678
 4639.00    1.00457   1.01388  128.080
 4640.00    1.00899   1.01832  129.591
 4641.00    1.01218   1.02257  132.682
 4642.00    1.01477   1.02486  136.445
 4643.00    1.01533   1.02341  138.646
 4644.00    1.01018   1.01786  137.609
 4645.00    1.00095   1.00952  134.680
 4646.00    0.99142   1.00091  132.154
 4647.00    0.98779   0.99529  131.170
 4648.00    0.99290   0.99462  130.969
 4649.00    0.99705   0.99836  131.605
 4650.00    0.99891   1.00430  133.979
 4651.00    1.00125   1.00922  136.366
 4652.00    1.00183   1.01122  136.501
 4653.00    0.99910   1.01008  133.619
 4654.00    0.99031   1.00738  128.812
 4655.00    0.98112   1.00581  124.882
 4656.00    0.97819   1.00780   -1.000
 4657.00    0.98605   1.01414   -1.000
 4658.00    1.00197   1.02340  126.651
 4659.00    1.01691   1.03219  129.513
 4660.00    1.02205   1.03696  130.902
 4661.00    1.01709   1.03630  132.070
 4662.00    1.01060   1.03040  136.076
 4663.00    1.00930   1.02076  141.981
 4664.00    1.00942   1.00876  144.943
 4665.00    1.00391   0.99557  142.515
 4666.00    0.99023   0.98284  137.157
 4667.00    0.97524   0.97338  132.418
 4668.00    0.97197   0.96992  130.339
 4669.00    0.97875   0.97336  130.101
 4670.00    0.98996   0.98221  130.104
 4671.00    1.00003   0.99335  129.146
 4672.00    1.00653   1.00358  127.273
 4673.00    1.00849   1.01154  126.671
 4674.00    1.00929   1.01667  128.487
 4675.00    1.01189   1.01918  131.226
 4676.00    1.01474   1.01845  133.595
 4677.00    1.01619   1.01428  135.316
 4678.00    1.01089   1.00753  135.019
 4679.00    1.00050   1.00003  132.323
 4680.00    0.99480   0.99425  129.772
 4681.00    0.99334   0.99142  129.247
 4682.00    0.99731   0.99170  129.548
 4683.00    1.00406   0.99421  129.949
 4684.00    1.00735   0.99750  130.327
 4685.00    1.01018   1.00052  130.312
 4686.00    1.01481   1.00266  130.818
 4687.00    1.01769   1.00392  131.437
 4688.00    1.01579   1.00437  130.707
 4689.00    1.01124   1.00438  128.885
 4690.00    1.00865   1.00425  126.434
 4691.00    1.00804   1.00438  124.229
 4692.00    1.01108   1.00533  123.854
 4693.00    1.01462   1.00697  126.108
 4694.00    1.01529   1.00855  129.949
 4695.00    1.01863   1.00892  132.596
 4696.00    1.02042   1.00711  132.655
 4697.00    1.01663   1.00251  132.616
 4698.00    1.00862   0.99574  134.410
 4699.00    1.00544   0.98781  135.932
 4700.00    1.00546   0.97980   -1.000
 4701.00    0.99982   0.97308   -1.000
 4702.00    0.99278   0.96858   -1.000
 4703.00    0.98736   0.96716  134.973
 4704.00    0.98988   0.96839   -1.000
 4705.00    0.99433   0.97051   -1.000
 4706.00    0.98985   0.97181  134.493
 4707.00    0.98369   0.97196  130.580
 4708.00    0.98170   0.97219  128.264
 4709.00    0.98495   0.97427  128.425
 4710.00    0.99221   0.97840  130.393
 4711.00    1.00097   0.98354  131.548
 4712.00    1.00765   0.98795  130.021
 4713.00    1.00880   0.99064  127.406
 4714.00    1.00607   0.99253  125.878
 4715.00    1.00476   0.99497  125.332
 4716.00    1.00753   0.99904  124.904
 4717.00    1.01076   1.00420  125.302
 4718.00    1.01024   1.00909  126.321
 4719.00    1.01184   1.01268  126.299
 4720.00    1.01318   1.01451  125.155
 4721.00    1.01169   1.01530  124.643
 4722.00    1.00981   1.01558  126.454
 4723.00    1.00772   1.01549  130.591
 4724.00    1.01311   1.01427  134.494
 4725.00    1.01732   1.01087  135.474
 4726.00    1.01539   1.00472  134.373
 4727.00    1.00813   0.99651  133.154
 4728.00    1.00075   0.98818  131.798
 4729.00    1.00186   0.98181  130.442
 4730.00    1.00219   0.97861   -1.000
 4731.00    0.99656   0.97855  128.826
 4732.00    0.99330   0.98080  129.297
 4733.00    0.99650   0.98370  130.058
 4734.00    0.99994   0.98596  129.127
 4735.00    0.99894   0.98705  128.383
 4736.00    0.99642   0.98736  128.886
 4737.00    0.99752   0.98784  129.326
 4738.00    0.99988   0.98928  128.785
 4739.00    1.00313   0.99165  127.501
 4740.00    1.00643   0.99440  127.041
 4741.00    1.00650   0.99718  127.263
 4742.00    1.00811   0.99988  126.756
 4743.00    1.00947   1.00247  125.582
 4744.00    1.00846   1.00500  124.880
 4745.00    1.00876   1.00744  124.908
 4746.00    1.00884   1.00987  125.049
 4747.00    1.00875   1.01264  125.606
 4748.00    1.01041   1.01549  126.844
 4749.00    1.01219   1.01789  128.085
 4750.00    1.01538   1.01924  129.035
 4751.00    1.01737   1.01851  129.268
 4752.00    1.01379   1.01556  129.435
 4753.00    1.00859   1.01107  130.229
 4754.00    1.00247   1.00658  130.729
 4755.00    0.99980   1.00373  130.127
 4756.00    1.00082   1.00336  129.506
 4757.00    0.99951   1.00510  130.613
 4758.00    0.99905   1.00742  133.444
 4759.00    0.99940   1.00840  135.878
 4760.00    1.00003   1.00615  136.674
 4761.00    0.99760   1.00022  136.551
 4762.00    0.98785   0.99164  135.854
 4763.00    0.98230   0.98307  134.329
 4764.00    0.98270   0.97722  131.728
 4765.00    0.98574   0.97560  129.393
 4766.00    0.98883   0.97858  128.819
 4767.00    0.99235   0.98504  129.608
 4768.00    1.00073   0.99310  130.762
 4769.00    1.00594   1.00059  130.325
 4770.00    1.00686   1.00587  127.971
 4771.00    1.00274   1.00895  126.311
 4772.00    1.00032   1.01107  126.072
 4773.00    1.00241   1.01364  126.357
 4774.00    1.00442   1.01727  127.008
 4775.00    1.01046   1.02081  128.213
 4776.00    1.01263   1.02297  129.263
 4777.00    1.00859   1.02283  129.744
 4778.00    1.00697   1.02065  130.245
 4779.00    1.00585   1.01754  131.143
 4780.00    1.00341   1.01447  131.542
 4781.00    1.00441   1.01174  131.759
 4782.00    1.00384   1.00895  132.745
 4783.00    1.00040   1.00593  133.756
 4784.00    0.99977   1.00264  133.963
 4785.00    0.99977   0.99945  133.487
 4786.00    0.99245   0.99704  132.715
 4787.00    0.98513   0.99606  131.544
 4788.00    0.98883   0.99695  129.672
 4789.00    0.99535   0.99971  127.050
 4790.00    0.99557   1.00431  124.596
 4791.00    0.99704   1.01047  123.501
 4792.00    1.00245   1.01769  124.125
 4793.00    1.00789   1.02497  126.189
 4794.00    1.01511   1.03088  128.662
 4795.00    1.01816   1.03402  130.531
 4796.00    1.01382   1.03357  130.398
 4797.00    1.00789   1.03029  128.258
 4798.00    1.00078   1.02589   -1.000
 4799.00    0.99374   1.02243   -1.000
 4800.00    0.99545   1.02123   -1.000
 4801.00    1.00433   1.02191  128.377
 4802.00    1.00754   1.02289  129.725
 4803.00    1.00707   1.02272  130.142
 4804.00    1.00643   1.02090  129.898
 4805.00    1.00252   1.01812  129.404
 4806.00    0.99985   1.01585  128.444
 4807.00    1.00146   1.01482  127.417
 4808.00    1.00605   1.01516  126.672
 4809.00    1.00732   1.01645  126.357
 4810.00    1.00277   1.01796  126.128
 4811.00    1.00341   1.01944  125.724
 4812.00    1.00896   1.02127  125.053
 4813.00    1.00953   1.02379  124.264
 4814.00    1.01005   1.02700  123.661
 4815.00    1.01021   1.03052  123.453
 4816.00    1.01455   1.03367  123.450
 4817.00    1.01731   1.03579  124.138
 4818.00    1.01554   1.03642  126.636
 4819.00    1.01294   1.03521  129.458
 4820.00    1.01348   1.03153  130.188
 4821.00    1.00895   1.02493  128.567
 4822.00    0.99777   1.01629  126.428
 4823.00    0.98848   1.00768  126.052
 4824.00    0.98861   1.00194  127.250
 4825.00    0.99319   1.00063  128.326
 4826.00    0.99887   1.00261  128.577
 4827.00    1.00243   1.00560  129.307
 4828.00    1.00308   1.00729  129.912
 4829.00    1.00492   1.00682  128.626
 4830.00    1.00256   1.00460  126.740
 4831.00    1.00091   1.00141  125.844
 4832.00    1.00042   0.99868  125.836
 4833.00    0.99964   0.99716  126.311
 4834.00    0.99995   0.99684  127.647
 4835.00    1.00233   0.99707  129.772
 4836.00    1.00005   0.99659  130.664
 4837.00    0.99809   0.99444  130.464
 4838.00    0.99502   0.99038  129.935
 4839.00    0.98517   0.98508  129.068
 4840.00    0.98093   0.97983  127.884
 4841.00    0.98341   0.97584  126.118
 4842.00    0.98678   0.97374  124.984
 4843.00    0.98768   0.97316  126.425
 4844.00    0.98896   0.97337  128.627
 4845.00    0.99235   0.97336  129.277
 4846.00    0.98980   0.97183  128.044
 4847.00    0.98194   0.96818  127.187
 4848.00    0.97732   0.96322  127.588
 4849.00    0.97398   0.95795  128.572
 4850.00    0.96983   0.95253  131.463
 4851.00    0.96940   0.94577   -1.000
 4852.00    0.96671   0.93567   -1.000
 4853.00    0.95524   0.92091   -1.000
 4854.00    0.94036   0.90143   -1.000
 4855.00    0.92482   0.87847   -1.000
 4856.00    0.90955   0.85256   -1.000
 4857.00    0.89518   0.82266   -1.000
 4858.00    0.86284   0.78707   -1.000
 4859.00    0.79808   0.74692   -1.000
 4860.00    0.72346   0.70941  144.815
 4861.00    0.68075   0.68482  138.617
 4862.00    0.69611   0.68180  135.071
 4863.00    0.75994   0.70111   -1.000
 4864.00    0.83057   0.73604   -1.000
 4865.00    0.87479   0.77702   -1.000
 4866.00    0.90155   0.81524   -1.000
 4867.00    0.91840   0.84576   -1.000
 4868.00    0.93057   0.86656   -1.000
 4869.00    0.93878   0.87826   -1.000
 4870.00    0.93459   0.88340   -1.000
 4871.00    0.92349   0.88586   -1.000
 4872.00    0.92321   0.89015   -1.000
 4873.00    0.93809   0.89826   -1.000
 4874.00    0.95546   0.90929   -1.000
 4875.00    0.96702   0.92089   -1.000
 4876.00    0.96652   0.93118   -1.000
 4877.00    0.96357   0.94036   -1.000
 4878.00    0.96643   0.94912  131.506
 4879.00    0.97213   0.95742  131.439
 4880.00    0.97720   0.96415  131.749
 4881.00    0.97905   0.96785  133.375
 4882.00    0.97909   0.96831  134.558
 4883.00    0.97663   0.96640  134.283
 4884.00    0.97397   0.96309  133.902
 4885.00    0.97231   0.95947  135.188
 4886.00    0.97364   0.95591  137.911
 4887.00    0.97574   0.95235   -1.000
 4888.00    0.97359   0.94860   -1.000
 4889.00    0.96574   0.94495  128.079
 4890.00    0.95366   0.94340  123.590
 4891.00    0.94767   0.94676  120.876
 4892.00    0.95907   0.95689  119.769
 4893.00    0.97901   0.97308  119.784
 4894.00    0.99769   0.99115  121.644
 4895.00    1.00941   1.00671  124.495
 4896.00    1.01204   1.01695  126.386
 4897.00    1.00847   1.02100  126.382
 4898.00    1.00292   1.02003  126.279
 4899.00    0.99528   1.01612  127.419
 4900.00    0.98953   1.01130  126.983
 4901.00    0.98780   1.00696  124.624
 4902.00    0.98550   1.00388  123.099
 4903.00    0.98597   1.00252  123.601
 4904.00    0.98794   1.00348  126.041
 4905.00    0.99531   1.00619  129.544
 4906.00    1.00194   1.00832  131.871
 4907.00    1.00497   1.00763  131.157
 4908.00    0.99997   1.00292  128.930
 4909.00    0.98873   0.99532  126.975
 4910.00    0.98163   0.98792  125.300
 4911.00    0.98280   0.98404  124.030
 4912.00    0.98774   0.98525  124.105
 4913.00    0.99347   0.99027  127.302
 4914.00    0.99871   0.99593  133.571
 4915.00    0.99986   0.99818  140.310
 4916.00    1.00114   0.99344  143.491
 4917.00    0.99252   0.98065  140.642
 4918.00    0.97221   0.96217  135.605
 4919.00    0.94785   0.94297  132.705
 4920.00    0.93947   0.92860  132.054
 4921.00    0.94510   0.92236   -1.000
 4922.00    0.95198   0.92430   -1.000
 4923.00    0.95599   0.93195   -1.000
 4924.00    0.95984   0.94313  123.810
 4925.00    0.97009   0.95661  122.879
 4926.00    0.98496   0.97101  122.109
 4927.00    0.99398   0.98504  122.734
 4928.00    0.99934   0.99675  125.470
 4929.00    1.00775   1.00410  129.740
 4930.00    1.00764   1.00593  131.395
 4931.00    0.99679   1.00202  129.757
 4932.00    0.98562   0.99373  128.976
 4933.00    0.97625   0.98400  131.654
 4934.00    0.96918   0.97564  135.430
 4935.00    0.97185   0.96993  135.685
 4936.00    0.97894   0.96606  131.974
 4937.00    0.97745   0.96279  127.615
 4938.00    0.96512   0.96111  124.758
 4939.00    0.95636   0.96295  123.298
 4940.00    0.96334   0.96951  123.047
 4941.00    0.98008   0.97999  123.715
 4942.00    0.99163   0.99126  124.170
 4943.00    0.99725   1.00034  123.437
 4944.00    0.99657   1.00583  122.051
 4945.00    0.99500   1.00826  121.372
 4946.00    0.99704   1.00942  120.911
 4947.00    0.99727   1.01098  121.218
 4948.00    1.00248   1.01332  122.009
 4949.00    1.00617   1.01553  123.265
 4950.00    1.00225   1.01647  124.780
 4951.00    0.99844   1.01542  127.617
 4952.00    0.99946   1.01215  133.339
 4953.00    1.00083   1.00627  139.217
 4954.00    0.99383   0.99726  138.723
 4955.00    0.98370   0.98476  132.042
 4956.00    0.96603   0.97051  126.612
 4957.00    0.94537   0.95943  124.726
 4958.00    0.94462   0.95630  124.914
 4959.00    0.96212   0.96260  125.815
 4960.00    0.98488   0.97506  127.179
 4961.00    0.99466   0.98806  129.565
 4962.00    0.99905   0.99724  131.561
 4963.00    0.99883   1.00058  132.041
 4964.00    0.99244   0.99860  131.751
 4965.00    0.98978   0.99347  130.930
 4966.00    0.98639   0.98765  129.637
 4967.00    0.98261   0.98300  128.242
 4968.00    0.98592   0.98056  126.747
 4969.00    0.98769   0.98081  125.462
 4970.00    0.98909   0.98361  124.773
 4971.00    0.98709   0.98824  125.281
 4972.00    0.99063   0.99365  126.498
 4973.00    0.99676   0.99869  128.123
 4974.00    1.00000   1.00208  130.130
 4975.00    1.00007   1.00297  131.879
 4976.00    0.99786   1.00106  133.679
 4977.00    0.99378   0.99632  137.428
 4978.00    0.98520   0.98883  141.952
 4979.00    0.98207   0.97866  143.162
 4980.00    0.97234   0.96580  141.119
 4981.00    0.95545   0.95113  137.456
 4982.00    0.94203   0.93722  133.197
 4983.00    0.93741   0.92780  129.649
 4984.00    0.94125   0.92606  128.909
 4985.00    0.95226   0.93225  130.383
 4986.00    0.96821   0.94356   -1.000
 4987.00    0.97792   0.95579   -1.000
 4988.00    0.98062   0.96493  131.401
 4989.00    0.98043   0.96914  130.677
 4990.00    0.97337   0.96929  130.498
 4991.00    0.96682   0.96780  129.980
 4992.00    0.96815   0.96695  129.321
 4993.00    0.96959   0.96783  129.747
 4994.00    0.97083   0.97014  131.263
 4995.00    0.97615   0.97259  133.710
 4996.00    0.98329   0.97357  135.657
 4997.00    0.98418   0.97180  136.144
 4998.00    0.97615   0.96668  135.176
 4999.00    0.97091   0.95906  134.174
 5000.00    0.96230   0.95081  135.409
 5001.00    0.95795   0.94396  138.527
 5002.00    0.96387   0.93943   -1.000
 5003.00    0.96972   0.93640   -1.000
 5004.00    0.96440   0.93344   -1.000
 5005.00    0.95470   0.93033   -1.000
 5006.00    0.94593   0.92887  132.420
 5007.00    0.94637   0.93074  135.889
 5008.00    0.95763   0.93543   -1.000
 5009.00    0.97278   0.94023   -1.000
 5010.00    0.97299   0.94155   -1.000
 5011.00    0.95919   0.93760   -1.000
 5012.00    0.94662   0.92938  139.118
 5013.00    0.93457   0.92026  137.985
 5014.00    0.93051   0.91336  137.891
 5015.00    0.93645   0.90983   -1.000
 5016.00    0.94295   0.90906   -1.000
 5017.00    0.94550   0.90980   -1.000
 5018.00    0.94280   0.91194   -1.000
 5019.00    0.94692   0.91592   -1.000
 5020.00    0.95384   0.92134   -1.000
 5021.00    0.96682   0.92746   -1.000
 5022.00    0.96812   0.93349   -1.000
 5023.00    0.96482   0.93917   -1.000
 5024.00    0.96579   0.94445   -1.000
 5025.00    0.96717   0.94843  131.084
 5026.00    0.96625   0.95077  129.068
 5027.00    0.96726   0.95234  127.027
 5028.00    0.96921   0.95413  125.426
 5029.00    0.97332   0.95701  125.268
 5030.00    0.97550   0.96125  128.449
 5031.00    0.97388   0.96597  133.387
 5032.00    0.97857   0.96955  136.305
 5033.00    0.98387   0.97012  137.151
 5034.00    0.97981   0.96649  138.570
 5035.00    0.96687   0.95916  143.214
 5036.00    0.95817   0.94937  149.063
 5037.00    0.95836   0.93846   -1.000
 5038.00    0.95121   0.92682   -1.000
 5039.00    0.97476   0.91502   -1.000
 5040.00    0.71318   0.90603   -1.000
 5041.00    0.19135   0.90371   -1.000
 5042.00   -0.00952   0.91038    0.000
 5043.00    0.20724   0.92502   -1.000
 5044.00    0.80801   0.94302   -1.000
 5045.00    0.98075   0.95893  103.040
 5046.00    0.98525   0.96849  148.753
 5047.00    0.98477   0.96998  134.468
 5048.00    0.97568   0.96461  132.660
 5049.00    0.96287   0.95603  129.356
 5050.00    0.95095   0.94822  126.810
 5051.00    0.95248   0.94434  125.387
 5052.00    0.96044   0.94599  124.832
 5053.00    0.97483   0.95249   -1.000
 5054.00    0.98622   0.96106   -1.000
 5055.00    0.98941   0.96952  125.185
 5056.00    0.99400   0.97678  124.485
 5057.00    0.99298   0.98250  124.367
 5058.00    0.99281   0.98676  125.738
 5059.00    0.98730   0.98962  129.037
 5060.00    0.98707   0.99058  133.506
 5061.00    0.98830   0.98911  135.689
 5062.00    0.98754   0.98450  134.624
 5063.00    0.98187   0.97673  132.630
 5064.00    0.96787   0.96756  131.903
 5065.00    0.95841   0.95925  131.327
 5066.00    0.96318   0.95365  130.502
 5067.00    0.96825   0.95101  131.198
 5068.00    0.97169   0.95043   -1.000
 5069.00    0.97270   0.95076   -1.000
 5070.00    0.97674   0.95099   -1.000
 5071.00    0.97880   0.95040   -1.000
 5072.00    0.97564   0.94930   -1.000
 5073.00    0.97319   0.94859   -1.000
 5074.00    0.97187   0.94850   -1.000
 5075.00    0.97833   0.94825   -1.000
 5076.00    0.97790   0.94644   -1.000
 5077.00    0.96885   0.94192   -1.000
 5078.00    0.95967   0.93453   -1.000
 5079.00    0.94505   0.92630  135.899
 5080.00    0.93743   0.92030  133.462
 5081.00    0.94250   0.91845   -1.000
 5082.00    0.95373   0.92113   -1.000
 5083.00    0.96424   0.92728   -1.000
 5084.00    0.96814   0.93554   -1.000
 5085.00    0.97498   0.94442   -1.000
 5086.00    0.98336   0.95255   -1.000
 5087.00    0.99250   0.95933   -1.000
 5088.00    0.99800   0.96481   -1.000
 5089.00    0.98846   0.96918  124.269
 5090.00    0.98220   0.97270  125.031
 5091.00    0.98658   0.97559  127.424
 5092.00    0.98869   0.97763  130.181
 5093.00    0.99348   0.97788  133.287
 5094.00    0.99301   0.97504  136.162
 5095.00    0.98888   0.96834   -1.000
 5096.00    0.98249   0.95854   -1.000
 5097.00    0.97213   0.94789   -1.000
 5098.00    0.96161   0.93953   -1.000
 5099.00    0.95883   0.93574   -1.000
 5100.00    0.97078   0.93729   -1.000
 5101.00    0.97440   0.94263   -1.000
 5102.00    0.98049   0.94863   -1.000
 5103.00    0.98483   0.95254   -1.000
 5104.00    0.98158   0.95287   -1.000
 5105.00    0.97625   0.94963   -1.000
 5106.00    0.96947   0.94412   -1.000
 5107.00    0.95774   0.93853  132.390
 5108.00    0.95243   0.93489  130.717
 5109.00    0.95346   0.93447  129.122
 5110.00    0.95882   0.93757   -1.000
 5111.00    0.96678   0.94366   -1.000
 5112.00    0.97515   0.95122   -1.000
 5113.00    0.98430   0.95886   -1.000
 5114.00    0.98596   0.96560  124.965
 5115.00    0.98723   0.97109  126.433
 5116.00    0.98764   0.97508  128.316
 5117.00    0.99356   0.97720  130.414
 5118.00    0.99682   0.97697  133.609
 5119.00    0.99023   0.97390  137.579
 5120.00    0.98436   0.96802  138.993
 5121.00    0.98086   0.95993   -1.000
 5122.00    0.97593   0.95072   -1.000
 5123.00    0.96449   0.94152   -1.000
 5124.00    0.95396   0.93377   -1.000
 5125.00    0.95756   0.92829   -1.000
 5126.00    0.96346   0.92518   -1.000
 5127.00    0.95895   0.92391   -1.000
 5128.00    0.95335   0.92417   -1.000
 5129.00    0.96017   0.92578   -1.000
 5130.00    0.96855   0.92866   -1.000
 5131.00    0.96733   0.93245   -1.000
 5132.00    0.97018   0.93654   -1.000
 5133.00    0.97101   0.94019   -1.000
 5134.00    0.97501   0.94262   -1.000
 5135.00    0.97940   0.94302   -1.000
 5136.00    0.97569   0.94078   -1.000
 5137.00    0.96706   0.93628   -1.000
 5138.00    0.95177   0.93059   -1.000
 5139.00    0.94308   0.92537  137.710
 5140.00    0.94729   0.92175   -1.000
 5141.00    0.94656   0.92005   -1.000
 5142.00    0.94883   0.91998   -1.000
 5143.00    0.95289   0.92118   -1.000
 5144.00    0.95922   0.92292   -1.000
 5145.00    0.96773   0.92434   -1.000
 5146.00    0.97050   0.92484   -1.000
 5147.00    0.96424   0.92481   -1.000
 5148.00    0.96723   0.92482   -1.000
 5149.00    0.97151   0.92447   -1.000
 5150.00    0.96097   0.92329   -1.000
 5151.00    0.95386   0.92160   -1.000
 5152.00    0.95241   0.92019   -1.000
 5153.00    0.95224   0.92035   -1.000
 5154.00    0.95895   0.92337   -1.000
 5155.00    0.97330   0.92970   -1.000
 5156.00    0.98446   0.93820   -1.000
 5157.00    0.98970   0.94710   -1.000
 5158.00    0.99071   0.95435   -1.000
 5159.00    0.99142   0.95857   -1.000
 5160.00    0.98885   0.95890   -1.000
 5161.00    0.98269   0.95490   -1.000
 5162.00    0.97907   0.94595   -1.000
 5163.00    0.97615   0.93135   -1.000
 5164.00    0.96746   0.91025   -1.000
 5165.00    0.94432   0.88335   -1.000
 5166.00    0.90655   0.85481   -1.000
 5167.00    0.87062   0.83022   -1.000
 5168.00    0.86087   0.81475   -1.000
 5169.00    0.87927   0.80844   -1.000
 5170.00    0.89997   0.80723   -1.000
 5171.00    0.89955   0.80875   -1.000
 5172.00    0.88049   0.81393   -1.000
 5173.00    0.88200   0.82654   -1.000
 5174.00    0.91408   0.84775   -1.000
 5175.00    0.95109   0.87391   -1.000
 5176.00    0.97996   0.89930   -1.000
 5177.00    0.98771   0.91832   -1.000
 5178.00    0.98952   0.92702   -1.000
 5179.00    0.99069   0.92378   -1.000
 5180.00    0.98037   0.90900   -1.000
 5181.00    0.96129   0.88569   -1.000
 5182.00    0.93218   0.85979   -1.000
 5183.00    0.89713   0.84021   -1.000
 5184.00    0.89390   0.83393   -1.000
 5185.00    0.91156   0.84235   -1.000
 5186.00    0.94410   0.86077   -1.000
 5187.00    0.96125   0.88122   -1.000
 5188.00    0.96406   0.89790   -1.000
 5189.00    0.95837   0.90805   -1.000
 5190.00    0.95298   0.91139   -1.000
 5191.00    0.94543   0.90970   -1.000
 5192.00    0.93602   0.90655   -1.000
 5193.00    0.93762   0.90440   -1.000
 5194.00    0.94146   0.90466   -1.000
 5195.00    0.94660   0.90738   -1.000
 5196.00    0.95214   0.91237   -1.000
 5197.00    0.96117   0.91930   -1.000
 5198.00    0.96102   0.92723   -1.000
 5199.00    0.96392   0.93432   -1.000
 5200.00    0.97012   0.93855   -1.000
 5201.00    0.96984   0.93807   -1.000
 5202.00    0.96492   0.93207   -1.000
 5203.00    0.95243   0.92125   -1.000
 5204.00    0.93779   0.90795   -1.000
 5205.00    0.92821   0.89506   -1.000
 5206.00    0.92410   0.88538   -1.000
 5207.00    0.92628   0.88057   -1.000
 5208.00    0.93061   0.88136   -1.000
 5209.00    0.93447   0.88793   -1.000
 5210.00    0.94271   0.89935   -1.000
 5211.00    0.96016   0.91352   -1.000
 5212.00    0.97749   0.92697   -1.000
 5213.00    0.98048   0.93661   -1.000
 5214.00    0.97079   0.94071   -1.000
 5215.00    0.95850   0.94044  125.762
 5216.00    0.95293   0.93920  124.753
 5217.00    0.95624   0.94026  124.233
 5218.00    0.96859   0.94500   -1.000
 5219.00    0.98114   0.95203   -1.000
 5220.00    0.98616   0.95872   -1.000
 5221.00    0.98800   0.96177   -1.000
 5222.00    0.99097   0.95891   -1.000
 5223.00    0.98209   0.94918   -1.000
 5224.00    0.96834   0.93362   -1.000
 5225.00    0.94183   0.91562   -1.000
 5226.00    0.91504   0.90101  126.571
 5227.00    0.90416   0.89438  126.304
 5228.00    0.92011   0.89721   -1.000
 5229.00    0.94959   0.90601   -1.000
 5230.00    0.96263   0.91580   -1.000
 5231.00    0.96299   0.92244   -1.000
 5232.00    0.96303   0.92476   -1.000
 5233.00    0.95410   0.92475   -1.000
 5234.00    0.95021   0.92596   -1.000
 5235.00    0.96124   0.93081   -1.000
 5236.00    0.97302   0.93894   -1.000
 5237.00    0.98112   0.94852   -1.000
 5238.00    0.98799   0.95711   -1.000
 5239.00    0.98843   0.96336   -1.000
 5240.00    0.98651   0.96702  122.489
 5241.00    0.98523   0.96869  124.888
 5242.00    0.98435   0.96920  128.792
 5243.00    0.98203   0.96910  131.825
 5244.00    0.98448   0.96783  132.222
 5245.00    0.98430   0.96438   -1.000
 5246.00    0.97623   0.95868  133.305
 5247.00    0.96359   0.95170  132.702
 5248.00    0.95594   0.94504  130.873
 5249.00    0.95550   0.93983  129.564
 5250.00    0.95459   0.93683  129.565
 5251.00    0.95513   0.93620  128.650
 5252.00    0.96110   0.93742   -1.000
 5253.00    0.96443   0.93966   -1.000
 5254.00    0.96096   0.94278  121.151
 5255.00    0.96346   0.94731  122.264
 5256.00    0.97316   0.95286  125.607
 5257.00    0.97966   0.95797   -1.000
 5258.00    0.98387   0.96010   -1.000
 5259.00    0.98422   0.95692   -1.000
 5260.00    0.97940   0.94711   -1.000
 5261.00    0.96331   0.93132   -1.000
 5262.00    0.94486   0.91210   -1.000
 5263.00    0.92780   0.89289   -1.000
 5264.00    0.91348   0.87695   -1.000
 5265.00    0.91272   0.86637   -1.000
 5266.00    0.91745   0.86083   -1.000
 5267.00    0.92079   0.85813   -1.000
 5268.00    0.91699   0.85662   -1.000
 5269.00    0.90007   0.85637   -1.000
 5270.00    0.89380   0.85979   -1.000
 5271.00    0.90780   0.86785   -1.000
 5272.00    0.93308   0.87886   -1.000
 5273.00    0.94649   0.89072   -1.000
 5274.00    0.94751   0.90190   -1.000
 5275.00    0.95026   0.91249   -1.000
 5276.00    0.95331   0.92304   -1.000
 5277.00    0.96681   0.93324   -1.000
 5278.00    0.97944   0.94137   -1.000
 5279.00    0.96371   0.94501  131.078
 5280.00    0.96796   0.94365   -1.000
 5281.00    0.96322   0.93879   -1.000
 5282.00    0.95251   0.93358  120.507
 5283.00    0.94707   0.93130  119.632
 5284.00    0.94928   0.93451  120.290
 5285.00    0.96035   0.94298  120.263
 5286.00    0.97867   0.95435   -1.000
 5287.00    0.98681   0.96545  119.299
 5288.00    0.98604   0.97426  120.018
 5289.00    0.98169   0.98015  121.165
 5290.00    0.97951   0.98309  122.787
 5291.00    0.98476   0.98336  126.166
 5292.00    0.98356   0.98140  131.062
 5293.00    0.98074   0.97696  134.551
 5294.00    0.97998   0.96974  133.617
 5295.00    0.97371   0.95991  130.159
 5296.00    0.96434   0.94868  127.757
 5297.00    0.95478   0.93877  126.980
 5298.00    0.95208   0.93281  125.394
 5299.00    0.95603   0.93166   -1.000
 5300.00    0.95851   0.93479   -1.000
 5301.00    0.96126   0.94057  119.484
 5302.00    0.96499   0.94785  120.697
 5303.00    0.96960   0.95556  121.742
 5304.00    0.97228   0.96221  120.889
 5305.00    0.97872   0.96696  119.602
 5306.00    0.97928   0.96982  118.855
 5307.00    0.97203   0.97155  119.002
 5308.00    0.97082   0.97338  119.693
 5309.00    0.97596   0.97563  120.204
 5310.00    0.97644   0.97780  121.093
 5311.00    0.98284   0.97868  122.307
 5312.00    0.98336   0.97722  123.389
 5313.00    0.97724   0.97309  123.387
 5314.00    0.97544   0.96684  122.433
 5315.00    0.96328   0.95996  121.929
 5316.00    0.95513   0.95469  122.418
 5317.00    0.95509   0.95273  123.299
 5318.00    0.95877   0.95405  124.779
 5319.00    0.96752   0.95657  127.006
 5320.00    0.96929   0.95762  128.134
 5321.00    0.96985   0.95547  128.027
 5322.00    0.96521   0.94937  131.735
 5323.00    0.95483   0.94008  140.512
 5324.00    0.95241   0.92876   -1.000
 5325.00    0.94890   0.91651   -1.000
 5326.00    0.94055   0.90403   -1.000
 5327.00    0.92123   0.89304   -1.000
 5328.00    0.89916   0.88742  125.046
 5329.00    0.90773   0.88942  123.848
 5330.00    0.93639   0.89885   -1.000
 5331.00    0.95382   0.91220   -1.000
 5332.00    0.96138   0.92559   -1.000
 5333.00    0.96277   0.93669   -1.000
 5334.00    0.96406   0.94423  124.954
 5335.00    0.96130   0.94777  128.234
 5336.00    0.95996   0.94770  130.423
 5337.00    0.96005   0.94469  129.145
 5338.00    0.95840   0.93957  125.502
 5339.00    0.95406   0.93368  123.332
 5340.00    0.93878   0.92938  123.461
 5341.00    0.94140   0.92841  124.315
 5342.00    0.95308   0.93111   -1.000
 5343.00    0.96345   0.93538   -1.000
 5344.00    0.96993   0.93883   -1.000
 5345.00    0.96138   0.94021   -1.000
 5346.00    0.95960   0.93956  125.008
 5347.00    0.95918   0.93815   -1.000
 5348.00    0.95965   0.93739   -1.000
 5349.00    0.95862   0.93855  120.304
 5350.00    0.96138   0.94208  119.308
 5351.00    0.97068   0.94754   -1.000
 5352.00    0.97154   0.95371  116.903
 5353.00    0.97616   0.95985  117.080
 5354.00    0.97555   0.96578  117.261
 5355.00    0.97671   0.97106  117.711
 5356.00    0.97419   0.97524  119.173
 5357.00    0.98010   0.97769  121.224
 5358.00    0.98434   0.97795  122.979
 5359.00    0.98288   0.97572  123.768
 5360.00    0.97880   0.97080  124.479
 5361.00    0.97611   0.96362  125.231
 5362.00    0.96651   0.95535  124.748
 5363.00    0.96142   0.94736  124.787
 5364.00    0.95238   0.94074  126.175
 5365.00    0.95032   0.93575  129.492
 5366.00    0.95423   0.93183   -1.000
 5367.00    0.95453   0.92762   -1.000
 5368.00    0.95107   0.92223   -1.000
 5369.00    0.94389   0.91573   -1.000
 5370.00    0.93273   0.91006   -1.000
 5371.00    0.92376   0.90825  118.767
 5372.00    0.92950   0.91225  119.215
 5373.00    0.94927   0.92193   -1.000
 5374.00    0.97014   0.93427   -1.000
 5375.00    0.98090   0.94603   -1.000
 5376.00    0.97976   0.95453   -1.000
 5377.00    0.97656   0.95872  122.651
 5378.00    0.97571   0.95889  123.188
 5379.00    0.97172   0.95621  123.041
 5380.00    0.96781   0.95221  122.404
 5381.00    0.96505   0.94825  121.043
 5382.00    0.95864   0.94551  120.919
 5383.00    0.95490   0.94489  121.542
 5384.00    0.95936   0.94661  122.789
 5385.00    0.96650   0.94991  124.724
 5386.00    0.97251   0.95304  126.054
 5387.00    0.97233   0.95453  126.534
 5388.00    0.96701   0.95350  126.563
 5389.00    0.96533   0.94999  126.999
 5390.00    0.96589   0.94478   -1.000
 5391.00    0.96207   0.93880   -1.000
 5392.00    0.95954   0.93279   -1.000
 5393.00    0.95045   0.92731   -1.000
 5394.00    0.94818   0.92204   -1.000
 5395.00    0.95058   0.91678   -1.000
 5396.00    0.93610   0.91237   -1.000
 5397.00    0.92857   0.91007  124.214
 5398.00    0.93189   0.91120   -1.000
 5399.00    0.95149   0.91497   -1.000
 5400.00    0.95675   0.91914   -1.000
 5401.00    0.96010   0.92125   -1.000
 5402.00    0.95694   0.91944   -1.000
 5403.00    0.94944   0.91343   -1.000
 5404.00    0.93268   0.90540   -1.000
 5405.00    0.91914   0.89862   -1.000
 5406.00    0.92876   0.89517   -1.000
 5407.00    0.93657   0.89558   -1.000
 5408.00    0.94299   0.89812   -1.000
 5409.00    0.94359   0.90176   -1.000
 5410.00    0.93676   0.90645   -1.000
 5411.00    0.94297   0.91203   -1.000
 5412.00    0.95504   0.91821   -1.000
 5413.00    0.96225   0.92398   -1.000
 5414.00    0.95826   0.92906   -1.000
 5415.00    0.94950   0.93391  122.857
 5416.00    0.95312   0.93833  123.483
 5417.00    0.95705   0.94204  122.873
 5418.00    0.95914   0.94444  122.498
 5419.00    0.96035   0.94518  124.400
 5420.00    0.95965   0.94443  125.339
 5421.00    0.95932   0.94228  123.737
 5422.00    0.95703   0.93913  121.709
 5423.00    0.95150   0.93613  122.488
 5424.00    0.94470   0.93413  126.188
 5425.00    0.94661   0.93389  130.073
 5426.00    0.95606   0.93431   -1.000
 5427.00    0.95970   0.93301   -1.000
 5428.00    0.94962   0.92953   -1.000
 5429.00    0.93496   0.92453  129.624
 5430.00    0.92990   0.92007  130.957
 5431.00    0.93347   0.91713  130.164
 5432.00    0.93728   0.91517   -1.000
 5433.00    0.93776   0.91442   -1.000
 5434.00    0.92729   0.91541  121.326
 5435.00    0.92869   0.91924  119.743
 5436.00    0.93538   0.92645  118.857
 5437.00    0.94816   0.93596  118.737
 5438.00    0.96039   0.94607  118.825
 5439.00    0.96822   0.95448  120.330
 5440.00    0.96746   0.96000  123.844
 5441.00    0.96496   0.96176  129.079
 5442.00    0.96625   0.95925  132.872
 5443.00    0.96319   0.95259  131.178
 5444.00    0.95258   0.94251  126.714
 5445.00    0.93950   0.93157  123.410
 5446.00    0.92583   0.92298  122.526
 5447.00    0.91829   0.91964  122.714
 5448.00    0.93186   0.92237  123.990
 5449.00    0.95449   0.92895   -1.000
 5450.00    0.96645   0.93635   -1.000
 5451.00    0.96637   0.94123   -1.000
 5452.00    0.96337   0.94161   -1.000
 5453.00    0.95441   0.93755  125.894
 5454.00    0.94274   0.93132  122.776
 5455.00    0.92622   0.92630  122.495
 5456.00    0.92218   0.92568  124.194
 5457.00    0.93503   0.92940  126.560
 5458.00    0.95060   0.93533  128.119
 5459.00    0.95990   0.94031  128.537
 5460.00    0.96236   0.94213   -1.000
 5461.00    0.95598   0.94050  125.357
 5462.00    0.94854   0.93696  124.776
 5463.00    0.94722   0.93404  123.372
 5464.00    0.94761   0.93341  123.093
 5465.00    0.95145   0.93533  124.422
 5466.00    0.95517   0.93873  125.647
 5467.00    0.95476   0.94245  126.026
 5468.00    0.95829   0.94539  126.760
 5469.00    0.96085   0.94663  128.167
 5470.00    0.95856   0.94587  130.123
 5471.00    0.95620   0.94312  132.937
 5472.00    0.95250   0.93845  134.622
 5473.00    0.94982   0.93213  132.802
 5474.00    0.94656   0.92461   -1.000
 5475.00    0.93974   0.91704   -1.000
 5476.00    0.92835   0.91152  128.020
 5477.00    0.92394   0.90959  129.466
 5478.00    0.93448   0.91168   -1.000
 5479.00    0.94236   0.91631   -1.000
 5480.00    0.95298   0.92142   -1.000
 5481.00    0.95473   0.92634   -1.000
 5482.00    0.94728   0.93081  124.657
 5483.00    0.94470   0.93507  126.387
 5484.00    0.95177   0.93881  126.939
 5485.00    0.95422   0.94124  126.806
 5486.00    0.95352   0.94206  125.821
 5487.00    0.94743   0.94159  124.957
 5488.00    0.94551   0.94088  124.618
 5489.00    0.94639   0.94067  124.939
 5490.00    0.94634   0.94117  124.950
 5491.00    0.94913   0.94219  125.030
 5492.00    0.94772   0.94313  126.039
 5493.00    0.95164   0.94361  126.739
 5494.00    0.95296   0.94331  125.816
 5495.00    0.94960   0.94199  124.599
 5496.00    0.94045   0.93995  125.960
 5497.00    0.93530   0.93768  127.872
 5498.00    0.93241   0.93559  127.753
 5499.00    0.93636   0.93367  126.680
 5500.00    0.93983   0.93136  126.735
 5501.00    0.93364   0.92879  128.598
 5502.00    0.93026   0.92664  129.514
 5503.00    0.93811   0.92479  127.983
 5504.00    0.94371   0.92311   -1.000
 5505.00    0.94168   0.92142   -1.000
 5506.00    0.93440   0.92011  126.963
 5507.00    0.92929   0.92000  129.574
 5508.00    0.93516   0.92083  131.540
 5509.00    0.94422   0.92192   -1.000
 5510.00    0.94476   0.92222   -1.000
 5511.00    0.93998   0.92127  128.050
 5512.00    0.93654   0.91979  126.083
 5513.00    0.93290   0.91906  123.698
 5514.00    0.93321   0.92036  121.898
 5515.00    0.94053   0.92393  121.823
 5516.00    0.94884   0.92934  122.050
 5517.00    0.95341   0.93553  122.321
 5518.00    0.95372   0.94135  122.737
 5519.00    0.95478   0.94576  122.994
 5520.00    0.95302   0.94827  123.915
 5521.00    0.95372   0.94874  125.847
 5522.00    0.94958   0.94724  128.922
 5523.00    0.95101   0.94367  131.935
 5524.00    0.94563   0.93779  131.922
 5525.00    0.93833   0.92998  128.658
 5526.00    0.93253   0.92137  125.449
 5527.00    0.92234   0.91426  124.249
 5528.00    0.91646   0.91074  124.798
 5529.00    0.91822   0.91194  125.971
 5530.00    0.93460   0.91669  126.376
 5531.00    0.94218   0.92239  125.760
 5532.00    0.94467   0.92685  124.778
 5533.00    0.94371   0.92910  124.512
 5534.00    0.93896   0.92978  123.837
 5535.00    0.93508   0.93023  122.597
 5536.00    0.94088   0.93155  121.802
 5537.00    0.94328   0.93387  122.134
 5538.00    0.94366   0.93676  123.506
 5539.00    0.94379   0.93964  124.607
 5540.00    0.94683   0.94180  124.738
 5541.00    0.95100   0.94252  124.342
 5542.00    0.94925   0.94187  123.997
 5543.00    0.94338   0.94050  123.094
 5544.00    0.94188   0.93943  121.860
 5545.00    0.94242   0.93937  120.976
 5546.00    0.94400   0.94051  120.908
 5547.00    0.94753   0.94274  121.704
 5548.00    0.94963   0.94554  122.856
 5549.00    0.94682   0.94803  124.173
 5550.00    0.94610   0.94957  124.564
 5551.00    0.94536   0.94983  124.277
 5552.00    0.94591   0.94889  123.897
 5553.00    0.94498   0.94733  123.714
 5554.00    0.93910   0.94593  123.566
 5555.00    0.94110   0.94525  123.499
 5556.00    0.94291   0.94528  123.865
 5557.00    0.94026   0.94569  124.640
 5558.00    0.94337   0.94601  125.909
 5559.00    0.94592   0.94567  126.657
 5560.00    0.94550   0.94430  126.954
 5561.00    0.94218   0.94187  127.187
 5562.00    0.94012   0.93877  127.238
 5563.00    0.93607   0.93559  126.932
 5564.00    0.93185   0.93273  126.776
 5565.00    0.92943   0.93040  127.130
 5566.00    0.93248   0.92851  127.003
 5567.00    0.93501   0.92686  127.095
 5568.00    0.93928   0.92525  127.343
 5569.00    0.94153   0.92364  126.558
 5570.00    0.97276   0.92207   -1.000
 5571.00    1.05482   0.92074   -1.000
 5572.00    1.11122   0.92000   -1.000
 5573.00    1.06001   0.92036   -1.000
 5574.00    0.91100   0.92186  123.608
 5575.00    0.82002   0.92412   -1.000
 5576.00    0.84330   0.92693   -1.000
 5577.00    0.90607   0.92999  126.416
 5578.00    0.93241   0.93281  125.252
 5579.00    0.93571   0.93488  125.267
 5580.00    0.94232   0.93588  126.456
 5581.00    0.93783   0.93570  129.559
 5582.00    0.93426   0.93423  132.806
 5583.00    0.93694   0.93101  135.382
 5584.00    0.93521   0.92551  135.726
 5585.00    0.92733   0.91738  133.725
 5586.00    0.91550   0.90762  131.344
 5587.00    0.90207   0.89855  129.832
 5588.00    0.89660   0.89233  129.745
 5589.00    0.89948   0.89040  130.098
 5590.00    0.90639   0.89249  128.967
 5591.00    0.92010   0.89707   -1.000
 5592.00    0.92591   0.90216   -1.000
 5593.00    0.92161   0.90665  128.239
 5594.00    0.91886   0.91018  130.406
 5595.00    0.92068   0.91267  131.407
 5596.00    0.92267   0.91389  131.353
 5597.00    0.92301   0.91341  132.174
 5598.00    0.92140   0.91156  132.224
 5599.00    0.91649   0.90906  129.486
 5600.00    0.91494   0.90654  125.933
 5601.00    0.91303   0.90525  123.397
 5602.00    0.90971   0.90676  122.293
 5603.00    0.91536   0.91178  122.225
 5604.00    0.92241   0.91997  122.458
 5605.00    0.93027   0.92974  122.636
 5606.00    0.93918   0.93915  122.421
 5607.00    0.94320   0.94681  122.213
 5608.00    0.94281   0.95197  123.294
 5609.00    0.94192   0.95456  126.402
 5610.00    0.94558   0.95465  130.685
 5611.00    0.94357   0.95202  132.685
 5612.00    0.93985   0.94625  130.763
 5613.00    0.93082   0.93771  127.735
 5614.00    0.91792   0.92803  126.429
 5615.00    0.90924   0.91992  126.200
 5616.00    0.90930   0.91600  125.574
 5617.00    0.91914   0.91657  125.195
 5618.00    0.93175   0.92047  126.269
 5619.00    0.93584   0.92566  128.936
 5620.00    0.93891   0.93011  130.647
 5621.00    0.93735   0.93250  129.433
 5622.00    0.93034   0.93241  127.175
 5623.00    0.92769   0.93044  125.461
 5624.00    0.92240   0.92827  124.155
 5625.00    0.92354   0.92750  123.413
 5626.00    0.92946   0.92902  123.083
 5627.00    0.93647   0.93265  122.705
 5628.00    0.93948   0.93736  123.088
 5629.00    0.94220   0.94194  124.119
 5630.00    0.94321   0.94520  124.969
 5631.00    0.94091   0.94643  125.778
 5632.00    0.93951   0.94565  126.705
 5633.00    0.94165   0.94336  127.361
 5634.00    0.94034   0.94021  127.256
 5635.00    0.93899   0.93685  127.245
 5636.00    0.93284   0.93378  127.653
 5637.00    0.93103   0.93129  127.542
 5638.00    0.93270   0.92950  126.957
 5639.00    0.93324   0.92825  126.456
 5640.00    0.93225   0.92747  126.131
 5641.00    0.92659   0.92732  125.298
 5642.00    0.92529   0.92783  125.014
 5643.00    0.93113   0.92889  124.717
 5644.00    0.93454   0.93034  124.665
 5645.00    0.93691   0.93191  124.944
 5646.00    0.93772   0.93323  124.658
 5647.00    0.93610   0.93405  123.729
 5648.00    0.93608   0.93429  123.672
 5649.00    0.93864   0.93406  124.350
 5650.00    0.94073   0.93358  125.449
 5651.00    0.93822   0.93276  126.967
 5652.00    0.93796   0.93129  129.901
 5653.00    0.93631   0.92868  133.604
 5654.00    0.93256   0.92456  134.535
 5655.00    0.92887   0.91891  131.958
 5656.00    0.92206   0.91220  129.597
 5657.00    0.91333   0.90570  129.518
 5658.00    0.90516   0.90117  129.354
 5659.00    0.90763   0.89955  127.636
 5660.00    0.91818   0.90069  126.129
 5661.00    0.92077   0.90382  126.057
 5662.00    0.92024   0.90798  126.857
 5663.00    0.92190   0.91256  127.461
 5664.00    0.92921   0.91691  127.432
 5665.00    0.93325   0.92032  126.932
 5666.00    0.93147   0.92251  125.988
 5667.00    0.92789   0.92376  124.821
 5668.00    0.92456   0.92467  123.564
 5669.00    0.92710   0.92592  122.701
 5670.00    0.92919   0.92787  122.955
 5671.00    0.93287   0.93038  123.179
 5672.00    0.93790   0.93301  122.757
 5673.00    0.93989   0.93525  122.811
 5674.00    0.93985   0.93675  123.487
 5675.00    0.93890   0.93750  124.029
 5676.00    0.93447   0.93754  124.984
 5677.00    0.93103   0.93679  126.530
 5678.00    0.93418   0.93507  127.701
 5679.00    0.93628   0.93217  127.581
 5680.00    0.93282   0.92806  126.795
 5681.00    0.92820   0.92323  126.575
 5682.00    0.92525   0.91850  127.538
 5683.00    0.92199   0.91476  128.835
 5684.00    0.92310   0.91247  128.614
 5685.00    0.92229   0.91138  126.733
 5686.00    0.91652   0.91101  124.630
 5687.00    0.91694   0.91123  123.682
 5688.00    0.92094   0.91228  123.076
 5689.00    0.92504   0.91451  123.014
 5690.00    0.92920   0.91788  123.181
 5691.00    0.93153   0.92189  123.339
 5692.00    0.92953   0.92589  123.967
 5693.00    0.92942   0.92923  125.345
 5694.00    0.93376   0.93148  126.717
 5695.00    0.93592   0.93238  127.867
 5696.00    0.93437   0.93189  129.050
 5697.00    0.93110   0.93005  129.104
 5698.00    0.93053   0.92714  127.879
 5699.00    0.92834   0.92368  126.812
 5700.00    0.92483   0.92034  126.949
 5701.00    0.92060   0.91771  128.189
 5702.00    0.91667   0.91595  130.268
 5703.00    0.92220   0.91468  132.641
 5704.00    0.92661   0.91304  134.280
 5705.00    0.92692   0.91030  134.605
 5706.00    0.91956   0.90618  133.872
 5707.00    0.91425   0.90101  131.979
 5708.00    0.90657   0.89580  128.957
 5709.00    0.89979   0.89206  126.086
 5710.00    0.89904   0.89105  124.727
 5711.00    0.90290   0.89337  124.466
 5712.00    0.91297   0.89872  124.160
 5713.00    0.91860   0.90585  123.689
 5714.00    0.92502   0.91324  123.000
 5715.00    0.92904   0.91973  122.253
 5716.00    0.93024   0.92494  121.792
 5717.00    0.92883   0.92899  121.557
 5718.00    0.93034   0.93231  121.389
 5719.00    0.93256   0.93526  121.381
 5720.00    0.93365   0.93788  121.944
 5721.00    0.92955   0.94003  123.130
 5722.00    0.93038   0.94146  124.355
 5723.00    0.93310   0.94193  124.788
 5724.00    0.93298   0.94131  123.926
 5725.00    0.93131   0.93970  123.533
 5726.00    0.92877   0.93758  124.076
 5727.00    0.92784   0.93556  124.380
 5728.00    0.93077   0.93410  123.558
 5729.00    0.92990   0.93332  122.422
 5730.00    0.92742   0.93307  121.981
 5731.00    0.92677   0.93332  122.185
 5732.00    0.92953   0.93413  122.395
 5733.00    0.93121   0.93546  122.702
 5734.00    0.92945   0.93710  122.817
 5735.00    0.93249   0.93867  123.081
 5736.00    0.93541   0.93984  123.283
 5737.00    0.93517   0.94043  123.389
 5738.00    0.93207   0.94049  123.092
 5739.00    0.92752   0.94015  122.741
 5740.00    0.92770   0.93953  121.829
 5741.00    0.92987   0.93884  121.642
 5742.00    0.93237   0.93831  122.620
 5743.00    0.93384   0.93803  123.638
 5744.00    0.93261   0.93789  123.627
 5745.00    0.93100   0.93764  122.904
 5746.00    0.92888   0.93714  123.022
 5747.00    0.92736   0.93643  124.302
 5748.00    0.92623   0.93553  125.769
 5749.00    0.92844   0.93422  126.566
 5750.00    0.93183   0.93211  125.876
 5751.00    0.92695   0.92922  123.875
 5752.00    0.92129   0.92619  121.800
 5753.00    0.92065   0.92413  121.060
 5754.00    0.91979   0.92399  121.934
 5755.00    0.92105   0.92595  123.464
 5756.00    0.92409   0.92922  125.126
 5757.00    0.92725   0.93244  126.475
 5758.00    0.92966   0.93439  126.308
 5759.00    0.92863   0.93443  124.454
 5760.00    0.92796   0.93279  122.404
 5761.00    0.92504   0.93052  121.369
 5762.00    0.92247   0.92904  121.175
 5763.00    0.92410   0.92933  121.034
 5764.00    0.92517   0.93154  120.976
 5765.00    0.92528   0.93487  121.324
 5766.00    0.92929   0.93819  121.831
 5767.00    0.92787   0.94059  122.565
 5768.00    0.93129   0.94161  123.172
 5769.00    0.93116   0.94124  123.379
 5770.00    0.92980   0.93978  123.378
 5771.00    0.93208   0.93763  122.952
 5772.00    0.92814   0.93530  122.481
 5773.00    0.92597   0.93323  122.595
 5774.00    0.92560   0.93165  123.517
 5775.00    0.92511   0.93051  125.805
 5776.00    0.92879   0.92933  128.314
 5777.00    0.92896   0.92736  129.179
 5778.00    0.92702   0.92415  128.693
 5779.00    0.92686   0.91985  128.201
 5780.00    0.92380   0.91524  127.742
 5781.00    0.92530   0.91134  126.924
 5782.00    0.92739   0.90889  125.319
 5783.00    0.92512   0.90819  123.894
 5784.00    0.92344   0.90905  123.401
 5785.00    0.92466   0.91121  123.781
 5786.00    0.92493   0.91421  124.098
 5787.00    0.92806   0.91736  123.532
 5788.00    0.93197   0.92001  122.508
 5789.00    0.93220   0.92183  121.730
 5790.00    0.92975   0.92301  121.238
 5791.00    0.92698   0.92409  121.509
 5792.00    0.92657   0.92550  122.323
 5793.00    0.92983   0.92736  122.598
 5794.00    0.93108   0.92936  121.528
 5795.00    0.93165   0.93100  119.859
 5796.00    0.93446   0.93202  118.716
 5797.00    0.93373   0.93262  119.030
 5798.00    0.93441   0.93323  120.102
 5799.00    0.93600   0.93408  121.037
 5800.00    0.93544   0.93507  121.867
 5801.00    0.93676   0.93584  122.060
 5802.00    0.93732   0.93596  121.646
 5803.00    0.93718   0.93531  121.216
 5804.00    0.93728   0.93418  120.998
 5805.00    0.93411   0.93315  120.979
 5806.00    0.93333   0.93267  120.719
 5807.00    0.93760   0.93288  120.273
 5808.00    0.93907   0.93368  120.158
 5809.00    0.93624   0.93479  120.738
 5810.00    0.93959   0.93579  121.636
 5811.00    0.94241   0.93631  121.693
 5812.00    0.94070   0.93616  120.893
 5813.00    0.94290   0.93536  120.119
 5814.00    0.94279   0.93420  119.503
 5815.00    0.94201   0.93325  118.990
 5816.00    0.94208   0.93311  118.838
 5817.00    0.94044   0.93398  119.168
 5818.00    0.93936   0.93563  119.356
 5819.00    0.94103   0.93758  119.101
 5820.00    0.94462   0.93939  118.918
 5821.00    0.94467   0.94078  118.732
 5822.00    0.94135   0.94173  118.687
 5823.00    0.94196   0.94230  118.813
 5824.00    0.94161   0.94262  118.880
 5825.00    0.94224   0.94281  118.706
 5826.00    0.94091   0.94296  118.690
 5827.00    0.94309   0.94308  118.664
 5828.00    0.94520   0.94312  119.165
 5829.00    0.94565   0.94303  119.768
 5830.00    0.94131   0.94276  119.665
 5831.00    0.94170   0.94225  119.290
 5832.00    0.94445   0.94157  119.326
 5833.00    0.94563   0.94085  119.718
 5834.00    0.94376   0.94031  119.708
 5835.00    0.94275   0.94016  119.067
 5836.00    0.94443   0.94038  118.256
 5837.00    0.94217   0.94084  117.929
 5838.00    0.94145   0.94136  118.155
 5839.00    0.94193   0.94179  118.602
 5840.00    0.93940   0.94199  119.203
 5841.00    0.94158   0.94180  119.948
 5842.00    0.94675   0.94114  120.522
 5843.00    0.94501   0.93994  120.820
 5844.00    0.94098   0.93824  120.759
 5845.00    0.94289   0.93626  121.198
 5846.00    0.94568   0.93435  121.957
 5847.00    0.94307   0.93271  122.907
 5848.00    0.94058   0.93122  123.903
 5849.00    0.94182   0.92954  124.277
 5850.00    0.94058   0.92724  124.434
 5851.00    0.93793   0.92412  125.045
 5852.00    0.93553   0.92028  126.381
 5853.00    0.92698   0.91599  126.661
 5854.00    0.92182   0.91149  125.316
 5855.00    0.92450   0.90691  123.931
 5856.00    0.92444   0.90282   -1.000
 5857.00    0.92647   0.90016   -1.000
 5858.00    0.92776   0.89959   -1.000
 5859.00    0.93034   0.90130   -1.000
 5860.00    0.93445   0.90474   -1.000
 5861.00    0.93748   0.90898   -1.000
 5862.00    0.93764   0.91309   -1.000
 5863.00    0.93375   0.91627  123.080
 5864.00    0.93464   0.91814  121.890
 5865.00    0.93468   0.91894  121.100
 5866.00    0.93411   0.91923  120.828
 5867.00    0.93560   0.91980  120.994
 5868.00    0.93800   0.92109  121.209
 5869.00    0.94133   0.92299  121.109
 5870.00    0.93874   0.92493  121.150
 5871.00    0.93520   0.92624  121.627
 5872.00    0.93806   0.92648  122.008
 5873.00    0.94297   0.92563  122.499
 5874.00    0.94134   0.92403  123.458
 5875.00    0.93551   0.92214  123.883
 5876.00    0.93594   0.92027  123.671
 5877.00    0.93340   0.91849  123.454
 5878.00    0.93076   0.91672  123.731
 5879.00    0.93223   0.91478  124.115
 5880.00    0.93433   0.91246   -1.000
 5881.00    0.93074   0.90959   -1.000
 5882.00    0.93152   0.90600   -1.000
 5883.00    0.93582   0.90135   -1.000
 5884.00    0.93426   0.89496   -1.000
 5885.00    0.91123   0.88548   -1.000
 5886.00    0.87081   0.87150  149.191
 5887.00    0.84387   0.85304  143.765
 5888.00    0.84470   0.83241  139.206
 5889.00    0.85886   0.81435   -1.000
 5890.00    0.86345   0.80240   -1.000
 5891.00    0.85902   0.79748   -1.000
 5892.00    0.85606   0.79755   -1.000
 5893.00    0.85719   0.79935   -1.000
 5894.00    0.86267   0.80100   -1.000
 5895.00    0.86423   0.80308   -1.000
 5896.00    0.86624   0.80792   -1.000
 5897.00    0.88180   0.81688   -1.000
 5898.00    0.90333   0.82983   -1.000
 5899.00    0.91964   0.84525   -1.000
 5900.00    0.92803   0.86082   -1.000
 5901.00    0.93078   0.87452   -1.000
 5902.00    0.93125   0.88533   -1.000
 5903.00    0.92974   0.89312   -1.000
 5904.00    0.92818   0.89839   -1.000
 5905.00    0.92686   0.90186   -1.000
 5906.00    0.92629   0.90423   -1.000
 5907.00    0.92864   0.90590   -1.000
 5908.00    0.92935   0.90707   -1.000
 5909.00    0.92759   0.90765   -1.000
 5910.00    0.92963   0.90743   -1.000
 5911.00    0.92886   0.90611   -1.000
 5912.00    0.92145   0.90382  126.653
 5913.00    0.91503   0.90107  126.191
 5914.00    0.90979   0.89859  125.760
 5915.00    0.90980   0.89713  125.401
 5916.00    0.91793   0.89705   -1.000
 5917.00    0.92423   0.89828   -1.000
 5918.00    0.92475   0.90027   -1.000
 5919.00    0.92237   0.90241   -1.000
 5920.00    0.91740   0.90422  124.305
 5921.00    0.92077   0.90557  124.156
 5922.00    0.92483   0.90656  124.234
 5923.00    0.92516   0.90740  124.825
 5924.00    0.92453   0.90811  125.825
 5925.00    0.92460   0.90843  126.265
 5926.00    0.92811   0.90801   -1.000
 5927.00    0.92899   0.90673   -1.000
 5928.00    0.92628   0.90491   -1.000
 5929.00    0.92125   0.90323  125.749
 5930.00    0.91830   0.90231  126.261
 5931.00    0.92105   0.90227   -1.000
 5932.00    0.92273   0.90291   -1.000
 5933.00    0.92472   0.90399   -1.000
 5934.00    0.92348   0.90527  124.162
 5935.00    0.91866   0.90662  125.106
 5936.00    0.91343   0.90787  126.160
 5937.00    0.91273   0.90871  126.398
 5938.00    0.91509   0.90887  125.922
 5939.00    0.91612   0.90825  125.135
 5940.00    0.91544   0.90716  124.532
 5941.00    0.91244   0.90603  124.490
 5942.00    0.91160   0.90525  125.303
 5943.00    0.91318   0.90489  126.590
 5944.00    0.91559   0.90473  127.399
 5945.00    0.91991   0.90441  127.111
 5946.00    0.91916   0.90369  126.490
 5947.00    0.91703   0.90274  126.456
 5948.00    0.91677   0.90183  126.623
 5949.00    0.91562   0.90123  126.402
 5950.00    0.91529   0.90089  126.299
 5951.00    0.91441   0.90068  126.606
 5952.00    0.91371   0.90053  126.990
 5953.00    0.91138   0.90030  126.784
 5954.00    0.91136   0.89994  125.731
 5955.00    0.91491   0.89967  124.334
 5956.00    0.91383   0.89976  123.541
 5957.00    0.91182   0.90054  123.290
 5958.00    0.91410   0.90211  123.396
 5959.00    0.91766   0.90425  123.926
 5960.00    0.92006   0.90653  124.498
 5961.00    0.92071   0.90842  124.907
 5962.00    0.92041   0.90950  124.976
 5963.00    0.91896   0.90966  124.268
 5964.00    0.91844   0.90913  123.618
 5965.00    0.91863   0.90835  123.521
 5966.00    0.91798   0.90778  123.371
 5967.00    0.91683   0.90775  123.151
 5968.00    0.91675   0.90833  123.461
 5969.00    0.91788   0.90933  124.365
 5970.00    0.91778   0.91031  125.350
 5971.00    0.91694   0.91080  126.268
 5972.00    0.91706   0.91035  126.987
 5973.00    0.91669   0.90885  126.914
 5974.00    0.91289   0.90652  125.977
 5975.00    0.90883   0.90397  125.196
 5976.00    0.91018   0.90194  125.192
 5977.00    0.91332   0.90095  125.940
 5978.00    0.91351   0.90106  127.064
 5979.00    0.91296   0.90175  127.914
 5980.00    0.91424   0.90225  127.913
 5981.00    0.91657   0.90186  126.891
 5982.00    0.91449   0.90049  125.816
 5983.00    0.91096   0.89861  125.298
 5984.00    0.90880   0.89701  124.788
 5985.00    0.90574   0.89634  124.601
 5986.00    0.90621   0.89678  124.914
 5987.00    0.91165   0.89809  124.700
 5988.00    0.91247   0.89974  123.776
 5989.00    0.91168   0.90131  123.098
 5990.00    0.91288   0.90267  123.474
 5991.00    0.91282   0.90390  124.420
 5992.00    0.91202   0.90502  125.095
 5993.00    0.91028   0.90583  125.462
 5994.00    0.91032   0.90610  125.435
 5995.00    0.91054   0.90571  125.369
 5996.00    0.91081   0.90480  125.874
 5997.00    0.90990   0.90365  126.482
 5998.00    0.90864   0.90258  126.608
 5999.00    0.91070   0.90168  126.364
 6000.00    0.91019   0.90087  126.241
 6001.00    0.90635   0.90004  126.828
 6002.00    0.90608   0.89912  128.010
 6003.00    0.90766   0.89807  128.586
 6004.00    0.90728   0.89679  127.639
 6005.00    0.90517   0.89520  126.162
 6006.00    0.90320   0.89352  125.652
 6007.00    0.90190   0.89220  126.324
 6008.00    0.90121   0.89171  127.176
 6009.00    0.90111   0.89218  127.070
 6010.00    0.90217   0.89324  126.698
 6011.00    0.90400   0.89438  127.070
 6012.00    0.90683   0.89510  127.484
 6013.00    0.90768   0.89523  127.373
 6014.00    0.90510   0.89488  127.417
 6015.00    0.90360   0.89425  128.112
 6016.00    0.90433   0.89343  128.198
 6017.00    0.90293   0.89238  127.388
 6018.00    0.90172   0.89106  126.851
 6019.00    0.90044   0.88961  126.687
 6020.00    0.89968   0.88837  126.176
 6021.00    0.89990   0.88767  125.596
 6022.00    0.89894   0.88780  125.011
 6023.00    0.89699   0.88895  124.326
 6024.00    0.89581   0.89101  124.024
 6025.00    0.89819   0.89372  123.994
 6026.00    0.90256   0.89677  124.189
 6027.00    0.90404   0.89986  124.194
 6028.00    0.90274   0.90271  123.735
 6029.00    0.90413   0.90517  123.306
 6030.00    0.90644   0.90718  123.165
 6031.00    0.90579   0.90876  123.021
 6032.00    0.90358   0.90998  122.991
 6033.00    0.90323   0.91087  123.491
 6034.00    0.90492   0.91140  123.965
 6035.00    0.90556   0.91153  124.263
 6036.00    0.90442   0.91117  124.283
 6037.00    0.90336   0.91028  124.026
 6038.00    0.90430   0.90893  123.593
 6039.00    0.90407   0.90735  122.710
 6040.00    0.90306   0.90585  122.338
 6041.00    0.90171   0.90481  122.460
 6042.00    0.90097   0.90450  122.335
 6043.00    0.90176   0.90498  122.313
 6044.00    0.90064   0.90610  122.644
 6045.00    0.90141   0.90764  122.999
 6046.00    0.90375   0.90929  123.162
 6047.00    0.90266   0.91074  123.340
 6048.00    0.90345   0.91178  123.749
 6049.00    0.90625   0.91224  124.196
 6050.00    0.90585   0.91200  124.753
 6051.00    0.90212   0.91098  125.281
 6052.00    0.90124   0.90924  125.276
 6053.00    0.90348   0.90705  124.753
 6054.00    0.89781   0.90485  124.079
 6055.00    0.88106   0.90316  123.922
 6056.00    0.88137   0.90233  124.202
 6057.00    0.90683   0.90239  125.395
 6058.00    0.84532   0.90302   -1.000
 6059.00    0.59088   0.90360   -1.000
 6060.00    0.64887   0.90349   -1.000
 6061.00    0.87707   0.90222   60.832
 6062.00    0.90136   0.89979   60.488
 6063.00    0.82558   0.89677   -1.000
 6064.00    0.43884   0.89415   -1.000
 6065.00    0.50309   0.89287   -1.000
 6066.00    0.86195   0.89346   -1.000
 6067.00    0.89669   0.89581  120.875
 6068.00    0.89315   0.89923  122.659
 6069.00    0.89706   0.90285  122.912
 6070.00    0.89864   0.90601  123.193
 6071.00    0.89824   0.90833  123.771
 6072.00    0.89716   0.90973  124.466
 6073.00    0.89691   0.91019  125.342
 6074.00    0.89758   0.90975  126.205
 6075.00    0.89577   0.90841  126.525
 6076.00    0.89186   0.90634  126.583
 6077.00    0.88946   0.90390  126.864
 6078.00    0.89116   0.90145  127.010
 6079.00    0.89225   0.89927  126.924
 6080.00    0.89072   0.89745  126.803
 6081.00    0.88945   0.89597  126.520
 6082.00    0.88663   0.89478  126.048
 6083.00    0.88493   0.89398  126.005
 6084.00    0.88685   0.89371  126.625
 6085.00    0.89054   0.89400  127.274
 6086.00    0.89172   0.89469  127.417
 6087.00    0.88939   0.89547  126.844
 6088.00    0.89002   0.89601  126.104
 6089.00    0.88987   0.89623  125.437
 6090.00    0.88683   0.89625  124.823
 6091.00    0.88555   0.89637  124.663
 6092.00    0.88643   0.89687  124.909
 6093.00    0.88946   0.89783  125.086
 6094.00    0.89132   0.89913  125.106
 6095.00    0.89023   0.90043  126.054
 6096.00    0.88937   0.90124  128.656
 6097.00    0.88763   0.90091  131.216
 6098.00    0.88773   0.89885  131.304
 6099.00    0.88807   0.89482  129.198
 6100.00    0.88200   0.88929  126.997
 6101.00    0.87443   0.88360  126.059
 6102.00    0.86913   0.87934  126.284
 6103.00    0.86792   0.87777  126.697
 6104.00    0.87282   0.87926  126.760
 6105.00    0.87757   0.88312  126.547
 6106.00    0.87946   0.88811  126.080
 6107.00    0.88233   0.89299  125.851
 6108.00    0.88410   0.89699  125.440
 6109.00    0.88390   0.89987  124.967
 6110.00    0.88527   0.90174  125.198
 6111.00    0.88651   0.90286  125.947
 6112.00    0.88674   0.90349  126.370
 6113.00    0.88754   0.90377  126.791
 6114.00    0.88653   0.90372  128.231
 6115.00    0.88438   0.90320  130.033
 6116.00    0.88383   0.90190  131.412
 6117.00    0.88253   0.89941  131.898
 6118.00    0.88261   0.89538  130.475
 6119.00    0.88274   0.88986  128.536
 6120.00    0.87619   0.88356  127.972
 6121.00    0.86709   0.87772  128.525
 6122.00    0.86236   0.87376  128.708
 6123.00    0.86523   0.87255  128.415
 6124.00    0.87098   0.87410  127.628
 6125.00    0.87648   0.87755  126.436
 6126.00    0.87921   0.88178  125.852
 6127.00    0.87805   0.88592  125.970
 6128.00    0.87804   0.88957  126.860
 6129.00    0.88045   0.89269  129.212
 6130.00    0.87987   0.89515  132.827
 6131.00    0.87828   0.89639  136.420
 6132.00    0.87679   0.89554  137.810
 6133.00    0.87525   0.89189  135.484
 6134.00    0.87113   0.88551  131.624
 6135.00    0.86069   0.87753  129.407
 6136.00    0.84650   0.86973  129.190
 6137.00    0.83801   0.86383  129.474
 6138.00    0.84200   0.86092  128.654
 6139.00    0.85212   0.86115  127.116
 6140.00    0.86018   0.86397  126.481
 6141.00    0.85849   0.86853  126.876
 6142.00    0.85647   0.87390  127.642
 6143.00    0.86359   0.87918  128.539
 6144.00    0.87103   0.88348  129.354
 6145.00    0.87454   0.88621  129.597
 6146.00    0.87522   0.88724  129.241
 6147.00    0.87289   0.88693  128.455
 6148.00    0.87236   0.88596  128.040
 6149.00    0.87157   0.88499  128.769
 6150.00    0.86895   0.88439  129.627
 6151.00    0.86888   0.88414  129.873
 6152.00    0.87098   0.88394  130.248
 6153.00    0.87307   0.88342  131.394
 6154.00    0.87357   0.88229  133.592
 6155.00    0.87102   0.88040  137.226
 6156.00    0.87066   0.87752  141.348
 6157.00    0.87183   0.87326  143.559
 6158.00    0.86998   0.86721  142.388
 6159.00    0.86721   0.85937  138.859
 6160.00    0.86015   0.85056  136.139
 6161.00    0.85002   0.84238  135.179
 6162.00    0.84233   0.83659  135.301
 6163.00    0.84266   0.83430  136.672
 6164.00    0.85491   0.83533   -1.000
 6165.00    0.86200   0.83833   -1.000
 6166.00    0.86114   0.84166   -1.000
 6167.00    0.85993   0.84422  133.461
 6168.00    0.85689   0.84596  133.030
 6169.00    0.85268   0.84763  133.229
 6170.00    0.85274   0.85013  133.015
 6171.00    0.85845   0.85386  132.722
 6172.00    0.85809   0.85854  132.400
 6173.00    0.85800   0.86344  131.824
 6174.00    0.86402   0.86787  131.282
 6175.00    0.86571   0.87143  130.856
 6176.00    0.86392   0.87413  130.302
 6177.00    0.86665   0.87616  129.883
 6178.00    0.86998   0.87782  129.988
 6179.00    0.86986   0.87932  130.416
 6180.00    0.86700   0.88072  131.297
 6181.00    0.86762   0.88191  132.655
 6182.00    0.87181   0.88265  134.066
 6183.00    0.87078   0.88266  135.368
 6184.00    0.86883   0.88174  136.430
 6185.00    0.87013   0.87983  137.984
 6186.00    0.87119   0.87694  139.171
 6187.00    0.86675   0.87321  138.246
 6188.00    0.86078   0.86899  135.218
 6189.00    0.85720   0.86490  132.624
 6190.00    0.85233   0.86176  131.497
 6191.00    0.84693   0.86039  131.182
 6192.00    0.84564   0.86125  131.771
 6193.00    0.85392   0.86406  133.171
 6194.00    0.86310   0.86799  134.409
 6195.00    0.86569   0.87192  134.589
 6196.00    0.86775   0.87497  133.502
 6197.00    0.86762   0.87675  131.861
 6198.00    0.86532   0.87745  131.140
 6199.00    0.86171   0.87765  131.109
 6200.00    0.85645   0.87806  130.954
 6201.00    0.85506   0.87914  130.880
 6202.00    0.85932   0.88098  131.267
 6203.00    0.86475   0.88332  131.413
 6204.00    0.86720   0.88568  131.812
 6205.00    0.86483   0.88762  132.893
 6206.00    0.86481   0.88882  134.002
 6207.00    0.86698   0.88905  135.236
 6208.00    0.86677   0.88811  137.130
 6209.00    0.86386   0.88589  138.729
 6210.00    0.85871   0.88242  139.322
 6211.00    0.85659   0.87799  138.009
 6212.00    0.85260   0.87318  136.967
 6213.00    0.84638   0.86866  137.644
 6214.00    0.85766   0.86499  137.589
 6215.00    0.79784   0.86240   -1.000
 6216.00    0.74167   0.86083   -1.000
 6217.00    0.81418   0.86006   -1.000
 6218.00    0.84925   0.85995  144.315
 6219.00    0.84360   0.86047  137.390
 6220.00    0.84590   0.86165  135.545
 6221.00    0.85160   0.86332  135.769
 6222.00    0.85580   0.86514  136.344
 6223.00    0.85778   0.86664  137.971
 6224.00    0.86111   0.86732  140.210
 6225.00    0.86294   0.86676  142.148
 6226.00    0.85823   0.86470  142.113
 6227.00    0.85439   0.86121  140.322
 6228.00    0.85026   0.85676  137.773
 6229.00    0.84319   0.85231  135.423
 6230.00    0.83744   0.84897  134.431
 6231.00    0.83609   0.84764  135.021
 6232.00    0.83786   0.84851  136.332
 6233.00    0.84331   0.85099  137.728
 6234.00    0.84810   0.85395  139.182
 6235.00    0.85066   0.85627  139.982
 6236.00    0.85197   0.85731  140.045
 6237.00    0.85067   0.85701  140.798
 6238.00    0.84802   0.85572  141.797
 6239.00    0.84603   0.85386  141.939
 6240.00    0.84816   0.85165  141.188
 6241.00    0.84998   0.84914  139.878
 6242.00    0.84927   0.84637  138.169
 6243.00    0.84430   0.84361  136.641
 6244.00    0.84005   0.84141  136.213
 6245.00    0.83771   0.84044  137.193
 6246.00    0.83407   0.84110  139.489
 6247.00    0.83350   0.84317  141.456
 6248.00    0.84136   0.84579  142.567
 6249.00    0.84357   0.84777  143.077
 6250.00    0.84351   0.84816  143.107
 6251.00    0.84044   0.84673  144.082
 6252.00    0.83221   0.84397  145.426
 6253.00    0.82128   0.84083  145.238
 6254.00    0.81985   0.83818  143.336
 6255.00    0.82061   0.83659  141.135
 6256.00    0.82213   0.83624  139.181
 6257.00    0.82757   0.83711  137.086
 6258.00    0.82988   0.83914  136.064
 6259.00    0.83533   0.84216  136.797
 6260.00    0.83940   0.84592  137.801
 6261.00    0.83875   0.84997  137.516
 6262.00    0.83753   0.85383  136.549
 6263.00    0.83871   0.85709  136.693
 6264.00    0.83788   0.85957  137.391
 6265.00    0.83587   0.86129  137.407
 6266.00    0.83717   0.86231  136.968
 6267.00    0.84105   0.86270  136.607
 6268.00    0.84074   0.86249  136.822
 6269.00    0.83525   0.86176  137.700
 6270.00    0.82530   0.86057   -1.000
 6271.00    0.81198   0.85885   -1.000
 6272.00    0.79602   0.85639   -1.000
 6273.00    0.78589   0.85292   -1.000
 6274.00    0.78925   0.84838   -1.000
 6275.00    0.80103   0.84311   -1.000
 6276.00    0.80758   0.83781   -1.000
 6277.00    0.81115   0.83337  143.456
 6278.00    0.81335   0.83057  141.186
 6279.00    0.81851   0.82993  139.391
 6280.00    0.82359   0.83155  138.142
 6281.00    0.82905   0.83510  136.918
 6282.00    0.83137   0.83992  135.894
 6283.00    0.83042   0.84517  135.490
 6284.00    0.82862   0.85005  136.022
 6285.00    0.82643   0.85396   -1.000
 6286.00    0.82320   0.85657   -1.000
 6287.00    0.82632   0.85780   -1.000
 6288.00    0.83123   0.85781  138.758
 6289.00    0.83361   0.85693  138.985
 6290.00    0.84157   0.85558  139.896
 6291.00    0.86500   0.85410  140.878
 6292.00    0.90975   0.85266   -1.000
 6293.00    0.97815   0.85119   -1.000
 6294.00    1.05812   0.84949   -1.000
 6295.00    1.08118   0.84742   -1.000
 6296.00    0.99514   0.84501   -1.000
 6297.00    0.85747   0.84248  142.333
 6298.00    0.78070   0.84017   -1.000
 6299.00    0.79251   0.83846   -1.000
 6300.00    0.81469   0.83777  137.766
 6301.00    0.81966   0.83845  136.502
 6302.00    0.82026   0.84064  135.284
 6303.00    0.82309   0.84412  134.860
 6304.00    0.82816   0.84831  135.321
 6305.00    0.83285   0.85243  136.200
 6306.00    0.83550   0.85581  136.811
 6307.00    0.83803   0.85807  137.356
 6308.00    0.84031   0.85915  137.572
 6309.00    0.83944   0.85919  138.611
 6310.00    0.83756   0.85836  139.296
 6311.00    0.83946   0.85681  139.292
 6312.00    0.83992   0.85465  139.153
 6313.00    0.84075   0.85206  139.285
 6314.00    0.83713   0.84932  138.918
 6315.00    0.83397   0.84685  137.436
 6316.00    0.83420   0.84513  136.002
 6317.00    0.83144   0.84459  135.336
 6318.00    0.83082   0.84544  134.889
 6319.00    0.82977   0.84762  134.208
 6320.00    0.83391   0.85079  133.722
 6321.00    0.83699   0.85445  133.593
 6322.00    0.84161   0.85812  133.038
 6323.00    0.84671   0.86142  133.002
 6324.00    0.84782   0.86407  133.123
 6325.00    0.84410   0.86592  133.213
 6326.00    0.84358   0.86697  132.833
 6327.00    0.83764   0.86734   -1.000
 6328.00    0.84211   0.86721  132.813
 6329.00    0.85134   0.86667  133.165
 6330.00    0.85014   0.86570  135.772
 6331.00    0.84645   0.86410  136.681
 6332.00    0.85034   0.86174  135.717
 6333.00    0.84884   0.85870  134.351
 6334.00    0.84274   0.85542  132.884
 6335.00    0.83863   0.85266  132.087
 6336.00    0.83698   0.85117  131.458
 6337.00    0.83711   0.85132  131.424
 6338.00    0.84523   0.85295  132.443
 6339.00    0.85154   0.85542  132.836
 6340.00    0.85378   0.85790  132.541
 6341.00    0.85338   0.85969  131.873
 6342.00    0.85183   0.86047  130.975
 6343.00    0.85148   0.86037  130.400
 6344.00    0.85324   0.85992  130.347
 6345.00    0.85335   0.85974  130.125
 6346.00    0.85106   0.86038  130.168
 6347.00    0.85276   0.86199  130.665
 6348.00    0.85776   0.86428  131.269
 6349.00    0.86110   0.86665  132.630
 6350.00    0.86106   0.86844  133.864
 6351.00    0.85829   0.86918  134.100
 6352.00    0.85864   0.86874  134.413
 6353.00    0.85901   0.86731  135.770
 6354.00    0.85903   0.86527  136.539
 6355.00    0.87059   0.86298  136.156
 6356.00    0.88701   0.86070   -1.000
 6357.00    0.91542   0.85856   -1.000
 6358.00    0.93050   0.85660   -1.000
 6359.00    0.91426   0.85488   -1.000
 6360.00    0.87886   0.85344   -1.000
 6361.00    0.84822   0.85241  132.658
 6362.00    0.84409   0.85192  131.836
 6363.00    0.85050   0.85206  130.958
 6364.00    0.85013   0.85283  130.533
 6365.00    0.84711   0.85403  130.568
 6366.00    0.84848   0.85537  130.220
 6367.00    0.85024   0.85657  129.703
 6368.00    0.84803   0.85748  129.910
 6369.00    0.84580   0.85820  130.067
 6370.00    0.84619   0.85895  130.314
 6371.00    0.84645   0.85991  130.771
 6372.00    0.84583   0.86105  131.414
 6373.00    0.84329   0.86209  132.281
 6374.00    0.83926   0.86270  132.853
 6375.00    0.83952   0.86262  132.998
 6376.00    0.83882   0.86185  133.223
 6377.00    0.83430   0.86058  133.237
 6378.00    0.83177   0.85912  132.921
 6379.00    0.82843   0.85777   -1.000
 6380.00    0.82623   0.85674   -1.000
 6381.00    0.82522   0.85617   -1.000
 6382.00    0.81942   0.85613   -1.000
 6383.00    0.81677   0.85660   -1.000
 6384.00    0.81802   0.85748   -1.000
 6385.00    0.81364   0.85853   -1.000
 6386.00    0.80792   0.85944   -1.000
 6387.00    0.80615   0.85986   -1.000
 6388.00    0.80260   0.85950   -1.000
 6389.00    0.79774   0.85822   -1.000
 6390.00    0.79379   0.85613   -1.000
 6391.00    0.78928   0.85362   -1.000
 6392.00    0.78142   0.85133   -1.000
 6393.00    0.77186   0.84983   -1.000
 6394.00    0.76785   0.84931   -1.000
 6395.00    0.76972   0.84945   -1.000
 6396.00    0.76911   0.84963   -1.000
 6397.00    0.76505   0.84936   -1.000
 6398.00    0.75689   0.84865   -1.000
 6399.00    0.74565   0.84805   -1.000
 6400.00    0.73773   0.84819   -1.000
 6401.00    0.73774   0.84938   -1.000
 6402.00    0.74211   0.85132   -1.000
 6403.00    0.74467   0.85326   -1.000
 6404.00    0.74157   0.85442   -1.000
 6405.00    0.73442   0.85444   -1.000
 6406.00    0.72870   0.85343   -1.000
 6407.00    0.72239   0.85192   -1.000
 6408.00    0.71613   0.85047   -1.000
 6409.00    0.70822   0.84949   -1.000
 6410.00    0.69990   0.84914   -1.000
 6411.00    0.69627   0.84941   -1.000
 6412.00    0.69246   0.85014   -1.000
 6413.00    0.68811   0.85112   -1.000
 6414.00    0.68535   0.85205   -1.000
 6415.00    0.67962   0.85264   -1.000
 6416.00    0.67255   0.85263   -1.000
 6417.00    0.66667   0.85199   -1.000
 6418.00    0.66161   0.85094   -1.000
 6419.00    0.65319   0.85000   -1.000
 6420.00    0.64227   0.84985   -1.000
 6421.00    0.63080   0.85094   -1.000
 6422.00    0.62458   0.85335   -1.000
 6423.00    0.62447   0.85659   -1.000
 6424.00    0.62069   0.85987   -1.000
 6425.00    0.61341   0.86230   -1.000
 6426.00    0.12457   0.86321   -1.000
 6427.00    0.00000   0.86237   -2.000
 6428.00    0.00000   0.86002   -2.000
