###################################################################
## OUTPUT of StarlightChains_v04.for    [Cid@UFSC - 01/Apr/2007] ##
###################################################################

## Some input info
NGC2808_a_1.cxt                          [arq_obs]
Base.BC03.N                              [arq_base]
NGC2808_a_1.msk                          [arq_masks]
StCv04.C11.config                        [arq_config]
   45                                    [N_base]
    0                                    [N_YAV_components = # of components with extra extinction!]
    0                                    [i_FitPowerLaw (1/0 = Yes/No)]
-9.99                                    [alpha_PowerLaw]
CCM                                      [red_law_option]
 1.458241                                [q_norm = A(l_norm)/A(V)]

## (Re)Sampling Parameters
 3359.00                                 [l_ini (A)]
 6428.00                                 [l_fin (A)]
    1.00                                 [dl    (A)]     (OBS: dl_cushion =    50.00 A)

## Normalization info
 4020.00                                 [l_norm (A) - for base]
 4010.00                                 [llow_norm (A) - window for f_obs]
 4060.00                                 [lupp_norm (A) - window for f_obs]
8.660000E-14                             [fobs_norm (in input units)]

## S/N
 4730.00                                 [llow_SN (A) - window for S/N]
 4780.00                                 [lupp_SN (A) - window for S/N]
  64.505                                 [S/N in S/N window]
  51.490                                 [S/N in norm. window]
 409.712                                 [S/N_err in S/N window]
 327.043                                 [S/N_err in norm. window]
  1.0000                                 [fscale_chi2]

## etc...
  2147483642                             [idum_orig]
  3069                                   [NOl_eff]
   538                                   [Nl_eff]
  2531    NSIGMA                         [Ntot_cliped & clip_method]
  4218480                                [Nglobal_steps]
   7                                     [N_chains]
   9                                     [NEX0s_base = N_base in EX0s-fits]
 0   0   1      258   2.0   6.880E+02    [Clip-Bug, RC-Crash & Burn-In warning-flags, n_censored_weights, wei_nsig_threshold & wei_limit]
    32     31.970     31.966      0.004  [idt_all, wdt_TotTime, wdt_UsrTime & wdt_SysTime (sec)]

## Synthesis Results - Best model ##

 2.84988E+00                             [chi2/Nl_eff]
     0.51431                             [adev (%)]

   102.20709                             [sum-of-x (%)]
 2.44448E-13                             [Flux_tot (units of input spectrum!)]
 2.47378E-09                             [Mini_tot (???)]
 1.32988E-09                             [Mcor_tot (???)]

  -9.68                                  [v0_min  (km/s)]
  73.91                                  [vd_min  (km/s)]
 0.7564                                  [AV_min  (mag)]
 0.0000                                  [YAV_min (mag)]

# j     x_j(%)      Mini_j(%)     Mcor_j(%)     age_j(yr)     Z_j      (L/M)_j    YAV?  Mstars   component_j        a/Fe...       SSP_chi2r SSP_adev(%)   SSP_AV   SSP_x(%)
  1      0.0000     0.0000E+00    0.0000E+00    1.000000E+06  0.00400  1.114E-02    0   1.0000   age020_m42            0.0000     2.3125E+03    12.5475   4.0000    81.4543
  2     10.3409     2.4546E-02    4.5656E-02    3.160000E+06  0.00400  4.073E-02    0   0.9999   age045_m42            0.0000     6.0842E+02     6.3724   3.1208    94.5544
  3      1.5873     6.0563E-03    1.0689E-02    5.010000E+06  0.00400  2.534E-02    0   0.9488   age055_m42            0.0000     1.1412E+03     9.2847   3.5085    88.2329
  4      6.7462     5.1317E-02    8.4594E-02    1.000000E+07  0.00400  1.271E-02    0   0.8862   age070_m42            0.0000     1.0494E+03     9.1409   2.7265    91.8759
  5      0.6074     1.1583E-02    1.7612E-02    2.512000E+07  0.00400  5.070E-03    0   0.8174   age090_m42            0.0000     8.8772E+02     8.4616   2.6009    93.4339
  6      0.0000     0.0000E+00    0.0000E+00    4.000000E+07  0.00400  3.505E-03    0   0.7851   age104_m42            0.0000     5.5834E+02     6.5306   2.2898    96.4067
  7      0.0177     7.5650E-04    1.0142E-03    1.015200E+08  0.00400  2.268E-03    0   0.7207   age116_m42            0.0000     2.1553E+03     8.7448   2.3076   105.8821
  8      0.0000     0.0000E+00    0.0000E+00    2.861200E+08  0.00400  1.079E-03    0   0.6613   age125_m42            0.0000     2.3354E+03     9.2775   1.8225   107.8647
  9      0.0000     0.0000E+00    0.0000E+00    6.405400E+08  0.00400  5.077E-04    0   0.6197   age132_m42            0.0000     2.5661E+03     9.8525   1.4626   111.6822
 10      0.5999     1.6408E-01    1.8387E-01    9.047900E+08  0.00400  3.535E-04    0   0.6024   age135_m42            0.0000     1.6736E+03     8.0969   1.2181   111.0721
 11      0.0000     0.0000E+00    0.0000E+00    1.434000E+09  0.00400  1.910E-04    0   0.5716   age139_m42            0.0000     7.7549E+02     6.1542   0.6860   110.2577
 12     61.6766     6.0735E+01    6.1720E+01    2.500000E+09  0.00400  9.818E-05    0   0.5463   age150_m42            0.0000     2.2030E+02     4.0435   0.4000   105.9966
 13     19.0325     3.9002E+01    3.7929E+01    5.000000E+09  0.00400  4.718E-05    0   0.5228   age161_m42            0.0000     2.0270E+02     3.6455   0.2283   102.7724
 14      0.0000     0.0000E+00    0.0000E+00    1.100000E+10  0.00400  2.205E-05    0   0.4980   age185_m42            0.0000     5.8387E+02     5.5770  -0.0367   100.8906
 15      0.0000     0.0000E+00    0.0000E+00    1.300000E+10  0.00400  1.883E-05    0   0.4927   age193_m42            0.0000     6.4584E+02     5.8381  -0.0542   100.7418
 16      0.0000     0.0000E+00    0.0000E+00    1.000000E+06  0.02000  1.989E-02    0   1.0000   age020_m62            0.0000     2.2776E+03    12.4105   4.0000    81.4291
 17      0.0000     0.0000E+00    0.0000E+00    3.160000E+06  0.02000  3.772E-02    0   0.9858   age045_m62            0.0000     2.0074E+03    11.8470   3.8794    83.2920
 18      1.5984     4.7889E-03    8.3219E-03    5.010000E+06  0.02000  3.227E-02    0   0.9342   age055_m62            0.0000     8.1370E+02     7.8583   3.3687    91.2060
 19      0.0000     0.0000E+00    0.0000E+00    1.000000E+07  0.02000  1.011E-02    0   0.8751   age070_m62            0.0000     2.3817E+03    13.3724   2.7643    87.7385
 20      0.0000     0.0000E+00    0.0000E+00    2.512000E+07  0.02000  4.206E-03    0   0.8099   age090_m62            0.0000     1.6515E+03    11.1778   2.6963    88.7781
 21      0.0000     0.0000E+00    0.0000E+00    4.000000E+07  0.02000  3.373E-03    0   0.7799   age104_m62            0.0000     6.4364E+02     6.2190   2.5159    97.8285
 22      0.0000     0.0000E+00    0.0000E+00    1.015200E+08  0.02000  1.878E-03    0   0.7221   age116_m62            0.0000     1.8345E+03     8.0673   2.3414   106.0343
 23      0.0000     0.0000E+00    0.0000E+00    2.861200E+08  0.02000  8.869E-04    0   0.6700   age125_m62            0.0000     3.8660E+03    11.7603   1.8499   112.5206
 24      0.0000     0.0000E+00    0.0000E+00    6.405400E+08  0.02000  3.657E-04    0   0.6322   age132_m62            0.0000     2.6209E+03    10.5103   1.1625   116.3534
 25      0.0000     0.0000E+00    0.0000E+00    9.047900E+08  0.02000  2.312E-04    0   0.6152   age135_m62            0.0000     1.4990E+03     8.4521   0.7783   115.7489
 26      0.0000     0.0000E+00    0.0000E+00    1.434000E+09  0.02000  1.168E-04    0   0.5865   age139_m62            0.0000     4.8637E+02     5.4930   0.3593   110.1840
 27      0.0000     0.0000E+00    0.0000E+00    2.500000E+09  0.02000  5.505E-05    0   0.5610   age150_m62            0.0000     6.1990E+02     6.3306  -0.0161   107.5538
 28      0.0000     0.0000E+00    0.0000E+00    5.000000E+09  0.02000  2.596E-05    0   0.5353   age161_m62            0.0000     1.4332E+03     9.1486  -0.3515   107.9237
 29      0.0000     0.0000E+00    0.0000E+00    1.100000E+10  0.02000  1.169E-05    0   0.5103   age185_m62            0.0000     2.5604E+03    11.9016  -0.7166   109.6764
 30      0.0000     0.0000E+00    0.0000E+00    1.300000E+10  0.02000  9.691E-06    0   0.5047   age193_m62            0.0000     2.7841E+03    12.3371  -0.7632   109.9663
 31      0.0000     0.0000E+00    0.0000E+00    1.000000E+06  0.05000  2.651E-02    0   0.9998   age020_m72            0.0000     2.1002E+03    11.8089   4.0000    82.3638
 32      0.0000     0.0000E+00    0.0000E+00    3.160000E+06  0.05000  4.817E-02    0   0.9577   age045_m72            0.0000     1.3843E+03    10.0184   3.7406    86.6745
 33      0.0000     0.0000E+00    0.0000E+00    5.010000E+06  0.05000  3.101E-02    0   0.9147   age055_m72            0.0000     1.2354E+03     9.6099   3.3961    89.1882
 34      0.0000     0.0000E+00    0.0000E+00    1.000000E+07  0.05000  8.954E-03    0   0.8524   age070_m72            0.0000     1.2738E+03     9.4223   3.6393    87.6221
 35      0.0000     0.0000E+00    0.0000E+00    2.512000E+07  0.05000  4.207E-03    0   0.7902   age090_m72            0.0000     6.5376E+02     6.7100   3.2136    93.4161
 36      0.0000     0.0000E+00    0.0000E+00    4.000000E+07  0.05000  3.198E-03    0   0.7618   age104_m72            0.0000     1.0745E+03     6.1531   2.7192   101.7904
 37      0.0000     0.0000E+00    0.0000E+00    1.015200E+08  0.05000  1.716E-03    0   0.7092   age116_m72            0.0000     2.2218E+03     8.9082   2.4451   106.1249
 38      0.0000     0.0000E+00    0.0000E+00    2.861200E+08  0.05000  7.047E-04    0   0.6618   age125_m72            0.0000     3.7286E+03    11.8214   1.6503   113.2010
 39      0.0000     0.0000E+00    0.0000E+00    6.405400E+08  0.05000  2.633E-04    0   0.6253   age132_m72            0.0000     2.0405E+03     9.7500   0.7859   116.1455
 40      0.0000     0.0000E+00    0.0000E+00    9.047900E+08  0.05000  1.484E-04    0   0.6088   age135_m72            0.0000     9.1709E+02     7.5068   0.2901   111.6008
 41      0.0000     0.0000E+00    0.0000E+00    1.434000E+09  0.05000  7.827E-05    0   0.5847   age139_m72            0.0000     1.0211E+03     8.1332  -0.1024   108.3446
 42      0.0000     0.0000E+00    0.0000E+00    2.500000E+09  0.05000  3.759E-05    0   0.5583   age150_m72            0.0000     1.6472E+03     9.8808  -0.4260   107.7568
 43      0.0000     0.0000E+00    0.0000E+00    5.000000E+09  0.05000  1.548E-05    0   0.5320   age161_m72            0.0000     2.7013E+03    12.0731  -0.8340   107.7667
 44      0.0000     0.0000E+00    0.0000E+00    1.100000E+10  0.05000  6.532E-06    0   0.5070   age185_m72            0.0000     4.3475E+03    15.1973  -1.0000   102.3386
 45      0.0000     0.0000E+00    0.0000E+00    1.300000E+10  0.05000  5.316E-06    0   0.5018   age193_m72            0.0000     5.3381E+03    16.9601  -1.0000    99.3154


## Synthesis Results - Average & Chains ##

# j      x_j: min, <> & last-chain-values for 1 ...  7 chains
  1      0.0000      0.0037      0.0000      0.0000      0.0000      0.0058      0.0000      0.0062      0.0005
  2     10.3409      9.8204      9.9859      9.8363      9.7398     10.0272      9.9482      9.8544      9.9012
  3      1.5873      1.9778      1.9878      1.9577      1.9959      1.8469      2.0095      2.1873      1.9481
  4      6.7462      6.6621      6.8161      6.7252      6.6101      6.6670      6.6563      6.6327      6.6945
  5      0.6074      0.8068      0.7949      0.7246      0.8479      0.7848      0.8244      0.6981      0.7357
  6      0.0000      0.0407      0.0000      0.0029      0.0000      0.0189      0.0000      0.0080      0.0000
  7      0.0177      0.2460      0.2473      0.2652      0.2252      0.3758      0.4083      0.3265      0.2416
  8      0.0000      0.0465      0.0691      0.0594      0.1552      0.0407      0.1026      0.0000      0.0312
  9      0.0000      0.2467      0.2283      0.1692      0.3987      0.2066      0.1884      0.5287      0.2157
 10      0.5999      0.3065      0.5469      0.3341      0.3984      0.3253      0.3542      0.4430      0.4156
 11      0.0000      0.1966      0.1184      0.0285      0.2353      0.2618      0.1646      0.0590      0.1401
 12     61.6766     60.7745     60.3662     61.0549     60.4922     60.9136     60.9120     60.4167     60.9096
 13     19.0325     18.2989     18.3437     18.2641     18.3831     18.1979     18.3147     18.2581     18.4055
 14      0.0000      0.0738      0.0000      0.0000      0.0041      0.0000      0.0000      0.2033      0.1382
 15      0.0000      0.0517      0.2062      0.0221      0.0000      0.0925      0.0000      0.1493      0.0000
 16      0.0000      0.0105      0.0000      0.0000      0.0000      0.0667      0.0245      0.0000      0.0000
 17      0.0000      0.0098      0.0000      0.0127      0.0480      0.0000      0.0000      0.0000      0.0000
 18      1.5984      1.4099      1.3571      1.4124      1.5484      1.4050      1.3621      1.3466      1.4050
 19      0.0000      0.0307      0.0000      0.1788      0.0000      0.0576      0.0000      0.0137      0.0000
 20      0.0000      0.0154      0.0000      0.0000      0.0309      0.0000      0.0000      0.0683      0.0000
 21      0.0000      0.0290      0.0139      0.0000      0.0000      0.0000      0.0000      0.0000      0.2257
 22      0.0000      0.0278      0.0803      0.0000      0.0000      0.0000      0.0000      0.0000      0.0674
 23      0.0000      0.0232      0.0000      0.0894      0.0070      0.0036      0.0000      0.0443      0.0000
 24      0.0000      0.0207      0.0257      0.0003      0.0000      0.0175      0.0000      0.0000      0.0000
 25      0.0000      0.0354      0.0691      0.0144      0.0000      0.0000      0.0000      0.0000      0.0000
 26      0.0000      0.0714      0.0460      0.0000      0.0608      0.0077      0.0000      0.0180      0.0000
 27      0.0000      0.0743      0.0983      0.0274      0.0000      0.0000      0.0549      0.2078      0.0000
 28      0.0000      0.0712      0.0456      0.1707      0.1636      0.0844      0.0861      0.1177      0.0000
 29      0.0000      0.0615      0.0009      0.0000      0.1284      0.0828      0.0000      0.0000      0.0000
 30      0.0000      0.0255      0.0083      0.0000      0.0254      0.0000      0.0000      0.0000      0.0214
 31      0.0000      0.0088      0.0000      0.0011      0.0000      0.0000      0.0025      0.0000      0.0000
 32      0.0000      0.0110      0.0000      0.0000      0.0228      0.0000      0.0208      0.0000      0.0000
 33      0.0000      0.0318      0.0000      0.0000      0.0407      0.0000      0.0000      0.0000      0.0000
 34      0.0000      0.0068      0.0000      0.0000      0.0000      0.0000      0.0000      0.0039      0.0000
 35      0.0000      0.0119      0.0000      0.0026      0.0000      0.0000      0.0570      0.0257      0.0775
 36      0.0000      0.0340      0.0431      0.0000      0.0000      0.0755      0.0000      0.0000      0.0038
 37      0.0000      0.0454      0.0000      0.1226      0.0417      0.0306      0.0000      0.0000      0.0303
 38      0.0000      0.0291      0.0340      0.0790      0.0000      0.0000      0.0000      0.0476      0.0000
 39      0.0000      0.0351      0.0000      0.0000      0.0000      0.0000      0.0000      0.0000      0.0000
 40      0.0000      0.0614      0.0000      0.0782      0.1509      0.0000      0.1153      0.0000      0.0000
 41      0.0000      0.0830      0.0742      0.0702      0.0000      0.0174      0.0000      0.0000      0.0000
 42      0.0000      0.1090      0.2209      0.1603      0.0868      0.1817      0.1676      0.1734      0.1937
 43      0.0000      0.1359      0.1455      0.2237      0.0635      0.1994      0.3124      0.2085      0.2012
 44      0.0000      0.0746      0.1853      0.0492      0.1468      0.0836      0.0694      0.0391      0.1455
 45      0.0000      0.0975      0.0876      0.1129      0.2029      0.1654      0.0860      0.1644      0.0782

# j      m_j: min, <> & last-chain-values for 1 ...  7 chains
  1  0.0000E+00  5.7495E-05  0.0000E+00  0.0000E+00  0.0000E+00  8.9670E-05  0.0000E+00  9.5644E-05  8.4283E-06
  2  4.5656E-02  4.1891E-02  4.2148E-02  4.2065E-02  4.0619E-02  4.2227E-02  4.2555E-02  4.1522E-02  4.2046E-02
  3  1.0689E-02  1.2868E-02  1.2797E-02  1.2770E-02  1.2695E-02  1.1863E-02  1.3111E-02  1.4056E-02  1.2618E-02
  4  8.4594E-02  8.0714E-02  8.1708E-02  8.1685E-02  7.8294E-02  7.9742E-02  8.0869E-02  7.9375E-02  8.0742E-02
  5  1.7612E-02  2.2601E-02  2.2033E-02  2.0351E-02  2.3223E-02  2.1704E-02  2.3161E-02  1.9318E-02  2.0518E-02
  6  0.0000E+00  1.5829E-03  0.0000E+00  1.1401E-04  0.0000E+00  7.2641E-04  0.0000E+00  3.0793E-04  0.0000E+00
  7  1.0142E-03  1.3581E-02  1.3511E-02  1.4678E-02  1.2154E-02  2.0485E-02  2.2606E-02  1.7809E-02  1.3282E-02
  8  0.0000E+00  4.9514E-03  7.2807E-03  6.3469E-03  1.6162E-02  4.2781E-03  1.0953E-02  0.0000E+00  3.3098E-03
  9  0.0000E+00  5.2313E-02  4.7919E-02  3.5973E-02  8.2662E-02  4.3249E-02  4.0066E-02  1.1076E-01  4.5547E-02
 10  1.8387E-01  9.0755E-02  1.6023E-01  9.9190E-02  1.1534E-01  9.5086E-02  1.0519E-01  1.2958E-01  1.2251E-01
 11  0.0000E+00  1.0225E-01  6.0929E-02  1.4864E-02  1.1961E-01  1.3440E-01  8.5822E-02  3.0298E-02  7.2528E-02
 12  6.1720E+01  5.8760E+01  5.7749E+01  5.9181E+01  5.7180E+01  5.8142E+01  5.9057E+01  5.7699E+01  5.8625E+01
 13  3.7929E+01  3.5233E+01  3.4947E+01  3.5256E+01  3.4604E+01  3.4591E+01  3.5362E+01  3.4725E+01  3.5279E+01
 14  0.0000E+00  2.8968E-01  0.0000E+00  0.0000E+00  1.5801E-02  0.0000E+00  0.0000E+00  7.8788E-01  5.3986E-01
 15  0.0000E+00  2.3525E-01  9.2778E-01  1.0061E-01  0.0000E+00  4.1513E-01  0.0000E+00  6.7052E-01  0.0000E+00
 16  0.0000E+00  9.2117E-05  0.0000E+00  0.0000E+00  0.0000E+00  5.7550E-04  2.1430E-04  0.0000E+00  0.0000E+00
 17  0.0000E+00  4.4631E-05  0.0000E+00  5.8021E-05  2.1314E-04  0.0000E+00  0.0000E+00  0.0000E+00  0.0000E+00
 18  8.3219E-03  7.0924E-03  6.7544E-03  7.1230E-03  7.6146E-03  6.9773E-03  6.8708E-03  6.6909E-03  7.0357E-03
 19  0.0000E+00  4.6141E-04  0.0000E+00  2.6959E-03  0.0000E+00  8.5547E-04  0.0000E+00  2.0365E-04  0.0000E+00
 20  0.0000E+00  5.1581E-04  0.0000E+00  0.0000E+00  1.0122E-03  0.0000E+00  0.0000E+00  2.2584E-03  0.0000E+00
 21  0.0000E+00  1.1634E-03  5.5124E-04  0.0000E+00  0.0000E+00  0.0000E+00  0.0000E+00  0.0000E+00  9.0286E-03
 22  0.0000E+00  1.8555E-03  5.3089E-03  0.0000E+00  0.0000E+00  0.0000E+00  0.0000E+00  0.0000E+00  4.4853E-03
 23  0.0000E+00  3.0451E-03  0.0000E+00  1.1768E-02  8.9431E-04  4.6155E-04  0.0000E+00  5.7469E-03  0.0000E+00
 24  0.0000E+00  6.2223E-03  7.6329E-03  1.0233E-04  0.0000E+00  5.2015E-03  0.0000E+00  0.0000E+00  0.0000E+00
 25  0.0000E+00  1.6360E-02  3.1616E-02  6.6810E-03  0.0000E+00  0.0000E+00  0.0000E+00  0.0000E+00  0.0000E+00
 26  0.0000E+00  6.2276E-02  3.9745E-02  0.0000E+00  5.1897E-02  6.6699E-03  0.0000E+00  1.5494E-02  0.0000E+00
 27  0.0000E+00  1.3164E-01  1.7224E-01  4.8608E-02  0.0000E+00  0.0000E+00  9.7566E-02  3.6348E-01  0.0000E+00
 28  0.0000E+00  2.5503E-01  1.6152E-01  6.1300E-01  5.7298E-01  2.9841E-01  3.0927E-01  4.1655E-01  0.0000E+00
 29  0.0000E+00  4.6647E-01  6.6288E-03  0.0000E+00  9.5251E-01  6.2024E-01  0.0000E+00  0.0000E+00  0.0000E+00
 30  0.0000E+00  2.3114E-01  7.4079E-02  0.0000E+00  2.2443E-01  0.0000E+00  0.0000E+00  0.0000E+00  1.9295E-01
 31  0.0000E+00  5.7473E-05  0.0000E+00  7.3696E-06  0.0000E+00  0.0000E+00  1.6636E-05  0.0000E+00  0.0000E+00
 32  0.0000E+00  3.7968E-05  0.0000E+00  0.0000E+00  7.7137E-05  0.0000E+00  7.2189E-05  0.0000E+00  0.0000E+00
 33  0.0000E+00  1.6277E-04  0.0000E+00  0.0000E+00  2.0410E-04  0.0000E+00  0.0000E+00  0.0000E+00  0.0000E+00
 34  0.0000E+00  1.1280E-04  0.0000E+00  0.0000E+00  0.0000E+00  0.0000E+00  0.0000E+00  6.3350E-05  0.0000E+00
 35  0.0000E+00  3.8964E-04  0.0000E+00  8.5408E-05  0.0000E+00  0.0000E+00  1.8661E-03  8.2785E-04  2.5167E-03
 36  0.0000E+00  1.4078E-03  1.7671E-03  0.0000E+00  0.0000E+00  3.0839E-03  0.0000E+00  0.0000E+00  1.5845E-04
 37  0.0000E+00  3.2614E-03  0.0000E+00  8.8254E-03  2.9248E-03  2.1726E-03  0.0000E+00  0.0000E+00  2.1641E-03
 38  0.0000E+00  4.7485E-03  5.4965E-03  1.2920E-02  0.0000E+00  0.0000E+00  0.0000E+00  7.6740E-03  0.0000E+00
 39  0.0000E+00  1.4499E-02  0.0000E+00  0.0000E+00  0.0000E+00  0.0000E+00  0.0000E+00  0.0000E+00  0.0000E+00
 40  0.0000E+00  4.3783E-02  0.0000E+00  5.5862E-02  1.0517E-01  0.0000E+00  8.2418E-02  0.0000E+00  0.0000E+00
 41  0.0000E+00  1.0776E-01  9.5306E-02  9.1346E-02  0.0000E+00  2.2270E-02  0.0000E+00  0.0000E+00  0.0000E+00
 42  0.0000E+00  2.8129E-01  5.6407E-01  4.1481E-01  2.1905E-01  4.6287E-01  4.3362E-01  4.4199E-01  4.9762E-01
 43  0.0000E+00  8.1162E-01  8.5947E-01  1.3393E+00  3.7088E-01  1.1757E+00  1.8705E+00  1.2300E+00  1.1961E+00
 44  0.0000E+00  1.0064E+00  2.4729E+00  6.6579E-01  1.9360E+00  1.1130E+00  9.3893E-01  5.2057E-01  1.9535E+00
 45  0.0000E+00  1.5990E+00  1.4224E+00  1.8562E+00  3.2537E+00  2.6790E+00  1.4145E+00  2.6629E+00  1.2769E+00

# AV, chi2 & Mass for <> & i_chain = 1 ...  7 solutions
AV       0.7564      0.7535      0.7533      0.7527      0.7516      0.7514      0.7532      0.7517      0.7529
chi2 2.8499E+00  2.8269E+00  2.8061E+00  2.8206E+00  2.8179E+00  2.8075E+00  2.8074E+00  2.8099E+00  2.8137E+00
Mass 1.3299E-09  1.3711E-09  1.3853E-09  1.3662E-09  1.3989E-09  1.3849E-09  1.3668E-09  1.3847E-09  1.3763E-09
  -9.68                                  [v0_min (km/s) before EX0s...]
  73.91                                  [vd_min (km/s) before EX0s...]


## Synthetic spectrum (Best Model) ##l_obs f_obs f_syn wei
 3070    [Nl_obs]
 3359.00    0.26280   0.50824   -1.000
 3360.00    0.25139   0.48707   -1.000
 3361.00    0.25340   0.48663   -1.000
 3362.00    0.26736   0.50841   -1.000
 3363.00    0.28505   0.53914   -1.000
 3364.00    0.29950   0.56075   -1.000
 3365.00    0.31361   0.56287   -1.000
 3366.00    0.31820   0.54724   -1.000
 3367.00    0.31138   0.52472   -1.000
 3368.00    0.30570   0.50751   -1.000
 3369.00    0.30425   0.49967   -1.000
 3370.00    0.30226   0.49695   -1.000
 3371.00    0.29959   0.49376   -1.000
 3372.00    0.29783   0.49352   -1.000
 3373.00    0.30724   0.50495   -1.000
 3374.00    0.32053   0.52934   -1.000
 3375.00    0.34002   0.55807   -1.000
 3376.00    0.35717   0.57484   -1.000
 3377.00    0.36053   0.56985   -1.000
 3378.00    0.36034   0.54887   -1.000
 3379.00    0.36207   0.52658   -1.000
 3380.00    0.35736   0.51717   -1.000
 3381.00    0.35479   0.52417   -1.000
 3382.00    0.36146   0.54056   -1.000
 3383.00    0.37245   0.55620   -1.000
 3384.00    0.37796   0.56839   -1.000
 3385.00    0.37949   0.57902   -1.000
 3386.00    0.38469   0.58554   -1.000
 3387.00    0.39313   0.58547   -1.000
 3388.00    0.39658   0.58181   -1.000
 3389.00    0.40085   0.57770   -1.000
 3390.00    0.40432   0.57202   -1.000
 3391.00    0.40767   0.56246   -1.000
 3392.00    0.40909   0.55164   -1.000
 3393.00    0.40853   0.54815   -1.000
 3394.00    0.41167   0.55782   -1.000
 3395.00    0.42064   0.57709   -1.000
 3396.00    0.43836   0.59807   -1.000
 3397.00    0.45512   0.61447   -1.000
 3398.00    0.46833   0.62270   -1.000
 3399.00    0.47846   0.62106   -1.000
 3400.00    0.48388   0.61095   -1.000
 3401.00    0.48365   0.59546   -1.000
 3402.00    0.47492   0.57846   -1.000
 3403.00    0.46723   0.56592   -1.000
 3404.00    0.46322   0.56082   -1.000
 3405.00    0.45685   0.55852   -1.000
 3406.00    0.44852   0.55342   -1.000
 3407.00    0.44530   0.54617   -1.000
 3408.00    0.44721   0.54316   -1.000
 3409.00    0.44894   0.54883   -1.000
 3410.00    0.45127   0.55840   -1.000
 3411.00    0.45753   0.56280   -1.000
 3412.00    0.46394   0.55860   -1.000
 3413.00    0.46608   0.55092   -1.000
 3414.00    0.46171   0.54783   -1.000
 3415.00    0.46309   0.55286   -1.000
 3416.00    0.46609   0.56489   -1.000
 3417.00    0.47575   0.58071   -1.000
 3418.00    0.49287   0.59699   -1.000
 3419.00    0.50679   0.60927   -1.000
 3420.00    0.51384   0.61299   -1.000
 3421.00    0.51661   0.60778   -1.000
 3422.00    0.51229   0.59887   -1.000
 3423.00    0.50498   0.59127   -1.000
 3424.00    0.50051   0.58742   -1.000
 3425.00    0.50465   0.58783   -1.000
 3426.00    0.51462   0.59308   -1.000
 3427.00    0.52211   0.60513   -1.000
 3428.00    0.53334   0.62246   -1.000
 3429.00    0.54004   0.63513   -1.000
 3430.00    0.54731   0.63445   -1.000
 3431.00    0.55126   0.62125   -1.000
 3432.00    0.54551   0.60539   -1.000
 3433.00    0.53694   0.59697   -1.000
 3434.00    0.53247   0.59832   -1.000
 3435.00    0.54220   0.60399   -1.000
 3436.00    0.54673   0.60534   -1.000
 3437.00    0.53812   0.59771   -1.000
 3438.00    0.52437   0.58041   -1.000
 3439.00    0.50809   0.55545   -1.000
 3440.00    0.48497   0.52843   -1.000
 3441.00    0.46510   0.50922   -1.000
 3442.00    0.46302   0.50427   -1.000
 3443.00    0.47161   0.51141   -1.000
 3444.00    0.48287   0.52426   -1.000
 3445.00    0.49731   0.53997   -1.000
 3446.00    0.51521   0.55989   -1.000
 3447.00    0.53148   0.58347   -1.000
 3448.00    0.54542   0.60506   -1.000
 3449.00    0.56011   0.61639   -1.000
 3450.00    0.56598   0.61233   -1.000
 3451.00    0.55903   0.59599   -1.000
 3452.00    0.55651   0.57725   -1.000
 3453.00    0.54926   0.56749   -1.000
 3454.00    0.54719   0.56963   -1.000
 3455.00    0.56129   0.57737   -1.000
 3456.00    0.56669   0.58069   -1.000
 3457.00    0.56476   0.57397  223.749
 3458.00    0.55679   0.56093   88.169
 3459.00    0.54364   0.54748   88.788
 3460.00    0.53896   0.53846  124.347
 3461.00    0.53750   0.54016  688.001
 3462.00    0.54252   0.55395   -1.000
 3463.00    0.55040   0.56988   -1.000
 3464.00    0.56402   0.57813   -1.000
 3465.00    0.57019   0.57949   -1.000
 3466.00    0.56803   0.58065   -1.000
 3467.00    0.56932   0.58634   -1.000
 3468.00    0.57423   0.59472   -1.000
 3469.00    0.58603   0.60146   -1.000
 3470.00    0.59731   0.60323   -1.000
 3471.00    0.59270   0.59812   -1.000
 3472.00    0.57940   0.58613   -1.000
 3473.00    0.56073   0.56823  222.148
 3474.00    0.53862   0.54742   89.594
 3475.00    0.52371   0.53232   91.188
 3476.00    0.51253   0.53117  127.046
 3477.00    0.52310   0.54358   -1.000
 3478.00    0.54990   0.56169   -1.000
 3479.00    0.57480   0.57728  688.001
 3480.00    0.59219   0.58541   -1.000
 3481.00    0.59899   0.58499   -1.000
 3482.00    0.59648   0.57840   -1.000
 3483.00    0.59102   0.57190   -1.000
 3484.00    0.58540   0.57332   -1.000
 3485.00    0.58745   0.58551  688.001
 3486.00    0.60017   0.60070  688.001
 3487.00    0.60490   0.60514  688.001
 3488.00    0.59737   0.59401  688.001
 3489.00    0.58361   0.57496   -1.000
 3490.00    0.56768   0.56144   -1.000
 3491.00    0.55344   0.56041   -1.000
 3492.00    0.55226   0.56612   -1.000
 3493.00    0.55701   0.56857   -1.000
 3494.00    0.55769   0.56271   -1.000
 3495.00    0.55590   0.55255  688.001
 3496.00    0.54777   0.54825  688.001
 3497.00    0.54844   0.55816   -1.000
 3498.00    0.56428   0.57797   -1.000
 3499.00    0.58584   0.59332   -1.000
 3500.00    0.60014   0.59859  688.001
 3501.00    0.60511   0.59986   -1.000
 3502.00    0.61036   0.60303   -1.000
 3503.00    0.61398   0.60564   -1.000
 3504.00    0.60887   0.60150   -1.000
 3505.00    0.60017   0.59294   -1.000
 3506.00    0.59275   0.58772   -1.000
 3507.00    0.59197   0.58780  688.001
 3508.00    0.59678   0.58845   -1.000
 3509.00    0.59750   0.58449   -1.000
 3510.00    0.59036   0.57646   -1.000
 3511.00    0.58478   0.56816   -1.000
 3512.00    0.57317   0.56060   -1.000
 3513.00    0.56185   0.55506   -1.000
 3514.00    0.55941   0.55782  688.001
 3515.00    0.56913   0.57230  688.001
 3516.00    0.58979   0.59355  688.001
 3517.00    0.60931   0.61093  688.001
 3518.00    0.61388   0.61535  688.001
 3519.00    0.60573   0.60581  688.001
 3520.00    0.59303   0.58826   -1.000
 3521.00    0.57860   0.57104   -1.000
 3522.00    0.56575   0.55641  212.052
 3523.00    0.55241   0.54200   88.829
 3524.00    0.53631   0.52950   90.715
 3525.00    0.52454   0.52516  130.971
 3526.00    0.52219   0.53511   -1.000
 3527.00    0.53227   0.55764   -1.000
 3528.00    0.55861   0.58236   -1.000
 3529.00    0.58247   0.59890   -1.000
 3530.00    0.59240   0.60398   -1.000
 3531.00    0.59766   0.60270   -1.000
 3532.00    0.59806   0.60234   -1.000
 3533.00    0.59965   0.60620   -1.000
 3534.00    0.60761   0.61214   -1.000
 3535.00    0.61202   0.61684   -1.000
 3536.00    0.61184   0.62026   -1.000
 3537.00    0.61277   0.62493   -1.000
 3538.00    0.61914   0.63133   -1.000
 3539.00    0.62563   0.63537   -1.000
 3540.00    0.62917   0.63367   -1.000
 3541.00    0.62399   0.63040   -1.000
 3542.00    0.61999   0.63162   -1.000
 3543.00    0.62597   0.63712   -1.000
 3544.00    0.62785   0.64210   -1.000
 3545.00    0.62324   0.64215   -1.000
 3546.00    0.61862   0.63870   -1.000
 3547.00    0.61982   0.63653   -1.000
 3548.00    0.62159   0.63791   -1.000
 3549.00    0.62387   0.64109   -1.000
 3550.00    0.62518   0.64216   -1.000
 3551.00    0.62387   0.63875   -1.000
 3552.00    0.61346   0.63145   -1.000
 3553.00    0.60171   0.62442   -1.000
 3554.00    0.59598   0.62125   -1.000
 3555.00    0.59715   0.62177   -1.000
 3556.00    0.60203   0.62306   -1.000
 3557.00    0.60026   0.62171   -1.000
 3558.00    0.59946   0.61783   -1.000
 3559.00    0.59984   0.61589   -1.000
 3560.00    0.59962   0.62060   -1.000
 3561.00    0.60606   0.63057   -1.000
 3562.00    0.60993   0.63589   -1.000
 3563.00    0.60872   0.62429   -1.000
 3564.00    0.59077   0.59542   89.934
 3565.00    0.55899   0.56699   91.887
 3566.00    0.54224   0.55294   90.995
 3567.00    0.53774   0.54991   91.798
 3568.00    0.53469   0.54642   94.444
 3569.00    0.52622   0.53672   94.404
 3570.00    0.51937   0.52845   90.924
 3571.00    0.52449   0.53038  131.263
 3572.00    0.53899   0.53977  688.001
 3573.00    0.54885   0.54880  688.001
 3574.00    0.55376   0.55356  688.001
 3575.00    0.55948   0.55616  688.001
 3576.00    0.56621   0.55903   -1.000
 3577.00    0.56640   0.55944  210.982
 3578.00    0.55900   0.55175   94.192
 3579.00    0.55011   0.53482  100.894
 3580.00    0.53212   0.51627  104.599
 3581.00    0.51031   0.50505  105.148
 3582.00    0.50251   0.50284  106.401
 3583.00    0.50813   0.50304  109.420
 3584.00    0.50673   0.49722  112.278
 3585.00    0.49328   0.48692  111.032
 3586.00    0.48093   0.48154  105.240
 3587.00    0.48381   0.48677   99.827
 3588.00    0.49998   0.50286   93.361
 3589.00    0.51878   0.52666  131.803
 3590.00    0.54151   0.55264   -1.000
 3591.00    0.56595   0.57349   -1.000
 3592.00    0.58158   0.58474  688.001
 3593.00    0.58469   0.58869  688.001
 3594.00    0.58856   0.59281   -1.000
 3595.00    0.59891   0.60233  688.001
 3596.00    0.60989   0.61543   -1.000
 3597.00    0.62292   0.62820   -1.000
 3598.00    0.63178   0.63801   -1.000
 3599.00    0.63803   0.64149  678.218
 3600.00    0.63604   0.63490  688.001
 3601.00    0.62164   0.61758  688.001
 3602.00    0.60271   0.59513   -1.000
 3603.00    0.58758   0.57677   -1.000
 3604.00    0.57491   0.56918   -1.000
 3605.00    0.56786   0.57100  688.001
 3606.00    0.56840   0.57342   -1.000
 3607.00    0.57065   0.56910  688.001
 3608.00    0.56129   0.55931  688.001
 3609.00    0.55220   0.55370  688.001
 3610.00    0.55134   0.55853   -1.000
 3611.00    0.56164   0.56842   -1.000
 3612.00    0.57111   0.57722   -1.000
 3613.00    0.57688   0.58547   -1.000
 3614.00    0.59074   0.59546   -1.000
 3615.00    0.60047   0.60333  688.001
 3616.00    0.59918   0.59768  688.001
 3617.00    0.58436   0.57617  195.982
 3618.00    0.55807   0.55607  132.746
 3619.00    0.54135   0.55403   -1.000
 3620.00    0.55247   0.56992   -1.000
 3621.00    0.58206   0.59153   -1.000
 3622.00    0.60695   0.60823  685.278
 3623.00    0.61950   0.61921  670.098
 3624.00    0.62507   0.63153   -1.000
 3625.00    0.63340   0.65022   -1.000
 3626.00    0.65174   0.67067   -1.000
 3627.00    0.66516   0.68218   -1.000
 3628.00    0.65999   0.67372   -1.000
 3629.00    0.63589   0.64315   -1.000
 3630.00    0.59722   0.60385   -1.000
 3631.00    0.56613   0.57524   -1.000
 3632.00    0.55373   0.56834   -1.000
 3633.00    0.56196   0.57871   -1.000
 3634.00    0.57775   0.59362   -1.000
 3635.00    0.58788   0.60403   -1.000
 3636.00    0.59636   0.61136   -1.000
 3637.00    0.61170   0.62229   -1.000
 3638.00    0.62940   0.63825   -1.000
 3639.00    0.64546   0.65320   -1.000
 3640.00    0.65013   0.65804   -1.000
 3641.00    0.64163   0.64908   -1.000
 3642.00    0.62506   0.63066   -1.000
 3643.00    0.60903   0.61143  688.001
 3644.00    0.59966   0.59842  688.001
 3645.00    0.59195   0.59163  688.001
 3646.00    0.58532   0.58716  688.001
 3647.00    0.57997   0.58441  688.001
 3648.00    0.57762   0.58562   -1.000
 3649.00    0.58512   0.59259   -1.000
 3650.00    0.59677   0.60580   -1.000
 3651.00    0.61172   0.62336   -1.000
 3652.00    0.63063   0.64083   -1.000
 3653.00    0.64344   0.65433   -1.000
 3654.00    0.64874   0.66292   -1.000
 3655.00    0.65545   0.66979   -1.000
 3656.00    0.66241   0.67795   -1.000
 3657.00    0.66693   0.68543   -1.000
 3658.00    0.67096   0.68910   -1.000
 3659.00    0.67388   0.68822   -1.000
 3660.00    0.67506   0.68342   -1.000
 3661.00    0.67333   0.67584  619.974
 3662.00    0.66600   0.66723  628.295
 3663.00    0.65856   0.66032  627.888
 3664.00    0.65605   0.65761  623.367
 3665.00    0.65753   0.65812  629.062
 3666.00    0.65953   0.65747  639.962
 3667.00    0.65886   0.65170   -1.000
 3668.00    0.64621   0.64307  658.434
 3669.00    0.63387   0.64036   -1.000
 3670.00    0.63530   0.64807   -1.000
 3671.00    0.64836   0.66152   -1.000
 3672.00    0.66407   0.67190   -1.000
 3673.00    0.66894   0.67402   -1.000
 3674.00    0.66436   0.66867  625.223
 3675.00    0.65998   0.65786  644.955
 3676.00    0.65377   0.64362   -1.000
 3677.00    0.63748   0.62875   -1.000
 3678.00    0.62247   0.61666   -1.000
 3679.00    0.61790   0.61069   -1.000
 3680.00    0.62140   0.61191   -1.000
 3681.00    0.63034   0.61869   -1.000
 3682.00    0.63491   0.62670   -1.000
 3683.00    0.63652   0.62998   -1.000
 3684.00    0.63348   0.62354   -1.000
 3685.00    0.62061   0.60838   -1.000
 3686.00    0.60400   0.59448   -1.000
 3687.00    0.59831   0.59304   -1.000
 3688.00    0.60905   0.60749  645.048
 3689.00    0.62860   0.63152  612.149
 3690.00    0.65282   0.65363  603.554
 3691.00    0.66824   0.66497  613.511
 3692.00    0.67186   0.66623   -1.000
 3693.00    0.66641   0.66367  630.850
 3694.00    0.66539   0.66017   -1.000
 3695.00    0.66719   0.65584   -1.000
 3696.00    0.66076   0.65406   -1.000
 3697.00    0.66388   0.66145  588.871
 3698.00    0.68249   0.68004  576.988
 3699.00    0.70164   0.70127  577.227
 3700.00    0.71248   0.71020  594.988
 3701.00    0.70897   0.69580   -1.000
 3702.00    0.68311   0.65907   -1.000
 3703.00    0.64396   0.61395   -1.000
 3704.00    0.61002   0.57825   -1.000
 3705.00    0.59053   0.56409   -1.000
 3706.00    0.58893   0.57026   -1.000
 3707.00    0.59751   0.58488   -1.000
 3708.00    0.60894   0.59681   -1.000
 3709.00    0.62113   0.60194   -1.000
 3710.00    0.62937   0.60443   -1.000
 3711.00    0.63698   0.61411   -1.000
 3712.00    0.65245   0.63694   -1.000
 3713.00    0.68100   0.66802   -1.000
 3714.00    0.71014   0.69700   -1.000
 3715.00    0.72647   0.71464   -1.000
 3716.00    0.72626   0.71515   -1.000
 3717.00    0.71181   0.69597   -1.000
 3718.00    0.67752   0.65533   -1.000
 3719.00    0.62274   0.59889   -1.000
 3720.00    0.56810   0.54716   -1.000
 3721.00    0.53687   0.52240   -1.000
 3722.00    0.54573   0.53386   -1.000
 3723.00    0.58818   0.57496   -1.000
 3724.00    0.64333   0.62490   -1.000
 3725.00    0.68302   0.65970   -1.000
 3726.00    0.69556   0.67309   -1.000
 3727.00    0.68781   0.67800   -1.000
 3728.00    0.68443   0.68375  656.721
 3729.00    0.68853   0.68538  673.648
 3730.00    0.68263   0.67042   -1.000
 3731.00    0.65582   0.63116   -1.000
 3732.00    0.61021   0.57420   -1.000
 3733.00    0.55698   0.51702   -1.000
 3734.00    0.51448   0.47882   -1.000
 3735.00    0.49656   0.47261   92.385
 3736.00    0.51073   0.49950  140.872
 3737.00    0.55029   0.55008  688.001
 3738.00    0.60263   0.61024   -1.000
 3739.00    0.65617   0.66346   -1.000
 3740.00    0.69472   0.69594  662.501
 3741.00    0.70620   0.70362  688.001
 3742.00    0.69666   0.69098   -1.000
 3743.00    0.67437   0.66611   -1.000
 3744.00    0.64590   0.63716   -1.000
 3745.00    0.61884   0.60776  180.607
 3746.00    0.59363   0.57562   91.104
 3747.00    0.56437   0.53750   94.901
 3748.00    0.53285   0.49951   -1.000
 3749.00    0.50918   0.48083   -1.000
 3750.00    0.52058   0.49705   -1.000
 3751.00    0.57112   0.54491   -1.000
 3752.00    0.63206   0.60753   -1.000
 3753.00    0.68628   0.66716   -1.000
 3754.00    0.72973   0.71029   -1.000
 3755.00    0.75488   0.72671   -1.000
 3756.00    0.74569   0.71330   -1.000
 3757.00    0.70354   0.68151   -1.000
 3758.00    0.66164   0.65274   -1.000
 3759.00    0.64943   0.64252   -1.000
 3760.00    0.66441   0.65004   -1.000
 3761.00    0.68693   0.66417   -1.000
 3762.00    0.70164   0.67686   -1.000
 3763.00    0.70834   0.68455   -1.000
 3764.00    0.70848   0.68367   -1.000
 3765.00    0.70060   0.67207   -1.000
 3766.00    0.68707   0.65143   -1.000
 3767.00    0.66945   0.62528   -1.000
 3768.00    0.65453   0.59695   -1.000
 3769.00    0.63813   0.57235   -1.000
 3770.00    0.62567   0.56221   -1.000
 3771.00    0.63458   0.57616   -1.000
 3772.00    0.66553   0.61103   -1.000
 3773.00    0.70205   0.65045   -1.000
 3774.00    0.72708   0.68162   -1.000
 3775.00    0.73770   0.70410   -1.000
 3776.00    0.74908   0.72330   -1.000
 3777.00    0.76542   0.74375   -1.000
 3778.00    0.78196   0.76613   -1.000
 3779.00    0.79977   0.78746   -1.000
 3780.00    0.81525   0.80394   -1.000
 3781.00    0.82314   0.81397   -1.000
 3782.00    0.82707   0.81794   -1.000
 3783.00    0.82476   0.81474   -1.000
 3784.00    0.81576   0.80084   -1.000
 3785.00    0.79052   0.77564   -1.000
 3786.00    0.76022   0.74618   -1.000
 3787.00    0.74011   0.72256   -1.000
 3788.00    0.72900   0.70994   -1.000
 3789.00    0.72573   0.70662   -1.000
 3790.00    0.72850   0.70670   -1.000
 3791.00    0.72753   0.70240   -1.000
 3792.00    0.71711   0.68755   -1.000
 3793.00    0.69681   0.66118   -1.000
 3794.00    0.66562   0.62611   -1.000
 3795.00    0.63450   0.58588   -1.000
 3796.00    0.60337   0.54475   -1.000
 3797.00    0.56781   0.51280   -1.000
 3798.00    0.55320   0.50767   -1.000
 3799.00    0.58027   0.53910   -1.000
 3800.00    0.63128   0.59637   -1.000
 3801.00    0.68255   0.65895   -1.000
 3802.00    0.72657   0.71016   -1.000
 3803.00    0.75862   0.74228   -1.000
 3804.00    0.77499   0.75518   -1.000
 3805.00    0.77562   0.75323   -1.000
 3806.00    0.76723   0.74760   -1.000
 3807.00    0.76453   0.75265   -1.000
 3808.00    0.77625   0.77226  615.993
 3809.00    0.79503   0.79585  618.121
 3810.00    0.80762   0.80767  640.310
 3811.00    0.80384   0.79798   -1.000
 3812.00    0.78226   0.76919   -1.000
 3813.00    0.75135   0.73363   -1.000
 3814.00    0.72053   0.70721   -1.000
 3815.00    0.70533   0.70057   -1.000
 3816.00    0.71298   0.71015  688.001
 3817.00    0.73234   0.71955   -1.000
 3818.00    0.73575   0.71462   -1.000
 3819.00    0.71049   0.69639   -1.000
 3820.00    0.68568   0.67992   -1.000
 3821.00    0.68509   0.67705   -1.000
 3822.00    0.70140   0.68015   -1.000
 3823.00    0.70332   0.67336   -1.000
 3824.00    0.67786   0.65320   92.587
 3825.00    0.64935   0.63000   93.240
 3826.00    0.63430   0.61478   92.064
 3827.00    0.63427   0.60908   90.552
 3828.00    0.63957   0.60657   -1.000
 3829.00    0.64411   0.59949   -1.000
 3830.00    0.63974   0.58237   -1.000
 3831.00    0.61541   0.55325   -1.000
 3832.00    0.57889   0.51496   -1.000
 3833.00    0.54040   0.47603   -1.000
 3834.00    0.51209   0.44885   -1.000
 3835.00    0.50879   0.44180   -1.000
 3836.00    0.52498   0.45326   -1.000
 3837.00    0.54399   0.47535   -1.000
 3838.00    0.55935   0.50225   -1.000
 3839.00    0.57583   0.53477   -1.000
 3840.00    0.60395   0.57569   -1.000
 3841.00    0.64613   0.62263   -1.000
 3842.00    0.68987   0.66815   -1.000
 3843.00    0.72690   0.70424   -1.000
 3844.00    0.74881   0.72796   -1.000
 3845.00    0.75840   0.74352   -1.000
 3846.00    0.76473   0.75608   -1.000
 3847.00    0.76790   0.76474  688.001
 3848.00    0.76550   0.76636  688.001
 3849.00    0.75523   0.76433   -1.000
 3850.00    0.74666   0.76608   -1.000
 3851.00    0.75305   0.77430   -1.000
 3852.00    0.76978   0.78352   -1.000
 3853.00    0.78056   0.78475  688.001
 3854.00    0.77595   0.77584  688.001
 3855.00    0.76163   0.76202  688.001
 3856.00    0.74770   0.74680  163.808
 3857.00    0.73451   0.73082   89.380
 3858.00    0.71516   0.71701   91.314
 3859.00    0.69703   0.71311  155.985
 3860.00    0.69843   0.72567   -1.000
 3861.00    0.72747   0.75104   -1.000
 3862.00    0.76961   0.77613   -1.000
 3863.00    0.79669   0.78905   -1.000
 3864.00    0.80147   0.78971   -1.000
 3865.00    0.79562   0.78606   -1.000
 3866.00    0.78944   0.78365   -1.000
 3867.00    0.78489   0.78321  688.001
 3868.00    0.77512   0.78049   -1.000
 3869.00    0.76276   0.76913  165.270
 3870.00    0.74570   0.74766  154.245
 3871.00    0.72078   0.72392  688.001
 3872.00    0.70620   0.71135  688.001
 3873.00    0.71643   0.71846  688.001
 3874.00    0.74621   0.73920   -1.000
 3875.00    0.76989   0.75428   -1.000
 3876.00    0.76519   0.74954   -1.000
 3877.00    0.74086   0.73045   -1.000
 3878.00    0.71563   0.71325  688.001
 3879.00    0.70647   0.70681  688.001
 3880.00    0.71207   0.70627   -1.000
 3881.00    0.70758   0.70329   -1.000
 3882.00    0.69796   0.69513  688.001
 3883.00    0.70090   0.68171   -1.000
 3884.00    0.70157   0.65955   -1.000
 3885.00    0.67979   0.62358   -1.000
 3886.00    0.64037   0.57722   -1.000
 3887.00    0.60459   0.53479   -1.000
 3888.00    0.58268   0.51285   -1.000
 3889.00    0.58480   0.52195   -1.000
 3890.00    0.62146   0.56051   -1.000
 3891.00    0.67879   0.61275   -1.000
 3892.00    0.72350   0.65763   -1.000
 3893.00    0.74334   0.68510   -1.000
 3894.00    0.75198   0.70115   -1.000
 3895.00    0.75919   0.71627   -1.000
 3896.00    0.77172   0.73312   -1.000
 3897.00    0.78433   0.74637   -1.000
 3898.00    0.78589   0.75366   -1.000
 3899.00    0.78548   0.75999   -1.000
 3900.00    0.79527   0.76941   -1.000
 3901.00    0.80680   0.77874   -1.000
 3902.00    0.81139   0.78112   -1.000
 3903.00    0.80511   0.77376   -1.000
 3904.00    0.79065   0.76258   -1.000
 3905.00    0.77809   0.75832   -1.000
 3906.00    0.77712   0.76859   -1.000
 3907.00    0.79421   0.79343  548.629
 3908.00    0.82294   0.82389  540.018
 3909.00    0.85131   0.84833  535.101
 3910.00    0.87062   0.86215   -1.000
 3911.00    0.87818   0.86664   -1.000
 3912.00    0.87448   0.86323   -1.000
 3913.00    0.86222   0.85441   -1.000
 3914.00    0.85011   0.84423   -1.000
 3915.00    0.84262   0.83571   -1.000
 3916.00    0.83329   0.82883   -1.000
 3917.00    0.82142   0.82067  604.849
 3918.00    0.80746   0.80882  632.964
 3919.00    0.79287   0.79483  654.598
 3920.00    0.78238   0.78395  657.837
 3921.00    0.77552   0.78123  648.387
 3922.00    0.77248   0.78572   -1.000
 3923.00    0.77569   0.78964   -1.000
 3924.00    0.77530   0.78377   -1.000
 3925.00    0.75706   0.76340   -1.000
 3926.00    0.72151   0.72890  173.843
 3927.00    0.67336   0.68309  104.814
 3928.00    0.61542   0.62960  122.785
 3929.00    0.55189   0.56970  144.442
 3930.00    0.48219   0.50387   -1.000
 3931.00    0.40633   0.43616   -1.000
 3932.00    0.33976   0.37749   -1.000
 3933.00    0.30170   0.34605   -1.000
 3934.00    0.30600   0.35617   -1.000
 3935.00    0.35049   0.40458   -1.000
 3936.00    0.41854   0.47466   -1.000
 3937.00    0.49310   0.54939   -1.000
 3938.00    0.56553   0.61734   -1.000
 3939.00    0.62876   0.67247   -1.000
 3940.00    0.67345   0.71128   -1.000
 3941.00    0.69876   0.73287   -1.000
 3942.00    0.71062   0.74190   -1.000
 3943.00    0.71412   0.74693   -1.000
 3944.00    0.72621   0.75599   -1.000
 3945.00    0.75754   0.77089   -1.000
 3946.00    0.79072   0.78562   -1.000
 3947.00    0.80610   0.79495   -1.000
 3948.00    0.80634   0.80117   -1.000
 3949.00    0.81119   0.80756  554.220
 3950.00    0.82415   0.81245   -1.000
 3951.00    0.82824   0.81460   -1.000
 3952.00    0.82660   0.81702   -1.000
 3953.00    0.83399   0.82128   -1.000
 3954.00    0.84187   0.82262   -1.000
 3955.00    0.83650   0.81602   -1.000
 3956.00    0.81739   0.80575   -1.000
 3957.00    0.80393   0.79966  571.749
 3958.00    0.80667   0.79503   -1.000
 3959.00    0.80132   0.78007   -1.000
 3960.00    0.76753   0.74790   -1.000
 3961.00    0.71404   0.70461   -1.000
 3962.00    0.66742   0.66178  161.046
 3963.00    0.62993   0.62167   98.903
 3964.00    0.58319   0.57565  118.958
 3965.00    0.51554   0.51356  146.296
 3966.00    0.42821   0.43699  170.312
 3967.00    0.34546   0.36468  171.715
 3968.00    0.29692   0.32068   -1.000
 3969.00    0.29867   0.31862  122.484
 3970.00    0.34609   0.35660  101.657
 3971.00    0.42028   0.42072  172.801
 3972.00    0.50194   0.49458   -1.000
 3973.00    0.58205   0.56690   -1.000
 3974.00    0.65210   0.63204   -1.000
 3975.00    0.70610   0.68811   -1.000
 3976.00    0.75040   0.73549   -1.000
 3977.00    0.78785   0.77640   -1.000
 3978.00    0.82119   0.81230   -1.000
 3979.00    0.85367   0.83957   -1.000
 3980.00    0.87558   0.85318   -1.000
 3981.00    0.87706   0.85481   -1.000
 3982.00    0.86909   0.85368   -1.000
 3983.00    0.87289   0.85831   -1.000
 3984.00    0.89095   0.86888   -1.000
 3985.00    0.90864   0.88086   -1.000
 3986.00    0.91955   0.89223   -1.000
 3987.00    0.92409   0.90379   -1.000
 3988.00    0.92715   0.91529   -1.000
 3989.00    0.93318   0.92521   -1.000
 3990.00    0.93957   0.93418  444.912
 3991.00    0.95027   0.94399  442.787
 3992.00    0.96210   0.95232   -1.000
 3993.00    0.96511   0.95367   -1.000
 3994.00    0.95397   0.94548   -1.000
 3995.00    0.93493   0.93090  477.985
 3996.00    0.91836   0.91755  473.803
 3997.00    0.91196   0.91395  456.687
 3998.00    0.91860   0.92315  438.539
 3999.00    0.93820   0.94110  428.053
 4000.00    0.96459   0.96008  421.710
 4001.00    0.98296   0.97164   -1.000
 4002.00    0.99433   0.96947   -1.000
 4003.00    0.98594   0.95250   -1.000
 4004.00    0.95241   0.92693   -1.000
 4005.00    0.92043   0.90791   -1.000
 4006.00    0.92022   0.91011   -1.000
 4007.00    0.94684   0.93210   -1.000
 4008.00    0.97147   0.95893   -1.000
 4009.00    0.98554   0.97802   -1.000
 4010.00    0.99228   0.98670  421.119
 4011.00    0.99317   0.98909  423.819
 4012.00    0.99238   0.99034  423.088
 4013.00    0.99446   0.99305  418.239
 4014.00    0.99818   0.99622  417.493
 4015.00    1.00000   0.99799  422.128
 4016.00    1.00520   0.99893  423.375
 4017.00    1.00564   1.00181  418.687
 4018.00    1.00619   1.00790  416.253
 4019.00    1.00886   1.01460  420.202
 4020.00    1.00757   1.01762   -1.000
 4021.00    1.00313   1.01508   -1.000
 4022.00    0.99727   1.00819   -1.000
 4023.00    0.99280   0.99986  425.625
 4024.00    0.99084   0.99507  412.203
 4025.00    0.99910   0.99928  400.959
 4026.00    1.01886   1.01181  399.436
 4027.00    1.03342   1.02167   -1.000
 4028.00    1.02964   1.01561   -1.000
 4029.00    1.00586   0.99186   -1.000
 4030.00    0.96795   0.96106   -1.000
 4031.00    0.93868   0.93692  467.864
 4032.00    0.93315   0.92793  456.425
 4033.00    0.94429   0.93511   -1.000
 4034.00    0.96009   0.95547  415.195
 4035.00    0.98295   0.98543  398.025
 4036.00    1.01746   1.01916  391.097
 4037.00    1.04439   1.04629  395.261
 4038.00    1.05482   1.05673  404.443
 4039.00    1.04915   1.05121  411.207
 4040.00    1.02842   1.04017   -1.000
 4041.00    1.01930   1.02951   -1.000
 4042.00    1.01846   1.01350  458.629
 4043.00    0.99493   0.98288   -1.000
 4044.00    0.94719   0.94419  503.694
 4045.00    0.90443   0.92130   -1.000
 4046.00    0.90749   0.93008   -1.000
 4047.00    0.95343   0.96390   -1.000
 4048.00    1.00366   1.00287  403.972
 4049.00    1.03126   1.02992  403.602
 4050.00    1.03904   1.03973  411.190
 4051.00    1.03445   1.03508  422.309
 4052.00    1.02287   1.02090  430.792
 4053.00    1.00912   1.00477  435.582
 4054.00    0.99885   0.99364  438.709
 4055.00    0.99225   0.98744  442.606
 4056.00    0.98905   0.98359  441.643
 4057.00    0.98937   0.98437  429.981
 4058.00    0.99409   0.99372  418.241
 4059.00    1.00871   1.00810  418.808
 4060.00    1.02509   1.01328   -1.000
 4061.00    1.01857   0.99845   -1.000
 4062.00    0.97992   0.96895   -1.000
 4063.00    0.94221   0.94147  463.371
 4064.00    0.93542   0.92934   -1.000
 4065.00    0.95786   0.93339   -1.000
 4066.00    0.97959   0.94664   -1.000
 4067.00    0.99219   0.96335   -1.000
 4068.00    1.00884   0.97704   -1.000
 4069.00    1.01886   0.97849   -1.000
 4070.00    1.00558   0.96574   -1.000
 4071.00    0.98072   0.95020   -1.000
 4072.00    0.97092   0.94546   -1.000
 4073.00    0.98269   0.95032   -1.000
 4074.00    0.99288   0.94898   -1.000
 4075.00    0.97485   0.93158   -1.000
 4076.00    0.93800   0.90630   -1.000
 4077.00    0.90821   0.89159   -1.000
 4078.00    0.91441   0.90013   -1.000
 4079.00    0.94868   0.92944   -1.000
 4080.00    0.98719   0.96277   -1.000
 4081.00    1.01333   0.98151   -1.000
 4082.00    1.00965   0.97961   -1.000
 4083.00    0.99436   0.96625   -1.000
 4084.00    0.98345   0.95689   -1.000
 4085.00    0.98367   0.96153   -1.000
 4086.00    0.99996   0.97931   -1.000
 4087.00    1.02518   1.00052   -1.000
 4088.00    1.04408   1.01354   -1.000
 4089.00    1.05173   1.01270   -1.000
 4090.00    1.04486   1.00166   -1.000
 4091.00    1.03110   0.98859   -1.000
 4092.00    1.01817   0.97712   -1.000
 4093.00    1.00978   0.96392   -1.000
 4094.00    0.99852   0.94390   -1.000
 4095.00    0.97755   0.91658   -1.000
 4096.00    0.94855   0.88557   -1.000
 4097.00    0.92133   0.85132   -1.000
 4098.00    0.89769   0.80861   -1.000
 4099.00    0.85572   0.75375   -1.000
 4100.00    0.78547   0.69609   -1.000
 4101.00    0.72291   0.65966   -1.000
 4102.00    0.71600   0.66474   -1.000
 4103.00    0.76996   0.71086   -1.000
 4104.00    0.84295   0.77680   -1.000
 4105.00    0.90294   0.83648   -1.000
 4106.00    0.93622   0.87737   -1.000
 4107.00    0.95154   0.90111   -1.000
 4108.00    0.95634   0.91370   -1.000
 4109.00    0.95437   0.92167   -1.000
 4110.00    0.95588   0.93062   -1.000
 4111.00    0.96483   0.94312   -1.000
 4112.00    0.97886   0.95891   -1.000
 4113.00    0.99340   0.97719   -1.000
 4114.00    1.00735   0.99517   -1.000
 4115.00    1.02090   1.00714   -1.000
 4116.00    1.02596   1.00845   -1.000
 4117.00    1.01470   1.00032   -1.000
 4118.00    0.99561   0.98922  439.100
 4119.00    0.98421   0.98184  434.000
 4120.00    0.98705   0.98067  432.462
 4121.00    0.99371   0.98388   -1.000
 4122.00    0.99596   0.98935  423.395
 4123.00    1.00117   0.99698  419.449
 4124.00    1.01353   1.00520   -1.000
 4125.00    1.01998   1.00867   -1.000
 4126.00    1.01534   1.00403   -1.000
 4127.00    1.00423   0.99489   -1.000
 4128.00    0.99199   0.98754  443.048
 4129.00    0.98556   0.98255  453.714
 4130.00    0.98214   0.97433   -1.000
 4131.00    0.96894   0.96117   -1.000
 4132.00    0.95264   0.95084  465.708
 4133.00    0.95051   0.95384  445.010
 4134.00    0.96558   0.97290   -1.000
 4135.00    0.99276   1.00142   -1.000
 4136.00    1.02050   1.02940   -1.000
 4137.00    1.03853   1.05098   -1.000
 4138.00    1.05068   1.06498   -1.000
 4139.00    1.05959   1.06844   -1.000
 4140.00    1.04841   1.05517   -1.000
 4141.00    1.01533   1.02582   -1.000
 4142.00    0.97185   0.99190   -1.000
 4143.00    0.93846   0.97085   -1.000
 4144.00    0.94259   0.97430   -1.000
 4145.00    0.97677   0.99622   -1.000
 4146.00    1.01052   1.01869   -1.000
 4147.00    1.02359   1.02929  446.895
 4148.00    1.01537   1.02924   -1.000
 4149.00    1.00354   1.02720   -1.000
 4150.00    0.99985   1.02771   -1.000
 4151.00    1.00103   1.02743   -1.000
 4152.00    0.99846   1.02149   -1.000
 4153.00    0.99101   1.01043   -1.000
 4154.00    0.97932   1.00081   -1.000
 4155.00    0.98058   0.99948   -1.000
 4156.00    1.01712   1.00777   -1.000
 4157.00    1.02508   1.02208  436.036
 4158.00    1.00160   1.03743   -1.000
 4159.00    1.00106   1.04956   -1.000
 4160.00    1.01991   1.05742   -1.000
 4161.00    1.03366   1.06351   -1.000
 4162.00    1.03997   1.06989   -1.000
 4163.00    1.04298   1.07533   -1.000
 4164.00    1.04232   1.07616   -1.000
 4165.00    1.03678   1.07023   -1.000
 4166.00    1.03034   1.06008   -1.000
 4167.00    1.02157   1.05114   -1.000
 4168.00    1.02011   1.04496   -1.000
 4169.00    1.02049   1.03460   -1.000
 4170.00    1.00805   1.01259  487.395
 4171.00    0.97446   0.98135  499.740
 4172.00    0.93741   0.95518   -1.000
 4173.00    0.92167   0.94879   -1.000
 4174.00    0.93702   0.96252   -1.000
 4175.00    0.96081   0.98222   -1.000
 4176.00    0.97023   0.99525   -1.000
 4177.00    0.96815   1.00185   -1.000
 4178.00    0.97131   1.00930   -1.000
 4179.00    0.98608   1.01889   -1.000
 4180.00    0.99785   1.02473   -1.000
 4181.00    0.99737   1.02380   -1.000
 4182.00    0.99228   1.02152   -1.000
 4183.00    0.99587   1.02430   -1.000
 4184.00    1.00396   1.02944   -1.000
 4185.00    1.00467   1.02920   -1.000
 4186.00    0.99344   1.02195   -1.000
 4187.00    0.97764   1.01446   -1.000
 4188.00    0.97822   1.01414   -1.000
 4189.00    0.99063   1.02115   -1.000
 4190.00    0.99996   1.03115   -1.000
 4191.00    1.00442   1.04229   -1.000
 4192.00    1.01560   1.05251   -1.000
 4193.00    1.03226   1.05565   -1.000
 4194.00    1.03005   1.04636   -1.000
 4195.00    1.00810   1.02539   -1.000
 4196.00    0.98154   0.99967   -1.000
 4197.00    0.95716   0.97724   -1.000
 4198.00    0.94227   0.96286   -1.000
 4199.00    0.94523   0.95784   -1.000
 4200.00    0.95617   0.96070  465.278
 4201.00    0.96102   0.96772  459.461
 4202.00    0.96315   0.97676   -1.000
 4203.00    0.96835   0.98906   -1.000
 4204.00    0.97471   1.00539   -1.000
 4205.00    0.98321   1.02419   -1.000
 4206.00    0.99549   1.04223   -1.000
 4207.00    1.01070   1.05548   -1.000
 4208.00    1.02112   1.06156   -1.000
 4209.00    1.02083   1.06260   -1.000
 4210.00    1.02015   1.06399   -1.000
 4211.00    1.02244   1.06762   -1.000
 4212.00    1.02614   1.06769   -1.000
 4213.00    1.02305   1.05684   -1.000
 4214.00    1.00176   1.03674   -1.000
 4215.00    0.97528   1.01889   -1.000
 4216.00    0.97270   1.01504   -1.000
 4217.00    0.99729   1.02855   -1.000
 4218.00    1.02575   1.05135   -1.000
 4219.00    1.04327   1.07077   -1.000
 4220.00    1.04997   1.07798   -1.000
 4221.00    1.04919   1.06906   -1.000
 4222.00    1.03393   1.04139   -1.000
 4223.00    1.00070   0.99618  524.249
 4224.00    0.95345   0.94187   -1.000
 4225.00    0.89081   0.89565  569.886
 4226.00    0.83882   0.87762   -1.000
 4227.00    0.84675   0.89989   -1.000
 4228.00    0.91350   0.95130   -1.000
 4229.00    0.98453   1.00350   -1.000
 4230.00    1.02453   1.03419   -1.000
 4231.00    1.03772   1.03932  422.615
 4232.00    1.02362   1.02820  429.290
 4233.00    1.00252   1.01323   -1.000
 4234.00    0.99327   1.00173   -1.000
 4235.00    0.98465   0.99511   -1.000
 4236.00    0.97639   0.99317   -1.000
 4237.00    0.97759   0.99739   -1.000
 4238.00    0.98462   1.00807   -1.000
 4239.00    0.99480   1.02231   -1.000
 4240.00    1.00998   1.03584   -1.000
 4241.00    1.02503   1.04631   -1.000
 4242.00    1.03467   1.05431   -1.000
 4243.00    1.04254   1.06045   -1.000
 4244.00    1.04657   1.06191   -1.000
 4245.00    1.03814   1.05390   -1.000
 4246.00    1.01148   1.03594   -1.000
 4247.00    0.98483   1.01530   -1.000
 4248.00    0.97233   1.00127   -1.000
 4249.00    0.96856   0.99884   -1.000
 4250.00    0.96876   1.00632   -1.000
 4251.00    0.98132   1.01772   -1.000
 4252.00    1.00128   1.02464   -1.000
 4253.00    1.00524   1.02252   -1.000
 4254.00    0.99605   1.01808   -1.000
 4255.00    0.99938   1.02085   -1.000
 4256.00    1.01635   1.02847   -1.000
 4257.00    1.02760   1.02852  445.326
 4258.00    1.01024   1.01397  461.740
 4259.00    0.98027   0.99434   -1.000
 4260.00    0.96242   0.98740   -1.000
 4261.00    0.96940   1.00279   -1.000
 4262.00    1.00226   1.03324   -1.000
 4263.00    1.03729   1.06321   -1.000
 4264.00    1.05936   1.08130   -1.000
 4265.00    1.06774   1.08514   -1.000
 4266.00    1.06117   1.07787   -1.000
 4267.00    1.04359   1.06256   -1.000
 4268.00    1.02558   1.03923   -1.000
 4269.00    1.00596   1.00853  486.525
 4270.00    0.97127   0.97514  500.051
 4271.00    0.93218   0.94828   -1.000
 4272.00    0.91949   0.93648   -1.000
 4273.00    0.92793   0.94129   -1.000
 4274.00    0.94660   0.95927   -1.000
 4275.00    0.97335   0.98760   -1.000
 4276.00    1.00657   1.02045   -1.000
 4277.00    1.03512   1.04626   -1.000
 4278.00    1.04269   1.05469   -1.000
 4279.00    1.02502   1.04716   -1.000
 4280.00    1.00302   1.03469   -1.000
 4281.00    0.99415   1.02726   -1.000
 4282.00    0.99285   1.02544   -1.000
 4283.00    0.99755   1.02280   -1.000
 4284.00    0.99820   1.01555   -1.000
 4285.00    0.98581   1.00374   -1.000
 4286.00    0.96925   0.98794   -1.000
 4287.00    0.95631   0.96770   -1.000
 4288.00    0.93366   0.94437   -1.000
 4289.00    0.90265   0.92616   -1.000
 4290.00    0.88807   0.92462   -1.000
 4291.00    0.91348   0.94083   -1.000
 4292.00    0.95647   0.96251  447.631
 4293.00    0.97617   0.97504  454.212
 4294.00    0.97577   0.97322  463.743
 4295.00    0.96772   0.95989   -1.000
 4296.00    0.95537   0.93825   -1.000
 4297.00    0.92959   0.90789   -1.000
 4298.00    0.88867   0.87204   -1.000
 4299.00    0.84711   0.84059   -1.000
 4300.00    0.82799   0.82311   -1.000
 4301.00    0.83265   0.82101   -1.000
 4302.00    0.84295   0.82949   -1.000
 4303.00    0.85589   0.84312   -1.000
 4304.00    0.87036   0.85543   -1.000
 4305.00    0.87743   0.85799   -1.000
 4306.00    0.86419   0.84755   -1.000
 4307.00    0.83459   0.83123  598.411
 4308.00    0.81636   0.82264   -1.000
 4309.00    0.82657   0.83101  535.977
 4310.00    0.85705   0.85323  506.323
 4311.00    0.88788   0.87930   -1.000
 4312.00    0.90749   0.90590  459.099
 4313.00    0.92184   0.93753   -1.000
 4314.00    0.94515   0.98012   -1.000
 4315.00    0.99134   1.03102   -1.000
 4316.00    1.04788   1.07811   -1.000
 4317.00    1.08367   1.10806   -1.000
 4318.00    1.09059   1.11624   -1.000
 4319.00    1.08030   1.10745   -1.000
 4320.00    1.06444   1.08787   -1.000
 4321.00    1.04868   1.05854   -1.000
 4322.00    1.02734   1.01849   -1.000
 4323.00    0.99220   0.97295   -1.000
 4324.00    0.94765   0.93676   -1.000
 4325.00    0.91645   0.92621   -1.000
 4326.00    0.92788   0.94839   -1.000
 4327.00    0.97752   0.99071   -1.000
 4328.00    1.02851   1.02985  384.945
 4329.00    1.05206   1.05095  384.124
 4330.00    1.05030   1.05604  378.659
 4331.00    1.04553   1.05564   -1.000
 4332.00    1.04700   1.05508   -1.000
 4333.00    1.04918   1.05094  376.457
 4334.00    1.04998   1.03488   -1.000
 4335.00    1.03607   0.99863   -1.000
 4336.00    0.99129   0.93774   -1.000
 4337.00    0.92471   0.85989   -1.000
 4338.00    0.84922   0.78384   -1.000
 4339.00    0.77523   0.73233   -1.000
 4340.00    0.73672   0.72254   -1.000
 4341.00    0.76362   0.75758  427.189
 4342.00    0.83805   0.82016   -1.000
 4343.00    0.91110   0.88525   -1.000
 4344.00    0.96139   0.93882   -1.000
 4345.00    0.99620   0.98052   -1.000
 4346.00    1.01644   1.01415  380.398
 4347.00    1.03269   1.03988   -1.000
 4348.00    1.05159   1.05233  394.390
 4349.00    1.05333   1.04505   -1.000
 4350.00    1.02814   1.02072   -1.000
 4351.00    0.98890   0.99625   -1.000
 4352.00    0.97200   0.99003   -1.000
 4353.00    0.99942   1.00705   -1.000
 4354.00    1.04050   1.03638  381.973
 4355.00    1.06649   1.06318  379.839
 4356.00    1.08275   1.07968  385.936
 4357.00    1.08550   1.08623  391.951
 4358.00    1.07252   1.08768   -1.000
 4359.00    1.05871   1.09085   -1.000
 4360.00    1.06252   1.10064   -1.000
 4361.00    1.08370   1.11506   -1.000
 4362.00    1.09951   1.12873   -1.000
 4363.00    1.10405   1.13891   -1.000
 4364.00    1.11214   1.14343   -1.000
 4365.00    1.11400   1.13834   -1.000
 4366.00    1.09800   1.12366   -1.000
 4367.00    1.07262   1.10568   -1.000
 4368.00    1.05773   1.09120   -1.000
 4369.00    1.05730   1.08217   -1.000
 4370.00    1.06699   1.07564   -1.000
 4371.00    1.07638   1.06657   -1.000
 4372.00    1.06987   1.05112   -1.000
 4373.00    1.04584   1.03144   -1.000
 4374.00    1.01543   1.01712  410.159
 4375.00    1.00696   1.01979   -1.000
 4376.00    1.03075   1.04031   -1.000
 4377.00    1.06711   1.06713  379.630
 4378.00    1.09167   1.08632  385.332
 4379.00    1.10083   1.08884   -1.000
 4380.00    1.09320   1.06907   -1.000
 4381.00    1.06289   1.02687   -1.000
 4382.00    1.00475   0.97215   -1.000
 4383.00    0.93506   0.92829   -1.000
 4384.00    0.90848   0.91874   -1.000
 4385.00    0.94539   0.94446  406.503
 4386.00    1.00451   0.98377   -1.000
 4387.00    1.04168   1.01395   -1.000
 4388.00    1.05080   1.02843   -1.000
 4389.00    1.04500   1.03391   -1.000
 4390.00    1.04382   1.03903  394.787
 4391.00    1.05294   1.04709  394.251
 4392.00    1.06270   1.05401   -1.000
 4393.00    1.06322   1.05536   -1.000
 4394.00    1.05038   1.05502  388.827
 4395.00    1.04936   1.06151   -1.000
 4396.00    1.06849   1.07496  376.423
 4397.00    1.09014   1.08403  388.359
 4398.00    1.09170   1.08023   -1.000
 4399.00    1.06845   1.06820  400.595
 4400.00    1.04745   1.05916   -1.000
 4401.00    1.05092   1.05734  401.732
 4402.00    1.06541   1.05499   -1.000
 4403.00    1.05557   1.04454   -1.000
 4404.00    1.02496   1.03058  422.425
 4405.00    1.01352   1.02359   -1.000
 4406.00    1.02694   1.02758  409.677
 4407.00    1.03260   1.03899  397.104
 4408.00    1.03238   1.05584   -1.000
 4409.00    1.04660   1.08019   -1.000
 4410.00    1.07800   1.10826   -1.000
 4411.00    1.10844   1.12782   -1.000
 4412.00    1.12278   1.12822  384.668
 4413.00    1.11022   1.10809  401.111
 4414.00    1.07500   1.07696  403.047
 4415.00    1.04087   1.05219   -1.000
 4416.00    1.02930   1.04923   -1.000
 4417.00    1.04641   1.06969   -1.000
 4418.00    1.07272   1.10238   -1.000
 4419.00    1.09600   1.13052   -1.000
 4420.00    1.10421   1.14185   -1.000
 4421.00    1.09312   1.13712   -1.000
 4422.00    1.07947   1.12710   -1.000
 4423.00    1.07683   1.12092   -1.000
 4424.00    1.08147   1.11918   -1.000
 4425.00    1.07970   1.11785   -1.000
 4426.00    1.07197   1.11647   -1.000
 4427.00    1.06937   1.11733   -1.000
 4428.00    1.07395   1.12054   -1.000
 4429.00    1.07854   1.12410   -1.000
 4430.00    1.07868   1.12617   -1.000
 4431.00    1.08316   1.12480   -1.000
 4432.00    1.08842   1.11701   -1.000
 4433.00    1.07123   1.10172   -1.000
 4434.00    1.04148   1.08623   -1.000
 4435.00    1.03091   1.08423   -1.000
 4436.00    1.05171   1.10261   -1.000
 4437.00    1.09490   1.13305   -1.000
 4438.00    1.13072   1.15807   -1.000
 4439.00    1.14108   1.16389   -1.000
 4440.00    1.12742   1.14729   -1.000
 4441.00    1.09719   1.11828   -1.000
 4442.00    1.06099   1.09496   -1.000
 4443.00    1.04309   1.09232   -1.000
 4444.00    1.05762   1.11127   -1.000
 4445.00    1.08745   1.13896   -1.000
 4446.00    1.11289   1.16053   -1.000
 4447.00    1.12194   1.17004   -1.000
 4448.00    1.12073   1.17054   -1.000
 4449.00    1.11593   1.16731   -1.000
 4450.00    1.11128   1.16279   -1.000
 4451.00    1.10985   1.15522   -1.000
 4452.00    1.10804   1.13945   -1.000
 4453.00    1.09518   1.11394   -1.000
 4454.00    1.06836   1.08652   -1.000
 4455.00    1.04939   1.06968   -1.000
 4456.00    1.05419   1.06842   -1.000
 4457.00    1.06867   1.07626  395.022
 4458.00    1.07367   1.08387   -1.000
 4459.00    1.06867   1.08790   -1.000
 4460.00    1.06168   1.09089   -1.000
 4461.00    1.05657   1.09691   -1.000
 4462.00    1.06892   1.10860   -1.000
 4463.00    1.08930   1.12397   -1.000
 4464.00    1.10689   1.13707   -1.000
 4465.00    1.11202   1.14249   -1.000
 4466.00    1.10771   1.13893   -1.000
 4467.00    1.09774   1.12952   -1.000
 4468.00    1.08350   1.12100   -1.000
 4469.00    1.08177   1.12101   -1.000
 4470.00    1.09170   1.13296   -1.000
 4471.00    1.11337   1.15388   -1.000
 4472.00    1.14150   1.17722   -1.000
 4473.00    1.16422   1.19646   -1.000
 4474.00    1.17240   1.20817   -1.000
 4475.00    1.17314   1.21322   -1.000
 4476.00    1.17386   1.21407   -1.000
 4477.00    1.18282   1.20998   -1.000
 4478.00    1.18332   1.19703   -1.000
 4479.00    1.16223   1.17322   -1.000
 4480.00    1.12867   1.14538   -1.000
 4481.00    1.10423   1.12776   -1.000
 4482.00    1.10382   1.13049   -1.000
 4483.00    1.12553   1.15222   -1.000
 4484.00    1.15681   1.18171   -1.000
 4485.00    1.18016   1.20488   -1.000
 4486.00    1.18636   1.21191   -1.000
 4487.00    1.17623   1.20246   -1.000
 4488.00    1.15051   1.18461   -1.000
 4489.00    1.12309   1.17026   -1.000
 4490.00    1.12164   1.16764   -1.000
 4491.00    1.14319   1.17573   -1.000
 4492.00    1.16171   1.18581   -1.000
 4493.00    1.15729   1.18916   -1.000
 4494.00    1.13842   1.18591   -1.000
 4495.00    1.12368   1.18357   -1.000
 4496.00    1.12424   1.18738   -1.000
 4497.00    1.14112   1.19560   -1.000
 4498.00    1.16662   1.20297   -1.000
 4499.00    1.17518   1.20573   -1.000
 4500.00    1.16365   1.20549   -1.000
 4501.00    1.15520   1.20960   -1.000
 4502.00    1.16775   1.22308   -1.000
 4503.00    1.19754   1.24286   -1.000
 4504.00    1.22178   1.26033   -1.000
 4505.00    1.22479   1.26845   -1.000
 4506.00    1.21501   1.26627   -1.000
 4507.00    1.20380   1.25899   -1.000
 4508.00    1.19902   1.25373   -1.000
 4509.00    1.20259   1.25341   -1.000
 4510.00    1.20826   1.25467   -1.000
 4511.00    1.20771   1.25206   -1.000
 4512.00    1.19663   1.24376   -1.000
 4513.00    1.18458   1.23232   -1.000
 4514.00    1.17722   1.22164   -1.000
 4515.00    1.17239   1.21479   -1.000
 4516.00    1.17101   1.21180   -1.000
 4517.00    1.16877   1.20964   -1.000
 4518.00    1.16344   1.20707   -1.000
 4519.00    1.16556   1.20622   -1.000
 4520.00    1.17635   1.20787   -1.000
 4521.00    1.17823   1.20849   -1.000
 4522.00    1.16347   1.20392   -1.000
 4523.00    1.14834   1.19431   -1.000
 4524.00    1.14361   1.18242   -1.000
 4525.00    1.13892   1.16853   -1.000
 4526.00    1.12408   1.15093   -1.000
 4527.00    1.10665   1.13091   -1.000
 4528.00    1.09430   1.11514   -1.000
 4529.00    1.09182   1.11004   -1.000
 4530.00    1.10203   1.11517   -1.000
 4531.00    1.11689   1.12242  380.004
 4532.00    1.11837   1.12272  392.686
 4533.00    1.10108   1.11545   -1.000
 4534.00    1.08226   1.11033   -1.000
 4535.00    1.07979   1.11936   -1.000
 4536.00    1.11191   1.14594   -1.000
 4537.00    1.16175   1.18119   -1.000
 4538.00    1.19266   1.20982   -1.000
 4539.00    1.19224   1.22195   -1.000
 4540.00    1.18304   1.22000   -1.000
 4541.00    1.17796   1.21395   -1.000
 4542.00    1.17616   1.21078   -1.000
 4543.00    1.20057   1.20955  189.944
 4544.00    1.05686   1.20592   -1.000
 4545.00    0.30617   1.19888   -1.000
 4546.00   -0.01492   1.18960    0.000
 4547.00    0.14146   1.17745   -1.000
 4548.00    0.73446   1.16274   -1.000
 4549.00    0.39911   1.15146   -1.000
 4550.00    0.79591   1.15065   -1.000
 4551.00    1.13001   1.15880   -1.000
 4552.00    1.14988   1.16584   -1.000
 4553.00    1.13489   1.16503   -1.000
 4554.00    1.12270   1.16035   -1.000
 4555.00    1.12239   1.16167   -1.000
 4556.00    1.14562   1.17515   -1.000
 4557.00    1.17772   1.19769   -1.000
 4558.00    1.19883   1.22080   -1.000
 4559.00    1.20484   1.23830   -1.000
 4560.00    1.20373   1.24803   -1.000
 4561.00    1.20224   1.24895   -1.000
 4562.00    1.19327   1.24048   -1.000
 4563.00    1.17179   1.22549   -1.000
 4564.00    1.15420   1.21178   -1.000
 4565.00    1.15944   1.20772   -1.000
 4566.00    1.18022   1.21593   -1.000
 4567.00    1.20149   1.23058   -1.000
 4568.00    1.21317   1.24145   -1.000
 4569.00    1.21109   1.24114   -1.000
 4570.00    1.19240   1.22998   -1.000
 4571.00    1.16828   1.21635   -1.000
 4572.00    1.16415   1.21125   -1.000
 4573.00    1.18488   1.21892   -1.000
 4574.00    1.20555   1.23274   -1.000
 4575.00    1.20964   1.24284   -1.000
 4576.00    1.20779   1.24492   -1.000
 4577.00    1.20085   1.23943   -1.000
 4578.00    1.18858   1.22698   -1.000
 4579.00    1.17109   1.20891   -1.000
 4580.00    1.15723   1.18942   -1.000
 4581.00    1.15352   1.17426   -1.000
 4582.00    1.15611   1.16712   -1.000
 4583.00    1.16014   1.16767  354.153
 4584.00    1.15765   1.17281   -1.000
 4585.00    1.16035   1.18008   -1.000
 4586.00    1.17324   1.18927   -1.000
 4587.00    1.18989   1.20064   -1.000
 4588.00    1.20330   1.21226   -1.000
 4589.00    1.20405   1.21985   -1.000
 4590.00    1.19634   1.21991   -1.000
 4591.00    1.18354   1.21351   -1.000
 4592.00    1.17314   1.20618   -1.000
 4593.00    1.17272   1.20349   -1.000
 4594.00    1.17919   1.20678   -1.000
 4595.00    1.18705   1.21352   -1.000
 4596.00    1.19216   1.22056   -1.000
 4597.00    1.19520   1.22574   -1.000
 4598.00    1.19701   1.22733   -1.000
 4599.00    1.19347   1.22444   -1.000
 4600.00    1.18480   1.21841   -1.000
 4601.00    1.17811   1.21267   -1.000
 4602.00    1.17731   1.21035   -1.000
 4603.00    1.18350   1.21217   -1.000
 4604.00    1.19132   1.21690   -1.000
 4605.00    1.19861   1.22327   -1.000
 4606.00    1.20471   1.23123   -1.000
 4607.00    1.21883   1.24126   -1.000
 4608.00    1.23187   1.25241   -1.000
 4609.00    1.24328   1.26122   -1.000
 4610.00    1.24095   1.26358   -1.000
 4611.00    1.22917   1.25935   -1.000
 4612.00    1.21845   1.25291   -1.000
 4613.00    1.21854   1.24832   -1.000
 4614.00    1.21894   1.24621   -1.000
 4615.00    1.21990   1.24475   -1.000
 4616.00    1.21400   1.24183   -1.000
 4617.00    1.21595   1.23718   -1.000
 4618.00    1.21672   1.23327   -1.000
 4619.00    1.21802   1.23399   -1.000
 4620.00    1.22471   1.24122   -1.000
 4621.00    1.23186   1.25244   -1.000
 4622.00    1.24443   1.26182   -1.000
 4623.00    1.24751   1.26539   -1.000
 4624.00    1.23940   1.26412   -1.000
 4625.00    1.23030   1.26080   -1.000
 4626.00    1.23253   1.25699   -1.000
 4627.00    1.23297   1.25328   -1.000
 4628.00    1.22482   1.25019   -1.000
 4629.00    1.21905   1.24898   -1.000
 4630.00    1.22123   1.25103   -1.000
 4631.00    1.23281   1.25534   -1.000
 4632.00    1.23507   1.25766   -1.000
 4633.00    1.22736   1.25461   -1.000
 4634.00    1.22348   1.24772   -1.000
 4635.00    1.22485   1.24104   -1.000
 4636.00    1.22059   1.23651   -1.000
 4637.00    1.20867   1.23415   -1.000
 4638.00    1.20371   1.23458   -1.000
 4639.00    1.20768   1.23908   -1.000
 4640.00    1.22306   1.24787   -1.000
 4641.00    1.24152   1.25868   -1.000
 4642.00    1.25288   1.26649   -1.000
 4643.00    1.25260   1.26618   -1.000
 4644.00    1.23744   1.25639   -1.000
 4645.00    1.21544   1.23974   -1.000
 4646.00    1.19554   1.22135   -1.000
 4647.00    1.18601   1.20874   -1.000
 4648.00    1.19280   1.20826   -1.000
 4649.00    1.20850   1.21915   -1.000
 4650.00    1.22096   1.23391   -1.000
 4651.00    1.22469   1.24453   -1.000
 4652.00    1.22335   1.24739   -1.000
 4653.00    1.21686   1.24329   -1.000
 4654.00    1.20586   1.23538   -1.000
 4655.00    1.19670   1.22883   -1.000
 4656.00    1.19386   1.22993   -1.000
 4657.00    1.20960   1.24255   -1.000
 4658.00    1.24180   1.26399   -1.000
 4659.00    1.26828   1.28497   -1.000
 4660.00    1.27618   1.29577   -1.000
 4661.00    1.26493   1.29333   -1.000
 4662.00    1.25087   1.28133   -1.000
 4663.00    1.24137   1.26496   -1.000
 4664.00    1.23363   1.24645   -1.000
 4665.00    1.22324   1.22490  363.625
 4666.00    1.20096   1.20073  366.471
 4667.00    1.16840   1.18006   -1.000
 4668.00    1.15577   1.17203   -1.000
 4669.00    1.17371   1.18085  332.311
 4670.00    1.19958   1.20163  329.237
 4671.00    1.22115   1.22456  329.209
 4672.00    1.23527   1.24205  328.985
 4673.00    1.23693   1.25297   -1.000
 4674.00    1.23695   1.26071   -1.000
 4675.00    1.24444   1.26747   -1.000
 4676.00    1.25541   1.27044   -1.000
 4677.00    1.25576   1.26498   -1.000
 4678.00    1.24401   1.25122  339.571
 4679.00    1.22404   1.23510   -1.000
 4680.00    1.21518   1.22322  340.125
 4681.00    1.20956   1.21853   -1.000
 4682.00    1.21584   1.22054  327.063
 4683.00    1.23145   1.22724  327.365
 4684.00    1.24573   1.23541   -1.000
 4685.00    1.25202   1.24189   -1.000
 4686.00    1.24953   1.24564  329.634
 4687.00    1.24706   1.24751  329.641
 4688.00    1.24389   1.24844  331.658
 4689.00    1.24271   1.24852  332.643
 4690.00    1.23979   1.24760  329.385
 4691.00    1.23849   1.24670  324.573
 4692.00    1.24689   1.24814  317.678
 4693.00    1.26044   1.25290  313.125
 4694.00    1.27177   1.25892   -1.000
 4695.00    1.27911   1.26296   -1.000
 4696.00    1.27929   1.26212   -1.000
 4697.00    1.26745   1.25452   -1.000
 4698.00    1.24557   1.24122  334.648
 4699.00    1.23642   1.22624   -1.000
 4700.00    1.23852   1.21292   -1.000
 4701.00    1.23408   1.20216   -1.000
 4702.00    1.22179   1.19466   -1.000
 4703.00    1.21212   1.19304   -1.000
 4704.00    1.21703   1.19832   -1.000
 4705.00    1.22581   1.20571   -1.000
 4706.00    1.22143   1.20811   -1.000
 4707.00    1.20682   1.20415  346.218
 4708.00    1.19388   1.19986  337.156
 4709.00    1.19395   1.20201  327.716
 4710.00    1.21393   1.21171  323.631
 4711.00    1.23995   1.22466   -1.000
 4712.00    1.25507   1.23471   -1.000
 4713.00    1.25295   1.23808   -1.000
 4714.00    1.23650   1.23718  326.906
 4715.00    1.23053   1.23872  320.517
 4716.00    1.24398   1.24679  317.929
 4717.00    1.26090   1.25902  316.726
 4718.00    1.26733   1.26968  315.641
 4719.00    1.27145   1.27541  317.793
 4720.00    1.27053   1.27670  320.163
 4721.00    1.26721   1.27611  318.872
 4722.00    1.26456   1.27604   -1.000
 4723.00    1.26076   1.27720   -1.000
 4724.00    1.26735   1.27785   -1.000
 4725.00    1.27248   1.27440  333.925
 4726.00    1.26056   1.26405  342.237
 4727.00    1.23956   1.24801  342.176
 4728.00    1.22271   1.23189   -1.000
 4729.00    1.22291   1.22141  336.093
 4730.00    1.22927   1.21815   -1.000
 4731.00    1.23269   1.22059   -1.000
 4732.00    1.23443   1.22672  327.186
 4733.00    1.24100   1.23367  325.366
 4734.00    1.24678   1.23819  328.136
 4735.00    1.24853   1.23915   -1.000
 4736.00    1.23900   1.23833  325.371
 4737.00    1.23752   1.23864  324.870
 4738.00    1.24891   1.24184  326.575
 4739.00    1.25941   1.24701   -1.000
 4740.00    1.25379   1.25156  324.993
 4741.00    1.24628   1.25475  321.528
 4742.00    1.25335   1.25816  321.609
 4743.00    1.26259   1.26248  321.986
 4744.00    1.26620   1.26643  319.928
 4745.00    1.26270   1.26898  316.767
 4746.00    1.26516   1.27130  315.752
 4747.00    1.27305   1.27536  316.110
 4748.00    1.27704   1.28154  316.366
 4749.00    1.28025   1.28824  318.394
 4750.00    1.28147   1.29300   -1.000
 4751.00    1.27703   1.29296   -1.000
 4752.00    1.26919   1.28654   -1.000
 4753.00    1.26115   1.27555   -1.000
 4754.00    1.25615   1.26481  327.790
 4755.00    1.24960   1.25887   -1.000
 4756.00    1.24376   1.25913   -1.000
 4757.00    1.24407   1.26400   -1.000
 4758.00    1.24348   1.27074   -1.000
 4759.00    1.24599   1.27592   -1.000
 4760.00    1.24816   1.27513   -1.000
 4761.00    1.23939   1.26502   -1.000
 4762.00    1.21964   1.24696   -1.000
 4763.00    1.20095   1.22795   -1.000
 4764.00    1.20379   1.21558   -1.000
 4765.00    1.21855   1.21274  338.495
 4766.00    1.22566   1.21875  331.139
 4767.00    1.23597   1.23210  326.144
 4768.00    1.25157   1.24964  326.080
 4769.00    1.26129   1.26540  328.622
 4770.00    1.26489   1.27388  331.543
 4771.00    1.25879   1.27513   -1.000
 4772.00    1.25196   1.27458   -1.000
 4773.00    1.26084   1.27782   -1.000
 4774.00    1.27280   1.28585   -1.000
 4775.00    1.28135   1.29478   -1.000
 4776.00    1.28249   1.29993   -1.000
 4777.00    1.28036   1.29932   -1.000
 4778.00    1.27444   1.29416   -1.000
 4779.00    1.26583   1.28753   -1.000
 4780.00    1.26313   1.28207   -1.000
 4781.00    1.26270   1.27809   -1.000
 4782.00    1.25797   1.27413   -1.000
 4783.00    1.25452   1.26944   -1.000
 4784.00    1.25214   1.26440   -1.000
 4785.00    1.24475   1.25946   -1.000
 4786.00    1.23776   1.25534   -1.000
 4787.00    1.23086   1.25340   -1.000
 4788.00    1.23102   1.25466   -1.000
 4789.00    1.23585   1.25917   -1.000
 4790.00    1.24323   1.26679   -1.000
 4791.00    1.25125   1.27752   -1.000
 4792.00    1.26146   1.29086   -1.000
 4793.00    1.27489   1.30512   -1.000
 4794.00    1.28389   1.31735   -1.000
 4795.00    1.29127   1.32403   -1.000
 4796.00    1.28780   1.32275   -1.000
 4797.00    1.27745   1.31453   -1.000
 4798.00    1.26516   1.30361   -1.000
 4799.00    1.25117   1.29538   -1.000
 4800.00    1.25339   1.29394   -1.000
 4801.00    1.26735   1.29923   -1.000
 4802.00    1.28076   1.30642   -1.000
 4803.00    1.28526   1.30976   -1.000
 4804.00    1.27179   1.30716   -1.000
 4805.00    1.25703   1.30100   -1.000
 4806.00    1.25727   1.29541   -1.000
 4807.00    1.26225   1.29293   -1.000
 4808.00    1.26414   1.29395   -1.000
 4809.00    1.26661   1.29759   -1.000
 4810.00    1.27217   1.30195   -1.000
 4811.00    1.27399   1.30556   -1.000
 4812.00    1.27721   1.30895   -1.000
 4813.00    1.28349   1.31333   -1.000
 4814.00    1.28507   1.31893   -1.000
 4815.00    1.28830   1.32512   -1.000
 4816.00    1.29313   1.33075   -1.000
 4817.00    1.29424   1.33449   -1.000
 4818.00    1.29570   1.33591   -1.000
 4819.00    1.29815   1.33540   -1.000
 4820.00    1.29807   1.33189   -1.000
 4821.00    1.29370   1.32232   -1.000
 4822.00    1.27854   1.30558   -1.000
 4823.00    1.25729   1.28666   -1.000
 4824.00    1.25239   1.27500   -1.000
 4825.00    1.26340   1.27623   -1.000
 4826.00    1.27543   1.28622   -1.000
 4827.00    1.27830   1.29571   -1.000
 4828.00    1.27567   1.29915   -1.000
 4829.00    1.27211   1.29717   -1.000
 4830.00    1.26718   1.29233   -1.000
 4831.00    1.26067   1.28617   -1.000
 4832.00    1.25803   1.28081   -1.000
 4833.00    1.26492   1.27914   -1.000
 4834.00    1.27712   1.28197  318.455
 4835.00    1.28265   1.28695  319.888
 4836.00    1.28493   1.29026  323.990
 4837.00    1.28515   1.28909  329.691
 4838.00    1.27559   1.28281  330.486
 4839.00    1.26050   1.27312   -1.000
 4840.00    1.25167   1.26368   -1.000
 4841.00    1.25401   1.25826  325.887
 4842.00    1.26032   1.25806  322.704
 4843.00    1.26274   1.26143  317.799
 4844.00    1.26446   1.26654  315.811
 4845.00    1.27607   1.27203  321.443
 4846.00    1.27934   1.27465  326.491
 4847.00    1.26390   1.27146  326.941
 4848.00    1.25263   1.26471   -1.000
 4849.00    1.24681   1.25991   -1.000
 4850.00    1.24973   1.25915   -1.000
 4851.00    1.25802   1.25863  325.889
 4852.00    1.25926   1.25228  334.962
 4853.00    1.24744   1.23608   -1.000
 4854.00    1.21951   1.21063   -1.000
 4855.00    1.19141   1.18160   -1.000
 4856.00    1.17953   1.15469   -1.000
 4857.00    1.17551   1.12737   -1.000
 4858.00    1.14967   1.08764   -1.000
 4859.00    1.07044   1.02703   -1.000
 4860.00    0.95882   0.95720  422.141
 4861.00    0.89015   0.90771   -1.000
 4862.00    0.91848   0.90375   -1.000
 4863.00    1.01266   0.94561   -1.000
 4864.00    1.09588   1.01115   -1.000
 4865.00    1.14415   1.07605   -1.000
 4866.00    1.17496   1.12770   -1.000
 4867.00    1.19615   1.16361   -1.000
 4868.00    1.20841   1.18400   -1.000
 4869.00    1.21017   1.18877   -1.000
 4870.00    1.19478   1.18024   -1.000
 4871.00    1.16869   1.16702  343.690
 4872.00    1.16982   1.16216  337.320
 4873.00    1.19059   1.17314   -1.000
 4874.00    1.21423   1.19462   -1.000
 4875.00    1.22284   1.21440  331.361
 4876.00    1.22459   1.22595  326.868
 4877.00    1.22655   1.23330  323.237
 4878.00    1.23317   1.24368   -1.000
 4879.00    1.24787   1.25811   -1.000
 4880.00    1.25621   1.27072   -1.000
 4881.00    1.24482   1.27548   -1.000
 4882.00    1.23891   1.27218   -1.000
 4883.00    1.23945   1.26506   -1.000
 4884.00    1.23936   1.25705   -1.000
 4885.00    1.23450   1.24896   -1.000
 4886.00    1.22571   1.24197   -1.000
 4887.00    1.22346   1.23686   -1.000
 4888.00    1.22595   1.23154  350.594
 4889.00    1.21618   1.22271  349.225
 4890.00    1.19729   1.21227   -1.000
 4891.00    1.19036   1.20976   -1.000
 4892.00    1.21911   1.22534  310.636
 4893.00    1.26274   1.25912  304.525
 4894.00    1.30022   1.29871  302.680
 4895.00    1.31775   1.32972   -1.000
 4896.00    1.32101   1.34623   -1.000
 4897.00    1.32082   1.34972   -1.000
 4898.00    1.31077   1.34402   -1.000
 4899.00    1.29173   1.33362   -1.000
 4900.00    1.28148   1.32308   -1.000
 4901.00    1.28004   1.31484   -1.000
 4902.00    1.27553   1.30857   -1.000
 4903.00    1.26924   1.30437   -1.000
 4904.00    1.27420   1.30556   -1.000
 4905.00    1.28993   1.31403   -1.000
 4906.00    1.30056   1.32441   -1.000
 4907.00    1.30320   1.32761   -1.000
 4908.00    1.29187   1.31872   -1.000
 4909.00    1.26767   1.30062   -1.000
 4910.00    1.24953   1.28230   -1.000
 4911.00    1.25125   1.27349   -1.000
 4912.00    1.26741   1.27831   -1.000
 4913.00    1.28114   1.29290   -1.000
 4914.00    1.29367   1.30930   -1.000
 4915.00    1.30437   1.31930   -1.000
 4916.00    1.30184   1.31507   -1.000
 4917.00    1.28189   1.29188   -1.000
 4918.00    1.23970   1.25324   -1.000
 4919.00    1.19426   1.21201   -1.000
 4920.00    1.17345   1.18392   -1.000
 4921.00    1.18406   1.17768  334.692
 4922.00    1.21241   1.18958   -1.000
 4923.00    1.23076   1.20879   -1.000
 4924.00    1.23344   1.22823  321.774
 4925.00    1.24730   1.24834  315.772
 4926.00    1.27217   1.27119  312.590
 4927.00    1.29056   1.29534  310.391
 4928.00    1.30387   1.31648   -1.000
 4929.00    1.31144   1.33049   -1.000
 4930.00    1.31665   1.33478   -1.000
 4931.00    1.31199   1.32747   -1.000
 4932.00    1.29051   1.30928   -1.000
 4933.00    1.25802   1.28688   -1.000
 4934.00    1.24339   1.27054   -1.000
 4935.00    1.25557   1.26500   -1.000
 4936.00    1.26819   1.26421  344.499
 4937.00    1.25303   1.25864  342.526
 4938.00    1.23051   1.24853   -1.000
 4939.00    1.22329   1.24476   -1.000
 4940.00    1.25047   1.25631  314.427
 4941.00    1.28181   1.28093  311.328
 4942.00    1.30056   1.30740  311.319
 4943.00    1.31151   1.32525   -1.000
 4944.00    1.31441   1.33165   -1.000
 4945.00    1.30662   1.33040   -1.000
 4946.00    1.29871   1.32785   -1.000
 4947.00    1.30003   1.32935   -1.000
 4948.00    1.31215   1.33612   -1.000
 4949.00    1.31820   1.34423   -1.000
 4950.00    1.32409   1.34830   -1.000
 4951.00    1.32332   1.34664   -1.000
 4952.00    1.31765   1.34149   -1.000
 4953.00    1.30983   1.33469   -1.000
 4954.00    1.30666   1.32381   -1.000
 4955.00    1.29234   1.30288   -1.000
 4956.00    1.24829   1.27068   -1.000
 4957.00    1.20401   1.23939   -1.000
 4958.00    1.20132   1.22808   -1.000
 4959.00    1.24244   1.24477  315.076
 4960.00    1.29015   1.27821   -1.000
 4961.00    1.31199   1.30922  318.756
 4962.00    1.31110   1.32664   -1.000
 4963.00    1.30730   1.33024   -1.000
 4964.00    1.29677   1.32393   -1.000
 4965.00    1.28250   1.31196   -1.000
 4966.00    1.27168   1.29889   -1.000
 4967.00    1.26495   1.28874   -1.000
 4968.00    1.26797   1.28370   -1.000
 4969.00    1.27449   1.28439   -1.000
 4970.00    1.28242   1.29046  319.871
 4971.00    1.28834   1.30040   -1.000
 4972.00    1.29699   1.31180   -1.000
 4973.00    1.31075   1.32225   -1.000
 4974.00    1.31432   1.32948   -1.000
 4975.00    1.31542   1.33172   -1.000
 4976.00    1.31249   1.32854   -1.000
 4977.00    1.29623   1.32075   -1.000
 4978.00    1.28810   1.30951   -1.000
 4979.00    1.27386   1.29487   -1.000
 4980.00    1.25884   1.27472   -1.000
 4981.00    1.23207   1.24726   -1.000
 4982.00    1.20475   1.21629   -1.000
 4983.00    1.18926   1.19290  345.852
 4984.00    1.20116   1.18858   -1.000
 4985.00    1.22033   1.20551   -1.000
 4986.00    1.24737   1.23468   -1.000
 4987.00    1.27647   1.26305   -1.000
 4988.00    1.28343   1.28093  334.262
 4989.00    1.27579   1.28519   -1.000
 4990.00    1.25948   1.27982   -1.000
 4991.00    1.25506   1.27268   -1.000
 4992.00    1.26267   1.26983  330.078
 4993.00    1.26991   1.27252  328.469
 4994.00    1.27643   1.27872  326.823
 4995.00    1.28251   1.28580  328.586
 4996.00    1.28894   1.29108  332.859
 4997.00    1.28860   1.29110  339.483
 4998.00    1.27154   1.28273   -1.000
 4999.00    1.25409   1.26639   -1.000
 5000.00    1.24604   1.24774  341.325
 5001.00    1.24345   1.23454   -1.000
 5002.00    1.24943   1.23056   -1.000
 5003.00    1.25715   1.23174   -1.000
 5004.00    1.25126   1.22960   -1.000
 5005.00    1.22949   1.22056   -1.000
 5006.00    1.21265   1.21159  335.853
 5007.00    1.22436   1.21360   -1.000
 5008.00    1.25586   1.22875   -1.000
 5009.00    1.27901   1.24707   -1.000
 5010.00    1.27656   1.25497   -1.000
 5011.00    1.25121   1.24583  367.167
 5012.00    1.22181   1.22421  365.966
 5013.00    1.19707   1.20189  358.160
 5014.00    1.18815   1.18902  350.614
 5015.00    1.20643   1.18744   -1.000
 5016.00    1.22495   1.19183   -1.000
 5017.00    1.22713   1.19675   -1.000
 5018.00    1.22771   1.20193   -1.000
 5019.00    1.23610   1.21020   -1.000
 5020.00    1.25071   1.22117   -1.000
 5021.00    1.25354   1.23080   -1.000
 5022.00    1.25189   1.23720   -1.000
 5023.00    1.25456   1.24329   -1.000
 5024.00    1.26523   1.25190   -1.000
 5025.00    1.27409   1.26015   -1.000
 5026.00    1.26777   1.26323  336.711
 5027.00    1.26283   1.26192  330.490
 5028.00    1.26477   1.26169  325.694
 5029.00    1.27924   1.26658   -1.000
 5030.00    1.29100   1.27692   -1.000
 5031.00    1.29986   1.29022   -1.000
 5032.00    1.30982   1.30194  326.737
 5033.00    1.31253   1.30610  339.690
 5034.00    1.29744   1.29828  345.702
 5035.00    1.26537   1.28032   -1.000
 5036.00    1.24616   1.25995   -1.000
 5037.00    1.24412   1.24290  364.703
 5038.00    1.23833   1.22647   -1.000
 5039.00    1.21591   1.20456   -1.000
 5040.00    1.17236   1.18019  362.747
 5041.00    1.15600   1.16757   -1.000
 5042.00    1.18683   1.17901  326.233
 5043.00    1.23989   1.21301   -1.000
 5044.00    1.28271   1.25540   -1.000
 5045.00    1.30791   1.29043   -1.000
 5046.00    1.30249   1.30911   94.314
 5047.00    1.41397   1.30939   -1.000
 5048.00    0.69777   1.29432   -1.000
 5049.00    0.49821   1.27159   -1.000
 5050.00    1.27073   1.25150   -1.000
 5051.00    1.25023   1.24271  325.861
 5052.00    1.27067   1.24882   -1.000
 5053.00    1.29685   1.26655   -1.000
 5054.00    1.31544   1.28722   -1.000
 5055.00    1.32543   1.30336   -1.000
 5056.00    1.32884   1.31384   -1.000
 5057.00    1.33249   1.32126   -1.000
 5058.00    1.32999   1.32740  314.531
 5059.00    1.32439   1.33212  314.633
 5060.00    1.32420   1.33461   -1.000
 5061.00    1.32604   1.33363  327.947
 5062.00    1.33051   1.32665  339.630
 5063.00    1.30974   1.31132  343.805
 5064.00    1.27624   1.29045   -1.000
 5065.00    1.25650   1.27234   -1.000
 5066.00    1.26544   1.26364  333.511
 5067.00    1.27751   1.26385   -1.000
 5068.00    1.28247   1.26781   -1.000
 5069.00    1.28888   1.27155   -1.000
 5070.00    1.30132   1.27355   -1.000
 5071.00    1.29976   1.27269   -1.000
 5072.00    1.29207   1.26922   -1.000
 5073.00    1.28965   1.26641   -1.000
 5074.00    1.29112   1.26749   -1.000
 5075.00    1.29270   1.27131   -1.000
 5076.00    1.29592   1.27249   -1.000
 5077.00    1.29145   1.26535   -1.000
 5078.00    1.26656   1.24833   -1.000
 5079.00    1.22896   1.22688  355.425
 5080.00    1.21313   1.21111  347.808
 5081.00    1.22813   1.20773   -1.000
 5082.00    1.24812   1.21555   -1.000
 5083.00    1.26164   1.22935   -1.000
 5084.00    1.27767   1.24549   -1.000
 5085.00    1.29744   1.26245   -1.000
 5086.00    1.30996   1.27792   -1.000
 5087.00    1.31243   1.28924   -1.000
 5088.00    1.31344   1.29621   -1.000
 5089.00    1.31860   1.30086   -1.000
 5090.00    1.31993   1.30541   -1.000
 5091.00    1.32091   1.31118   -1.000
 5092.00    1.32694   1.31803  316.734
 5093.00    1.33804   1.32343   -1.000
 5094.00    1.34271   1.32266   -1.000
 5095.00    1.33069   1.31167   -1.000
 5096.00    1.31166   1.29095   -1.000
 5097.00    1.28603   1.26654   -1.000
 5098.00    1.26371   1.24714   -1.000
 5099.00    1.26082   1.23974   -1.000
 5100.00    1.28097   1.24634   -1.000
 5101.00    1.30689   1.26245   -1.000
 5102.00    1.31834   1.27891   -1.000
 5103.00    1.32067   1.28789   -1.000
 5104.00    1.31400   1.28704   -1.000
 5105.00    1.30237   1.27821   -1.000
 5106.00    1.28344   1.26491   -1.000
 5107.00    1.26615   1.25165   -1.000
 5108.00    1.25856   1.24308   -1.000
 5109.00    1.26072   1.24222   -1.000
 5110.00    1.26495   1.24951   -1.000
 5111.00    1.28182   1.26302   -1.000
 5112.00    1.30631   1.27909   -1.000
 5113.00    1.31799   1.29390   -1.000
 5114.00    1.32420   1.30575   -1.000
 5115.00    1.32795   1.31510   -1.000
 5116.00    1.33474   1.32263   -1.000
 5117.00    1.34622   1.32763   -1.000
 5118.00    1.35021   1.32825   -1.000
 5119.00    1.34005   1.32291   -1.000
 5120.00    1.33451   1.31162   -1.000
 5121.00    1.31392   1.29612   -1.000
 5122.00    1.28733   1.27866   -1.000
 5123.00    1.26580   1.26133  348.703
 5124.00    1.24933   1.24681  347.001
 5125.00    1.25648   1.23790   -1.000
 5126.00    1.26663   1.23489   -1.000
 5127.00    1.27000   1.23520   -1.000
 5128.00    1.26849   1.23646   -1.000
 5129.00    1.27048   1.23892   -1.000
 5130.00    1.27510   1.24419   -1.000
 5131.00    1.28787   1.25247   -1.000
 5132.00    1.29570   1.26203   -1.000
 5133.00    1.30145   1.27079   -1.000
 5134.00    1.30875   1.27722   -1.000
 5135.00    1.31559   1.27954   -1.000
 5136.00    1.30763   1.27561   -1.000
 5137.00    1.28204   1.26513   -1.000
 5138.00    1.26214   1.25132   -1.000
 5139.00    1.25145   1.23956   -1.000
 5140.00    1.25905   1.23348   -1.000
 5141.00    1.26427   1.23274   -1.000
 5142.00    1.25251   1.23495   -1.000
 5143.00    1.25030   1.23884   -1.000
 5144.00    1.26743   1.24373   -1.000
 5145.00    1.28137   1.24748   -1.000
 5146.00    1.27807   1.24769   -1.000
 5147.00    1.27854   1.24563   -1.000
 5148.00    1.28633   1.24533   -1.000
 5149.00    1.29283   1.24730   -1.000
 5150.00    1.28302   1.24740   -1.000
 5151.00    1.26428   1.24307   -1.000
 5152.00    1.25302   1.23670   -1.000
 5153.00    1.26668   1.23330   -1.000
 5154.00    1.28317   1.23717   -1.000
 5155.00    1.30032   1.24979   -1.000
 5156.00    1.31790   1.26859   -1.000
 5157.00    1.33675   1.28826   -1.000
 5158.00    1.34828   1.30376   -1.000
 5159.00    1.34940   1.31241   -1.000
 5160.00    1.34744   1.31381   -1.000
 5161.00    1.33696   1.30856   -1.000
 5162.00    1.32529   1.29690   -1.000
 5163.00    1.31623   1.27726   -1.000
 5164.00    1.30363   1.24505   -1.000
 5165.00    1.25511   1.19625   -1.000
 5166.00    1.17580   1.13643   -1.000
 5167.00    1.11091   1.08401   -1.000
 5168.00    1.09757   1.05863   -1.000
 5169.00    1.13721   1.06184   -1.000
 5170.00    1.17547   1.07298   -1.000
 5171.00    1.16091   1.07229   -1.000
 5172.00    1.11753   1.06415   -1.000
 5173.00    1.11966   1.07163   -1.000
 5174.00    1.18221   1.10968   -1.000
 5175.00    1.26010   1.16810   -1.000
 5176.00    1.30815   1.22347   -1.000
 5177.00    1.32547   1.26025   -1.000
 5178.00    1.32719   1.27581   -1.000
 5179.00    1.32434   1.27188   -1.000
 5180.00    1.31290   1.24696   -1.000
 5181.00    1.27498   1.19970   -1.000
 5182.00    1.20679   1.13921   -1.000
 5183.00    1.13601   1.08863   -1.000
 5184.00    1.12938   1.07302   -1.000
 5185.00    1.19214   1.09965   -1.000
 5186.00    1.26277   1.15157   -1.000
 5187.00    1.29287   1.20173   -1.000
 5188.00    1.29577   1.23355   -1.000
 5189.00    1.29380   1.24679   -1.000
 5190.00    1.28320   1.24681   -1.000
 5191.00    1.25989   1.23782   -1.000
 5192.00    1.22902   1.22572  351.063
 5193.00    1.22617   1.21803  345.913
 5194.00    1.24631   1.21862   -1.000
 5195.00    1.26815   1.22590   -1.000
 5196.00    1.27995   1.23687   -1.000
 5197.00    1.29152   1.25094   -1.000
 5198.00    1.30334   1.26794   -1.000
 5199.00    1.31753   1.28466   -1.000
 5200.00    1.32398   1.29565   -1.000
 5201.00    1.32064   1.29617   -1.000
 5202.00    1.30812   1.28408   -1.000
 5203.00    1.28740   1.26078   -1.000
 5204.00    1.26056   1.23139   -1.000
 5205.00    1.23636   1.20337   -1.000
 5206.00    1.22727   1.18334   -1.000
 5207.00    1.22699   1.17419   -1.000
 5208.00    1.22548   1.17549   -1.000
 5209.00    1.23416   1.18694   -1.000
 5210.00    1.26146   1.20916   -1.000
 5211.00    1.29319   1.24042   -1.000
 5212.00    1.32678   1.27333   -1.000
 5213.00    1.34376   1.29686   -1.000
 5214.00    1.33606   1.30341   -1.000
 5215.00    1.31382   1.29513   -1.000
 5216.00    1.29535   1.28353   -1.000
 5217.00    1.30026   1.28128   -1.000
 5218.00    1.32081   1.29306   -1.000
 5219.00    1.33955   1.31363   -1.000
 5220.00    1.34992   1.33340   -1.000
 5221.00    1.35817   1.34462   -1.000
 5222.00    1.35735   1.34304   -1.000
 5223.00    1.33855   1.32645   -1.000
 5224.00    1.30216   1.29453  368.172
 5225.00    1.24872   1.25265  359.269
 5226.00    1.20821   1.21520  338.502
 5227.00    1.20903   1.19935   -1.000
 5228.00    1.24707   1.21175   -1.000
 5229.00    1.29864   1.24212   -1.000
 5230.00    1.32908   1.27124   -1.000
 5231.00    1.33482   1.28537   -1.000
 5232.00    1.32077   1.28331   -1.000
 5233.00    1.29771   1.27414   -1.000
 5234.00    1.29361   1.27032   -1.000
 5235.00    1.31097   1.27943   -1.000
 5236.00    1.33574   1.29948   -1.000
 5237.00    1.36152   1.32204   -1.000
 5238.00    1.36432   1.33930   -1.000
 5239.00    1.36388   1.34834   -1.000
 5240.00    1.36571   1.35067   -1.000
 5241.00    1.36482   1.34962   -1.000
 5242.00    1.36457   1.34847   -1.000
 5243.00    1.36585   1.34928   -1.000
 5244.00    1.36715   1.35067   -1.000
 5245.00    1.36073   1.34777   -1.000
 5246.00    1.33657   1.33712  334.495
 5247.00    1.31059   1.32104   -1.000
 5248.00    1.30181   1.30565  337.381
 5249.00    1.29870   1.29553  335.483
 5250.00    1.29466   1.29151  330.626
 5251.00    1.28950   1.29245  327.481
 5252.00    1.30316   1.29651  327.742
 5253.00    1.31548   1.30115   -1.000
 5254.00    1.31557   1.30536   -1.000
 5255.00    1.31957   1.31176  308.573
 5256.00    1.33923   1.32354   -1.000
 5257.00    1.36372   1.33908   -1.000
 5258.00    1.38003   1.35121   -1.000
 5259.00    1.37625   1.35150   -1.000
 5260.00    1.35264   1.33519   -1.000
 5261.00    1.31704   1.30340   -1.000
 5262.00    1.27324   1.26246   -1.000
 5263.00    1.23642   1.22155   -1.000
 5264.00    1.21738   1.18988   -1.000
 5265.00    1.21076   1.17349   -1.000
 5266.00    1.22295   1.17123   -1.000
 5267.00    1.24603   1.17388   -1.000
 5268.00    1.23864   1.17134   -1.000
 5269.00    1.20176   1.16338   -1.000
 5270.00    1.18920   1.16142   -1.000
 5271.00    1.23153   1.17604   -1.000
 5272.00    1.28381   1.20387   -1.000
 5273.00    1.29992   1.23174   -1.000
 5274.00    1.29783   1.25146   -1.000
 5275.00    1.30261   1.26601   -1.000
 5276.00    1.31894   1.28318   -1.000
 5277.00    1.34448   1.30557   -1.000
 5278.00    1.37572   1.32686   -1.000
 5279.00    1.37499   1.33691   -1.000
 5280.00    1.36178   1.33091   -1.000
 5281.00    1.33500   1.31345   -1.000
 5282.00    1.31249   1.29463   -1.000
 5283.00    1.30508   1.28447   -1.000
 5284.00    1.31390   1.28955   -1.000
 5285.00    1.33943   1.30995   -1.000
 5286.00    1.38015   1.33797   -1.000
 5287.00    1.39261   1.36278   -1.000
 5288.00    1.39025   1.37815   -1.000
 5289.00    1.38778   1.38507  301.783
 5290.00    1.39177   1.38729  303.761
 5291.00    1.38786   1.38699  306.741
 5292.00    1.38069   1.38477  311.014
 5293.00    1.37915   1.38006  319.883
 5294.00    1.37374   1.37030  332.379
 5295.00    1.35854   1.35245  340.719
 5296.00    1.32359   1.32727  337.619
 5297.00    1.29011   1.30208   -1.000
 5298.00    1.28500   1.28714  322.845
 5299.00    1.30377   1.28725   -1.000
 5300.00    1.32887   1.29830   -1.000
 5301.00    1.33584   1.31286   -1.000
 5302.00    1.33766   1.32737   -1.000
 5303.00    1.35854   1.34234   -1.000
 5304.00    1.38229   1.35686   -1.000
 5305.00    1.38755   1.36693   -1.000
 5306.00    1.38336   1.37031   -1.000
 5307.00    1.37528   1.36981  302.352
 5308.00    1.37578   1.37095  300.588
 5309.00    1.39086   1.37669   -1.000
 5310.00    1.40004   1.38486   -1.000
 5311.00    1.40201   1.39060   -1.000
 5312.00    1.39802   1.39038  306.488
 5313.00    1.39534   1.38345   -1.000
 5314.00    1.39136   1.37107   -1.000
 5315.00    1.37617   1.35610   -1.000
 5316.00    1.35763   1.34359   -1.000
 5317.00    1.35274   1.33942   -1.000
 5318.00    1.36740   1.34539   -1.000
 5319.00    1.37482   1.35606   -1.000
 5320.00    1.37343   1.36237   -1.000
 5321.00    1.36643   1.35863  321.534
 5322.00    1.35394   1.34528  324.189
 5323.00    1.33858   1.32651   -1.000
 5324.00    1.33141   1.30659   -1.000
 5325.00    1.33071   1.28641   -1.000
 5326.00    1.31163   1.26319   -1.000
 5327.00    1.26393   1.23677   -1.000
 5328.00    1.22374   1.21662  328.589
 5329.00    1.23784   1.21651   -1.000
 5330.00    1.29589   1.24008   -1.000
 5331.00    1.33984   1.27573   -1.000
 5332.00    1.35575   1.30731   -1.000
 5333.00    1.35688   1.32768   -1.000
 5334.00    1.36884   1.33940   -1.000
 5335.00    1.37865   1.34578   -1.000
 5336.00    1.37178   1.34681   -1.000
 5337.00    1.36555   1.34154   -1.000
 5338.00    1.36085   1.32996   -1.000
 5339.00    1.34331   1.31425   -1.000
 5340.00    1.32009   1.30029   -1.000
 5341.00    1.31654   1.29589   -1.000
 5342.00    1.34180   1.30432   -1.000
 5343.00    1.36769   1.31985   -1.000
 5344.00    1.37648   1.33193   -1.000
 5345.00    1.36599   1.33432   -1.000
 5346.00    1.36043   1.32889   -1.000
 5347.00    1.35682   1.32155   -1.000
 5348.00    1.34987   1.31731   -1.000
 5349.00    1.34674   1.31873   -1.000
 5350.00    1.35605   1.32649   -1.000
 5351.00    1.37835   1.33917   -1.000
 5352.00    1.38708   1.35320   -1.000
 5353.00    1.38688   1.36541   -1.000
 5354.00    1.39507   1.37561   -1.000
 5355.00    1.40720   1.38516   -1.000
 5356.00    1.41273   1.39383   -1.000
 5357.00    1.41599   1.39975   -1.000
 5358.00    1.42006   1.40154   -1.000
 5359.00    1.41557   1.39888   -1.000
 5360.00    1.40160   1.39144   -1.000
 5361.00    1.38796   1.37894  313.162
 5362.00    1.37252   1.36286   -1.000
 5363.00    1.36490   1.34663   -1.000
 5364.00    1.35637   1.33389   -1.000
 5365.00    1.35322   1.32649   -1.000
 5366.00    1.35347   1.32326   -1.000
 5367.00    1.35455   1.32003   -1.000
 5368.00    1.35022   1.31169   -1.000
 5369.00    1.33282   1.29603   -1.000
 5370.00    1.30580   1.27722   -1.000
 5371.00    1.29181   1.26535   -1.000
 5372.00    1.31060   1.27024   -1.000
 5373.00    1.35072   1.29343   -1.000
 5374.00    1.39146   1.32586   -1.000
 5375.00    1.41156   1.35464   -1.000
 5376.00    1.40904   1.37194   -1.000
 5377.00    1.40547   1.37756   -1.000
 5378.00    1.40849   1.37519   -1.000
 5379.00    1.39935   1.36852   -1.000
 5380.00    1.38502   1.36001   -1.000
 5381.00    1.37954   1.35142   -1.000
 5382.00    1.37186   1.34469   -1.000
 5383.00    1.36645   1.34240   -1.000
 5384.00    1.37553   1.34658   -1.000
 5385.00    1.38689   1.35624   -1.000
 5386.00    1.39357   1.36668   -1.000
 5387.00    1.39251   1.37236   -1.000
 5388.00    1.38852   1.37054   -1.000
 5389.00    1.37639   1.36218   -1.000
 5390.00    1.36187   1.35031   -1.000
 5391.00    1.35845   1.33805   -1.000
 5392.00    1.35480   1.32757   -1.000
 5393.00    1.34642   1.31951   -1.000
 5394.00    1.34266   1.31227   -1.000
 5395.00    1.33197   1.30298   -1.000
 5396.00    1.31119   1.29145   -1.000
 5397.00    1.30421   1.28281   -1.000
 5398.00    1.32276   1.28386   -1.000
 5399.00    1.35252   1.29599   -1.000
 5400.00    1.37047   1.31247   -1.000
 5401.00    1.37368   1.32335   -1.000
 5402.00    1.36643   1.32167   -1.000
 5403.00    1.34328   1.30626   -1.000
 5404.00    1.31028   1.28302   -1.000
 5405.00    1.28623   1.26314   -1.000
 5406.00    1.29564   1.25586   -1.000
 5407.00    1.32027   1.26142   -1.000
 5408.00    1.33198   1.27178   -1.000
 5409.00    1.32591   1.27950   -1.000
 5410.00    1.32064   1.28519   -1.000
 5411.00    1.34114   1.29416   -1.000
 5412.00    1.36845   1.30788   -1.000
 5413.00    1.38267   1.32189   -1.000
 5414.00    1.37677   1.33206   -1.000
 5415.00    1.37248   1.33936   -1.000
 5416.00    1.37940   1.34709   -1.000
 5417.00    1.38513   1.35545   -1.000
 5418.00    1.38447   1.36164   -1.000
 5419.00    1.37859   1.36360   -1.000
 5420.00    1.37749   1.36180   -1.000
 5421.00    1.38016   1.35736   -1.000
 5422.00    1.37801   1.35048   -1.000
 5423.00    1.36783   1.34220   -1.000
 5424.00    1.35525   1.33649   -1.000
 5425.00    1.36087   1.33759   -1.000
 5426.00    1.37700   1.34390   -1.000
 5427.00    1.38547   1.34665   -1.000
 5428.00    1.36490   1.33849   -1.000
 5429.00    1.33186   1.32243   -1.000
 5430.00    1.31867   1.30895   -1.000
 5431.00    1.33189   1.30441   -1.000
 5432.00    1.34382   1.30516   -1.000
 5433.00    1.33457   1.30427   -1.000
 5434.00    1.31870   1.30134   -1.000
 5435.00    1.31779   1.30307   -1.000
 5436.00    1.33781   1.31554   -1.000
 5437.00    1.36575   1.33767   -1.000
 5438.00    1.39018   1.36206   -1.000
 5439.00    1.40958   1.38122   -1.000
 5440.00    1.41902   1.39250   -1.000
 5441.00    1.41425   1.39700   -1.000
 5442.00    1.41038   1.39501   -1.000
 5443.00    1.40365   1.38424   -1.000
 5444.00    1.37718   1.36305   -1.000
 5445.00    1.34294   1.33508  331.600
 5446.00    1.30905   1.31025  320.361
 5447.00    1.30845   1.29976  312.126
 5448.00    1.33535   1.30823   -1.000
 5449.00    1.37559   1.32991   -1.000
 5450.00    1.39406   1.35304   -1.000
 5451.00    1.39653   1.36741   -1.000
 5452.00    1.39441   1.36812   -1.000
 5453.00    1.37764   1.35548   -1.000
 5454.00    1.34248   1.33506  330.095
 5455.00    1.31514   1.31738  318.328
 5456.00    1.32050   1.31326  310.550
 5457.00    1.35531   1.32589   -1.000
 5458.00    1.39045   1.34732   -1.000
 5459.00    1.40117   1.36465   -1.000
 5460.00    1.39041   1.36935   -1.000
 5461.00    1.37669   1.36148   -1.000
 5462.00    1.36199   1.34783   -1.000
 5463.00    1.35750   1.33735   -1.000
 5464.00    1.36188   1.33591   -1.000
 5465.00    1.37836   1.34328   -1.000
 5466.00    1.38291   1.35459   -1.000
 5467.00    1.38633   1.36492   -1.000
 5468.00    1.39574   1.37198   -1.000
 5469.00    1.39310   1.37513   -1.000
 5470.00    1.38415   1.37416   -1.000
 5471.00    1.38230   1.36939   -1.000
 5472.00    1.37685   1.36146   -1.000
 5473.00    1.36667   1.35027   -1.000
 5474.00    1.35823   1.33513   -1.000
 5475.00    1.34017   1.31719   -1.000
 5476.00    1.31663   1.30163   -1.000
 5477.00    1.31488   1.29580   -1.000
 5478.00    1.33852   1.30294   -1.000
 5479.00    1.36533   1.31811   -1.000
 5480.00    1.37016   1.33205   -1.000
 5481.00    1.35781   1.33992   -1.000
 5482.00    1.35182   1.34456  313.381
 5483.00    1.36133   1.35116   -1.000
 5484.00    1.37748   1.36058   -1.000
 5485.00    1.38220   1.36850   -1.000
 5486.00    1.37809   1.37038  321.095
 5487.00    1.36970   1.36638  320.752
 5488.00    1.37222   1.36121   -1.000
 5489.00    1.37340   1.35952   -1.000
 5490.00    1.37752   1.36207   -1.000
 5491.00    1.38215   1.36632   -1.000
 5492.00    1.38376   1.36968   -1.000
 5493.00    1.38583   1.37112   -1.000
 5494.00    1.38865   1.37046   -1.000
 5495.00    1.38660   1.36743   -1.000
 5496.00    1.37573   1.36236   -1.000
 5497.00    1.36425   1.35712  315.177
 5498.00    1.36815   1.35381   -1.000
 5499.00    1.37943   1.35215   -1.000
 5500.00    1.37860   1.34935   -1.000
 5501.00    1.36887   1.34416   -1.000
 5502.00    1.36037   1.33924   -1.000
 5503.00    1.36619   1.33736   -1.000
 5504.00    1.37505   1.33701   -1.000
 5505.00    1.36738   1.33460   -1.000
 5506.00    1.35211   1.33005   -1.000
 5507.00    1.34826   1.32774   -1.000
 5508.00    1.36416   1.33107   -1.000
 5509.00    1.38194   1.33782   -1.000
 5510.00    1.38205   1.34194   -1.000
 5511.00    1.36774   1.33921   -1.000
 5512.00    1.35195   1.33119   -1.000
 5513.00    1.34408   1.32394   -1.000
 5514.00    1.35086   1.32336   -1.000
 5515.00    1.36593   1.33113   -1.000
 5516.00    1.38421   1.34449   -1.000
 5517.00    1.39742   1.35925   -1.000
 5518.00    1.40701   1.37209   -1.000
 5519.00    1.41182   1.38111   -1.000
 5520.00    1.40892   1.38575   -1.000
 5521.00    1.40625   1.38684   -1.000
 5522.00    1.40780   1.38555   -1.000
 5523.00    1.40785   1.38178   -1.000
 5524.00    1.40285   1.37357   -1.000
 5525.00    1.38987   1.35903   -1.000
 5526.00    1.36756   1.33932   -1.000
 5527.00    1.34522   1.32023   -1.000
 5528.00    1.33693   1.31005   -1.000
 5529.00    1.35089   1.31419   -1.000
 5530.00    1.37321   1.33030   -1.000
 5531.00    1.38731   1.34890   -1.000
 5532.00    1.39026   1.36043   -1.000
 5533.00    1.38394   1.36201   -1.000
 5534.00    1.37522   1.35788   -1.000
 5535.00    1.37276   1.35470   -1.000
 5536.00    1.37665   1.35630   -1.000
 5537.00    1.38956   1.36196   -1.000
 5538.00    1.39646   1.36875   -1.000
 5539.00    1.40491   1.37483   -1.000
 5540.00    1.41118   1.37956   -1.000
 5541.00    1.41356   1.38161   -1.000
 5542.00    1.40536   1.37956   -1.000
 5543.00    1.39221   1.37455   -1.000
 5544.00    1.39248   1.37021   -1.000
 5545.00    1.39405   1.36954   -1.000
 5546.00    1.39764   1.37288   -1.000
 5547.00    1.40329   1.37898   -1.000
 5548.00    1.40895   1.38628   -1.000
 5549.00    1.41656   1.39291   -1.000
 5550.00    1.41948   1.39676   -1.000
 5551.00    1.42073   1.39658   -1.000
 5552.00    1.41599   1.39284   -1.000
 5553.00    1.40741   1.38744   -1.000
 5554.00    1.39612   1.38304   -1.000
 5555.00    1.40060   1.38155   -1.000
 5556.00    1.40695   1.38288   -1.000
 5557.00    1.40897   1.38546   -1.000
 5558.00    1.40886   1.38777   -1.000
 5559.00    1.40752   1.38869   -1.000
 5560.00    1.40898   1.38704   -1.000
 5561.00    1.40493   1.38214   -1.000
 5562.00    1.39508   1.37486   -1.000
 5563.00    1.38853   1.36739   -1.000
 5564.00    1.38484   1.36162   -1.000
 5565.00    1.38010   1.35790   -1.000
 5566.00    1.38053   1.35548   -1.000
 5567.00    1.38385   1.35351   -1.000
 5568.00    1.37870   1.35150   -1.000
 5569.00    1.37322   1.34930   -1.000
 5570.00    1.37478   1.34682   -1.000
 5571.00    1.38301   1.34405   -1.000
 5572.00    1.40094   1.34172   -1.000
 5573.00    1.45656   1.34152   -1.000
 5574.00    1.57819   1.34456   -1.000
 5575.00    1.67240   1.34998   -1.000
 5576.00    1.64149   1.35616   -1.000
 5577.00    1.52922   1.36250   -1.000
 5578.00    1.43841   1.36886   -1.000
 5579.00    1.41051   1.37406   -1.000
 5580.00    1.40429   1.37674   -1.000
 5581.00    1.40096   1.37698   -1.000
 5582.00    1.39313   1.37579   -1.000
 5583.00    1.39145   1.37298   -1.000
 5584.00    1.38957   1.36594   -1.000
 5585.00    1.37744   1.35119   -1.000
 5586.00    1.35260   1.32856   -1.000
 5587.00    1.32422   1.30403   -1.000
 5588.00    1.31438   1.28688   -1.000
 5589.00    1.32095   1.28327   -1.000
 5590.00    1.33734   1.29232   -1.000
 5591.00    1.35877   1.30752   -1.000
 5592.00    1.36778   1.32128   -1.000
 5593.00    1.36146   1.32977   -1.000
 5594.00    1.35812   1.33444   -1.000
 5595.00    1.36980   1.33848   -1.000
 5596.00    1.38192   1.34205   -1.000
 5597.00    1.38124   1.34222   -1.000
 5598.00    1.36673   1.33746   -1.000
 5599.00    1.35765   1.32976   -1.000
 5600.00    1.35552   1.32213   -1.000
 5601.00    1.34764   1.31669   -1.000
 5602.00    1.33868   1.31650   -1.000
 5603.00    1.34883   1.32556   -1.000
 5604.00    1.37541   1.34449   -1.000
 5605.00    1.40204   1.36832   -1.000
 5606.00    1.41762   1.38992   -1.000
 5607.00    1.42331   1.40469   -1.000
 5608.00    1.42258   1.41245   -1.000
 5609.00    1.42229   1.41561  309.070
 5610.00    1.42582   1.41619   -1.000
 5611.00    1.42583   1.41374   -1.000
 5612.00    1.41921   1.40514   -1.000
 5613.00    1.40542   1.38748   -1.000
 5614.00    1.37757   1.36276   -1.000
 5615.00    1.34808   1.33964  323.286
 5616.00    1.34607   1.32850   -1.000
 5617.00    1.37017   1.33310   -1.000
 5618.00    1.39262   1.34796   -1.000
 5619.00    1.40301   1.36391   -1.000
 5620.00    1.40696   1.37529   -1.000
 5621.00    1.40646   1.38046   -1.000
 5622.00    1.40422   1.37913   -1.000
 5623.00    1.38966   1.37228   -1.000
 5624.00    1.37137   1.36375  321.906
 5625.00    1.37001   1.35927   -1.000
 5626.00    1.38319   1.36267   -1.000
 5627.00    1.39674   1.37290   -1.000
 5628.00    1.40953   1.38567   -1.000
 5629.00    1.42284   1.39690   -1.000
 5630.00    1.42503   1.40425   -1.000
 5631.00    1.42843   1.40681   -1.000
 5632.00    1.42267   1.40462   -1.000
 5633.00    1.41922   1.39896   -1.000
 5634.00    1.41387   1.39178   -1.000
 5635.00    1.40588   1.38464   -1.000
 5636.00    1.40116   1.37845   -1.000
 5637.00    1.39516   1.37400   -1.000
 5638.00    1.39393   1.37165   -1.000
 5639.00    1.39477   1.37088   -1.000
 5640.00    1.39199   1.37061   -1.000
 5641.00    1.38999   1.37050   -1.000
 5642.00    1.39331   1.37130   -1.000
 5643.00    1.39767   1.37370   -1.000
 5644.00    1.40075   1.37728   -1.000
 5645.00    1.40521   1.38110   -1.000
 5646.00    1.40873   1.38424   -1.000
 5647.00    1.41206   1.38586   -1.000
 5648.00    1.41196   1.38572   -1.000
 5649.00    1.41126   1.38467   -1.000
 5650.00    1.41587   1.38398   -1.000
 5651.00    1.41735   1.38396   -1.000
 5652.00    1.41456   1.38351   -1.000
 5653.00    1.41275   1.38084   -1.000
 5654.00    1.40972   1.37473   -1.000
 5655.00    1.39975   1.36463   -1.000
 5656.00    1.38085   1.35070   -1.000
 5657.00    1.35546   1.33526   -1.000
 5658.00    1.33574   1.32323   -1.000
 5659.00    1.33960   1.31943   -1.000
 5660.00    1.36135   1.32424   -1.000
 5661.00    1.37707   1.33332   -1.000
 5662.00    1.37895   1.34242   -1.000
 5663.00    1.38371   1.35089   -1.000
 5664.00    1.39551   1.35963   -1.000
 5665.00    1.40378   1.36774   -1.000
 5666.00    1.40369   1.37258   -1.000
 5667.00    1.39404   1.37320   -1.000
 5668.00    1.39160   1.37209   -1.000
 5669.00    1.39345   1.37263   -1.000
 5670.00    1.39565   1.37618   -1.000
 5671.00    1.40650   1.38194   -1.000
 5672.00    1.41663   1.38805   -1.000
 5673.00    1.42457   1.39289   -1.000
 5674.00    1.42816   1.39574   -1.000
 5675.00    1.42212   1.39695   -1.000
 5676.00    1.42498   1.39736   -1.000
 5677.00    1.42704   1.39736   -1.000
 5678.00    1.42415   1.39604   -1.000
 5679.00    1.42049   1.39188   -1.000
 5680.00    1.41584   1.38406   -1.000
 5681.00    1.40951   1.37332   -1.000
 5682.00    1.39801   1.36222   -1.000
 5683.00    1.39351   1.35416   -1.000
 5684.00    1.39230   1.35115   -1.000
 5685.00    1.39334   1.35207   -1.000
 5686.00    1.39213   1.35351   -1.000
 5687.00    1.38529   1.35312   -1.000
 5688.00    1.38547   1.35225   -1.000
 5689.00    1.39415   1.35447   -1.000
 5690.00    1.40443   1.36152   -1.000
 5691.00    1.41423   1.37172   -1.000
 5692.00    1.42145   1.38157   -1.000
 5693.00    1.42513   1.38872   -1.000
 5694.00    1.42533   1.39291   -1.000
 5695.00    1.42078   1.39467   -1.000
 5696.00    1.41403   1.39407   -1.000
 5697.00    1.40746   1.39070   -1.000
 5698.00    1.39761   1.38455   -1.000
 5699.00    1.39180   1.37656   -1.000
 5700.00    1.38845   1.36878   -1.000
 5701.00    1.38212   1.36335   -1.000
 5702.00    1.37706   1.36133   -1.000
 5703.00    1.38155   1.36199   -1.000
 5704.00    1.38624   1.36270   -1.000
 5705.00    1.38616   1.36048   -1.000
 5706.00    1.38113   1.35348   -1.000
 5707.00    1.36499   1.34217   -1.000
 5708.00    1.34449   1.32908   -1.000
 5709.00    1.33475   1.31812   -1.000
 5710.00    1.33774   1.31357   -1.000
 5711.00    1.34601   1.31796   -1.000
 5712.00    1.36261   1.33063   -1.000
 5713.00    1.38573   1.34797   -1.000
 5714.00    1.40269   1.36506   -1.000
 5715.00    1.40983   1.37794   -1.000
 5716.00    1.41489   1.38595   -1.000
 5717.00    1.41506   1.39116   -1.000
 5718.00    1.41641   1.39605   -1.000
 5719.00    1.42157   1.40148   -1.000
 5720.00    1.43081   1.40716   -1.000
 5721.00    1.43354   1.41231   -1.000
 5722.00    1.43667   1.41609   -1.000
 5723.00    1.44008   1.41775   -1.000
 5724.00    1.43708   1.41675   -1.000
 5725.00    1.43030   1.41294   -1.000
 5726.00    1.41736   1.40727   -1.000
 5727.00    1.41133   1.40187   -1.000
 5728.00    1.41773   1.39891   -1.000
 5729.00    1.42203   1.39862   -1.000
 5730.00    1.42173   1.39939   -1.000
 5731.00    1.41613   1.40001   -1.000
 5732.00    1.41938   1.40097   -1.000
 5733.00    1.42699   1.40371   -1.000
 5734.00    1.43127   1.40817   -1.000
 5735.00    1.43035   1.41248   -1.000
 5736.00    1.42912   1.41486   -1.000
 5737.00    1.42783   1.41520   -1.000
 5738.00    1.42594   1.41472   -1.000
 5739.00    1.42561   1.41418   -1.000
 5740.00    1.42572   1.41338   -1.000
 5741.00    1.42296   1.41196   -1.000
 5742.00    1.42158   1.41050   -1.000
 5743.00    1.42112   1.41009   -1.000
 5744.00    1.42541   1.41094   -1.000
 5745.00    1.43151   1.41172   -1.000
 5746.00    1.42904   1.41116   -1.000
 5747.00    1.42292   1.40953   -1.000
 5748.00    1.41933   1.40832   -1.000
 5749.00    1.42051   1.40779   -1.000
 5750.00    1.42584   1.40594   -1.000
 5751.00    1.42341   1.40050   -1.000
 5752.00    1.40781   1.39188   -1.000
 5753.00    1.39436   1.38419   -1.000
 5754.00    1.39345   1.38217   -1.000
 5755.00    1.40653   1.38760   -1.000
 5756.00    1.42556   1.39820   -1.000
 5757.00    1.43586   1.40889   -1.000
 5758.00    1.43713   1.41529   -1.000
 5759.00    1.43245   1.41532   -1.000
 5760.00    1.42241   1.40961   -1.000
 5761.00    1.41140   1.40104   -1.000
 5762.00    1.40422   1.39408   -1.000
 5763.00    1.40674   1.39298   -1.000
 5764.00    1.41780   1.39918   -1.000
 5765.00    1.43021   1.40969   -1.000
 5766.00    1.43718   1.41957   -1.000
 5767.00    1.43979   1.42532   -1.000
 5768.00    1.44034   1.42657   -1.000
 5769.00    1.43677   1.42499   -1.000
 5770.00    1.43289   1.42189   -1.000
 5771.00    1.42818   1.41780   -1.000
 5772.00    1.42649   1.41318   -1.000
 5773.00    1.42144   1.40895   -1.000
 5774.00    1.41759   1.40630   -1.000
 5775.00    1.41745   1.40593   -1.000
 5776.00    1.40906   1.40682  311.930
 5777.00    1.39688   1.40643  317.469
 5778.00    1.38420   1.40197   -1.000
 5779.00    1.37010   1.39258   -1.000
 5780.00    1.37269   1.38073  325.668
 5781.00    1.37882   1.37054  324.408
 5782.00    1.38425   1.36486   -1.000
 5783.00    1.39157   1.36406   -1.000
 5784.00    1.39406   1.36657   -1.000
 5785.00    1.39797   1.37115   -1.000
 5786.00    1.40682   1.37754   -1.000
 5787.00    1.41630   1.38515   -1.000
 5788.00    1.42522   1.39194   -1.000
 5789.00    1.42580   1.39533   -1.000
 5790.00    1.42293   1.39535   -1.000
 5791.00    1.42107   1.39495   -1.000
 5792.00    1.42362   1.39710   -1.000
 5793.00    1.42509   1.40250   -1.000
 5794.00    1.42388   1.40912   -1.000
 5795.00    1.42430   1.41414   -1.000
 5796.00    1.42455   1.41590  307.874
 5797.00    1.42249   1.41496  303.652
 5798.00    1.42663   1.41385   -1.000
 5799.00    1.44101   1.41501   -1.000
 5800.00    1.45408   1.41861   -1.000
 5801.00    1.45749   1.42231   -1.000
 5802.00    1.45374   1.42364   -1.000
 5803.00    1.44630   1.42170   -1.000
 5804.00    1.43646   1.41749   -1.000
 5805.00    1.43287   1.41342   -1.000
 5806.00    1.43477   1.41165   -1.000
 5807.00    1.43584   1.41262   -1.000
 5808.00    1.43801   1.41522   -1.000
 5809.00    1.44141   1.41828   -1.000
 5810.00    1.44904   1.42115   -1.000
 5811.00    1.45722   1.42325   -1.000
 5812.00    1.45766   1.42369   -1.000
 5813.00    1.45315   1.42178   -1.000
 5814.00    1.44758   1.41794   -1.000
 5815.00    1.44388   1.41393   -1.000
 5816.00    1.44160   1.41212   -1.000
 5817.00    1.44443   1.41413   -1.000
 5818.00    1.45305   1.41920   -1.000
 5819.00    1.46012   1.42462   -1.000
 5820.00    1.46402   1.42816   -1.000
 5821.00    1.46430   1.42978   -1.000
 5822.00    1.46266   1.43052   -1.000
 5823.00    1.46153   1.43101   -1.000
 5824.00    1.45950   1.43122   -1.000
 5825.00    1.46054   1.43126   -1.000
 5826.00    1.46308   1.43161   -1.000
 5827.00    1.46420   1.43250   -1.000
 5828.00    1.46585   1.43349   -1.000
 5829.00    1.46564   1.43400   -1.000
 5830.00    1.47055   1.43378   -1.000
 5831.00    1.46892   1.43297   -1.000
 5832.00    1.46719   1.43150   -1.000
 5833.00    1.46495   1.42946   -1.000
 5834.00    1.46440   1.42758   -1.000
 5835.00    1.45877   1.42698   -1.000
 5836.00    1.45932   1.42812   -1.000
 5837.00    1.45917   1.43029   -1.000
 5838.00    1.46276   1.43228   -1.000
 5839.00    1.46311   1.43351   -1.000
 5840.00    1.46476   1.43425   -1.000
 5841.00    1.46615   1.43467   -1.000
 5842.00    1.46858   1.43447   -1.000
 5843.00    1.46608   1.43315   -1.000
 5844.00    1.46613   1.43047   -1.000
 5845.00    1.46612   1.42673   -1.000
 5846.00    1.45749   1.42276   -1.000
 5847.00    1.44822   1.41979   -1.000
 5848.00    1.44760   1.41841   -1.000
 5849.00    1.44905   1.41753   -1.000
 5850.00    1.44980   1.41497   -1.000
 5851.00    1.44612   1.40932   -1.000
 5852.00    1.43453   1.40134   -1.000
 5853.00    1.42601   1.39277   -1.000
 5854.00    1.42404   1.38478   -1.000
 5855.00    1.42212   1.37645   -1.000
 5856.00    1.41745   1.36706   -1.000
 5857.00    1.40962   1.35864   -1.000
 5858.00    1.40822   1.35518   -1.000
 5859.00    1.42048   1.35963   -1.000
 5860.00    1.43307   1.36995   -1.000
 5861.00    1.43911   1.38123   -1.000
 5862.00    1.44324   1.39060   -1.000
 5863.00    1.44644   1.39712   -1.000
 5864.00    1.44842   1.40055   -1.000
 5865.00    1.44545   1.40083   -1.000
 5866.00    1.43762   1.39875   -1.000
 5867.00    1.43515   1.39742   -1.000
 5868.00    1.44212   1.39973   -1.000
 5869.00    1.45283   1.40574   -1.000
 5870.00    1.45850   1.41281   -1.000
 5871.00    1.45815   1.41742   -1.000
 5872.00    1.45666   1.41802   -1.000
 5873.00    1.45711   1.41557   -1.000
 5874.00    1.45628   1.41200   -1.000
 5875.00    1.45703   1.40871   -1.000
 5876.00    1.45246   1.40601   -1.000
 5877.00    1.44586   1.40350   -1.000
 5878.00    1.44092   1.40072   -1.000
 5879.00    1.43223   1.39729   -1.000
 5880.00    1.42617   1.39311   -1.000
 5881.00    1.42690   1.38809   -1.000
 5882.00    1.42635   1.38218   -1.000
 5883.00    1.42226   1.37555   -1.000
 5884.00    1.41530   1.36822   -1.000
 5885.00    1.40187   1.35773   -1.000
 5886.00    1.37776   1.33788   -1.000
 5887.00    1.32054   1.30238   -1.000
 5888.00    1.25143   1.25225  379.168
 5889.00    1.21370   1.20228   -1.000
 5890.00    1.23147   1.17179   -1.000
 5891.00    1.27486   1.16937   -1.000
 5892.00    1.30748   1.18580   -1.000
 5893.00    1.29934   1.20002   -1.000
 5894.00    1.26697   1.20073   -1.000
 5895.00    1.24809   1.19248   -1.000
 5896.00    1.26942   1.19007   -1.000
 5897.00    1.31459   1.20471   -1.000
 5898.00    1.36216   1.23533   -1.000
 5899.00    1.38977   1.27265   -1.000
 5900.00    1.40863   1.30653   -1.000
 5901.00    1.42604   1.33353   -1.000
 5902.00    1.43346   1.35364   -1.000
 5903.00    1.43382   1.36685   -1.000
 5904.00    1.43403   1.37442   -1.000
 5905.00    1.42539   1.37879   -1.000
 5906.00    1.42307   1.38205   -1.000
 5907.00    1.42805   1.38537   -1.000
 5908.00    1.43096   1.38858   -1.000
 5909.00    1.42927   1.39110   -1.000
 5910.00    1.43027   1.39219   -1.000
 5911.00    1.43268   1.39080   -1.000
 5912.00    1.42596   1.38625   -1.000
 5913.00    1.41427   1.37936   -1.000
 5914.00    1.40292   1.37239   -1.000
 5915.00    1.39314   1.36847   -1.000
 5916.00    1.39090   1.36913   -1.000
 5917.00    1.39708   1.37378   -1.000
 5918.00    1.40845   1.38029   -1.000
 5919.00    1.41862   1.38623   -1.000
 5920.00    1.41896   1.39000   -1.000
 5921.00    1.41384   1.39136   -1.000
 5922.00    1.41268   1.39164   -1.000
 5923.00    1.42307   1.39223   -1.000
 5924.00    1.43884   1.39400   -1.000
 5925.00    1.44193   1.39642   -1.000
 5926.00    1.43792   1.39771   -1.000
 5927.00    1.43504   1.39600   -1.000
 5928.00    1.43049   1.39119   -1.000
 5929.00    1.42517   1.38555   -1.000
 5930.00    1.42168   1.38246   -1.000
 5931.00    1.42640   1.38323   -1.000
 5932.00    1.43406   1.38619   -1.000
 5933.00    1.43318   1.38906   -1.000
 5934.00    1.42787   1.39078   -1.000
 5935.00    1.42540   1.39265   -1.000
 5936.00    1.42494   1.39572   -1.000
 5937.00    1.42607   1.39879   -1.000
 5938.00    1.41794   1.39996   -1.000
 5939.00    1.40931   1.39819   -1.000
 5940.00    1.40753   1.39450   -1.000
 5941.00    1.40469   1.39106   -1.000
 5942.00    1.40909   1.38963   -1.000
 5943.00    1.41103   1.39062   -1.000
 5944.00    1.41486   1.39255   -1.000
 5945.00    1.42036   1.39361   -1.000
 5946.00    1.42406   1.39244   -1.000
 5947.00    1.41783   1.38941   -1.000
 5948.00    1.40974   1.38621   -1.000
 5949.00    1.41351   1.38472   -1.000
 5950.00    1.42135   1.38498   -1.000
 5951.00    1.42667   1.38538   -1.000
 5952.00    1.42289   1.38510   -1.000
 5953.00    1.41505   1.38428   -1.000
 5954.00    1.41153   1.38369   -1.000
 5955.00    1.40837   1.38346   -1.000
 5956.00    1.40853   1.38304   -1.000
 5957.00    1.41171   1.38344   -1.000
 5958.00    1.42276   1.38641   -1.000
 5959.00    1.43367   1.39177   -1.000
 5960.00    1.44220   1.39800   -1.000
 5961.00    1.44495   1.40306   -1.000
 5962.00    1.44421   1.40565   -1.000
 5963.00    1.43889   1.40578   -1.000
 5964.00    1.42743   1.40407   -1.000
 5965.00    1.42002   1.40162   -1.000
 5966.00    1.41774   1.39977   -1.000
 5967.00    1.42548   1.39942   -1.000
 5968.00    1.43732   1.40079   -1.000
 5969.00    1.44206   1.40349   -1.000
 5970.00    1.44361   1.40655   -1.000
 5971.00    1.44537   1.40900   -1.000
 5972.00    1.44107   1.40950   -1.000
 5973.00    1.43585   1.40705   -1.000
 5974.00    1.42956   1.40166   -1.000
 5975.00    1.41854   1.39441   -1.000
 5976.00    1.41357   1.38790   -1.000
 5977.00    1.41643   1.38469   -1.000
 5978.00    1.42161   1.38596   -1.000
 5979.00    1.42855   1.39052   -1.000
 5980.00    1.43307   1.39496   -1.000
 5981.00    1.43316   1.39610   -1.000
 5982.00    1.42493   1.39251   -1.000
 5983.00    1.41320   1.38591   -1.000
 5984.00    1.40505   1.37995   -1.000
 5985.00    1.40447   1.37794   -1.000
 5986.00    1.41505   1.38052   -1.000
 5987.00    1.42232   1.38577   -1.000
 5988.00    1.42393   1.39099   -1.000
 5989.00    1.42858   1.39444   -1.000
 5990.00    1.42899   1.39628   -1.000
 5991.00    1.42680   1.39793   -1.000
 5992.00    1.43000   1.40087   -1.000
 5993.00    1.43484   1.40460   -1.000
 5994.00    1.44108   1.40739   -1.000
 5995.00    1.44084   1.40724   -1.000
 5996.00    1.43644   1.40429   -1.000
 5997.00    1.43391   1.40077   -1.000
 5998.00    1.43078   1.39829   -1.000
 5999.00    1.42928   1.39730   -1.000
 6000.00    1.43196   1.39665   -1.000
 6001.00    1.43089   1.39518   -1.000
 6002.00    1.42569   1.39277   -1.000
 6003.00    1.42272   1.39037   -1.000
 6004.00    1.42083   1.38837   -1.000
 6005.00    1.41932   1.38576   -1.000
 6006.00    1.41096   1.38150   -1.000
 6007.00    1.40208   1.37644   -1.000
 6008.00    1.40082   1.37386   -1.000
 6009.00    1.40595   1.37625   -1.000
 6010.00    1.41634   1.38190   -1.000
 6011.00    1.42496   1.38717   -1.000
 6012.00    1.42398   1.38908   -1.000
 6013.00    1.41959   1.38782   -1.000
 6014.00    1.41923   1.38588   -1.000
 6015.00    1.42242   1.38439   -1.000
 6016.00    1.42185   1.38343   -1.000
 6017.00    1.42070   1.38212   -1.000
 6018.00    1.42148   1.37957   -1.000
 6019.00    1.41369   1.37575   -1.000
 6020.00    1.40772   1.37189   -1.000
 6021.00    1.40804   1.36952   -1.000
 6022.00    1.40829   1.36962   -1.000
 6023.00    1.41147   1.37245   -1.000
 6024.00    1.41518   1.37740   -1.000
 6025.00    1.42056   1.38386   -1.000
 6026.00    1.42676   1.39122   -1.000
 6027.00    1.43010   1.39825   -1.000
 6028.00    1.43506   1.40410   -1.000
 6029.00    1.43772   1.40893   -1.000
 6030.00    1.44031   1.41264   -1.000
 6031.00    1.44224   1.41504   -1.000
 6032.00    1.44237   1.41665   -1.000
 6033.00    1.44279   1.41813   -1.000
 6034.00    1.44424   1.41950   -1.000
 6035.00    1.44235   1.42031   -1.000
 6036.00    1.44141   1.42006   -1.000
 6037.00    1.44345   1.41851   -1.000
 6038.00    1.44075   1.41581   -1.000
 6039.00    1.43433   1.41229   -1.000
 6040.00    1.43343   1.40877   -1.000
 6041.00    1.43562   1.40636   -1.000
 6042.00    1.43606   1.40594   -1.000
 6043.00    1.43781   1.40761   -1.000
 6044.00    1.44179   1.41057   -1.000
 6045.00    1.44400   1.41400   -1.000
 6046.00    1.44448   1.41734   -1.000
 6047.00    1.44420   1.42028   -1.000
 6048.00    1.44539   1.42284   -1.000
 6049.00    1.44532   1.42442   -1.000
 6050.00    1.44573   1.42470   -1.000
 6051.00    1.44558   1.42351   -1.000
 6052.00    1.44172   1.42068   -1.000
 6053.00    1.44098   1.41617   -1.000
 6054.00    1.43881   1.41070   -1.000
 6055.00    1.43137   1.40616   -1.000
 6056.00    1.42793   1.40434   -1.000
 6057.00    1.43125   1.40580   -1.000
 6058.00    1.43539   1.40940   -1.000
 6059.00    1.43779   1.41313   -1.000
 6060.00    1.44014   1.41492   -1.000
 6061.00    1.44430   1.41344   -1.000
 6062.00    1.43168   1.40794   -1.000
 6063.00    1.41619   1.39899   -1.000
 6064.00    1.27709   1.38970   -1.000
 6065.00    0.80889   1.38446   -1.000
 6066.00    0.80115   1.38586   -1.000
 6067.00    1.39570   1.39357  311.253
 6068.00    1.43842   1.40371   -1.000
 6069.00    1.44271   1.41244   -1.000
 6070.00    1.44556   1.41859   -1.000
 6071.00    1.44207   1.42222   -1.000
 6072.00    1.44723   1.42436   -1.000
 6073.00    1.44592   1.42557   -1.000
 6074.00    1.44446   1.42561   -1.000
 6075.00    1.43988   1.42380   -1.000
 6076.00    1.43280   1.41954   -1.000
 6077.00    1.42970   1.41350   -1.000
 6078.00    1.42629   1.40749   -1.000
 6079.00    1.42240   1.40283   -1.000
 6080.00    1.41951   1.40004   -1.000
 6081.00    1.41744   1.39826   -1.000
 6082.00    1.41635   1.39616   -1.000
 6083.00    1.41433   1.39403   -1.000
 6084.00    1.41521   1.39305   -1.000
 6085.00    1.41352   1.39401   -1.000
 6086.00    1.41649   1.39679   -1.000
 6087.00    1.42387   1.40004   -1.000
 6088.00    1.42422   1.40196   -1.000
 6089.00    1.41908   1.40159   -1.000
 6090.00    1.41194   1.39990   -1.000
 6091.00    1.41074   1.39870   -1.000
 6092.00    1.41689   1.39922   -1.000
 6093.00    1.42492   1.40174   -1.000
 6094.00    1.43129   1.40541   -1.000
 6095.00    1.43045   1.40947   -1.000
 6096.00    1.43021   1.41292   -1.000
 6097.00    1.42944   1.41479   -1.000
 6098.00    1.42609   1.41342   -1.000
 6099.00    1.42348   1.40660   -1.000
 6100.00    1.41394   1.39343   -1.000
 6101.00    1.39560   1.37613   -1.000
 6102.00    1.37720   1.36143   -1.000
 6103.00    1.37619   1.35585   -1.000
 6104.00    1.39374   1.36146   -1.000
 6105.00    1.41171   1.37471   -1.000
 6106.00    1.42042   1.38868   -1.000
 6107.00    1.41812   1.39974   -1.000
 6108.00    1.41209   1.40738  319.259
 6109.00    1.41289   1.41212  318.310
 6110.00    1.41838   1.41473  317.747
 6111.00    1.42012   1.41569  316.240
 6112.00    1.41958   1.41605  316.356
 6113.00    1.42182   1.41663  318.093
 6114.00    1.42309   1.41731  319.617
 6115.00    1.42286   1.41762  320.327
 6116.00    1.41799   1.41699  323.211
 6117.00    1.41613   1.41456  327.995
 6118.00    1.41244   1.40901  331.732
 6119.00    1.40102   1.39849  333.674
 6120.00    1.38639   1.38307  331.447
 6121.00    1.37395   1.36674  326.034
 6122.00    1.36998   1.35526   -1.000
 6123.00    1.38016   1.35334   -1.000
 6124.00    1.39538   1.36059   -1.000
 6125.00    1.40051   1.37229   -1.000
 6126.00    1.40145   1.38328   -1.000
 6127.00    1.40217   1.39091   -1.000
 6128.00    1.40125   1.39626  318.417
 6129.00    1.40464   1.40123  318.472
 6130.00    1.41245   1.40709  320.118
 6131.00    1.41692   1.41286  325.022
 6132.00    1.41528   1.41527  333.661
 6133.00    1.40605   1.41056  343.164
 6134.00    1.38972   1.39618  348.615
 6135.00    1.36363   1.37371   -1.000
 6136.00    1.33155   1.35071   -1.000
 6137.00    1.31993   1.33536   -1.000
 6138.00    1.33726   1.33091  326.538
 6139.00    1.36546   1.33553   -1.000
 6140.00    1.38122   1.34431   -1.000
 6141.00    1.38076   1.35530   -1.000
 6142.00    1.38079   1.36895   -1.000
 6143.00    1.38979   1.38287  320.538
 6144.00    1.40316   1.39391   -1.000
 6145.00    1.40976   1.39971   -1.000
 6146.00    1.40621   1.40009  326.774
 6147.00    1.40044   1.39706  327.878
 6148.00    1.39580   1.39275  327.242
 6149.00    1.39115   1.38913  325.508
 6150.00    1.38902   1.38769  323.902
 6151.00    1.39203   1.38865  324.963
 6152.00    1.39779   1.39054  327.552
 6153.00    1.40185   1.39135   -1.000
 6154.00    1.40147   1.38980   -1.000
 6155.00    1.39489   1.38666  331.448
 6156.00    1.39157   1.38330  336.297
 6157.00    1.38865   1.37921   -1.000
 6158.00    1.38194   1.37116   -1.000
 6159.00    1.36999   1.35567   -1.000
 6160.00    1.34777   1.33262   -1.000
 6161.00    1.31802   1.30735   -1.000
 6162.00    1.29996   1.28888   -1.000
 6163.00    1.30582   1.28359   -1.000
 6164.00    1.32598   1.29152   -1.000
 6165.00    1.34409   1.30594   -1.000
 6166.00    1.35352   1.31824   -1.000
 6167.00    1.34985   1.32327   -1.000
 6168.00    1.33808   1.32180   -1.000
 6169.00    1.32812   1.31957   -1.000
 6170.00    1.33097   1.32208   -1.000
 6171.00    1.34561   1.33159   -1.000
 6172.00    1.35855   1.34462   -1.000
 6173.00    1.36345   1.35699  335.868
 6174.00    1.36711   1.36645  335.147
 6175.00    1.37053   1.37271  333.891
 6176.00    1.37089   1.37681  332.357
 6177.00    1.37329   1.37976  331.266
 6178.00    1.37740   1.38237  330.008
 6179.00    1.37923   1.38493  328.717
 6180.00    1.38053   1.38785  328.588
 6181.00    1.38184   1.39128  329.589
 6182.00    1.38571   1.39440  331.402
 6183.00    1.38958   1.39591  334.609
 6184.00    1.39059   1.39473  338.269
 6185.00    1.38564   1.39089  341.614
 6186.00    1.37898   1.38531  344.511
 6187.00    1.37182   1.37842  347.798
 6188.00    1.36303   1.36990  351.590
 6189.00    1.35172   1.35948  350.923
 6190.00    1.33785   1.34933   -1.000
 6191.00    1.32850   1.34360   -1.000
 6192.00    1.33310   1.34551   -1.000
 6193.00    1.35371   1.35491  331.909
 6194.00    1.37649   1.36730   -1.000
 6195.00    1.38616   1.37807  335.812
 6196.00    1.38489   1.38503  339.352
 6197.00    1.37981   1.38722  340.650
 6198.00    1.36953   1.38544   -1.000
 6199.00    1.35687   1.38210   -1.000
 6200.00    1.34935   1.38016   -1.000
 6201.00    1.35383   1.38166   -1.000
 6202.00    1.36558   1.38661   -1.000
 6203.00    1.37616   1.39314   -1.000
 6204.00    1.38301   1.39934   -1.000
 6205.00    1.38581   1.40401   -1.000
 6206.00    1.38832   1.40681   -1.000
 6207.00    1.39289   1.40776   -1.000
 6208.00    1.39007   1.40691   -1.000
 6209.00    1.38658   1.40352   -1.000
 6210.00    1.38187   1.39681   -1.000
 6211.00    1.37247   1.38682   -1.000
 6212.00    1.35923   1.37508   -1.000
 6213.00    1.34565   1.36433   -1.000
 6214.00    1.34010   1.35693   -1.000
 6215.00    1.34460   1.35346  347.318
 6216.00    1.35079   1.35227  348.583
 6217.00    1.35341   1.35137  346.279
 6218.00    1.35255   1.35024  345.740
 6219.00    1.34699   1.34996  358.420
 6220.00    1.34547   1.35230  370.206
 6221.00    1.35492   1.35695  351.857
 6222.00    1.36570   1.36246  342.436
 6223.00    1.36883   1.36691  343.439
 6224.00    1.36804   1.36940  344.283
 6225.00    1.36716   1.36997  347.640
 6226.00    1.36647   1.36766  353.084
 6227.00    1.36406   1.36134  358.420
 6228.00    1.35380   1.35065  360.144
 6229.00    1.33702   1.33765  356.445
 6230.00    1.32270   1.32688  350.336
 6231.00    1.32179   1.32291  344.013
 6232.00    1.33355   1.32739  340.304
 6233.00    1.34981   1.33766   -1.000
 6234.00    1.36500   1.34868   -1.000
 6235.00    1.37258   1.35596   -1.000
 6236.00    1.37153   1.35771   -1.000
 6237.00    1.36543   1.35529   -1.000
 6238.00    1.35645   1.35105  354.337
 6239.00    1.34687   1.34711  355.317
 6240.00    1.34098   1.34378  358.078
 6241.00    1.33625   1.34007  359.208
 6242.00    1.33004   1.33479  357.834
 6243.00    1.32621   1.32779  354.830
 6244.00    1.32523   1.32065  350.765
 6245.00    1.32678   1.31650   -1.000
 6246.00    1.33197   1.31809   -1.000
 6247.00    1.34177   1.32589   -1.000
 6248.00    1.35124   1.33679   -1.000
 6249.00    1.35537   1.34529   -1.000
 6250.00    1.35067   1.34696  360.019
 6251.00    1.33658   1.34096  361.694
 6252.00    1.32034   1.33080   -1.000
 6253.00    1.31026   1.32101   -1.000
 6254.00    1.31006   1.31482  366.987
 6255.00    1.31281   1.31245  368.018
 6256.00    1.31054   1.31245  364.238
 6257.00    1.30532   1.31396  358.486
 6258.00    1.30825   1.31722   -1.000
 6259.00    1.31803   1.32322  348.304
 6260.00    1.32848   1.33194  344.498
 6261.00    1.34039   1.34214  345.105
 6262.00    1.35033   1.35142  347.973
 6263.00    1.35517   1.35816  348.442
 6264.00    1.35136   1.36214   -1.000
 6265.00    1.34385   1.36466   -1.000
 6266.00    1.34484   1.36702   -1.000
 6267.00    1.34980   1.36884   -1.000
 6268.00    1.35071   1.36918   -1.000
 6269.00    1.34883   1.36797   -1.000
 6270.00    1.34976   1.36643   -1.000
 6271.00    1.34608   1.36572   -1.000
 6272.00    1.33962   1.36479   -1.000
 6273.00    1.32652   1.36134   -1.000
 6274.00    1.30317   1.35382   -1.000
 6275.00    1.28443   1.34261   -1.000
 6276.00    1.27707   1.33036   -1.000
 6277.00    1.27601   1.31948   -1.000
 6278.00    1.27861   1.31195   -1.000
 6279.00    1.27609   1.30921   -1.000
 6280.00    1.26960   1.31184   -1.000
 6281.00    1.26918   1.31979   -1.000
 6282.00    1.27997   1.33142   -1.000
 6283.00    1.30060   1.34388   -1.000
 6284.00    1.32005   1.35487   -1.000
 6285.00    1.33359   1.36290   -1.000
 6286.00    1.34060   1.36784   -1.000
 6287.00    1.34509   1.36982   -1.000
 6288.00    1.34818   1.36911   -1.000
 6289.00    1.34841   1.36638   -1.000
 6290.00    1.34669   1.36285   -1.000
 6291.00    1.34292   1.35998   -1.000
 6292.00    1.34264   1.35840   -1.000
 6293.00    1.34964   1.35745  355.706
 6294.00    1.35956   1.35572  357.162
 6295.00    1.37642   1.35202   -1.000
 6296.00    1.40095   1.34647   -1.000
 6297.00    1.43110   1.34032   -1.000
 6298.00    1.44458   1.33494   -1.000
 6299.00    1.42189   1.33069   -1.000
 6300.00    1.37073   1.32770   -1.000
 6301.00    1.33332   1.32733  354.853
 6302.00    1.32679   1.33148  349.685
 6303.00    1.33264   1.34050  346.113
 6304.00    1.34348   1.35209  343.142
 6305.00    1.35313   1.36263   -1.000
 6306.00    1.35905   1.36983   -1.000
 6307.00    1.36138   1.37349   -1.000
 6308.00    1.36351   1.37461   -1.000
 6309.00    1.36220   1.37422   -1.000
 6310.00    1.35517   1.37298   -1.000
 6311.00    1.35107   1.37069   -1.000
 6312.00    1.34442   1.36677   -1.000
 6313.00    1.33929   1.36133   -1.000
 6314.00    1.33371   1.35489   -1.000
 6315.00    1.32717   1.34862   -1.000
 6316.00    1.32400   1.34374   -1.000
 6317.00    1.32515   1.34146   -1.000
 6318.00    1.32937   1.34301   -1.000
 6319.00    1.33467   1.34835   -1.000
 6320.00    1.34269   1.35601   -1.000
 6321.00    1.34849   1.36405   -1.000
 6322.00    1.35091   1.37148   -1.000
 6323.00    1.35557   1.37817   -1.000
 6324.00    1.36191   1.38401   -1.000
 6325.00    1.36813   1.38795   -1.000
 6326.00    1.36934   1.38953   -1.000
 6327.00    1.36957   1.38954   -1.000
 6328.00    1.36934   1.38895   -1.000
 6329.00    1.36785   1.38865   -1.000
 6330.00    1.36574   1.38862   -1.000
 6331.00    1.36688   1.38790   -1.000
 6332.00    1.36585   1.38485   -1.000
 6333.00    1.35699   1.37822   -1.000
 6334.00    1.34450   1.36870   -1.000
 6335.00    1.33612   1.35950   -1.000
 6336.00    1.33296   1.35437   -1.000
 6337.00    1.33652   1.35516   -1.000
 6338.00    1.34806   1.36114   -1.000
 6339.00    1.35937   1.36961   -1.000
 6340.00    1.36587   1.37759   -1.000
 6341.00    1.36719   1.38284   -1.000
 6342.00    1.36454   1.38418   -1.000
 6343.00    1.36267   1.38235   -1.000
 6344.00    1.35999   1.37951   -1.000
 6345.00    1.35990   1.37800   -1.000
 6346.00    1.36425   1.37959   -1.000
 6347.00    1.37135   1.38452   -1.000
 6348.00    1.37705   1.39144   -1.000
 6349.00    1.37765   1.39800   -1.000
 6350.00    1.37711   1.40199   -1.000
 6351.00    1.37283   1.40239   -1.000
 6352.00    1.36806   1.39953   -1.000
 6353.00    1.36357   1.39458   -1.000
 6354.00    1.35502   1.38921   -1.000
 6355.00    1.34963   1.38448   -1.000
 6356.00    1.34938   1.38043   -1.000
 6357.00    1.35032   1.37670   -1.000
 6358.00    1.35008   1.37304   -1.000
 6359.00    1.35172   1.36960   -1.000
 6360.00    1.36153   1.36651  342.143
 6361.00    1.37037   1.36387  340.374
 6362.00    1.37166   1.36233   -1.000
 6363.00    1.36385   1.36283  336.120
 6364.00    1.35480   1.36556   -1.000
 6365.00    1.35136   1.36995   -1.000
 6366.00    1.35352   1.37473   -1.000
 6367.00    1.35924   1.37854   -1.000
 6368.00    1.36260   1.38054   -1.000
 6369.00    1.36349   1.38101   -1.000
 6370.00    1.36208   1.38143   -1.000
 6371.00    1.36061   1.38327   -1.000
 6372.00    1.36169   1.38661   -1.000
 6373.00    1.36153   1.39008   -1.000
 6374.00    1.35975   1.39204   -1.000
 6375.00    1.35531   1.39167   -1.000
 6376.00    1.35111   1.38939   -1.000
 6377.00    1.34850   1.38619   -1.000
 6378.00    1.34451   1.38291   -1.000
 6379.00    1.34022   1.38002   -1.000
 6380.00    1.33610   1.37753   -1.000
 6381.00    1.33545   1.37564   -1.000
 6382.00    1.33811   1.37469   -1.000
 6383.00    1.33813   1.37520   -1.000
 6384.00    1.33347   1.37730   -1.000
 6385.00    1.32699   1.38040   -1.000
 6386.00    1.32351   1.38334   -1.000
 6387.00    1.32164   1.38507   -1.000
 6388.00    1.31461   1.38499   -1.000
 6389.00    1.30615   1.38279   -1.000
 6390.00    1.30022   1.37799   -1.000
 6391.00    1.28878   1.37100   -1.000
 6392.00    1.27482   1.36388   -1.000
 6393.00    1.26617   1.35987   -1.000
 6394.00    1.26325   1.36091   -1.000
 6395.00    1.26701   1.36547   -1.000
 6396.00    1.27194   1.36950   -1.000
 6397.00    1.26591   1.36915   -1.000
 6398.00    1.24862   1.36427   -1.000
 6399.00    1.22933   1.35851   -1.000
 6400.00    1.21815   1.35656   -1.000
 6401.00    1.22279   1.36074   -1.000
 6402.00    1.23504   1.36924   -1.000
 6403.00    1.24261   1.37800   -1.000
 6404.00    1.24296   1.38304   -1.000
 6405.00    1.23608   1.38287   -1.000
 6406.00    1.22176   1.37886   -1.000
 6407.00    1.20623   1.37409   -1.000
 6408.00    1.19705   1.37093   -1.000
 6409.00    1.19102   1.36958   -1.000
 6410.00    1.18295   1.36930   -1.000
 6411.00    1.17298   1.36972   -1.000
 6412.00    1.16683   1.37132   -1.000
 6413.00    1.16558   1.37398   -1.000
 6414.00    1.16332   1.37678   -1.000
 6415.00    1.15753   1.37879   -1.000
 6416.00    1.14924   1.37928   -1.000
 6417.00    1.13853   1.37754   -1.000
 6418.00    1.12504   1.37331   -1.000
 6419.00    1.10828   1.36785   -1.000
 6420.00    1.09138   1.36431   -1.000
 6421.00    1.07956   1.36575   -1.000
 6422.00    1.07565   1.37257   -1.000
 6423.00    1.07739   1.38267   -1.000
 6424.00    1.07805   1.39264   -1.000
 6425.00    1.07261   1.39997   -1.000
 6426.00    1.06284   1.40343   -1.000
 6427.00    1.05072   1.40178   -1.000
 6428.00    0.56619   1.39496   -1.000
