###################################################################
## OUTPUT of StarlightChains_v04.for    [Cid@UFSC - 01/Apr/2007] ##
###################################################################

## Some input info
NGC2808_b_1.cxt                          [arq_obs]
Base.BC03.N                              [arq_base]
NGC2808_b_1.msk                          [arq_masks]
StCv04.C11.config                        [arq_config]
   45                                    [N_base]
    0                                    [N_YAV_components = # of components with extra extinction!]
    0                                    [i_FitPowerLaw (1/0 = Yes/No)]
-9.99                                    [alpha_PowerLaw]
CCM                                      [red_law_option]
 1.458241                                [q_norm = A(l_norm)/A(V)]

## (Re)Sampling Parameters
 3359.00                                 [l_ini (A)]
 6428.00                                 [l_fin (A)]
    1.00                                 [dl    (A)]     (OBS: dl_cushion =    50.00 A)

## Normalization info
 4020.00                                 [l_norm (A) - for base]
 4010.00                                 [llow_norm (A) - window for f_obs]
 4060.00                                 [lupp_norm (A) - window for f_obs]
3.144042E-14                             [fobs_norm (in input units)]

## S/N
 4730.00                                 [llow_SN (A) - window for S/N]
 4780.00                                 [lupp_SN (A) - window for S/N]
  65.329                                 [S/N in S/N window]
  51.114                                 [S/N in norm. window]
 151.759                                 [S/N_err in S/N window]
 118.738                                 [S/N_err in norm. window]
  1.0000                                 [fscale_chi2]

## etc...
  2147483641                             [idum_orig]
  3069                                   [NOl_eff]
  1110                                   [Nl_eff]
  1959    NSIGMA                         [Ntot_cliped & clip_method]
   697200                                [Nglobal_steps]
   7                                     [N_chains]
   7                                     [NEX0s_base = N_base in EX0s-fits]
 0   0   1      256   2.0   2.496E+02    [Clip-Bug, RC-Crash & Burn-In warning-flags, n_censored_weights, wei_nsig_threshold & wei_limit]
     9      9.308      9.296      0.012  [idt_all, wdt_TotTime, wdt_UsrTime & wdt_SysTime (sec)]

## Synthesis Results - Best model ##

 2.56649E+00                             [chi2/Nl_eff]
     1.41621                             [adev (%)]

   102.83672                             [sum-of-x (%)]
 8.57569E-14                             [Flux_tot (units of input spectrum!)]
 9.70760E-10                             [Mini_tot (???)]
 5.19754E-10                             [Mcor_tot (???)]

  -2.36                                  [v0_min  (km/s)]
  88.29                                  [vd_min  (km/s)]
 0.7263                                  [AV_min  (mag)]
 0.0000                                  [YAV_min (mag)]

# j     x_j(%)      Mini_j(%)     Mcor_j(%)     age_j(yr)     Z_j      (L/M)_j    YAV?  Mstars   component_j        a/Fe...       SSP_chi2r SSP_adev(%)   SSP_AV   SSP_x(%)
  1      0.0000     0.0000E+00    0.0000E+00    1.000000E+06  0.00400  1.114E-02    0   1.0000   age020_m42            0.0000     3.6221E+02    13.9913   4.0000    83.4737
  2      8.4645     1.7852E-02    3.3340E-02    3.160000E+06  0.00400  4.073E-02    0   0.9999   age045_m42            0.0000     9.1861E+01     6.9493   3.2030    95.1068
  3      0.6122     2.0752E-03    3.6775E-03    5.010000E+06  0.00400  2.534E-02    0   0.9488   age055_m42            0.0000     1.6892E+02    10.0195   3.6135    88.7614
  4      9.2073     6.2229E-02    1.0300E-01    1.000000E+07  0.00400  1.271E-02    0   0.8862   age070_m42            0.0000     1.5980E+02     9.7010   2.8366    92.2186
  5      0.0000     0.0000E+00    0.0000E+00    2.512000E+07  0.00400  5.070E-03    0   0.8174   age090_m42            0.0000     1.3760E+02     9.0444   2.7000    93.9236
  6      0.0000     0.0000E+00    0.0000E+00    4.000000E+07  0.00400  3.505E-03    0   0.7851   age104_m42            0.0000     9.0534E+01     7.1943   2.3688    97.1021
  7      0.0000     0.0000E+00    0.0000E+00    1.015200E+08  0.00400  2.268E-03    0   0.7207   age116_m42            0.0000     3.4412E+02     9.8601   2.3231   107.0768
  8      0.0000     0.0000E+00    0.0000E+00    2.861200E+08  0.00400  1.079E-03    0   0.6613   age125_m42            0.0000     3.7429E+02    10.5414   1.8189   109.6952
  9      0.0000     0.0000E+00    0.0000E+00    6.405400E+08  0.00400  5.077E-04    0   0.6197   age132_m42            0.0000     3.9997E+02    10.9867   1.4530   113.8905
 10      0.0000     0.0000E+00    0.0000E+00    9.047900E+08  0.00400  3.535E-04    0   0.6024   age135_m42            0.0000     2.6148E+02     8.9450   1.2136   113.0308
 11      0.0000     0.0000E+00    0.0000E+00    1.434000E+09  0.00400  1.910E-04    0   0.5716   age139_m42            0.0000     1.2054E+02     6.4823   0.6715   111.8554
 12     51.7615     4.5289E+01    4.6210E+01    2.500000E+09  0.00400  9.818E-05    0   0.5463   age150_m42            0.0000     3.2263E+01     3.8701   0.3894   107.1750
 13     28.5576     5.1996E+01    5.0772E+01    5.000000E+09  0.00400  4.718E-05    0   0.5228   age161_m42            0.0000     2.6315E+01     3.5787   0.2228   103.7360
 14      0.0000     0.0000E+00    0.0000E+00    1.100000E+10  0.00400  2.205E-05    0   0.4980   age185_m42            0.0000     7.6796E+01     5.5943  -0.0585   101.8594
 15      0.0000     0.0000E+00    0.0000E+00    1.300000E+10  0.00400  1.883E-05    0   0.4927   age193_m42            0.0000     8.5917E+01     5.8969  -0.0766   101.7316
 16      0.0000     0.0000E+00    0.0000E+00    1.000000E+06  0.02000  1.989E-02    0   1.0000   age020_m62            0.0000     3.4990E+02    13.6764   4.0000    83.7123
 17      0.0000     0.0000E+00    0.0000E+00    3.160000E+06  0.02000  3.772E-02    0   0.9858   age045_m62            0.0000     2.9605E+02    12.7721   3.9904    84.0146
 18      1.8396     4.8971E-03    8.5446E-03    5.010000E+06  0.02000  3.227E-02    0   0.9342   age055_m62            0.0000     1.3070E+02     8.6303   3.4605    91.6439
 19      0.0000     0.0000E+00    0.0000E+00    1.000000E+07  0.02000  1.011E-02    0   0.8751   age070_m62            0.0000     3.6671E+02    14.3769   2.8603    88.4157
 20      0.0000     0.0000E+00    0.0000E+00    2.512000E+07  0.02000  4.206E-03    0   0.8099   age090_m62            0.0000     2.6042E+02    12.2966   2.7739    89.6797
 21      0.0000     0.0000E+00    0.0000E+00    4.000000E+07  0.02000  3.373E-03    0   0.7799   age104_m62            0.0000     1.1715E+02     7.4618   2.5670    98.7419
 22      0.0000     0.0000E+00    0.0000E+00    1.015200E+08  0.02000  1.878E-03    0   0.7221   age116_m62            0.0000     3.0174E+02     9.3632   2.3555   107.3637
 23      0.0000     0.0000E+00    0.0000E+00    2.861200E+08  0.02000  8.869E-04    0   0.6700   age125_m62            0.0000     6.1033E+02    13.4150   1.8115   115.2006
 24      0.0000     0.0000E+00    0.0000E+00    6.405400E+08  0.02000  3.657E-04    0   0.6322   age132_m62            0.0000     4.0156E+02    11.4131   1.1007   119.2871
 25      0.0000     0.0000E+00    0.0000E+00    9.047900E+08  0.02000  2.312E-04    0   0.6152   age135_m62            0.0000     2.2629E+02     8.7041   0.7298   117.9335
 26      0.0000     0.0000E+00    0.0000E+00    1.434000E+09  0.02000  1.168E-04    0   0.5865   age139_m62            0.0000     6.6609E+01     5.1942   0.3166   111.7639
 27      0.0000     0.0000E+00    0.0000E+00    2.500000E+09  0.02000  5.505E-05    0   0.5610   age150_m62            0.0000     7.5065E+01     5.8011  -0.0705   108.9065
 28      0.0000     0.0000E+00    0.0000E+00    5.000000E+09  0.02000  2.596E-05    0   0.5353   age161_m62            0.0000     1.8033E+02     8.4361  -0.4300   109.3528
 29      0.0000     0.0000E+00    0.0000E+00    1.100000E+10  0.02000  1.169E-05    0   0.5103   age185_m62            0.0000     3.3112E+02    11.0544  -0.8266   111.4391
 30      0.0000     0.0000E+00    0.0000E+00    1.300000E+10  0.02000  9.691E-06    0   0.5047   age193_m62            0.0000     3.6253E+02    11.5058  -0.8778   111.7968
 31      0.0000     0.0000E+00    0.0000E+00    1.000000E+06  0.05000  2.651E-02    0   0.9998   age020_m72            0.0000     3.2496E+02    13.0991   4.0000    84.6314
 32      0.0000     0.0000E+00    0.0000E+00    3.160000E+06  0.05000  4.817E-02    0   0.9577   age045_m72            0.0000     2.1031E+02    10.9120   3.8433    87.2758
 33      0.0000     0.0000E+00    0.0000E+00    5.010000E+06  0.05000  3.101E-02    0   0.9147   age055_m72            0.0000     1.9573E+02    10.6351   3.4856    89.8234
 34      0.0000     0.0000E+00    0.0000E+00    1.000000E+07  0.05000  8.954E-03    0   0.8524   age070_m72            0.0000     1.9958E+02    10.5233   3.7191    88.6140
 35      0.0000     0.0000E+00    0.0000E+00    2.512000E+07  0.05000  4.207E-03    0   0.7902   age090_m72            0.0000     1.1226E+02     7.8124   3.2632    94.4986
 36      0.0000     0.0000E+00    0.0000E+00    4.000000E+07  0.05000  3.198E-03    0   0.7618   age104_m72            0.0000     1.8086E+02     7.3294   2.7237   103.0682
 37      0.0000     0.0000E+00    0.0000E+00    1.015200E+08  0.05000  1.716E-03    0   0.7092   age116_m72            0.0000     3.5738E+02    10.1471   2.4332   107.7571
 38      0.0000     0.0000E+00    0.0000E+00    2.861200E+08  0.05000  7.047E-04    0   0.6618   age125_m72            0.0000     5.7773E+02    13.2571   1.5868   115.9744
 39      0.0000     0.0000E+00    0.0000E+00    6.405400E+08  0.05000  2.633E-04    0   0.6253   age132_m72            0.0000     3.0266E+02    10.0961   0.7139   118.6488
 40      0.0000     0.0000E+00    0.0000E+00    9.047900E+08  0.05000  1.484E-04    0   0.6088   age135_m72            0.0000     1.2448E+02     7.1402   0.2252   113.3759
 41      2.3940     2.6275E+00    2.8694E+00    1.434000E+09  0.05000  7.827E-05    0   0.5847   age139_m72            0.0000     1.2238E+02     7.3156  -0.1836   109.9028
 42      0.0000     0.0000E+00    0.0000E+00    2.500000E+09  0.05000  3.759E-05    0   0.5583   age150_m72            0.0000     2.0081E+02     8.9722  -0.5217   109.3232
 43      0.0000     0.0000E+00    0.0000E+00    5.000000E+09  0.05000  1.548E-05    0   0.5320   age161_m72            0.0000     3.3264E+02    11.0190  -0.9636   109.5470
 44      0.0000     0.0000E+00    0.0000E+00    1.100000E+10  0.05000  6.532E-06    0   0.5070   age185_m72            0.0000     6.2379E+02    14.7156  -1.0000   102.1042
 45      0.0000     0.0000E+00    0.0000E+00    1.300000E+10  0.05000  5.316E-06    0   0.5018   age193_m72            0.0000     7.8887E+02    16.9012  -1.0000    99.4348


## Synthesis Results - Average & Chains ##

# j      x_j: min, <> & last-chain-values for 1 ...  7 chains
  1      0.0000      0.0045      0.0000      0.0000      0.0000      0.0000      0.0000      0.0000      0.0000
  2      8.4645      6.3950      6.5055      6.5570      6.5212      6.4935      6.3603      6.8088      6.3754
  3      0.6122      1.2036      1.1978      1.1336      1.0514      1.1539      1.4344      1.1423      1.2963
  4      9.2073      9.2488      9.2547      9.3974      9.5290      9.4999      9.1666      9.4183      9.2186
  5      0.0000      0.0480      0.0000      0.0000      0.0000      0.0000      0.0167      0.0000      0.0000
  6      0.0000      0.0259      0.1104      0.0000      0.0027      0.0000      0.1682      0.0000      0.0016
  7      0.0000      0.0848      0.0109      0.1844      0.0000      0.1227      0.1341      0.0000      0.1476
  8      0.0000      0.0266      0.0000      0.0000      0.0033      0.0000      0.0000      0.0000      0.0000
  9      0.0000      0.0316      0.0000      0.0000      0.0000      0.0753      0.0000      0.0000      0.0000
 10      0.0000      0.0623      0.1155      0.0638      0.0000      0.3176      0.0000      0.2902      0.0603
 11      0.0000      0.1061      0.0000      0.0531      0.0000      0.0892      0.4105      0.1784      0.0000
 12     51.7615     52.7972     52.5863     53.5568     53.5813     51.8623     52.8852     53.3898     52.9835
 13     28.5576     27.1838     28.0373     26.6532     27.4859     27.8356     27.3638     27.0692     27.8132
 14      0.0000      0.0671      0.0000      0.0000      0.0235      0.1527      0.0000      0.0000      0.0000
 15      0.0000      0.0467      0.0000      0.0229      0.0000      0.0247      0.0000      0.0000      0.0000
 16      0.0000      0.0047      0.0000      0.0000      0.0000      0.0000      0.0000      0.0000      0.0000
 17      0.0000      0.0043      0.0078      0.0000      0.0000      0.0000      0.0000      0.0253      0.0000
 18      1.8396      2.4647      2.4954      2.5024      2.3394      2.4754      2.4440      2.2492      2.4669
 19      0.0000      0.0105      0.0000      0.0000      0.0000      0.0000      0.0000      0.0000      0.0000
 20      0.0000      0.0083      0.0000      0.0000      0.0000      0.0000      0.0000      0.0062      0.0000
 21      0.0000      0.0247      0.0000      0.0000      0.0000      0.0000      0.0000      0.0000      0.0000
 22      0.0000      0.0243      0.0000      0.0000      0.0000      0.0030      0.0000      0.0000      0.0000
 23      0.0000      0.0084      0.0000      0.0000      0.0000      0.0000      0.0176      0.0000      0.0000
 24      0.0000      0.0121      0.0000      0.0064      0.0000      0.0000      0.0000      0.0000      0.0000
 25      0.0000      0.0390      0.0000      0.0000      0.0000      0.0000      0.0000      0.0000      0.0135
 26      0.0000      0.1207      0.0000      0.0000      0.0000      0.4253      0.0000      0.0000      0.1794
 27      0.0000      0.3109      0.0000      0.4030      0.2300      0.3840      0.5033      0.0000      0.3024
 28      0.0000      0.0488      0.0125      0.0202      0.0000      0.0000      0.0000      0.0000      0.0000
 29      0.0000      0.0251      0.0000      0.0000      0.0000      0.1638      0.0000      0.0000      0.0000
 30      0.0000      0.0184      0.0000      0.0000      0.0000      0.0000      0.0000      0.0000      0.0000
 31      0.0000      0.0035      0.0000      0.0000      0.0040      0.0000      0.0000      0.0000      0.0000
 32      0.0000      0.0068      0.0000      0.0000      0.0000      0.0000      0.0000      0.0000      0.0000
 33      0.0000      0.0175      0.0000      0.0000      0.0000      0.0000      0.0000      0.0000      0.0000
 34      0.0000      0.0078      0.0000      0.0000      0.0000      0.0000      0.0000      0.0000      0.0000
 35      0.0000      0.0072      0.0000      0.0273      0.0000      0.0000      0.0000      0.0000      0.0000
 36      0.0000      0.0144      0.0638      0.0000      0.0000      0.0000      0.0000      0.0000      0.0000
 37      0.0000      0.0247      0.0000      0.0000      0.0120      0.0000      0.0000      0.0000      0.0000
 38      0.0000      0.0145      0.0000      0.0000      0.0000      0.0000      0.0000      0.0000      0.0000
 39      0.0000      0.0412      0.2113      0.0000      0.0000      0.0000      0.0000      0.0000      0.1592
 40      0.0000      0.0878      0.0000      0.3032      0.1446      0.0000      0.0000      0.0000      0.0000
 41      2.3940      1.4539      1.4196      1.2910      1.2991      0.9739      1.2895      1.3546      1.0686
 42      0.0000      0.0661      0.1256      0.0000      0.0000      0.0000      0.1362      0.0000      0.1440
 43      0.0000      0.2162      0.1537      0.1955      0.2226      0.3983      0.1706      0.4778      0.3087
 44      0.0000      0.3231      0.3216      0.4473      0.3880      0.3224      0.3841      0.3566      0.2789
 45      0.0000      0.2027      0.2399      0.1248      0.0919      0.1337      0.0000      0.1540      0.1165

# j      m_j: min, <> & last-chain-values for 1 ...  7 chains
  1  0.0000E+00  6.0839E-05  0.0000E+00  0.0000E+00  0.0000E+00  0.0000E+00  0.0000E+00  0.0000E+00  0.0000E+00
  2  3.3340E-02  2.3427E-02  2.3817E-02  2.4248E-02  2.4137E-02  2.3624E-02  2.3941E-02  2.5032E-02  2.3647E-02
  3  3.6775E-03  6.7249E-03  6.6883E-03  6.3937E-03  5.9354E-03  6.4030E-03  8.2348E-03  6.4051E-03  7.3336E-03
  4  1.0300E-01  9.6230E-02  9.6228E-02  9.8702E-02  1.0017E-01  9.8160E-02  9.7999E-02  9.8343E-02  9.7115E-02
  5  0.0000E+00  1.1538E-03  0.0000E+00  0.0000E+00  0.0000E+00  0.0000E+00  4.1390E-04  0.0000E+00  0.0000E+00
  6  0.0000E+00  8.6546E-04  3.6886E-03  0.0000E+00  9.1617E-05  0.0000E+00  5.7784E-03  0.0000E+00  5.3638E-05
  7  0.0000E+00  4.0191E-03  5.1633E-04  8.8287E-03  0.0000E+00  5.7779E-03  6.5320E-03  0.0000E+00  7.0843E-03
  8  0.0000E+00  2.4341E-03  0.0000E+00  0.0000E+00  3.0867E-04  0.0000E+00  0.0000E+00  0.0000E+00  0.0000E+00
  9  0.0000E+00  5.7551E-03  0.0000E+00  0.0000E+00  0.0000E+00  1.3620E-02  0.0000E+00  0.0000E+00  0.0000E+00
 10  0.0000E+00  1.5849E-02  2.9364E-02  1.6381E-02  0.0000E+00  8.0208E-02  0.0000E+00  7.4053E-02  1.5535E-02
 11  0.0000E+00  4.7367E-02  0.0000E+00  2.3957E-02  0.0000E+00  3.9552E-02  1.8835E-01  7.9941E-02  0.0000E+00
 12  4.6210E+01  4.3839E+01  4.3635E+01  4.4890E+01  4.4950E+01  4.2765E+01  4.5120E+01  4.4489E+01  4.4544E+01
 13  5.0772E+01  4.4950E+01  4.6331E+01  4.4489E+01  4.5920E+01  4.5710E+01  4.6492E+01  4.4920E+01  4.6566E+01
 14  0.0000E+00  2.2618E-01  0.0000E+00  0.0000E+00  7.9961E-02  5.1112E-01  0.0000E+00  0.0000E+00  0.0000E+00
 15  0.0000E+00  1.8218E-01  0.0000E+00  9.0391E-02  0.0000E+00  9.5618E-02  0.0000E+00  0.0000E+00  0.0000E+00
 16  0.0000E+00  3.5486E-05  0.0000E+00  0.0000E+00  0.0000E+00  0.0000E+00  0.0000E+00  0.0000E+00  0.0000E+00
 17  0.0000E+00  1.6588E-05  3.0386E-05  0.0000E+00  0.0000E+00  0.0000E+00  0.0000E+00  9.8977E-05  0.0000E+00
 18  8.5446E-03  1.0647E-02  1.0773E-02  1.0913E-02  1.0211E-02  1.0620E-02  1.0848E-02  9.7512E-03  1.0790E-02
 19  0.0000E+00  1.3626E-04  0.0000E+00  0.0000E+00  0.0000E+00  0.0000E+00  0.0000E+00  0.0000E+00  0.0000E+00
 20  0.0000E+00  2.3758E-04  0.0000E+00  0.0000E+00  0.0000E+00  0.0000E+00  0.0000E+00  1.7932E-04  0.0000E+00
 21  0.0000E+00  8.5339E-04  0.0000E+00  0.0000E+00  0.0000E+00  0.0000E+00  0.0000E+00  0.0000E+00  0.0000E+00
 22  0.0000E+00  1.3917E-03  0.0000E+00  0.0000E+00  0.0000E+00  1.6949E-04  0.0000E+00  0.0000E+00  0.0000E+00
 23  0.0000E+00  9.5248E-04  0.0000E+00  0.0000E+00  0.0000E+00  0.0000E+00  2.0425E-03  0.0000E+00  0.0000E+00
 24  0.0000E+00  3.1336E-03  0.0000E+00  1.6701E-03  0.0000E+00  0.0000E+00  0.0000E+00  0.0000E+00  0.0000E+00
 25  0.0000E+00  1.5471E-02  0.0000E+00  0.0000E+00  0.0000E+00  0.0000E+00  0.0000E+00  0.0000E+00  5.4252E-03
 26  0.0000E+00  9.0463E-02  0.0000E+00  0.0000E+00  0.0000E+00  3.1647E-01  0.0000E+00  0.0000E+00  1.3615E-01
 27  0.0000E+00  4.7271E-01  0.0000E+00  6.1858E-01  3.5342E-01  5.7985E-01  7.8641E-01  0.0000E+00  4.6554E-01
 28  0.0000E+00  1.5028E-01  3.8443E-02  6.2783E-02  0.0000E+00  0.0000E+00  0.0000E+00  0.0000E+00  0.0000E+00
 29  0.0000E+00  1.6347E-01  0.0000E+00  0.0000E+00  0.0000E+00  1.0594E+00  0.0000E+00  0.0000E+00  0.0000E+00
 30  0.0000E+00  1.4336E-01  0.0000E+00  0.0000E+00  0.0000E+00  0.0000E+00  0.0000E+00  0.0000E+00  0.0000E+00
 31  0.0000E+00  1.9973E-05  0.0000E+00  0.0000E+00  2.2780E-05  0.0000E+00  0.0000E+00  0.0000E+00  0.0000E+00
 32  0.0000E+00  2.0083E-05  0.0000E+00  0.0000E+00  0.0000E+00  0.0000E+00  0.0000E+00  0.0000E+00  0.0000E+00
 33  0.0000E+00  7.7229E-05  0.0000E+00  0.0000E+00  0.0000E+00  0.0000E+00  0.0000E+00  0.0000E+00  0.0000E+00
 34  0.0000E+00  1.1026E-04  0.0000E+00  0.0000E+00  0.0000E+00  0.0000E+00  0.0000E+00  0.0000E+00  0.0000E+00
 35  0.0000E+00  2.0074E-04  0.0000E+00  7.7381E-04  0.0000E+00  0.0000E+00  0.0000E+00  0.0000E+00  0.0000E+00
 36  0.0000E+00  5.1346E-04  2.2653E-03  0.0000E+00  0.0000E+00  0.0000E+00  0.0000E+00  0.0000E+00  0.0000E+00
 37  0.0000E+00  1.5215E-03  0.0000E+00  0.0000E+00  7.4917E-04  0.0000E+00  0.0000E+00  0.0000E+00  0.0000E+00
 38  0.0000E+00  2.0363E-03  0.0000E+00  0.0000E+00  0.0000E+00  0.0000E+00  0.0000E+00  0.0000E+00  0.0000E+00
 39  0.0000E+00  1.4614E-02  7.4835E-02  0.0000E+00  0.0000E+00  0.0000E+00  0.0000E+00  0.0000E+00  5.7121E-02
 40  0.0000E+00  5.3763E-02  0.0000E+00  1.8735E-01  8.9428E-02  0.0000E+00  0.0000E+00  0.0000E+00  0.0000E+00
 41  2.8694E+00  1.6207E+00  1.5814E+00  1.4527E+00  1.4631E+00  1.0781E+00  1.4770E+00  1.5155E+00  1.2061E+00
 42  0.0000E+00  1.4657E-01  2.7815E-01  0.0000E+00  0.0000E+00  0.0000E+00  3.1024E-01  0.0000E+00  3.2322E-01
 43  0.0000E+00  1.1086E+00  7.8753E-01  1.0123E+00  1.1536E+00  2.0286E+00  8.9872E-01  2.4589E+00  1.6028E+00
 44  0.0000E+00  3.7426E+00  3.7223E+00  5.2303E+00  4.5408E+00  3.7079E+00  4.5710E+00  4.1454E+00  3.2712E+00
 45  0.0000E+00  2.8551E+00  3.3777E+00  1.7740E+00  1.3080E+00  1.8701E+00  0.0000E+00  2.1776E+00  1.6618E+00

# AV, chi2 & Mass for <> & i_chain = 1 ...  7 solutions
AV       0.7263      0.7057      0.7089      0.7108      0.7053      0.7088      0.7139      0.7083      0.7069
chi2 2.5665E+00  2.6207E+00  2.6119E+00  2.6080E+00  2.6110E+00  2.6128E+00  2.6101E+00  2.6032E+00  2.6134E+00
Mass 5.1975E-10  5.4357E-10  5.4628E-10  5.4219E-10  5.3772E-10  5.4969E-10  5.3491E-10  5.4358E-10  5.3772E-10
  -2.36                                  [v0_min (km/s) before EX0s...]
  88.29                                  [vd_min (km/s) before EX0s...]


## Synthetic spectrum (Best Model) ##l_obs f_obs f_syn wei
 3070    [Nl_obs]
 3359.00    0.27942   0.51127   -1.000
 3360.00    0.26790   0.48973   -1.000
 3361.00    0.26265   0.48763   -1.000
 3362.00    0.27853   0.50701   -1.000
 3363.00    0.30975   0.53626   -1.000
 3364.00    0.33149   0.55840   -1.000
 3365.00    0.33589   0.56248   -1.000
 3366.00    0.34116   0.54913   -1.000
 3367.00    0.34078   0.52779   -1.000
 3368.00    0.33385   0.50995   -1.000
 3369.00    0.32017   0.50049   -1.000
 3370.00    0.32890   0.49664   -1.000
 3371.00    0.32551   0.49401   -1.000
 3372.00    0.32141   0.49472   -1.000
 3373.00    0.33279   0.50594   -1.000
 3374.00    0.34744   0.52914   -1.000
 3375.00    0.35943   0.55675   -1.000
 3376.00    0.37975   0.57406   -1.000
 3377.00    0.40793   0.57116   -1.000
 3378.00    0.40167   0.55228   -1.000
 3379.00    0.39709   0.53067   -1.000
 3380.00    0.39291   0.52012   -1.000
 3381.00    0.39504   0.52510   -1.000
 3382.00    0.40164   0.54028   -1.000
 3383.00    0.39689   0.55641   -1.000
 3384.00    0.40618   0.56950   -1.000
 3385.00    0.41626   0.58004   -1.000
 3386.00    0.42098   0.58640   -1.000
 3387.00    0.43081   0.58686   -1.000
 3388.00    0.43153   0.58369   -1.000
 3389.00    0.44029   0.57960   -1.000
 3390.00    0.44575   0.57388   -1.000
 3391.00    0.44049   0.56477   -1.000
 3392.00    0.44082   0.55462   -1.000
 3393.00    0.43954   0.55087   -1.000
 3394.00    0.44051   0.55923   -1.000
 3395.00    0.45518   0.57743   -1.000
 3396.00    0.47558   0.59839   -1.000
 3397.00    0.48880   0.61551   -1.000
 3398.00    0.49115   0.62468   -1.000
 3399.00    0.49737   0.62407   -1.000
 3400.00    0.50752   0.61494   -1.000
 3401.00    0.50799   0.60040   -1.000
 3402.00    0.49575   0.58414   -1.000
 3403.00    0.48212   0.57125   -1.000
 3404.00    0.48406   0.56456   36.403
 3405.00    0.47365   0.56091   -1.000
 3406.00    0.47138   0.55581   -1.000
 3407.00    0.47133   0.54948   37.668
 3408.00    0.46816   0.54681   37.760
 3409.00    0.46256   0.55142   -1.000
 3410.00    0.47160   0.55964   -1.000
 3411.00    0.48637   0.56373   36.513
 3412.00    0.48808   0.56031   37.918
 3413.00    0.48088   0.55329   38.409
 3414.00    0.47458   0.55007   38.096
 3415.00    0.47276   0.55453   36.960
 3416.00    0.47687   0.56617   -1.000
 3417.00    0.49241   0.58186   33.615
 3418.00    0.50273   0.59816   -1.000
 3419.00    0.51053   0.61074   -1.000
 3420.00    0.51659   0.61546   -1.000
 3421.00    0.53056   0.61140   32.420
 3422.00    0.51750   0.60290   33.334
 3423.00    0.50331   0.59507   -1.000
 3424.00    0.50919   0.59108   32.687
 3425.00    0.51590   0.59161   31.995
 3426.00    0.52623   0.59712   40.661
 3427.00    0.53748   0.60856   -1.000
 3428.00    0.53850   0.62453   -1.000
 3429.00    0.54663   0.63677   -1.000
 3430.00    0.55853   0.63728   -1.000
 3431.00    0.55256   0.62590   -1.000
 3432.00    0.54469   0.61086   31.953
 3433.00    0.54171   0.60174   40.659
 3434.00    0.53229   0.60152   -1.000
 3435.00    0.53846   0.60602   -1.000
 3436.00    0.54299   0.60718   32.132
 3437.00    0.52956   0.59996   33.755
 3438.00    0.51680   0.58290   35.950
 3439.00    0.50217   0.55816   38.486
 3440.00    0.48316   0.53127   39.653
 3441.00    0.46750   0.51143   39.647
 3442.00    0.46666   0.50499   39.113
 3443.00    0.46639   0.51091   37.392
 3444.00    0.47726   0.52372   35.332
 3445.00    0.50016   0.54012   33.562
 3446.00    0.52707   0.56029   41.992
 3447.00    0.54466   0.58347   -1.000
 3448.00    0.55582   0.60472   -1.000
 3449.00    0.56404   0.61673   -1.000
 3450.00    0.55942   0.61440   -1.000
 3451.00    0.56029   0.60022   -1.000
 3452.00    0.56681   0.58289   -1.000
 3453.00    0.55941   0.57288  249.632
 3454.00    0.55529   0.57357   -1.000
 3455.00    0.56339   0.57980   -1.000
 3456.00    0.56949   0.58267  249.632
 3457.00    0.57343   0.57664   96.572
 3458.00    0.55773   0.56421   31.980
 3459.00    0.54614   0.55093   32.250
 3460.00    0.54526   0.54206   41.491
 3461.00    0.53666   0.54306  249.632
 3462.00    0.54916   0.55512  249.632
 3463.00    0.57020   0.57024  249.632
 3464.00    0.59048   0.57942   -1.000
 3465.00    0.58306   0.58214  249.632
 3466.00    0.57827   0.58373  249.632
 3467.00    0.59164   0.58902  249.632
 3468.00    0.59677   0.59707  249.632
 3469.00    0.59412   0.60398  249.632
 3470.00    0.60838   0.60611  249.632
 3471.00    0.61613   0.60133   -1.000
 3472.00    0.59966   0.58930  249.632
 3473.00    0.58719   0.57136   95.647
 3474.00    0.56077   0.55095   32.443
 3475.00    0.54224   0.53601   33.160
 3476.00    0.52487   0.53398   42.389
 3477.00    0.52678   0.54513   -1.000
 3478.00    0.56259   0.56260  249.632
 3479.00    0.59860   0.57838   -1.000
 3480.00    0.61155   0.58717   -1.000
 3481.00    0.61261   0.58761   -1.000
 3482.00    0.61099   0.58192   -1.000
 3483.00    0.60482   0.57595   -1.000
 3484.00    0.60443   0.57693   -1.000
 3485.00    0.60636   0.58751   -1.000
 3486.00    0.61749   0.60143   -1.000
 3487.00    0.62896   0.60645   -1.000
 3488.00    0.63330   0.59724   -1.000
 3489.00    0.60505   0.57972   -1.000
 3490.00    0.56555   0.56589  249.632
 3491.00    0.56335   0.56293  249.632
 3492.00    0.57800   0.56705   -1.000
 3493.00    0.58611   0.56959   -1.000
 3494.00    0.58539   0.56517   -1.000
 3495.00    0.58107   0.55663   -1.000
 3496.00    0.56245   0.55280   -1.000
 3497.00    0.57305   0.56115   -1.000
 3498.00    0.58576   0.57905  249.632
 3499.00    0.60071   0.59470  249.632
 3500.00    0.61211   0.60199  249.632
 3501.00    0.62162   0.60474   -1.000
 3502.00    0.63202   0.60781   -1.000
 3503.00    0.64005   0.61004   -1.000
 3504.00    0.63569   0.60675   -1.000
 3505.00    0.62997   0.59925   -1.000
 3506.00    0.61792   0.59367   -1.000
 3507.00    0.62070   0.59242   -1.000
 3508.00    0.63223   0.59218   -1.000
 3509.00    0.62772   0.58843   -1.000
 3510.00    0.61405   0.58092   -1.000
 3511.00    0.60887   0.57244   -1.000
 3512.00    0.60211   0.56465   -1.000
 3513.00    0.58943   0.55924   -1.000
 3514.00    0.57894   0.56161   -1.000
 3515.00    0.58560   0.57503  249.632
 3516.00    0.60273   0.59541  249.632
 3517.00    0.61525   0.61300  249.632
 3518.00    0.62694   0.61864  249.632
 3519.00    0.62496   0.61059   -1.000
 3520.00    0.60549   0.59377   -1.000
 3521.00    0.58230   0.57579  249.632
 3522.00    0.57703   0.55988   90.936
 3523.00    0.56514   0.54504   32.169
 3524.00    0.54530   0.53286   32.951
 3525.00    0.53385   0.52865   43.529
 3526.00    0.53283   0.53763  249.632
 3527.00    0.55567   0.55863  249.632
 3528.00    0.58536   0.58277  249.632
 3529.00    0.60704   0.60030  249.632
 3530.00    0.62148   0.60726   -1.000
 3531.00    0.61415   0.60747  249.632
 3532.00    0.60471   0.60756  249.632
 3533.00    0.60022   0.61115  249.632
 3534.00    0.60634   0.61695  249.632
 3535.00    0.62201   0.62200  249.632
 3536.00    0.62465   0.62590  249.632
 3537.00    0.62519   0.63065  249.632
 3538.00    0.63214   0.63668  249.632
 3539.00    0.64351   0.64070  249.632
 3540.00    0.64053   0.63986  249.632
 3541.00    0.62920   0.63721  249.632
 3542.00    0.62293   0.63805   -1.000
 3543.00    0.62624   0.64278   -1.000
 3544.00    0.63007   0.64751   -1.000
 3545.00    0.63058   0.64819   -1.000
 3546.00    0.62887   0.64547   -1.000
 3547.00    0.62673   0.64321   -1.000
 3548.00    0.62377   0.64382   -1.000
 3549.00    0.62499   0.64633   -1.000
 3550.00    0.62683   0.64737   -1.000
 3551.00    0.62387   0.64446   -1.000
 3552.00    0.60945   0.63766   -1.000
 3553.00    0.60177   0.63054   -1.000
 3554.00    0.59718   0.62673   -1.000
 3555.00    0.60235   0.62668   -1.000
 3556.00    0.61022   0.62782   -1.000
 3557.00    0.60101   0.62681   -1.000
 3558.00    0.59295   0.62356   -1.000
 3559.00    0.59882   0.62192   -1.000
 3560.00    0.60221   0.62599   -1.000
 3561.00    0.60937   0.63463   -1.000
 3562.00    0.61115   0.63894   -1.000
 3563.00    0.61031   0.62831   87.602
 3564.00    0.59270   0.60176   32.557
 3565.00    0.55983   0.57380   33.389
 3566.00    0.53447   0.55762   33.049
 3567.00    0.53037   0.55211   33.246
 3568.00    0.52759   0.54783   34.244
 3569.00    0.52366   0.53912   34.354
 3570.00    0.51588   0.53150   33.121
 3571.00    0.51838   0.53251   43.484
 3572.00    0.53817   0.54085  249.632
 3573.00    0.55242   0.55006  249.632
 3574.00    0.55537   0.55598  249.632
 3575.00    0.56237   0.55949  249.632
 3576.00    0.57476   0.56227   -1.000
 3577.00    0.57620   0.56205   89.880
 3578.00    0.56568   0.55431   34.010
 3579.00    0.54989   0.53804   36.491
 3580.00    0.52857   0.51963   37.959
 3581.00    0.51240   0.50731   38.163
 3582.00    0.50117   0.50335   38.559
 3583.00    0.50510   0.50257   39.632
 3584.00    0.51113   0.49753   40.722
 3585.00    0.49677   0.48864   40.465
 3586.00    0.48633   0.48366   38.361
 3587.00    0.48956   0.48842   36.373
 3588.00    0.50260   0.50399   34.131
 3589.00    0.52059   0.52738   43.630
 3590.00    0.54713   0.55322  249.632
 3591.00    0.57112   0.57465  249.632
 3592.00    0.58630   0.58735  249.632
 3593.00    0.59367   0.59302  249.632
 3594.00    0.59734   0.59805  249.632
 3595.00    0.60320   0.60747  249.632
 3596.00    0.61185   0.62036  247.398
 3597.00    0.62577   0.63324  241.670
 3598.00    0.63577   0.64323  239.825
 3599.00    0.64147   0.64697  245.385
 3600.00    0.64343   0.64102  249.632
 3601.00    0.62959   0.62474  249.632
 3602.00    0.61163   0.60302  249.632
 3603.00    0.59342   0.58431  249.632
 3604.00    0.58605   0.57501   -1.000
 3605.00    0.58316   0.57463  249.632
 3606.00    0.58281   0.57576  249.632
 3607.00    0.58470   0.57178   -1.000
 3608.00    0.57420   0.56328   -1.000
 3609.00    0.55794   0.55801  249.632
 3610.00    0.55819   0.56188  249.632
 3611.00    0.56754   0.57135  249.632
 3612.00    0.58056   0.58094  249.632
 3613.00    0.58418   0.59004  249.632
 3614.00    0.59263   0.59971  249.632
 3615.00    0.60675   0.60633  249.632
 3616.00    0.60081   0.60087  249.632
 3617.00    0.57862   0.58133   83.429
 3618.00    0.55635   0.56205   43.846
 3619.00    0.53549   0.55832   -1.000
 3620.00    0.55665   0.57198   -1.000
 3621.00    0.59136   0.59305  249.632
 3622.00    0.61066   0.61133  249.015
 3623.00    0.62424   0.62474  243.963
 3624.00    0.62747   0.63850  234.441
 3625.00    0.63521   0.65702   -1.000
 3626.00    0.65412   0.67663   -1.000
 3627.00    0.66946   0.68774   -1.000
 3628.00    0.66533   0.68020   -1.000
 3629.00    0.64795   0.65164  249.632
 3630.00    0.61100   0.61375  249.632
 3631.00    0.57128   0.58437  249.632
 3632.00    0.55702   0.57484   -1.000
 3633.00    0.57284   0.58247  249.632
 3634.00    0.59581   0.59633  249.632
 3635.00    0.60435   0.60771  249.632
 3636.00    0.60538   0.61664  245.739
 3637.00    0.62096   0.62832  235.600
 3638.00    0.64144   0.64400  230.185
 3639.00    0.65805   0.65866  231.938
 3640.00    0.66258   0.66413  238.508
 3641.00    0.65259   0.65662  248.156
 3642.00    0.63747   0.63952  249.632
 3643.00    0.62256   0.62053  249.632
 3644.00    0.60828   0.60638  249.632
 3645.00    0.59422   0.59805  249.632
 3646.00    0.59261   0.59270  249.632
 3647.00    0.59190   0.58965  249.632
 3648.00    0.58614   0.59067  249.632
 3649.00    0.58729   0.59756  249.632
 3650.00    0.60496   0.61075  243.801
 3651.00    0.62209   0.62844  234.992
 3652.00    0.63576   0.64642  230.091
 3653.00    0.65282   0.66091  227.718
 3654.00    0.66112   0.67075  226.358
 3655.00    0.66166   0.67837   -1.000
 3656.00    0.66537   0.68651   -1.000
 3657.00    0.67262   0.69402   -1.000
 3658.00    0.68525   0.69826   -1.000
 3659.00    0.68277   0.69812   -1.000
 3660.00    0.67880   0.69396   -1.000
 3661.00    0.67118   0.68673   -1.000
 3662.00    0.66421   0.67817   -1.000
 3663.00    0.66643   0.67085  228.171
 3664.00    0.66555   0.66723  226.300
 3665.00    0.66673   0.66675  228.023
 3666.00    0.66715   0.66567  232.158
 3667.00    0.66489   0.66050  235.737
 3668.00    0.65271   0.65272  239.173
 3669.00    0.64067   0.64971  234.953
 3670.00    0.64210   0.65600   -1.000
 3671.00    0.65698   0.66834  224.151
 3672.00    0.66595   0.67891   -1.000
 3673.00    0.66983   0.68208   -1.000
 3674.00    0.66597   0.67752   -1.000
 3675.00    0.66146   0.66690  233.622
 3676.00    0.65760   0.65254  240.843
 3677.00    0.64478   0.63745  247.761
 3678.00    0.63628   0.62496  249.632
 3679.00    0.62431   0.61834  248.855
 3680.00    0.62240   0.61876  242.006
 3681.00    0.63220   0.62485  236.613
 3682.00    0.64432   0.63249  237.156
 3683.00    0.64762   0.63590  244.395
 3684.00    0.64263   0.63039  249.632
 3685.00    0.62748   0.61656  249.632
 3686.00    0.61250   0.60316  249.632
 3687.00    0.60468   0.60057  249.632
 3688.00    0.60943   0.61307  235.393
 3689.00    0.63128   0.63567  222.740
 3690.00    0.65647   0.65800  218.985
 3691.00    0.67879   0.67114  222.275
 3692.00    0.68682   0.67413  227.471
 3693.00    0.67690   0.67191  229.114
 3694.00    0.67539   0.66814  227.687
 3695.00    0.67229   0.66426  225.376
 3696.00    0.66679   0.66340  220.956
 3697.00    0.67680   0.67080  214.198
 3698.00    0.68832   0.68775  209.684
 3699.00    0.70287   0.70701  209.256
 3700.00    0.71267   0.71549  215.282
 3701.00    0.70834   0.70298  228.797
 3702.00    0.68472   0.66922   -1.000
 3703.00    0.64482   0.62607   -1.000
 3704.00    0.61165   0.58979   -1.000
 3705.00    0.58963   0.57249   -1.000
 3706.00    0.58748   0.57475   -1.000
 3707.00    0.60446   0.58698   -1.000
 3708.00    0.61679   0.59888   -1.000
 3709.00    0.62209   0.60590   -1.000
 3710.00    0.62638   0.61112   -1.000
 3711.00    0.63409   0.62231  218.615
 3712.00    0.65082   0.64463  209.967
 3713.00    0.68623   0.67423  206.444
 3714.00    0.72429   0.70205   -1.000
 3715.00    0.74009   0.71915   -1.000
 3716.00    0.73721   0.71954   -1.000
 3717.00    0.72091   0.70039   -1.000
 3718.00    0.68089   0.66100   -1.000
 3719.00    0.62183   0.60721   78.089
 3720.00    0.56451   0.55735   46.867
 3721.00    0.53031   0.53174  249.632
 3722.00    0.53890   0.54009  249.632
 3723.00    0.58167   0.57692  236.066
 3724.00    0.64199   0.62369   -1.000
 3725.00    0.68255   0.65895   -1.000
 3726.00    0.69435   0.67525   -1.000
 3727.00    0.68817   0.68166  240.003
 3728.00    0.67903   0.68642  238.230
 3729.00    0.68496   0.68666  243.740
 3730.00    0.68533   0.67217   -1.000
 3731.00    0.65969   0.63575   74.713
 3732.00    0.61650   0.58236   33.007
 3733.00    0.55328   0.52719   36.063
 3734.00    0.50154   0.48827   36.237
 3735.00    0.48654   0.47871   33.795
 3736.00    0.50700   0.50122   46.165
 3737.00    0.55290   0.54804  249.632
 3738.00    0.60678   0.60583  246.797
 3739.00    0.65316   0.65858  237.234
 3740.00    0.68627   0.69272  239.808
 3741.00    0.69580   0.70302  249.632
 3742.00    0.69003   0.69266  249.632
 3743.00    0.67080   0.66908  249.632
 3744.00    0.64425   0.64037  249.632
 3745.00    0.61650   0.61059   76.067
 3746.00    0.58683   0.57853   32.919
 3747.00    0.56109   0.54217   34.428
 3748.00    0.52793   0.50699   50.785
 3749.00    0.50081   0.48927   -1.000
 3750.00    0.51288   0.50299  249.632
 3751.00    0.56961   0.54688   -1.000
 3752.00    0.63867   0.60662   -1.000
 3753.00    0.69029   0.66521   -1.000
 3754.00    0.73003   0.70846   -1.000
 3755.00    0.75379   0.72622   -1.000
 3756.00    0.74170   0.71572   -1.000
 3757.00    0.70513   0.68705   -1.000
 3758.00    0.66372   0.65918  249.632
 3759.00    0.64216   0.64701  249.632
 3760.00    0.66368   0.65176   -1.000
 3761.00    0.68983   0.66439   -1.000
 3762.00    0.69986   0.67673   -1.000
 3763.00    0.69989   0.68442   -1.000
 3764.00    0.70258   0.68426   -1.000
 3765.00    0.70642   0.67428   -1.000
 3766.00    0.68734   0.65566   -1.000
 3767.00    0.66377   0.63148   -1.000
 3768.00    0.65267   0.60526   -1.000
 3769.00    0.63600   0.58270   -1.000
 3770.00    0.61786   0.57312   -1.000
 3771.00    0.62748   0.58475   -1.000
 3772.00    0.66425   0.61578   -1.000
 3773.00    0.70192   0.65289   -1.000
 3774.00    0.72283   0.68415   -1.000
 3775.00    0.72644   0.70749   -1.000
 3776.00    0.73590   0.72694  217.584
 3777.00    0.75931   0.74682  212.850
 3778.00    0.78049   0.76823  206.453
 3779.00    0.79421   0.78893  202.963
 3780.00    0.80561   0.80559  201.692
 3781.00    0.81898   0.81631  200.973
 3782.00    0.82592   0.82081  202.804
 3783.00    0.82511   0.81773  209.838
 3784.00    0.81921   0.80420   -1.000
 3785.00    0.79636   0.78004   -1.000
 3786.00    0.75795   0.75148  246.701
 3787.00    0.73346   0.72749  249.363
 3788.00    0.72541   0.71337   -1.000
 3789.00    0.72303   0.70832   -1.000
 3790.00    0.73066   0.70718   -1.000
 3791.00    0.73027   0.70277   -1.000
 3792.00    0.71520   0.68907   -1.000
 3793.00    0.69729   0.66462   -1.000
 3794.00    0.66742   0.63153   -1.000
 3795.00    0.63384   0.59321   -1.000
 3796.00    0.60282   0.55422   -1.000
 3797.00    0.56427   0.52392   -1.000
 3798.00    0.54236   0.51756   -1.000
 3799.00    0.56859   0.54439   -1.000
 3800.00    0.62435   0.59657   -1.000
 3801.00    0.68477   0.65648   -1.000
 3802.00    0.73392   0.70759   -1.000
 3803.00    0.76204   0.74109   -1.000
 3804.00    0.77475   0.75583   -1.000
 3805.00    0.77513   0.75606   -1.000
 3806.00    0.76223   0.75195  237.967
 3807.00    0.75507   0.75614  230.357
 3808.00    0.76921   0.77277  223.819
 3809.00    0.79340   0.79361  224.064
 3810.00    0.80780   0.80478  231.511
 3811.00    0.80061   0.79683  244.930
 3812.00    0.77655   0.77100  249.632
 3813.00    0.74474   0.73769  249.632
 3814.00    0.71039   0.71119  249.632
 3815.00    0.69744   0.70155  249.632
 3816.00    0.71013   0.70699  249.632
 3817.00    0.72799   0.71407   -1.000
 3818.00    0.73088   0.71006   -1.000
 3819.00    0.71303   0.69445   -1.000
 3820.00    0.68895   0.67906  249.632
 3821.00    0.68752   0.67431   -1.000
 3822.00    0.70200   0.67527   -1.000
 3823.00    0.69949   0.66918   74.021
 3824.00    0.67271   0.65167   33.560
 3825.00    0.64333   0.63014   33.875
 3826.00    0.62672   0.61433   33.467
 3827.00    0.62985   0.60691   32.917
 3828.00    0.63662   0.60331   32.750
 3829.00    0.64112   0.59641   33.595
 3830.00    0.63728   0.58059   35.596
 3831.00    0.61030   0.55364   37.795
 3832.00    0.57132   0.51814   38.159
 3833.00    0.53510   0.48176   37.053
 3834.00    0.50858   0.45549   35.816
 3835.00    0.50469   0.44703   35.652
 3836.00    0.51975   0.45566   36.481
 3837.00    0.54083   0.47516   36.749
 3838.00    0.55698   0.50049   35.470
 3839.00    0.57104   0.53188   52.395
 3840.00    0.60231   0.57144   -1.000
 3841.00    0.64937   0.61711   -1.000
 3842.00    0.70038   0.66220   -1.000
 3843.00    0.73395   0.69921   -1.000
 3844.00    0.74437   0.72475   -1.000
 3845.00    0.75252   0.74172   -1.000
 3846.00    0.76138   0.75444  249.632
 3847.00    0.76858   0.76308  249.632
 3848.00    0.76717   0.76564  249.632
 3849.00    0.75291   0.76471  249.632
 3850.00    0.74300   0.76622   -1.000
 3851.00    0.75039   0.77286   -1.000
 3852.00    0.76620   0.78058   -1.000
 3853.00    0.77435   0.78182  249.632
 3854.00    0.77063   0.77389  249.632
 3855.00    0.75688   0.76043  249.632
 3856.00    0.74450   0.74489   68.460
 3857.00    0.73614   0.72872   32.294
 3858.00    0.71348   0.71497   33.215
 3859.00    0.68753   0.71044   50.594
 3860.00    0.68900   0.72108   -1.000
 3861.00    0.72904   0.74416   -1.000
 3862.00    0.77972   0.76872  249.632
 3863.00    0.80259   0.78353   -1.000
 3864.00    0.79553   0.78684  249.632
 3865.00    0.78983   0.78455  249.632
 3866.00    0.78457   0.78204  249.632
 3867.00    0.77921   0.78062  249.632
 3868.00    0.77620   0.77694  249.632
 3869.00    0.76276   0.76577   69.113
 3870.00    0.73823   0.74597   49.888
 3871.00    0.71721   0.72410  249.632
 3872.00    0.70681   0.71189  249.632
 3873.00    0.71301   0.71694  249.632
 3874.00    0.74337   0.73474  248.672
 3875.00    0.76976   0.74903   -1.000
 3876.00    0.75959   0.74696   -1.000
 3877.00    0.72816   0.73129  249.632
 3878.00    0.70749   0.71516  249.632
 3879.00    0.70507   0.70731  249.632
 3880.00    0.71167   0.70540  249.632
 3881.00    0.70549   0.70265  249.632
 3882.00    0.69261   0.69553  249.632
 3883.00    0.69619   0.68286   -1.000
 3884.00    0.70048   0.66158   -1.000
 3885.00    0.67763   0.62795   -1.000
 3886.00    0.63400   0.58496   -1.000
 3887.00    0.59207   0.54519   -1.000
 3888.00    0.57079   0.52368   -1.000
 3889.00    0.57609   0.53061   -1.000
 3890.00    0.61687   0.56485   -1.000
 3891.00    0.67461   0.61308   -1.000
 3892.00    0.71895   0.65672   -1.000
 3893.00    0.74197   0.68565   -1.000
 3894.00    0.74780   0.70330   -1.000
 3895.00    0.75322   0.71834   -1.000
 3896.00    0.77593   0.73412   -1.000
 3897.00    0.78725   0.74723   -1.000
 3898.00    0.78398   0.75550   -1.000
 3899.00    0.78624   0.76216   -1.000
 3900.00    0.79625   0.77046   -1.000
 3901.00    0.80400   0.77835   -1.000
 3902.00    0.80443   0.78038   -1.000
 3903.00    0.79644   0.77404   -1.000
 3904.00    0.78093   0.76413   -1.000
 3905.00    0.76518   0.76003  224.012
 3906.00    0.76175   0.76895  209.795
 3907.00    0.77891   0.79133  199.542
 3908.00    0.81240   0.81986  196.189
 3909.00    0.84236   0.84432  194.418
 3910.00    0.85988   0.85959  192.859
 3911.00    0.86471   0.86574  193.186
 3912.00    0.85983   0.86408  196.272
 3913.00    0.85127   0.85680  200.625
 3914.00    0.83821   0.84724  204.438
 3915.00    0.83177   0.83817  207.055
 3916.00    0.82804   0.83011  211.231
 3917.00    0.81676   0.82100  218.835
 3918.00    0.80124   0.80885  228.951
 3919.00    0.78305   0.79490  237.286
 3920.00    0.76626   0.78358   -1.000
 3921.00    0.76146   0.77941   -1.000
 3922.00    0.76925   0.78195  234.024
 3923.00    0.77476   0.78463  240.145
 3924.00    0.76772   0.77886  249.632
 3925.00    0.74420   0.75943   -1.000
 3926.00    0.70858   0.72591   72.154
 3927.00    0.66135   0.68068   37.580
 3928.00    0.60610   0.62723   44.032
 3929.00    0.54486   0.56760   51.750
 3930.00    0.47182   0.50310   60.983
 3931.00    0.39439   0.43808   69.402
 3932.00    0.32673   0.38233   -1.000
 3933.00    0.29235   0.35129   -1.000
 3934.00    0.30184   0.35712   55.568
 3935.00    0.34598   0.39877   45.771
 3936.00    0.41613   0.46330   37.998
 3937.00    0.49349   0.53543   55.450
 3938.00    0.56679   0.60317   -1.000
 3939.00    0.62827   0.65938   -1.000
 3940.00    0.66732   0.70009   -1.000
 3941.00    0.68754   0.72434   -1.000
 3942.00    0.69561   0.73604   -1.000
 3943.00    0.69996   0.74288   -1.000
 3944.00    0.71331   0.75236   -1.000
 3945.00    0.74456   0.76671   -1.000
 3946.00    0.78053   0.78157  216.403
 3947.00    0.79380   0.79238  211.967
 3948.00    0.79255   0.80005  204.458
 3949.00    0.79930   0.80704  201.124
 3950.00    0.81471   0.81259  203.052
 3951.00    0.82125   0.81573  203.148
 3952.00    0.82008   0.81838  198.781
 3953.00    0.82534   0.82183  196.911
 3954.00    0.83404   0.82287  201.382
 3955.00    0.82883   0.81775  207.070
 3956.00    0.80947   0.80910  207.227
 3957.00    0.79863   0.80247  207.177
 3958.00    0.80446   0.79603  219.434
 3959.00    0.79633   0.78049   -1.000
 3960.00    0.75699   0.74974  249.632
 3961.00    0.70492   0.70805  249.632
 3962.00    0.66101   0.66493   66.859
 3963.00    0.62346   0.62324   35.451
 3964.00    0.58010   0.57642   42.472
 3965.00    0.51459   0.51622   52.270
 3966.00    0.42707   0.44382   61.351
 3967.00    0.34349   0.37515   62.725
 3968.00    0.29118   0.33123   54.948
 3969.00    0.29157   0.32550   45.175
 3970.00    0.33870   0.35791   37.438
 3971.00    0.41487   0.41738   55.487
 3972.00    0.50156   0.48891   -1.000
 3973.00    0.58085   0.56103   -1.000
 3974.00    0.64886   0.62716   -1.000
 3975.00    0.70514   0.68472   -1.000
 3976.00    0.74487   0.73383  197.937
 3977.00    0.78386   0.77614  187.427
 3978.00    0.82016   0.81263  180.881
 3979.00    0.84924   0.84043  180.369
 3980.00    0.87238   0.85575  182.694
 3981.00    0.87397   0.85977  184.069
 3982.00    0.86311   0.85992  181.507
 3983.00    0.86381   0.86380  177.771
 3984.00    0.88359   0.87297  174.557
 3985.00    0.90246   0.88451  171.497
 3986.00    0.91288   0.89633  168.943
 3987.00    0.92288   0.90821  168.371
 3988.00    0.93087   0.91967  168.255
 3989.00    0.93478   0.92973  165.838
 3990.00    0.93702   0.93883  161.848
 3991.00    0.94648   0.94810  160.586
 3992.00    0.96204   0.95572  163.514
 3993.00    0.96254   0.95726  167.429
 3994.00    0.95240   0.95024  170.993
 3995.00    0.93581   0.93712  173.421
 3996.00    0.91924   0.92472  172.346
 3997.00    0.90846   0.92070  166.445
 3998.00    0.91613   0.92838  159.651
 3999.00    0.94461   0.94476  155.601
 4000.00    0.96796   0.96292  153.281
 4001.00    0.98346   0.97471  153.483
 4002.00    0.99576   0.97385  159.962
 4003.00    0.98823   0.95885   -1.000
 4004.00    0.95458   0.93549  173.922
 4005.00    0.91888   0.91711  168.210
 4006.00    0.91828   0.91680  159.771
 4007.00    0.94800   0.93502  155.468
 4008.00    0.97024   0.96010  153.659
 4009.00    0.98350   0.98010  152.537
 4010.00    0.99747   0.99086  152.796
 4011.00    0.99557   0.99504  153.802
 4012.00    0.99047   0.99710  153.702
 4013.00    0.99539   0.99965  152.023
 4014.00    0.99813   1.00242  151.458
 4015.00    1.00059   1.00415  153.100
 4016.00    1.00492   1.00527  153.775
 4017.00    0.99936   1.00795  152.204
 4018.00    1.00155   1.01334  151.086
 4019.00    1.00978   1.01945  152.369
 4020.00    1.00928   1.02266  154.020
 4021.00    1.00429   1.02095   -1.000
 4022.00    1.00000   1.01510   -1.000
 4023.00    0.99204   1.00790   -1.000
 4024.00    0.98506   1.00387   -1.000
 4025.00    0.99684   1.00746  145.805
 4026.00    1.02023   1.01792  144.899
 4027.00    1.03580   1.02627  148.464
 4028.00    1.03522   1.02117  156.588
 4029.00    1.00578   0.99981  165.537
 4030.00    0.96358   0.97050  170.096
 4031.00    0.93639   0.94575  170.047
 4032.00    0.92926   0.93460  166.165
 4033.00    0.94011   0.93947  159.293
 4034.00    0.96117   0.95840  151.360
 4035.00    0.98906   0.98755  144.922
 4036.00    1.02181   1.02071  142.021
 4037.00    1.04880   1.04814  143.245
 4038.00    1.05816   1.06085  146.550
 4039.00    1.05098   1.05837  149.163
 4040.00    1.03426   1.04850  150.324
 4041.00    1.02008   1.03659   -1.000
 4042.00    1.01688   1.01895  165.219
 4043.00    0.99719   0.98923  180.081
 4044.00    0.94212   0.95302  183.548
 4045.00    0.89277   0.92985   -1.000
 4046.00    0.89514   0.93467   -1.000
 4047.00    0.94850   0.96422  149.773
 4048.00    1.00467   1.00176  146.796
 4049.00    1.02727   1.03068  146.439
 4050.00    1.03420   1.04363  148.943
 4051.00    1.03199   1.04160  153.001
 4052.00    1.02039   1.02943  156.208
 4053.00    1.00627   1.01413  158.040
 4054.00    0.99400   1.00197  159.187
 4055.00    0.99060   0.99422  160.550
 4056.00    0.99304   0.98978  160.505
 4057.00    0.98977   0.99025  156.592
 4058.00    0.99079   0.99820  152.087
 4059.00    1.00517   1.01030  151.822
 4060.00    1.02022   1.01499  158.569
 4061.00    1.01667   1.00257  170.144
 4062.00    0.97648   0.97618  174.880
 4063.00    0.93080   0.94975   -1.000
 4064.00    0.92124   0.93608  162.572
 4065.00    0.94727   0.93792  158.461
 4066.00    0.97164   0.95016  153.741
 4067.00    0.98242   0.96649  150.226
 4068.00    1.00058   0.97989  152.136
 4069.00    1.01529   0.98253   -1.000
 4070.00    1.00322   0.97263   -1.000
 4071.00    0.97563   0.95911  158.263
 4072.00    0.96218   0.95321  154.777
 4073.00    0.97827   0.95513   -1.000
 4074.00    0.99205   0.95305   -1.000
 4075.00    0.97155   0.93819   -1.000
 4076.00    0.92944   0.91610  178.375
 4077.00    0.89734   0.90222  169.033
 4078.00    0.90489   0.90854  157.267
 4079.00    0.94534   0.93410  149.441
 4080.00    0.98616   0.96514  148.454
 4081.00    1.00931   0.98500   -1.000
 4082.00    1.00987   0.98667   -1.000
 4083.00    0.99448   0.97669  156.236
 4084.00    0.97705   0.96856  152.328
 4085.00    0.97802   0.97222  146.752
 4086.00    1.00168   0.98809  141.547
 4087.00    1.02831   1.00811  139.573
 4088.00    1.04323   1.02174  141.418
 4089.00    1.04323   1.02314  144.261
 4090.00    1.03335   1.01442  146.428
 4091.00    1.02096   1.00206  147.304
 4092.00    1.00985   0.98986  148.687
 4093.00    1.00609   0.97601   -1.000
 4094.00    0.99593   0.95652   -1.000
 4095.00    0.96679   0.93036   -1.000
 4096.00    0.93940   0.89978   -1.000
 4097.00    0.91671   0.86525   -1.000
 4098.00    0.88903   0.82307   -1.000
 4099.00    0.84514   0.77092   -1.000
 4100.00    0.77720   0.71709   -1.000
 4101.00    0.71650   0.68169   -1.000
 4102.00    0.70958   0.68284   -1.000
 4103.00    0.76104   0.72206   -1.000
 4104.00    0.83575   0.78245   -1.000
 4105.00    0.89743   0.84098   -1.000
 4106.00    0.93365   0.88388   -1.000
 4107.00    0.95100   0.90991   -1.000
 4108.00    0.95250   0.92403   -1.000
 4109.00    0.94612   0.93266  160.718
 4110.00    0.94746   0.94139  157.794
 4111.00    0.96010   0.95315  154.626
 4112.00    0.97793   0.96827  152.123
 4113.00    0.99443   0.98575  150.222
 4114.00    1.00582   1.00279  149.888
 4115.00    1.01649   1.01446  151.914
 4116.00    1.02250   1.01672  156.177
 4117.00    1.01364   1.01018  159.773
 4118.00    0.99647   1.00012  159.595
 4119.00    0.98314   0.99258  157.701
 4120.00    0.98018   0.99049  156.988
 4121.00    0.98485   0.99302  156.234
 4122.00    0.99212   0.99835  153.948
 4123.00    1.00457   1.00562  152.319
 4124.00    1.01751   1.01300  153.154
 4125.00    1.02593   1.01638  155.914
 4126.00    1.02123   1.01298  158.258
 4127.00    1.00066   1.00509  159.266
 4128.00    0.98696   0.99744  160.678
 4129.00    0.98758   0.99095  164.286
 4130.00    0.98430   0.98210  169.558
 4131.00    0.97217   0.96982  172.409
 4132.00    0.95987   0.96020  169.566
 4133.00    0.95676   0.96211  162.274
 4134.00    0.97091   0.97885  155.526
 4135.00    0.99528   1.00550  151.836
 4136.00    1.02014   1.03335  149.466
 4137.00    1.03885   1.05598   -1.000
 4138.00    1.04855   1.07056   -1.000
 4139.00    1.05775   1.07392   -1.000
 4140.00    1.05868   1.06169  165.712
 4141.00    1.02505   1.03466  177.243
 4142.00    0.97296   1.00290   -1.000
 4143.00    0.94248   0.98187   -1.000
 4144.00    0.94530   0.98210   -1.000
 4145.00    0.97697   1.00001   -1.000
 4146.00    1.01088   1.02112  158.017
 4147.00    1.02504   1.03346  161.868
 4148.00    1.02111   1.03597   -1.000
 4149.00    1.01197   1.03487   -1.000
 4150.00    1.00982   1.03460   -1.000
 4151.00    1.00848   1.03351   -1.000
 4152.00    1.04181   1.02796  166.872
 4153.00    1.11362   1.01816   -1.000
 4154.00    1.05605   1.00937   -1.000
 4155.00    0.90240   1.00755   -1.000
 4156.00    0.90353   1.01460   -1.000
 4157.00    1.00146   1.02786   -1.000
 4158.00    1.03348   1.04289  158.513
 4159.00    1.03260   1.05580   -1.000
 4160.00    1.03901   1.06524   -1.000
 4161.00    1.04457   1.07256   -1.000
 4162.00    1.05118   1.07922   -1.000
 4163.00    1.05231   1.08423   -1.000
 4164.00    1.04600   1.08470   -1.000
 4165.00    1.03910   1.07896   -1.000
 4166.00    1.02718   1.06917   -1.000
 4167.00    1.01922   1.05977   -1.000
 4168.00    1.02280   1.05208   -1.000
 4169.00    1.02585   1.04113   -1.000
 4170.00    1.01314   1.02078  176.066
 4171.00    0.97632   0.99266   -1.000
 4172.00    0.94058   0.96814   -1.000
 4173.00    0.92919   0.95972   -1.000
 4174.00    0.94384   0.96928   -1.000
 4175.00    0.96760   0.98660   -1.000
 4176.00    0.97660   1.00072   -1.000
 4177.00    0.97254   1.00972   -1.000
 4178.00    0.97366   1.01788   -1.000
 4179.00    0.98930   1.02652   -1.000
 4180.00    1.00719   1.03190   -1.000
 4181.00    1.00650   1.03197   -1.000
 4182.00    0.99865   1.03061   -1.000
 4183.00    1.00498   1.03263   -1.000
 4184.00    1.01412   1.03652   -1.000
 4185.00    1.01681   1.03640   -1.000
 4186.00    1.00607   1.03043   -1.000
 4187.00    0.99100   1.02367   -1.000
 4188.00    0.99136   1.02244   -1.000
 4189.00    1.00128   1.02813   -1.000
 4190.00    1.00343   1.03786   -1.000
 4191.00    1.00682   1.04895   -1.000
 4192.00    1.02658   1.05861   -1.000
 4193.00    1.04130   1.06171   -1.000
 4194.00    1.03319   1.05356   -1.000
 4195.00    1.01451   1.03441   -1.000
 4196.00    0.99426   1.00992   -1.000
 4197.00    0.97332   0.98755   -1.000
 4198.00    0.95476   0.97232   -1.000
 4199.00    0.94990   0.96589   -1.000
 4200.00    0.95868   0.96717  169.016
 4201.00    0.96769   0.97345  167.039
 4202.00    0.97438   0.98280  165.155
 4203.00    0.98097   0.99550   -1.000
 4204.00    0.98479   1.01199   -1.000
 4205.00    0.99190   1.03083   -1.000
 4206.00    1.00442   1.04893   -1.000
 4207.00    1.01680   1.06267   -1.000
 4208.00    1.02538   1.06994   -1.000
 4209.00    1.02847   1.07231   -1.000
 4210.00    1.02797   1.07388   -1.000
 4211.00    1.03179   1.07631   -1.000
 4212.00    1.03742   1.07545   -1.000
 4213.00    1.03236   1.06563   -1.000
 4214.00    1.01190   1.04781   -1.000
 4215.00    0.98480   1.03128   -1.000
 4216.00    0.97935   1.02660   -1.000
 4217.00    1.00161   1.03747   -1.000
 4218.00    1.03164   1.05793   -1.000
 4219.00    1.05373   1.07677   -1.000
 4220.00    1.06346   1.08465   -1.000
 4221.00    1.05862   1.07636   -1.000
 4222.00    1.03825   1.04949  168.239
 4223.00    1.00397   1.00551  188.249
 4224.00    0.95555   0.95280  208.476
 4225.00    0.89282   0.90727   -1.000
 4226.00    0.83967   0.88758   -1.000
 4227.00    0.84965   0.90437   -1.000
 4228.00    0.91938   0.94969   -1.000
 4229.00    0.99521   0.99994  147.832
 4230.00    1.04236   1.03350  149.294
 4231.00    1.04916   1.04359  153.090
 4232.00    1.02749   1.03660  155.735
 4233.00    1.00528   1.02335   -1.000
 4234.00    0.99571   1.01158   -1.000
 4235.00    0.98989   1.00410  162.313
 4236.00    0.98673   1.00164   -1.000
 4237.00    0.99031   1.00522  156.568
 4238.00    0.99392   1.01502   -1.000
 4239.00    0.99715   1.02869   -1.000
 4240.00    1.01586   1.04254   -1.000
 4241.00    1.03630   1.05410   -1.000
 4242.00    1.03831   1.06314   -1.000
 4243.00    1.04703   1.06965   -1.000
 4244.00    1.05887   1.07131  149.549
 4245.00    1.04836   1.06436   -1.000
 4246.00    1.01865   1.04819   -1.000
 4247.00    0.99109   1.02838   -1.000
 4248.00    0.97782   1.01336   -1.000
 4249.00    0.97595   1.00864   -1.000
 4250.00    0.97667   1.01388   -1.000
 4251.00    0.98768   1.02359   -1.000
 4252.00    1.00878   1.03029   -1.000
 4253.00    1.01395   1.03005   -1.000
 4254.00    1.00583   1.02713   -1.000
 4255.00    1.00746   1.02879   -1.000
 4256.00    1.02422   1.03428  153.354
 4257.00    1.03552   1.03426  160.911
 4258.00    1.02148   1.02257  167.283
 4259.00    0.98746   1.00579   -1.000
 4260.00    0.96968   0.99882   -1.000
 4261.00    0.98373   1.01115   -1.000
 4262.00    1.01512   1.03859   -1.000
 4263.00    1.04660   1.06791   -1.000
 4264.00    1.06692   1.08759   -1.000
 4265.00    1.07284   1.09359   -1.000
 4266.00    1.06765   1.08762   -1.000
 4267.00    1.05302   1.07236   -1.000
 4268.00    1.03640   1.04886  165.056
 4269.00    1.01856   1.01838  175.724
 4270.00    0.98303   0.98558  181.422
 4271.00    0.94189   0.95859   -1.000
 4272.00    0.92749   0.94513   -1.000
 4273.00    0.94080   0.94791  168.753
 4274.00    0.95712   0.96476  159.063
 4275.00    0.98162   0.99200  150.367
 4276.00    1.01681   1.02359  147.409
 4277.00    1.04561   1.04940  151.294
 4278.00    1.04781   1.06036  157.402
 4279.00    1.02589   1.05619   -1.000
 4280.00    1.00678   1.04555   -1.000
 4281.00    0.99922   1.03750   -1.000
 4282.00    1.00148   1.03408   -1.000
 4283.00    1.00695   1.03093   -1.000
 4284.00    1.00620   1.02390   -1.000
 4285.00    0.99424   1.01228   -1.000
 4286.00    0.98230   0.99649  173.286
 4287.00    0.96918   0.97666  181.253
 4288.00    0.94409   0.95467  185.342
 4289.00    0.91103   0.93736   -1.000
 4290.00    0.89598   0.93388   -1.000
 4291.00    0.91995   0.94637   -1.000
 4292.00    0.96370   0.96576  162.362
 4293.00    0.98819   0.97920  164.665
 4294.00    0.98542   0.97970  168.026
 4295.00    0.97542   0.96774  174.596
 4296.00    0.96619   0.94593   -1.000
 4297.00    0.94164   0.91581   -1.000
 4298.00    0.89747   0.88096   -1.000
 4299.00    0.85228   0.84973  207.187
 4300.00    0.83358   0.83060  202.606
 4301.00    0.84252   0.82606   -1.000
 4302.00    0.85395   0.83262   -1.000
 4303.00    0.86713   0.84454   -1.000
 4304.00    0.87814   0.85521   -1.000
 4305.00    0.87861   0.85769   -1.000
 4306.00    0.86625   0.84910   -1.000
 4307.00    0.84330   0.83499  217.680
 4308.00    0.82516   0.82671  208.634
 4309.00    0.83210   0.83292  195.739
 4310.00    0.86342   0.85305  184.635
 4311.00    0.89553   0.88013  176.516
 4312.00    0.91578   0.91001  167.553
 4313.00    0.92813   0.94504   -1.000
 4314.00    0.95233   0.98879   -1.000
 4315.00    0.99905   1.03903   -1.000
 4316.00    1.05165   1.08581   -1.000
 4317.00    1.08592   1.11759   -1.000
 4318.00    1.09796   1.12905   -1.000
 4319.00    1.09152   1.12280   -1.000
 4320.00    1.07364   1.10380   -1.000
 4321.00    1.06009   1.07401  156.893
 4322.00    1.03828   1.03403  170.125
 4323.00    1.00134   0.98948  180.586
 4324.00    0.95629   0.95354  176.048
 4325.00    0.92358   0.94120   -1.000
 4326.00    0.93656   0.95884   -1.000
 4327.00    0.98865   0.99724  140.225
 4328.00    1.04051   1.03668  139.687
 4329.00    1.06332   1.06198  139.533
 4330.00    1.06236   1.07178  137.696
 4331.00    1.05874   1.07363  135.846
 4332.00    1.05590   1.07321  135.147
 4333.00    1.05391   1.06871  136.456
 4334.00    1.05288   1.05292  142.700
 4335.00    1.04262   1.01801   -1.000
 4336.00    1.00396   0.96052   -1.000
 4337.00    0.93575   0.88671   -1.000
 4338.00    0.86171   0.81340   -1.000
 4339.00    0.79218   0.76176   -1.000
 4340.00    0.74927   0.74817  168.794
 4341.00    0.77462   0.77603  155.917
 4342.00    0.85297   0.83227  149.333
 4343.00    0.92676   0.89549   -1.000
 4344.00    0.97554   0.95058  142.095
 4345.00    1.00882   0.99419  140.284
 4346.00    1.03008   1.02852  138.312
 4347.00    1.04326   1.05391  137.634
 4348.00    1.05990   1.06637  142.456
 4349.00    1.06878   1.06117  152.301
 4350.00    1.04584   1.04058  158.184
 4351.00    1.00648   1.01779  154.740
 4352.00    0.99505   1.00919  147.761
 4353.00    1.02138   1.02137  142.379
 4354.00    1.05387   1.04711  138.925
 4355.00    1.07789   1.07340  137.880
 4356.00    1.09606   1.09139  139.830
 4357.00    1.10055   1.09995  142.155
 4358.00    1.08493   1.10312   -1.000
 4359.00    1.07087   1.10694   -1.000
 4360.00    1.08382   1.11582   -1.000
 4361.00    1.10451   1.12922   -1.000
 4362.00    1.11457   1.14293   -1.000
 4363.00    1.11977   1.15325   -1.000
 4364.00    1.12951   1.15768   -1.000
 4365.00    1.13189   1.15354   -1.000
 4366.00    1.11529   1.14060   -1.000
 4367.00    1.09047   1.12359   -1.000
 4368.00    1.07523   1.10860   -1.000
 4369.00    1.07779   1.09811   -1.000
 4370.00    1.08773   1.09005  141.171
 4371.00    1.09222   1.08013  145.323
 4372.00    1.08480   1.06527  151.318
 4373.00    1.06115   1.04729  153.647
 4374.00    1.02799   1.03405  149.497
 4375.00    1.01732   1.03480   -1.000
 4376.00    1.03984   1.05146  138.024
 4377.00    1.07731   1.07540  137.736
 4378.00    1.10403   1.09373  139.665
 4379.00    1.11038   1.09642  144.755
 4380.00    1.10329   1.07788   -1.000
 4381.00    1.07903   1.03837   -1.000
 4382.00    1.02059   0.98765   -1.000
 4383.00    0.95167   0.94569  173.258
 4384.00    0.92673   0.93245  156.616
 4385.00    0.96365   0.95170  147.956
 4386.00    1.02505   0.98723   -1.000
 4387.00    1.05932   1.01840   -1.000
 4388.00    1.06342   1.03618   -1.000
 4389.00    1.06011   1.04425  146.855
 4390.00    1.06262   1.05020  143.618
 4391.00    1.07390   1.05762  143.021
 4392.00    1.09263   1.06460   -1.000
 4393.00    1.09405   1.06812   -1.000
 4394.00    1.07222   1.07018  141.789
 4395.00    1.06204   1.07649  136.650
 4396.00    1.08402   1.08775  136.456
 4397.00    1.10617   1.09638  140.516
 4398.00    1.10534   1.09500  145.181
 4399.00    1.08630   1.08541  145.627
 4400.00    1.06276   1.07589  143.165
 4401.00    1.06383   1.07074  145.349
 4402.00    1.08597   1.06594  152.852
 4403.00    1.07704   1.05592  157.036
 4404.00    1.03955   1.04288  153.867
 4405.00    1.02657   1.03519  150.412
 4406.00    1.04183   1.03778  148.848
 4407.00    1.05332   1.04924  144.697
 4408.00    1.05163   1.06731  138.604
 4409.00    1.06300   1.09154   -1.000
 4410.00    1.09821   1.11839   -1.000
 4411.00    1.12966   1.13801  132.602
 4412.00    1.14467   1.14043  138.924
 4413.00    1.12945   1.12378  145.185
 4414.00    1.08844   1.09634  146.439
 4415.00    1.05460   1.07333   -1.000
 4416.00    1.05006   1.06868   -1.000
 4417.00    1.06438   1.08558   -1.000
 4418.00    1.08706   1.11485   -1.000
 4419.00    1.11167   1.14170   -1.000
 4420.00    1.12147   1.15490   -1.000
 4421.00    1.11104   1.15317   -1.000
 4422.00    1.09669   1.14448   -1.000
 4423.00    1.09215   1.13733   -1.000
 4424.00    1.09931   1.13409   -1.000
 4425.00    1.10014   1.13259   -1.000
 4426.00    1.09179   1.13156   -1.000
 4427.00    1.08362   1.13220   -1.000
 4428.00    1.08606   1.13494   -1.000
 4429.00    1.09198   1.13822   -1.000
 4430.00    1.09873   1.14010   -1.000
 4431.00    1.10694   1.13845   -1.000
 4432.00    1.10695   1.13089   -1.000
 4433.00    1.08734   1.11725   -1.000
 4434.00    1.05561   1.10357   -1.000
 4435.00    1.04015   1.10090   -1.000
 4436.00    1.06637   1.11594   -1.000
 4437.00    1.11760   1.14299   -1.000
 4438.00    1.15519   1.16727  130.227
 4439.00    1.16110   1.17526  135.876
 4440.00    1.14479   1.16308   -1.000
 4441.00    1.11465   1.13856   -1.000
 4442.00    1.07892   1.11731   -1.000
 4443.00    1.06042   1.11296   -1.000
 4444.00    1.07349   1.12791   -1.000
 4445.00    1.10865   1.15261   -1.000
 4446.00    1.13307   1.17404   -1.000
 4447.00    1.13427   1.18538   -1.000
 4448.00    1.13464   1.18772   -1.000
 4449.00    1.13566   1.18527   -1.000
 4450.00    1.12879   1.18028   -1.000
 4451.00    1.12770   1.17142   -1.000
 4452.00    1.13132   1.15527   -1.000
 4453.00    1.11628   1.13097  146.979
 4454.00    1.08318   1.10463   -1.000
 4455.00    1.06359   1.08646   -1.000
 4456.00    1.07094   1.08184  142.756
 4457.00    1.08419   1.08708  143.344
 4458.00    1.09087   1.09436  144.605
 4459.00    1.08973   1.09949  145.996
 4460.00    1.08219   1.10369   -1.000
 4461.00    1.07440   1.11042   -1.000
 4462.00    1.08718   1.12188   -1.000
 4463.00    1.11389   1.13672   -1.000
 4464.00    1.13479   1.15004  134.443
 4465.00    1.13763   1.15671   -1.000
 4466.00    1.12603   1.15503   -1.000
 4467.00    1.11386   1.14765   -1.000
 4468.00    1.10054   1.14052   -1.000
 4469.00    1.09674   1.14032   -1.000
 4470.00    1.11316   1.15076   -1.000
 4471.00    1.13797   1.17012   -1.000
 4472.00    1.15922   1.19271   -1.000
 4473.00    1.18502   1.21239   -1.000
 4474.00    1.19997   1.22541   -1.000
 4475.00    1.19705   1.23167   -1.000
 4476.00    1.20010   1.23276   -1.000
 4477.00    1.20783   1.22836   -1.000
 4478.00    1.20295   1.21569  132.121
 4479.00    1.18073   1.19376  136.669
 4480.00    1.15078   1.16827   -1.000
 4481.00    1.12553   1.15090   -1.000
 4482.00    1.11984   1.15127   -1.000
 4483.00    1.14430   1.16940   -1.000
 4484.00    1.17648   1.19616   -1.000
 4485.00    1.19893   1.21877   -1.000
 4486.00    1.21482   1.22767  129.152
 4487.00    1.20804   1.22124  132.861
 4488.00    1.17775   1.20606   -1.000
 4489.00    1.14714   1.19246   -1.000
 4490.00    1.14224   1.18818   -1.000
 4491.00    1.15974   1.19351   -1.000
 4492.00    1.18031   1.20173   -1.000
 4493.00    1.18082   1.20552   -1.000
 4494.00    1.16587   1.20371   -1.000
 4495.00    1.15226   1.20175   -1.000
 4496.00    1.15526   1.20475   -1.000
 4497.00    1.16952   1.21219   -1.000
 4498.00    1.18936   1.21980   -1.000
 4499.00    1.19730   1.22425   -1.000
 4500.00    1.18130   1.22645   -1.000
 4501.00    1.17710   1.23152   -1.000
 4502.00    1.19392   1.24390   -1.000
 4503.00    1.22137   1.26190   -1.000
 4504.00    1.24426   1.27873   -1.000
 4505.00    1.24715   1.28795   -1.000
 4506.00    1.23975   1.28790   -1.000
 4507.00    1.23180   1.28240   -1.000
 4508.00    1.22544   1.27723   -1.000
 4509.00    1.22634   1.27547   -1.000
 4510.00    1.23378   1.27520   -1.000
 4511.00    1.23276   1.27224   -1.000
 4512.00    1.21738   1.26457   -1.000
 4513.00    1.20428   1.25389   -1.000
 4514.00    1.19786   1.24364   -1.000
 4515.00    1.20109   1.23638   -1.000
 4516.00    1.20283   1.23245   -1.000
 4517.00    1.19504   1.23010   -1.000
 4518.00    1.18815   1.22811   -1.000
 4519.00    1.19404   1.22751   -1.000
 4520.00    1.20444   1.22867   -1.000
 4521.00    1.20192   1.22893   -1.000
 4522.00    1.18612   1.22483   -1.000
 4523.00    1.16949   1.21558   -1.000
 4524.00    1.16684   1.20288   -1.000
 4525.00    1.16136   1.18763   -1.000
 4526.00    1.14119   1.16943   -1.000
 4527.00    1.12507   1.14988   -1.000
 4528.00    1.11641   1.13415   -1.000
 4529.00    1.11344   1.12762  136.424
 4530.00    1.12480   1.13035  135.177
 4531.00    1.14117   1.13620  137.585
 4532.00    1.14208   1.13775  142.121
 4533.00    1.12369   1.13339  142.377
 4534.00    1.09905   1.13020   -1.000
 4535.00    1.10101   1.13821   -1.000
 4536.00    1.13792   1.16157   -1.000
 4537.00    1.19076   1.19391  123.052
 4538.00    1.21405   1.22252  125.567
 4539.00    1.20411   1.23770   -1.000
 4540.00    1.23686   1.23945  125.723
 4541.00    1.00059   1.23520   -1.000
 4542.00    0.29349   1.23155   -1.000
 4543.00   -0.03751   1.22931    0.000
 4544.00    0.22717   1.22552   -1.000
 4545.00    0.70682   1.21855   -1.000
 4546.00    0.48548   1.20898   -1.000
 4547.00    0.85190   1.19718   -1.000
 4548.00    1.16101   1.18408   93.660
 4549.00    1.14025   1.17389   -1.000
 4550.00    1.14142   1.17175   -1.000
 4551.00    1.16117   1.17720  132.443
 4552.00    1.17191   1.18328  133.961
 4553.00    1.15713   1.18413   -1.000
 4554.00    1.14087   1.18178   -1.000
 4555.00    1.14725   1.18381   -1.000
 4556.00    1.17249   1.19584   -1.000
 4557.00    1.20341   1.21661  120.564
 4558.00    1.22458   1.23925  120.775
 4559.00    1.23166   1.25728   -1.000
 4560.00    1.23152   1.26765   -1.000
 4561.00    1.23033   1.26925   -1.000
 4562.00    1.21939   1.26219   -1.000
 4563.00    1.19663   1.24913   -1.000
 4564.00    1.18074   1.23644   -1.000
 4565.00    1.18647   1.23143   -1.000
 4566.00    1.20534   1.23710   -1.000
 4567.00    1.22810   1.24943   -1.000
 4568.00    1.24242   1.25972  123.181
 4569.00    1.24327   1.26090  126.432
 4570.00    1.22103   1.25250   -1.000
 4571.00    1.19128   1.24105   -1.000
 4572.00    1.19125   1.23567   -1.000
 4573.00    1.21173   1.24076   -1.000
 4574.00    1.22486   1.25231   -1.000
 4575.00    1.23174   1.26208   -1.000
 4576.00    1.23228   1.26492   -1.000
 4577.00    1.22443   1.25997   -1.000
 4578.00    1.21235   1.24803   -1.000
 4579.00    1.19833   1.23078   -1.000
 4580.00    1.17652   1.21217   -1.000
 4581.00    1.16886   1.19726   -1.000
 4582.00    1.17593   1.18957  127.794
 4583.00    1.17743   1.18908  128.499
 4584.00    1.17556   1.19336  127.496
 4585.00    1.18178   1.20016  124.559
 4586.00    1.19544   1.20910  121.697
 4587.00    1.21218   1.22026  120.807
 4588.00    1.22546   1.23178  122.038
 4589.00    1.22885   1.23980  124.212
 4590.00    1.22077   1.24103   -1.000
 4591.00    1.20819   1.23592   -1.000
 4592.00    1.19566   1.22897   -1.000
 4593.00    1.19087   1.22532   -1.000
 4594.00    1.19664   1.22706   -1.000
 4595.00    1.20629   1.23261   -1.000
 4596.00    1.22007   1.23909  124.308
 4597.00    1.22715   1.24410  124.997
 4598.00    1.22868   1.24595  126.144
 4599.00    1.22632   1.24379  126.728
 4600.00    1.21068   1.23874   -1.000
 4601.00    1.19956   1.23357   -1.000
 4602.00    1.20291   1.23111   -1.000
 4603.00    1.21143   1.23237   -1.000
 4604.00    1.21745   1.23668  123.088
 4605.00    1.22615   1.24312  120.945
 4606.00    1.23444   1.25143  118.385
 4607.00    1.24401   1.26167  116.656
 4608.00    1.26061   1.27272  116.645
 4609.00    1.27627   1.28158  117.974
 4610.00    1.27535   1.28495  119.399
 4611.00    1.26024   1.28211   -1.000
 4612.00    1.24617   1.27638   -1.000
 4613.00    1.24445   1.27156   -1.000
 4614.00    1.24378   1.26894   -1.000
 4615.00    1.24443   1.26739   -1.000
 4616.00    1.24234   1.26506   -1.000
 4617.00    1.24091   1.26148   -1.000
 4618.00    1.24054   1.25846  119.130
 4619.00    1.24236   1.25909  117.425
 4620.00    1.24712   1.26503  116.851
 4621.00    1.26463   1.27453  117.087
 4622.00    1.27459   1.28321  117.342
 4623.00    1.27103   1.28735  118.180
 4624.00    1.26239   1.28686   -1.000
 4625.00    1.25755   1.28392   -1.000
 4626.00    1.25547   1.28020   -1.000
 4627.00    1.25167   1.27673   -1.000
 4628.00    1.24814   1.27415   -1.000
 4629.00    1.24532   1.27325   -1.000
 4630.00    1.24731   1.27472   -1.000
 4631.00    1.25812   1.27774   -1.000
 4632.00    1.25882   1.27941   -1.000
 4633.00    1.25196   1.27697   -1.000
 4634.00    1.25106   1.27098   -1.000
 4635.00    1.25180   1.26433  123.411
 4636.00    1.24534   1.25920  124.247
 4637.00    1.23929   1.25613  124.240
 4638.00    1.23481   1.25587   -1.000
 4639.00    1.23379   1.25951   -1.000
 4640.00    1.23699   1.26725   -1.000
 4641.00    1.25597   1.27697   -1.000
 4642.00    1.27310   1.28435  119.514
 4643.00    1.27154   1.28467  122.607
 4644.00    1.26349   1.27602  126.050
 4645.00    1.24374   1.26060  127.404
 4646.00    1.21720   1.24342   -1.000
 4647.00    1.20804   1.23110   -1.000
 4648.00    1.22453   1.22930  121.021
 4649.00    1.23910   1.23806  120.435
 4650.00    1.24666   1.25150  120.221
 4651.00    1.25254   1.26233  121.190
 4652.00    1.24488   1.26634   -1.000
 4653.00    1.23553   1.26369   -1.000
 4654.00    1.22441   1.25728   -1.000
 4655.00    1.21507   1.25199   -1.000
 4656.00    1.22053   1.25340   -1.000
 4657.00    1.24054   1.26486   -1.000
 4658.00    1.27050   1.28422  113.417
 4659.00    1.29333   1.30407  114.459
 4660.00    1.30170   1.31569  116.929
 4661.00    1.29301   1.31525   -1.000
 4662.00    1.27538   1.30475   -1.000
 4663.00    1.26535   1.28845   -1.000
 4664.00    1.26729   1.26900  126.123
 4665.00    1.26063   1.24689  131.507
 4666.00    1.22586   1.22332  133.067
 4667.00    1.18687   1.20342  129.984
 4668.00    1.17331   1.19471   -1.000
 4669.00    1.18968   1.20131  120.944
 4670.00    1.21951   1.21973  119.583
 4671.00    1.24661   1.24174  119.508
 4672.00    1.26183   1.26001  119.453
 4673.00    1.26265   1.27243  118.263
 4674.00    1.26480   1.28097  116.515
 4675.00    1.27189   1.28737  116.480
 4676.00    1.27857   1.29004  118.546
 4677.00    1.28136   1.28549  120.992
 4678.00    1.27174   1.27342  123.093
 4679.00    1.25987   1.25832  124.501
 4680.00    1.24531   1.24615  123.646
 4681.00    1.23700   1.24047  120.872
 4682.00    1.24013   1.24143  118.879
 4683.00    1.25175   1.24726  118.801
 4684.00    1.26754   1.25500  118.975
 4685.00    1.27807   1.26169  119.485
 4686.00    1.27686   1.26593  119.678
 4687.00    1.27673   1.26808  119.676
 4688.00    1.27417   1.26898  120.322
 4689.00    1.27008   1.26897  120.748
 4690.00    1.26642   1.26833  119.729
 4691.00    1.26829   1.26789  118.007
 4692.00    1.27443   1.26930  115.582
 4693.00    1.28232   1.27352  113.812
 4694.00    1.29191   1.27904  113.878
 4695.00    1.30703   1.28281  116.503
 4696.00    1.31363   1.28210   -1.000
 4697.00    1.29553   1.27526  122.019
 4698.00    1.26793   1.26290  121.602
 4699.00    1.25978   1.24828  121.992
 4700.00    1.26662   1.23454   -1.000
 4701.00    1.26406   1.22341   -1.000
 4702.00    1.24931   1.21588   -1.000
 4703.00    1.23935   1.21367  121.286
 4704.00    1.24743   1.21735   -1.000
 4705.00    1.25843   1.22347   -1.000
 4706.00    1.25402   1.22642  125.985
 4707.00    1.23573   1.22437  125.769
 4708.00    1.21964   1.22136  122.770
 4709.00    1.21813   1.22309  119.288
 4710.00    1.23973   1.23140  117.594
 4711.00    1.26927   1.24302  118.184
 4712.00    1.28365   1.25296   -1.000
 4713.00    1.28214   1.25772  120.780
 4714.00    1.27094   1.25863  118.923
 4715.00    1.26395   1.26087  116.577
 4716.00    1.26950   1.26815  115.484
 4717.00    1.28448   1.27947  115.025
 4718.00    1.29761   1.29023  114.632
 4719.00    1.29692   1.29707  115.274
 4720.00    1.29422   1.29964  116.159
 4721.00    1.29445   1.29985  115.842
 4722.00    1.28689   1.29987  114.696
 4723.00    1.28496   1.30050  114.517
 4724.00    1.29618   1.30038  116.684
 4725.00    1.30086   1.29647  120.789
 4726.00    1.28386   1.28646  123.998
 4727.00    1.26379   1.27117  124.291
 4728.00    1.24885   1.25524  123.160
 4729.00    1.24544   1.24400  122.110
 4730.00    1.25298   1.23983  120.762
 4731.00    1.26213   1.24167  119.607
 4732.00    1.26146   1.24728  118.848
 4733.00    1.26475   1.25392  118.188
 4734.00    1.27091   1.25875  118.996
 4735.00    1.27482   1.26063  119.453
 4736.00    1.26976   1.26080  118.284
 4737.00    1.26351   1.26156  117.930
 4738.00    1.27672   1.26446  118.495
 4739.00    1.28436   1.26914  118.788
 4740.00    1.28169   1.27374  118.087
 4741.00    1.27503   1.27729  116.856
 4742.00    1.27917   1.28072  116.729
 4743.00    1.29131   1.28473  116.889
 4744.00    1.29414   1.28866  116.240
 4745.00    1.29126   1.29179  115.117
 4746.00    1.29324   1.29473  114.652
 4747.00    1.29364   1.29891  114.746
 4748.00    1.30057   1.30482  114.851
 4749.00    1.30829   1.31104  115.509
 4750.00    1.30699   1.31540  116.726
 4751.00    1.30218   1.31538  117.796
 4752.00    1.30159   1.30967  118.640
 4753.00    1.28918   1.29975  118.666
 4754.00    1.27820   1.28953  118.956
 4755.00    1.27194   1.28320  119.756
 4756.00    1.27088   1.28250  120.070
 4757.00    1.27152   1.28649  119.318
 4758.00    1.27349   1.29249  118.904
 4759.00    1.27574   1.29710   -1.000
 4760.00    1.27383   1.29636   -1.000
 4761.00    1.26573   1.28751   -1.000
 4762.00    1.25015   1.27159   -1.000
 4763.00    1.23437   1.25375   -1.000
 4764.00    1.22735   1.24081  124.606
 4765.00    1.23547   1.23626  123.060
 4766.00    1.24441   1.24049  120.491
 4767.00    1.25361   1.25213  118.560
 4768.00    1.27311   1.26829  118.354
 4769.00    1.28861   1.28377  119.205
 4770.00    1.29160   1.29369  120.265
 4771.00    1.28209   1.29711  119.426
 4772.00    1.27337   1.29805   -1.000
 4773.00    1.27825   1.30120   -1.000
 4774.00    1.29377   1.30827  115.802
 4775.00    1.30782   1.31656  116.100
 4776.00    1.31038   1.32200  116.769
 4777.00    1.30639   1.32256  117.969
 4778.00    1.29439   1.31877   -1.000
 4779.00    1.28446   1.31294   -1.000
 4780.00    1.28271   1.30715   -1.000
 4781.00    1.28592   1.30222  120.600
 4782.00    1.28578   1.29741  120.784
 4783.00    1.27667   1.29215  121.073
 4784.00    1.27993   1.28680  122.113
 4785.00    1.27405   1.28182  122.945
 4786.00    1.26239   1.27788  122.998
 4787.00    1.25706   1.27593  122.486
 4788.00    1.25742   1.27699  121.756
 4789.00    1.25258   1.28132   -1.000
 4790.00    1.26286   1.28892   -1.000
 4791.00    1.27231   1.29975   -1.000
 4792.00    1.28423   1.31317   -1.000
 4793.00    1.30331   1.32753   -1.000
 4794.00    1.31886   1.33992   -1.000
 4795.00    1.32391   1.34719   -1.000
 4796.00    1.31819   1.34711   -1.000
 4797.00    1.30393   1.34026   -1.000
 4798.00    1.28682   1.33031   -1.000
 4799.00    1.27395   1.32210   -1.000
 4800.00    1.27640   1.31959   -1.000
 4801.00    1.28697   1.32329   -1.000
 4802.00    1.30231   1.32966   -1.000
 4803.00    1.30408   1.33347   -1.000
 4804.00    1.29470   1.33224   -1.000
 4805.00    1.28444   1.32712   -1.000
 4806.00    1.28465   1.32156   -1.000
 4807.00    1.28634   1.31833   -1.000
 4808.00    1.29180   1.31830   -1.000
 4809.00    1.29101   1.32113   -1.000
 4810.00    1.28931   1.32542   -1.000
 4811.00    1.30014   1.32963   -1.000
 4812.00    1.30945   1.33357   -1.000
 4813.00    1.30882   1.33809   -1.000
 4814.00    1.31462   1.34352   -1.000
 4815.00    1.31369   1.34960   -1.000
 4816.00    1.31347   1.35541   -1.000
 4817.00    1.31789   1.35974   -1.000
 4818.00    1.31965   1.36181   -1.000
 4819.00    1.32169   1.36133   -1.000
 4820.00    1.32094   1.35743   -1.000
 4821.00    1.31938   1.34810   -1.000
 4822.00    1.30410   1.33285   -1.000
 4823.00    1.28335   1.31576   -1.000
 4824.00    1.27823   1.30400   -1.000
 4825.00    1.28528   1.30276  115.851
 4826.00    1.30199   1.30989  117.070
 4827.00    1.30877   1.31822  117.950
 4828.00    1.29925   1.32231   -1.000
 4829.00    1.29631   1.32120   -1.000
 4830.00    1.29602   1.31694   -1.000
 4831.00    1.29159   1.31129  117.832
 4832.00    1.29077   1.30631  116.172
 4833.00    1.29376   1.30449  115.517
 4834.00    1.30731   1.30666  115.594
 4835.00    1.31506   1.31101  116.081
 4836.00    1.31551   1.31422  117.463
 4837.00    1.31368   1.31345  119.484
 4838.00    1.30152   1.30800  119.989
 4839.00    1.28294   1.29920  119.774
 4840.00    1.27452   1.29024  119.239
 4841.00    1.27660   1.28439  118.402
 4842.00    1.28154   1.28324  117.275
 4843.00    1.29071   1.28602  115.559
 4844.00    1.29817   1.29088  114.707
 4845.00    1.30238   1.29608  116.454
 4846.00    1.30955   1.29912  118.365
 4847.00    1.30267   1.29753  118.708
 4848.00    1.28364   1.29246  117.348
 4849.00    1.27612   1.28799  116.776
 4850.00    1.27941   1.28608  117.270
 4851.00    1.28574   1.28437  118.215
 4852.00    1.28969   1.27773  121.241
 4853.00    1.27581   1.26272  124.760
 4854.00    1.24811   1.23945  125.252
 4855.00    1.21948   1.21188  124.129
 4856.00    1.20692   1.18419  126.560
 4857.00    1.20140   1.15444   -1.000
 4858.00    1.17198   1.11475   -1.000
 4859.00    1.09232   1.05892   -1.000
 4860.00    0.97896   0.99578   -1.000
 4861.00    0.90748   0.94855   -1.000
 4862.00    0.93689   0.93889  131.956
 4863.00    1.02881   0.97115   -1.000
 4864.00    1.11402   1.02916   -1.000
 4865.00    1.16966   1.09169   -1.000
 4866.00    1.20303   1.14447   -1.000
 4867.00    1.22124   1.18229   -1.000
 4868.00    1.23207   1.20430  125.415
 4869.00    1.23473   1.21096  128.619
 4870.00    1.21968   1.20513  128.360
 4871.00    1.19706   1.19437  125.142
 4872.00    1.19503   1.18929  122.669
 4873.00    1.21899   1.19735  121.498
 4874.00    1.24047   1.21563  120.792
 4875.00    1.24726   1.23506  120.340
 4876.00    1.24978   1.24903  118.847
 4877.00    1.25280   1.25874  117.474
 4878.00    1.25888   1.26919  118.068
 4879.00    1.27274   1.28194  119.874
 4880.00    1.28373   1.29330  120.852
 4881.00    1.27817   1.29872  120.649
 4882.00    1.27054   1.29679   -1.000
 4883.00    1.26861   1.29048   -1.000
 4884.00    1.27041   1.28244  123.647
 4885.00    1.25729   1.27393  123.230
 4886.00    1.24979   1.26625  122.952
 4887.00    1.25295   1.25992  124.388
 4888.00    1.25459   1.25365  127.001
 4889.00    1.24277   1.24546  126.886
 4890.00    1.22217   1.23690  122.555
 4891.00    1.22191   1.23556  116.946
 4892.00    1.25049   1.24948  113.100
 4893.00    1.29518   1.27967  110.759
 4894.00    1.32773   1.31721  109.935
 4895.00    1.34327   1.34905  110.036
 4896.00    1.34712   1.36829  112.014
 4897.00    1.34997   1.37445   -1.000
 4898.00    1.34712   1.37084   -1.000
 4899.00    1.32118   1.36169   -1.000
 4900.00    1.30746   1.35130   -1.000
 4901.00    1.30711   1.34227   -1.000
 4902.00    1.30803   1.33553   -1.000
 4903.00    1.29969   1.33151   -1.000
 4904.00    1.30514   1.33215   -1.000
 4905.00    1.32706   1.33870  113.641
 4906.00    1.34167   1.34722  116.083
 4907.00    1.33535   1.35009  119.366
 4908.00    1.31896   1.34297   -1.000
 4909.00    1.29527   1.32739   -1.000
 4910.00    1.27716   1.31084   -1.000
 4911.00    1.28459   1.30162  116.428
 4912.00    1.29879   1.30432  114.900
 4913.00    1.30499   1.31651  113.791
 4914.00    1.32092   1.33118  114.040
 4915.00    1.33660   1.34019  117.382
 4916.00    1.34063   1.33633  123.427
 4917.00    1.31869   1.31522  129.533
 4918.00    1.27050   1.27990  131.925
 4919.00    1.22802   1.24106  128.665
 4920.00    1.20378   1.21245  124.027
 4921.00    1.21060   1.20288  121.681
 4922.00    1.23806   1.21114  121.266
 4923.00    1.26098   1.22920   -1.000
 4924.00    1.26755   1.24951  117.131
 4925.00    1.27183   1.27062  114.844
 4926.00    1.30076   1.29347  113.590
 4927.00    1.32823   1.31712  112.764
 4928.00    1.34191   1.33845  112.067
 4929.00    1.34559   1.35324  112.840
 4930.00    1.35380   1.35856  115.569
 4931.00    1.34876   1.35283  119.612
 4932.00    1.32359   1.33713  120.684
 4933.00    1.28961   1.31681   -1.000
 4934.00    1.27016   1.30013   -1.000
 4935.00    1.27842   1.29122  121.296
 4936.00    1.29445   1.28723  124.729
 4937.00    1.28299   1.28160  124.478
 4938.00    1.26164   1.27347  120.753
 4939.00    1.25246   1.27081  116.806
 4940.00    1.27962   1.28058  114.359
 4941.00    1.31400   1.30223  113.128
 4942.00    1.32940   1.32729  113.013
 4943.00    1.33631   1.34620  113.700
 4944.00    1.34244   1.35522  114.056
 4945.00    1.34119   1.35648  113.251
 4946.00    1.33331   1.35537  111.951
 4947.00    1.33166   1.35671   -1.000
 4948.00    1.34293   1.36232  110.992
 4949.00    1.35012   1.36953  111.383
 4950.00    1.35212   1.37403  112.124
 4951.00    1.35428   1.37361  113.333
 4952.00    1.34813   1.36912  114.734
 4953.00    1.34731   1.36140  117.509
 4954.00    1.33938   1.34857  123.078
 4955.00    1.31901   1.32740  128.345
 4956.00    1.27740   1.29787   -1.000
 4957.00    1.23382   1.26928   -1.000
 4958.00    1.23262   1.25688   -1.000
 4959.00    1.27227   1.26813  114.468
 4960.00    1.31456   1.29656  114.771
 4961.00    1.33208   1.32626  115.631
 4962.00    1.33640   1.34566  116.928
 4963.00    1.33563   1.35196  119.227
 4964.00    1.32383   1.34763   -1.000
 4965.00    1.30446   1.33687   -1.000
 4966.00    1.29330   1.32431   -1.000
 4967.00    1.29286   1.31405  120.157
 4968.00    1.29193   1.30856  118.934
 4969.00    1.30108   1.30864  117.655
 4970.00    1.30938   1.31411  116.270
 4971.00    1.31714   1.32353  115.121
 4972.00    1.32486   1.33469  114.546
 4973.00    1.33422   1.34505  115.129
 4974.00    1.33923   1.35257  116.282
 4975.00    1.34296   1.35531  117.807
 4976.00    1.34079   1.35278  119.681
 4977.00    1.33204   1.34535  121.242
 4978.00    1.31522   1.33378  122.920
 4979.00    1.30702   1.31817  126.579
 4980.00    1.29059   1.29737  130.728
 4981.00    1.26303   1.27077  131.462
 4982.00    1.23047   1.24186  129.378
 4983.00    1.22507   1.21963  125.922
 4984.00    1.23574   1.21356  121.985
 4985.00    1.25259   1.22665  118.813
 4986.00    1.28061   1.25236   -1.000
 4987.00    1.30342   1.27940  119.893
 4988.00    1.31529   1.29858  121.231
 4989.00    1.30708   1.30572  121.484
 4990.00    1.29145   1.30336  120.579
 4991.00    1.28976   1.29785  119.967
 4992.00    1.30098   1.29499  119.840
 4993.00    1.30558   1.29677  119.316
 4994.00    1.30918   1.30202  118.714
 4995.00    1.31206   1.30831  119.217
 4996.00    1.32207   1.31290  120.680
 4997.00    1.31806   1.31262  122.997
 4998.00    1.30706   1.30500  124.705
 4999.00    1.28272   1.29031  125.032
 5000.00    1.26761   1.27316  124.042
 5001.00    1.27365   1.25972  123.156
 5002.00    1.28340   1.25343   -1.000
 5003.00    1.28493   1.25189   -1.000
 5004.00    1.28199   1.24914   -1.000
 5005.00    1.26014   1.24233  126.068
 5006.00    1.23293   1.23543  122.312
 5007.00    1.24966   1.23661  120.611
 5008.00    1.29262   1.24833   -1.000
 5009.00    1.31406   1.26349   -1.000
 5010.00    1.30901   1.27133   -1.000
 5011.00    1.28600   1.26501  132.996
 5012.00    1.25349   1.24715  132.942
 5013.00    1.22653   1.22653  130.330
 5014.00    1.21707   1.21255  127.560
 5015.00    1.23264   1.20829  126.685
 5016.00    1.26021   1.21102   -1.000
 5017.00    1.26238   1.21649   -1.000
 5018.00    1.25485   1.22282   -1.000
 5019.00    1.26917   1.23109   -1.000
 5020.00    1.28199   1.24105   -1.000
 5021.00    1.28836   1.25019   -1.000
 5022.00    1.28521   1.25747   -1.000
 5023.00    1.29072   1.26410  122.261
 5024.00    1.29820   1.27198  122.631
 5025.00    1.30124   1.27978  123.229
 5026.00    1.29934   1.28378  122.363
 5027.00    1.29607   1.28417  120.219
 5028.00    1.30244   1.28499  118.414
 5029.00    1.31487   1.28980  116.524
 5030.00    1.33032   1.29963   -1.000
 5031.00    1.33447   1.31230  115.057
 5032.00    1.34460   1.32333  118.227
 5033.00    1.35302   1.32753  122.826
 5034.00    1.33270   1.32128  125.307
 5035.00    1.29718   1.30536  125.979
 5036.00    1.27939   1.28567  127.363
 5037.00    1.28194   1.26660  131.869
 5038.00    1.27693   1.24806   -1.000
 5039.00    1.24618   1.22687  138.143
 5040.00    1.20731   1.20504  132.371
 5041.00    1.19057   1.19359  124.380
 5042.00    1.24292   1.20231   -1.000
 5043.00    0.85281   1.23152   -1.000
 5044.00    0.33112   1.27081   -1.000
 5045.00    0.01966   1.30561   -1.000
 5046.00    0.65044   1.32642   -1.000
 5047.00    1.27875   1.32966   -1.000
 5048.00    1.32395   1.31776  132.308
 5049.00    1.29635   1.29760  123.635
 5050.00    1.28583   1.27883  121.658
 5051.00    1.28685   1.26960  118.611
 5052.00    1.30068   1.27355  116.332
 5053.00    1.33106   1.28833   -1.000
 5054.00    1.35826   1.30756   -1.000
 5055.00    1.36868   1.32418   -1.000
 5056.00    1.37441   1.33620   -1.000
 5057.00    1.37119   1.34476  114.961
 5058.00    1.36793   1.35130  114.274
 5059.00    1.36715   1.35627  114.219
 5060.00    1.36773   1.35896  115.564
 5061.00    1.37123   1.35770  118.699
 5062.00    1.36645   1.35061  122.855
 5063.00    1.34555   1.33634  124.684
 5064.00    1.31456   1.31690  123.543
 5065.00    1.29112   1.29926  121.698
 5066.00    1.30586   1.28887  121.116
 5067.00    1.32352   1.28689   -1.000
 5068.00    1.32136   1.28965   -1.000
 5069.00    1.32437   1.29316   -1.000
 5070.00    1.33834   1.29535   -1.000
 5071.00    1.33739   1.29516   -1.000
 5072.00    1.32758   1.29278   -1.000
 5073.00    1.32830   1.29057   -1.000
 5074.00    1.32951   1.29105   -1.000
 5075.00    1.33517   1.29337   -1.000
 5076.00    1.33410   1.29339   -1.000
 5077.00    1.32650   1.28643   -1.000
 5078.00    1.30227   1.27137   -1.000
 5079.00    1.26261   1.25188  129.336
 5080.00    1.24755   1.23618  126.549
 5081.00    1.26350   1.23084   -1.000
 5082.00    1.28899   1.23608   -1.000
 5083.00    1.30137   1.24871   -1.000
 5084.00    1.30797   1.26465   -1.000
 5085.00    1.33270   1.28170   -1.000
 5086.00    1.35148   1.29759   -1.000
 5087.00    1.35600   1.30987   -1.000
 5088.00    1.35539   1.31817   -1.000
 5089.00    1.35602   1.32390   -1.000
 5090.00    1.36667   1.32902   -1.000
 5091.00    1.37105   1.33484   -1.000
 5092.00    1.37036   1.34116   -1.000
 5093.00    1.37569   1.34573   -1.000
 5094.00    1.38053   1.34459   -1.000
 5095.00    1.37448   1.33447   -1.000
 5096.00    1.35656   1.31554   -1.000
 5097.00    1.32795   1.29290   -1.000
 5098.00    1.30416   1.27396   -1.000
 5099.00    1.29907   1.26542   -1.000
 5100.00    1.31650   1.26934   -1.000
 5101.00    1.34251   1.28252   -1.000
 5102.00    1.35539   1.29754   -1.000
 5103.00    1.35676   1.30678   -1.000
 5104.00    1.35382   1.30740   -1.000
 5105.00    1.34105   1.30014   -1.000
 5106.00    1.31698   1.28817   -1.000
 5107.00    1.29910   1.27567  124.076
 5108.00    1.29508   1.26700   -1.000
 5109.00    1.29892   1.26530   -1.000
 5110.00    1.30201   1.27134   -1.000
 5111.00    1.31621   1.28350   -1.000
 5112.00    1.33728   1.29891   -1.000
 5113.00    1.35402   1.31389   -1.000
 5114.00    1.36356   1.32678   -1.000
 5115.00    1.36956   1.33719   -1.000
 5116.00    1.37653   1.34528   -1.000
 5117.00    1.38306   1.35049   -1.000
 5118.00    1.38491   1.35126   -1.000
 5119.00    1.38381   1.34649   -1.000
 5120.00    1.37138   1.33584   -1.000
 5121.00    1.35172   1.32073   -1.000
 5122.00    1.32945   1.30316   -1.000
 5123.00    1.30566   1.28570  126.724
 5124.00    1.29384   1.27066  126.041
 5125.00    1.29805   1.26074   -1.000
 5126.00    1.30762   1.25630   -1.000
 5127.00    1.30519   1.25581   -1.000
 5128.00    1.30461   1.25718   -1.000
 5129.00    1.30816   1.26012   -1.000
 5130.00    1.31129   1.26543   -1.000
 5131.00    1.32614   1.27331   -1.000
 5132.00    1.33438   1.28268   -1.000
 5133.00    1.34150   1.29152   -1.000
 5134.00    1.35716   1.29813   -1.000
 5135.00    1.36233   1.30054   -1.000
 5136.00    1.34649   1.29723   -1.000
 5137.00    1.32265   1.28780   -1.000
 5138.00    1.29739   1.27525  124.239
 5139.00    1.28754   1.26374  124.961
 5140.00    1.29145   1.25676   -1.000
 5141.00    1.29242   1.25483   -1.000
 5142.00    1.28938   1.25627   -1.000
 5143.00    1.28713   1.25972   -1.000
 5144.00    1.29918   1.26394   -1.000
 5145.00    1.31654   1.26718   -1.000
 5146.00    1.32066   1.26800   -1.000
 5147.00    1.31811   1.26687   -1.000
 5148.00    1.32482   1.26632   -1.000
 5149.00    1.32990   1.26734   -1.000
 5150.00    1.32157   1.26703   -1.000
 5151.00    1.30243   1.26356   -1.000
 5152.00    1.28609   1.25870   -1.000
 5153.00    1.29840   1.25609   -1.000
 5154.00    1.31896   1.25978   -1.000
 5155.00    1.33590   1.27114   -1.000
 5156.00    1.36190   1.28869   -1.000
 5157.00    1.38123   1.30768   -1.000
 5158.00    1.38430   1.32366   -1.000
 5159.00    1.38293   1.33341   -1.000
 5160.00    1.38849   1.33592   -1.000
 5161.00    1.38460   1.33129   -1.000
 5162.00    1.37569   1.31934   -1.000
 5163.00    1.36555   1.29831   -1.000
 5164.00    1.34426   1.26512   -1.000
 5165.00    1.29464   1.21798   -1.000
 5166.00    1.21366   1.16174   -1.000
 5167.00    1.14537   1.11194   -1.000
 5168.00    1.12579   1.08252   -1.000
 5169.00    1.16929   1.07719   -1.000
 5170.00    1.21001   1.08261   -1.000
 5171.00    1.19543   1.08301   -1.000
 5172.00    1.14510   1.08097   -1.000
 5173.00    1.14710   1.08996   -1.000
 5174.00    1.22199   1.12313   -1.000
 5175.00    1.29706   1.17542   -1.000
 5176.00    1.34071   1.22846   -1.000
 5177.00    1.36243   1.26813   -1.000
 5178.00    1.36368   1.28734   -1.000
 5179.00    1.36163   1.28534   -1.000
 5180.00    1.34681   1.26205   -1.000
 5181.00    1.30653   1.21794   -1.000
 5182.00    1.24161   1.16322   -1.000
 5183.00    1.16957   1.11614   -1.000
 5184.00    1.15848   1.09825   -1.000
 5185.00    1.22512   1.11721   -1.000
 5186.00    1.29703   1.16139   -1.000
 5187.00    1.33054   1.21001   -1.000
 5188.00    1.33649   1.24516   -1.000
 5189.00    1.33377   1.26304   -1.000
 5190.00    1.32431   1.26633   -1.000
 5191.00    1.29741   1.25962   -1.000
 5192.00    1.26391   1.24889  127.692
 5193.00    1.26047   1.24137  125.778
 5194.00    1.28649   1.24048   -1.000
 5195.00    1.30522   1.24678   -1.000
 5196.00    1.31717   1.25783   -1.000
 5197.00    1.33066   1.27229   -1.000
 5198.00    1.34059   1.28910   -1.000
 5199.00    1.35471   1.30511   -1.000
 5200.00    1.36789   1.31561   -1.000
 5201.00    1.36009   1.31655   -1.000
 5202.00    1.34920   1.30559   -1.000
 5203.00    1.32952   1.28388   -1.000
 5204.00    1.29482   1.25575   -1.000
 5205.00    1.26877   1.22787   -1.000
 5206.00    1.26994   1.20635   -1.000
 5207.00    1.27025   1.19503   -1.000
 5208.00    1.26781   1.19466   -1.000
 5209.00    1.27207   1.20514   -1.000
 5210.00    1.29414   1.22667   -1.000
 5211.00    1.33544   1.25639   -1.000
 5212.00    1.36998   1.28819   -1.000
 5213.00    1.38829   1.31215   -1.000
 5214.00    1.38343   1.32204   -1.000
 5215.00    1.35375   1.31867   -1.000
 5216.00    1.33401   1.31069  117.327
 5217.00    1.34317   1.30904   -1.000
 5218.00    1.36485   1.31830   -1.000
 5219.00    1.38376   1.33612   -1.000
 5220.00    1.40157   1.35421   -1.000
 5221.00    1.40786   1.36546   -1.000
 5222.00    1.40028   1.36447   -1.000
 5223.00    1.38446   1.34877   -1.000
 5224.00    1.34689   1.31897   -1.000
 5225.00    1.29524   1.28086  130.769
 5226.00    1.25235   1.24615  123.646
 5227.00    1.24474   1.22953  118.483
 5228.00    1.28710   1.23635   -1.000
 5229.00    1.34395   1.26094   -1.000
 5230.00    1.37627   1.28737   -1.000
 5231.00    1.37891   1.30331   -1.000
 5232.00    1.36297   1.30571   -1.000
 5233.00    1.34500   1.30068   -1.000
 5234.00    1.33895   1.29854   -1.000
 5235.00    1.35746   1.30633   -1.000
 5236.00    1.38529   1.32393   -1.000
 5237.00    1.40105   1.34477   -1.000
 5238.00    1.40743   1.36237   -1.000
 5239.00    1.40550   1.37280   -1.000
 5240.00    1.41054   1.37670   -1.000
 5241.00    1.41366   1.37674   -1.000
 5242.00    1.40844   1.37595   -1.000
 5243.00    1.40657   1.37600   -1.000
 5244.00    1.41385   1.37596   -1.000
 5245.00    1.40787   1.37246   -1.000
 5246.00    1.37764   1.36256  121.424
 5247.00    1.35062   1.34804  121.644
 5248.00    1.33853   1.33314  122.409
 5249.00    1.34233   1.32240  121.878
 5250.00    1.33573   1.31722  120.216
 5251.00    1.33127   1.31699  119.005
 5252.00    1.35082   1.32008   -1.000
 5253.00    1.35932   1.32466   -1.000
 5254.00    1.35829   1.32990   -1.000
 5255.00    1.36290   1.33712  112.335
 5256.00    1.38037   1.34867   -1.000
 5257.00    1.40469   1.36260   -1.000
 5258.00    1.42345   1.37358   -1.000
 5259.00    1.42941   1.37407   -1.000
 5260.00    1.40199   1.35949   -1.000
 5261.00    1.36447   1.33010   -1.000
 5262.00    1.32616   1.29117   -1.000
 5263.00    1.28746   1.25104   -1.000
 5264.00    1.26078   1.21844   -1.000
 5265.00    1.25357   1.19878   -1.000
 5266.00    1.26257   1.19183   -1.000
 5267.00    1.28707   1.19110   -1.000
 5268.00    1.28568   1.18855   -1.000
 5269.00    1.23990   1.18407   -1.000
 5270.00    1.22564   1.18388   -1.000
 5271.00    1.27311   1.19658   -1.000
 5272.00    1.32711   1.22121   -1.000
 5273.00    1.34447   1.24810   -1.000
 5274.00    1.34188   1.27081   -1.000
 5275.00    1.34893   1.28896   -1.000
 5276.00    1.37191   1.30756   -1.000
 5277.00    1.40206   1.32878   -1.000
 5278.00    1.42208   1.34816   -1.000
 5279.00    1.42624   1.35859   -1.000
 5280.00    1.40895   1.35511   -1.000
 5281.00    1.38403   1.34108   -1.000
 5282.00    1.35841   1.32451   -1.000
 5283.00    1.34319   1.31497   -1.000
 5284.00    1.35662   1.31840   -1.000
 5285.00    1.39368   1.33590   -1.000
 5286.00    1.42776   1.36107   -1.000
 5287.00    1.43930   1.38536   -1.000
 5288.00    1.43465   1.40248   -1.000
 5289.00    1.43708   1.41156  109.565
 5290.00    1.43786   1.41524  110.197
 5291.00    1.43691   1.41554  111.239
 5292.00    1.43063   1.41315  112.713
 5293.00    1.42917   1.40784  115.757
 5294.00    1.42088   1.39737  120.207
 5295.00    1.40352   1.37973  123.460
 5296.00    1.37542   1.35624  122.743
 5297.00    1.34116   1.33244  119.642
 5298.00    1.33350   1.31672  117.400
 5299.00    1.35208   1.31413   -1.000
 5300.00    1.37544   1.32223   -1.000
 5301.00    1.38745   1.33620   -1.000
 5302.00    1.38575   1.35155   -1.000
 5303.00    1.40602   1.36710   -1.000
 5304.00    1.43115   1.38193   -1.000
 5305.00    1.43612   1.39267   -1.000
 5306.00    1.42243   1.39798  111.051
 5307.00    1.41687   1.39965  109.882
 5308.00    1.42428   1.40141  109.176
 5309.00    1.43848   1.40641   -1.000
 5310.00    1.44929   1.41317   -1.000
 5311.00    1.45295   1.41828   -1.000
 5312.00    1.45482   1.41844   -1.000
 5313.00    1.44979   1.41250   -1.000
 5314.00    1.44587   1.40144   -1.000
 5315.00    1.43275   1.38816   -1.000
 5316.00    1.40743   1.37672   -1.000
 5317.00    1.40034   1.37195   -1.000
 5318.00    1.41580   1.37500   -1.000
 5319.00    1.42911   1.38243   -1.000
 5320.00    1.42403   1.38729   -1.000
 5321.00    1.42085   1.38413   -1.000
 5322.00    1.40467   1.37264   -1.000
 5323.00    1.39640   1.35498   -1.000
 5324.00    1.38869   1.33488   -1.000
 5325.00    1.37853   1.31321   -1.000
 5326.00    1.35996   1.28925   -1.000
 5327.00    1.30801   1.26462   -1.000
 5328.00    1.26095   1.24574  119.956
 5329.00    1.28123   1.24437   -1.000
 5330.00    1.34487   1.26274   -1.000
 5331.00    1.39081   1.29419   -1.000
 5332.00    1.40738   1.32562   -1.000
 5333.00    1.40170   1.34890   -1.000
 5334.00    1.42113   1.36377   -1.000
 5335.00    1.42775   1.37191   -1.000
 5336.00    1.41886   1.37378   -1.000
 5337.00    1.41441   1.36925   -1.000
 5338.00    1.40974   1.35842   -1.000
 5339.00    1.38614   1.34399   -1.000
 5340.00    1.36536   1.33078   -1.000
 5341.00    1.37267   1.32576   -1.000
 5342.00    1.39826   1.33102   -1.000
 5343.00    1.41800   1.34345   -1.000
 5344.00    1.42433   1.35448   -1.000
 5345.00    1.41642   1.35843   -1.000
 5346.00    1.40626   1.35550   -1.000
 5347.00    1.40126   1.34953   -1.000
 5348.00    1.40041   1.34560   -1.000
 5349.00    1.39796   1.34653   -1.000
 5350.00    1.40494   1.35355   -1.000
 5351.00    1.42840   1.36531   -1.000
 5352.00    1.44402   1.37918   -1.000
 5353.00    1.43964   1.39226   -1.000
 5354.00    1.44574   1.40354   -1.000
 5355.00    1.45895   1.41382   -1.000
 5356.00    1.46280   1.42253   -1.000
 5357.00    1.47094   1.42872   -1.000
 5358.00    1.47280   1.43098   -1.000
 5359.00    1.46816   1.42868   -1.000
 5360.00    1.46017   1.42162   -1.000
 5361.00    1.44057   1.40982   -1.000
 5362.00    1.42168   1.39462   -1.000
 5363.00    1.42038   1.37895   -1.000
 5364.00    1.41684   1.36565   -1.000
 5365.00    1.40592   1.35672   -1.000
 5366.00    1.40252   1.35123   -1.000
 5367.00    1.40709   1.34620   -1.000
 5368.00    1.40581   1.33723   -1.000
 5369.00    1.38522   1.32280   -1.000
 5370.00    1.35633   1.30624   -1.000
 5371.00    1.34018   1.29550   -1.000
 5372.00    1.36258   1.29919   -1.000
 5373.00    1.41042   1.31842   -1.000
 5374.00    1.44832   1.34773   -1.000
 5375.00    1.46034   1.37556   -1.000
 5376.00    1.46700   1.39490   -1.000
 5377.00    1.46285   1.40335   -1.000
 5378.00    1.45712   1.40340   -1.000
 5379.00    1.45008   1.39829   -1.000
 5380.00    1.43621   1.39063   -1.000
 5381.00    1.42519   1.38246   -1.000
 5382.00    1.41918   1.37590   -1.000
 5383.00    1.42279   1.37325   -1.000
 5384.00    1.43183   1.37623   -1.000
 5385.00    1.44430   1.38390   -1.000
 5386.00    1.44887   1.39284   -1.000
 5387.00    1.44430   1.39807   -1.000
 5388.00    1.44104   1.39700   -1.000
 5389.00    1.42740   1.38972   -1.000
 5390.00    1.41457   1.37862   -1.000
 5391.00    1.40864   1.36659   -1.000
 5392.00    1.40654   1.35593   -1.000
 5393.00    1.40225   1.34688   -1.000
 5394.00    1.39715   1.33861   -1.000
 5395.00    1.38624   1.32927   -1.000
 5396.00    1.36603   1.31877   -1.000
 5397.00    1.35677   1.31159   -1.000
 5398.00    1.37318   1.31182   -1.000
 5399.00    1.40168   1.32147   -1.000
 5400.00    1.41915   1.33529   -1.000
 5401.00    1.42666   1.34516   -1.000
 5402.00    1.42271   1.34456   -1.000
 5403.00    1.39726   1.33197   -1.000
 5404.00    1.35952   1.31181   -1.000
 5405.00    1.33683   1.29305   -1.000
 5406.00    1.33997   1.28415   -1.000
 5407.00    1.36824   1.28579   -1.000
 5408.00    1.39394   1.29404   -1.000
 5409.00    1.38405   1.30241   -1.000
 5410.00    1.36830   1.31006   -1.000
 5411.00    1.39037   1.32004   -1.000
 5412.00    1.41768   1.33292   -1.000
 5413.00    1.43235   1.34680   -1.000
 5414.00    1.42797   1.35842   -1.000
 5415.00    1.42044   1.36737   -1.000
 5416.00    1.43032   1.37587   -1.000
 5417.00    1.44724   1.38377   -1.000
 5418.00    1.44508   1.38972   -1.000
 5419.00    1.43698   1.39215   -1.000
 5420.00    1.43467   1.39076   -1.000
 5421.00    1.43310   1.38644   -1.000
 5422.00    1.43530   1.38008   -1.000
 5423.00    1.42649   1.37271   -1.000
 5424.00    1.41666   1.36794   -1.000
 5425.00    1.41276   1.36793   -1.000
 5426.00    1.43462   1.37136   -1.000
 5427.00    1.44244   1.37275   -1.000
 5428.00    1.42015   1.36562   -1.000
 5429.00    1.37429   1.35258  117.044
 5430.00    1.36830   1.33977   -1.000
 5431.00    1.38937   1.33285   -1.000
 5432.00    1.39936   1.33121   -1.000
 5433.00    1.38306   1.32989   -1.000
 5434.00    1.36625   1.32877   -1.000
 5435.00    1.36764   1.33163   -1.000
 5436.00    1.38965   1.34284   -1.000
 5437.00    1.41911   1.36283   -1.000
 5438.00    1.45065   1.38562   -1.000
 5439.00    1.46917   1.40590   -1.000
 5440.00    1.47061   1.41908   -1.000
 5441.00    1.47187   1.42526   -1.000
 5442.00    1.46734   1.42381   -1.000
 5443.00    1.45277   1.41329   -1.000
 5444.00    1.43254   1.39368   -1.000
 5445.00    1.40130   1.36785   -1.000
 5446.00    1.36083   1.34450  116.690
 5447.00    1.35186   1.33282  113.477
 5448.00    1.37923   1.33711   -1.000
 5449.00    1.42160   1.35451   -1.000
 5450.00    1.44313   1.37473   -1.000
 5451.00    1.44814   1.38908   -1.000
 5452.00    1.44848   1.39137   -1.000
 5453.00    1.42770   1.38166   -1.000
 5454.00    1.39260   1.36430   -1.000
 5455.00    1.36452   1.34908  115.943
 5456.00    1.36397   1.34388  112.853
 5457.00    1.40649   1.35324   -1.000
 5458.00    1.44553   1.37064   -1.000
 5459.00    1.45219   1.38665   -1.000
 5460.00    1.43879   1.39287   -1.000
 5461.00    1.42808   1.38815   -1.000
 5462.00    1.41105   1.37740   -1.000
 5463.00    1.41100   1.36797   -1.000
 5464.00    1.41744   1.36560   -1.000
 5465.00    1.42834   1.37078   -1.000
 5466.00    1.43980   1.38066   -1.000
 5467.00    1.44060   1.39066   -1.000
 5468.00    1.45633   1.39816   -1.000
 5469.00    1.45273   1.40183   -1.000
 5470.00    1.43526   1.40132   -1.000
 5471.00    1.42932   1.39685   -1.000
 5472.00    1.43036   1.38901   -1.000
 5473.00    1.42639   1.37766   -1.000
 5474.00    1.40582   1.36278   -1.000
 5475.00    1.38873   1.34619   -1.000
 5476.00    1.36718   1.33179   -1.000
 5477.00    1.36531   1.32582   -1.000
 5478.00    1.39515   1.33035   -1.000
 5479.00    1.42648   1.34223   -1.000
 5480.00    1.42785   1.35517   -1.000
 5481.00    1.40855   1.36404   -1.000
 5482.00    1.40208   1.37079   -1.000
 5483.00    1.41589   1.37790   -1.000
 5484.00    1.43493   1.38653   -1.000
 5485.00    1.44216   1.39397   -1.000
 5486.00    1.43733   1.39655   -1.000
 5487.00    1.42388   1.39445   -1.000
 5488.00    1.42098   1.39050   -1.000
 5489.00    1.43241   1.38868   -1.000
 5490.00    1.42934   1.39029   -1.000
 5491.00    1.43158   1.39368   -1.000
 5492.00    1.44352   1.39702   -1.000
 5493.00    1.44406   1.39863   -1.000
 5494.00    1.44468   1.39815   -1.000
 5495.00    1.44993   1.39548   -1.000
 5496.00    1.43802   1.39102   -1.000
 5497.00    1.41760   1.38627   -1.000
 5498.00    1.42137   1.38276   -1.000
 5499.00    1.44008   1.38009   -1.000
 5500.00    1.43422   1.37697   -1.000
 5501.00    1.41981   1.37247   -1.000
 5502.00    1.41131   1.36764   -1.000
 5503.00    1.42397   1.36499   -1.000
 5504.00    1.43454   1.36320   -1.000
 5505.00    1.42727   1.36074   -1.000
 5506.00    1.40793   1.35765   -1.000
 5507.00    1.40265   1.35588   -1.000
 5508.00    1.41837   1.35847   -1.000
 5509.00    1.42856   1.36328   -1.000
 5510.00    1.43364   1.36645   -1.000
 5511.00    1.42553   1.36454   -1.000
 5512.00    1.40612   1.35821   -1.000
 5513.00    1.39457   1.35223   -1.000
 5514.00    1.39661   1.35115   -1.000
 5515.00    1.41904   1.35752   -1.000
 5516.00    1.43897   1.36935   -1.000
 5517.00    1.45359   1.38375   -1.000
 5518.00    1.46571   1.39691   -1.000
 5519.00    1.47111   1.40702   -1.000
 5520.00    1.47219   1.41279   -1.000
 5521.00    1.46314   1.41496   -1.000
 5522.00    1.46300   1.41406   -1.000
 5523.00    1.46101   1.41010   -1.000
 5524.00    1.45499   1.40198   -1.000
 5525.00    1.44743   1.38814   -1.000
 5526.00    1.42372   1.37044   -1.000
 5527.00    1.40167   1.35284   -1.000
 5528.00    1.39439   1.34289   -1.000
 5529.00    1.40726   1.34442   -1.000
 5530.00    1.43445   1.35663   -1.000
 5531.00    1.44944   1.37256   -1.000
 5532.00    1.44791   1.38413   -1.000
 5533.00    1.43960   1.38834   -1.000
 5534.00    1.42918   1.38683   -1.000
 5535.00    1.42402   1.38484   -1.000
 5536.00    1.43352   1.38561   -1.000
 5537.00    1.44342   1.38998   -1.000
 5538.00    1.44825   1.39605   -1.000
 5539.00    1.46020   1.40219   -1.000
 5540.00    1.47162   1.40693   -1.000
 5541.00    1.47498   1.40928   -1.000
 5542.00    1.46239   1.40800   -1.000
 5543.00    1.44401   1.40436   -1.000
 5544.00    1.44721   1.40075   -1.000
 5545.00    1.45791   1.39977   -1.000
 5546.00    1.45684   1.40240   -1.000
 5547.00    1.46325   1.40788   -1.000
 5548.00    1.47301   1.41473   -1.000
 5549.00    1.48260   1.42125   -1.000
 5550.00    1.48273   1.42529   -1.000
 5551.00    1.47888   1.42577   -1.000
 5552.00    1.47049   1.42293   -1.000
 5553.00    1.46248   1.41816   -1.000
 5554.00    1.44691   1.41396   -1.000
 5555.00    1.45465   1.41182   -1.000
 5556.00    1.46103   1.41227   -1.000
 5557.00    1.46654   1.41411   -1.000
 5558.00    1.46315   1.41602   -1.000
 5559.00    1.46945   1.41676   -1.000
 5560.00    1.46552   1.41515   -1.000
 5561.00    1.46230   1.41075   -1.000
 5562.00    1.45393   1.40420   -1.000
 5563.00    1.44336   1.39713   -1.000
 5564.00    1.43680   1.39116   -1.000
 5565.00    1.43036   1.38679   -1.000
 5566.00    1.42822   1.38377   -1.000
 5567.00    1.42793   1.38140   -1.000
 5568.00    1.42887   1.37932   -1.000
 5569.00    1.42144   1.37713   -1.000
 5570.00    1.41831   1.37486   -1.000
 5571.00    1.42913   1.37233   -1.000
 5572.00    1.42924   1.37047   -1.000
 5573.00    1.42482   1.37030   -1.000
 5574.00    1.37421   1.37277  112.384
 5575.00    1.30208   1.37781   -1.000
 5576.00    1.30378   1.38384   -1.000
 5577.00    1.37757   1.39044  117.028
 5578.00    1.46546   1.39677   -1.000
 5579.00    1.46910   1.40196   -1.000
 5580.00    1.45968   1.40506   -1.000
 5581.00    1.45462   1.40584   -1.000
 5582.00    1.44963   1.40455   -1.000
 5583.00    1.45454   1.40098   -1.000
 5584.00    1.45979   1.39294   -1.000
 5585.00    1.43904   1.37845   -1.000
 5586.00    1.41037   1.35778   -1.000
 5587.00    1.37364   1.33515   -1.000
 5588.00    1.36222   1.31868   -1.000
 5589.00    1.37652   1.31276   -1.000
 5590.00    1.39513   1.31866   -1.000
 5591.00    1.41192   1.33090   -1.000
 5592.00    1.42374   1.34414   -1.000
 5593.00    1.41803   1.35390   -1.000
 5594.00    1.41391   1.36047   -1.000
 5595.00    1.42155   1.36537   -1.000
 5596.00    1.43605   1.36856   -1.000
 5597.00    1.43537   1.36885   -1.000
 5598.00    1.41622   1.36481   -1.000
 5599.00    1.40769   1.35771   -1.000
 5600.00    1.40938   1.35040   -1.000
 5601.00    1.40127   1.34526   -1.000
 5602.00    1.39516   1.34543   -1.000
 5603.00    1.40262   1.35408   -1.000
 5604.00    1.42539   1.37108   -1.000
 5605.00    1.45974   1.39310   -1.000
 5606.00    1.47433   1.41440   -1.000
 5607.00    1.47608   1.43034   -1.000
 5608.00    1.48301   1.44009   -1.000
 5609.00    1.48210   1.44453   -1.000
 5610.00    1.48412   1.44548   -1.000
 5611.00    1.47969   1.44249   -1.000
 5612.00    1.47392   1.43363   -1.000
 5613.00    1.46479   1.41718   -1.000
 5614.00    1.43390   1.39470   -1.000
 5615.00    1.39849   1.37377   -1.000
 5616.00    1.39297   1.36130   -1.000
 5617.00    1.42152   1.36270   -1.000
 5618.00    1.44862   1.37356   -1.000
 5619.00    1.45540   1.38790   -1.000
 5620.00    1.45546   1.39953   -1.000
 5621.00    1.46194   1.40574   -1.000
 5622.00    1.46556   1.40555   -1.000
 5623.00    1.44655   1.40046   -1.000
 5624.00    1.42379   1.39334   -1.000
 5625.00    1.41864   1.38937   -1.000
 5626.00    1.43518   1.39166   -1.000
 5627.00    1.44740   1.40000   -1.000
 5628.00    1.45661   1.41151   -1.000
 5629.00    1.46752   1.42217   -1.000
 5630.00    1.47580   1.42978   -1.000
 5631.00    1.48196   1.43308   -1.000
 5632.00    1.48200   1.43213   -1.000
 5633.00    1.47660   1.42771   -1.000
 5634.00    1.47313   1.42143   -1.000
 5635.00    1.46424   1.41444   -1.000
 5636.00    1.45633   1.40819   -1.000
 5637.00    1.45118   1.40338   -1.000
 5638.00    1.44807   1.40049   -1.000
 5639.00    1.44441   1.39911   -1.000
 5640.00    1.44191   1.39867   -1.000
 5641.00    1.44403   1.39859   -1.000
 5642.00    1.45411   1.39950   -1.000
 5643.00    1.45777   1.40172   -1.000
 5644.00    1.45727   1.40500   -1.000
 5645.00    1.46263   1.40868   -1.000
 5646.00    1.46625   1.41183   -1.000
 5647.00    1.46655   1.41372   -1.000
 5648.00    1.46728   1.41408   -1.000
 5649.00    1.46099   1.41370   -1.000
 5650.00    1.46350   1.41315   -1.000
 5651.00    1.47180   1.41307   -1.000
 5652.00    1.46736   1.41232   -1.000
 5653.00    1.46477   1.40957   -1.000
 5654.00    1.46347   1.40359   -1.000
 5655.00    1.45608   1.39376   -1.000
 5656.00    1.44336   1.38064   -1.000
 5657.00    1.41513   1.36642   -1.000
 5658.00    1.38186   1.35481   -1.000
 5659.00    1.38451   1.34979   -1.000
 5660.00    1.41646   1.35229   -1.000
 5661.00    1.43324   1.35942   -1.000
 5662.00    1.42998   1.36846   -1.000
 5663.00    1.43391   1.37742   -1.000
 5664.00    1.45444   1.38624   -1.000
 5665.00    1.46374   1.39415   -1.000
 5666.00    1.45675   1.39926   -1.000
 5667.00    1.44895   1.40112   -1.000
 5668.00    1.44455   1.40131   -1.000
 5669.00    1.44390   1.40210   -1.000
 5670.00    1.45078   1.40528   -1.000
 5671.00    1.46243   1.41035   -1.000
 5672.00    1.46560   1.41628   -1.000
 5673.00    1.47953   1.42123   -1.000
 5674.00    1.48175   1.42476   -1.000
 5675.00    1.47757   1.42648   -1.000
 5676.00    1.47776   1.42723   -1.000
 5677.00    1.48515   1.42706   -1.000
 5678.00    1.47967   1.42543   -1.000
 5679.00    1.47493   1.42122   -1.000
 5680.00    1.46656   1.41380   -1.000
 5681.00    1.45833   1.40384   -1.000
 5682.00    1.44947   1.39338   -1.000
 5683.00    1.44439   1.38534   -1.000
 5684.00    1.44174   1.38128   -1.000
 5685.00    1.44475   1.38076   -1.000
 5686.00    1.44087   1.38147   -1.000
 5687.00    1.43233   1.38146   -1.000
 5688.00    1.43286   1.38173   -1.000
 5689.00    1.44734   1.38421   -1.000
 5690.00    1.46123   1.39057   -1.000
 5691.00    1.46893   1.39983   -1.000
 5692.00    1.47207   1.40932   -1.000
 5693.00    1.47346   1.41703   -1.000
 5694.00    1.47605   1.42174   -1.000
 5695.00    1.47707   1.42390   -1.000
 5696.00    1.47208   1.42319   -1.000
 5697.00    1.46871   1.41996   -1.000
 5698.00    1.45779   1.41408   -1.000
 5699.00    1.44513   1.40653   -1.000
 5700.00    1.43706   1.39910   -1.000
 5701.00    1.42617   1.39333   -1.000
 5702.00    1.42322   1.39067   -1.000
 5703.00    1.42943   1.39013   -1.000
 5704.00    1.43583   1.39007   -1.000
 5705.00    1.43587   1.38754   -1.000
 5706.00    1.42430   1.38098   -1.000
 5707.00    1.40718   1.37063   -1.000
 5708.00    1.39515   1.35855   -1.000
 5709.00    1.38813   1.34828   -1.000
 5710.00    1.38181   1.34359   -1.000
 5711.00    1.39149   1.34687   -1.000
 5712.00    1.41938   1.35766   -1.000
 5713.00    1.44484   1.37362   -1.000
 5714.00    1.46032   1.39006   -1.000
 5715.00    1.46375   1.40400   -1.000
 5716.00    1.46138   1.41356   -1.000
 5717.00    1.46116   1.42043   -1.000
 5718.00    1.46867   1.42592   -1.000
 5719.00    1.48168   1.43153   -1.000
 5720.00    1.48618   1.43721   -1.000
 5721.00    1.48795   1.44248   -1.000
 5722.00    1.48553   1.44642   -1.000
 5723.00    1.49204   1.44836   -1.000
 5724.00    1.49355   1.44762   -1.000
 5725.00    1.48126   1.44438   -1.000
 5726.00    1.46541   1.43930   -1.000
 5727.00    1.46181   1.43430   -1.000
 5728.00    1.46781   1.43109   -1.000
 5729.00    1.47251   1.42985   -1.000
 5730.00    1.47819   1.43018   -1.000
 5731.00    1.47268   1.43077   -1.000
 5732.00    1.47271   1.43219   -1.000
 5733.00    1.47864   1.43493   -1.000
 5734.00    1.48900   1.43888   -1.000
 5735.00    1.48339   1.44290   -1.000
 5736.00    1.47922   1.44538   -1.000
 5737.00    1.48268   1.44627   -1.000
 5738.00    1.48401   1.44599   -1.000
 5739.00    1.47778   1.44541   -1.000
 5740.00    1.47516   1.44450   -1.000
 5741.00    1.47897   1.44340   -1.000
 5742.00    1.47559   1.44222   -1.000
 5743.00    1.47485   1.44197   -1.000
 5744.00    1.47908   1.44233   -1.000
 5745.00    1.48637   1.44293   -1.000
 5746.00    1.48625   1.44250   -1.000
 5747.00    1.47600   1.44126   -1.000
 5748.00    1.46731   1.43994   -1.000
 5749.00    1.47114   1.43860   -1.000
 5750.00    1.47435   1.43628   -1.000
 5751.00    1.47296   1.43123   -1.000
 5752.00    1.45732   1.42391   -1.000
 5753.00    1.44169   1.41739   -1.000
 5754.00    1.44433   1.41495   -1.000
 5755.00    1.46218   1.41920   -1.000
 5756.00    1.48006   1.42785   -1.000
 5757.00    1.48430   1.43769   -1.000
 5758.00    1.48129   1.44400   -1.000
 5759.00    1.47966   1.44492   -1.000
 5760.00    1.47337   1.44032   -1.000
 5761.00    1.45985   1.43313   -1.000
 5762.00    1.45461   1.42682   -1.000
 5763.00    1.45789   1.42558   -1.000
 5764.00    1.46499   1.43028   -1.000
 5765.00    1.47884   1.43927   -1.000
 5766.00    1.49231   1.44865   -1.000
 5767.00    1.49436   1.45503   -1.000
 5768.00    1.48529   1.45766   -1.000
 5769.00    1.48640   1.45695   -1.000
 5770.00    1.48728   1.45428   -1.000
 5771.00    1.48095   1.45035   -1.000
 5772.00    1.47669   1.44593   -1.000
 5773.00    1.46908   1.44173   -1.000
 5774.00    1.46803   1.43894   -1.000
 5775.00    1.46662   1.43779   -1.000
 5776.00    1.46778   1.43766   -1.000
 5777.00    1.45401   1.43647  114.947
 5778.00    1.43861   1.43202  117.544
 5779.00    1.42225   1.42342  118.729
 5780.00    1.41845   1.41261  118.290
 5781.00    1.41917   1.40228  117.826
 5782.00    1.43440   1.39568   -1.000
 5783.00    1.44831   1.39336   -1.000
 5784.00    1.44582   1.39489   -1.000
 5785.00    1.45035   1.39915   -1.000
 5786.00    1.46160   1.40529   -1.000
 5787.00    1.46884   1.41269   -1.000
 5788.00    1.47402   1.41937   -1.000
 5789.00    1.47477   1.42358   -1.000
 5790.00    1.47559   1.42537   -1.000
 5791.00    1.46909   1.42620   -1.000
 5792.00    1.46588   1.42875   -1.000
 5793.00    1.46904   1.43358   -1.000
 5794.00    1.46967   1.43953   -1.000
 5795.00    1.47676   1.44450   -1.000
 5796.00    1.48197   1.44687   -1.000
 5797.00    1.48097   1.44702   -1.000
 5798.00    1.48175   1.44664   -1.000
 5799.00    1.49170   1.44793   -1.000
 5800.00    1.50682   1.45086   -1.000
 5801.00    1.50940   1.45407   -1.000
 5802.00    1.50517   1.45552   -1.000
 5803.00    1.49655   1.45411   -1.000
 5804.00    1.48806   1.45065   -1.000
 5805.00    1.48443   1.44689   -1.000
 5806.00    1.48856   1.44488   -1.000
 5807.00    1.49350   1.44507   -1.000
 5808.00    1.49322   1.44717   -1.000
 5809.00    1.49465   1.44994   -1.000
 5810.00    1.50542   1.45271   -1.000
 5811.00    1.50720   1.45461   -1.000
 5812.00    1.50626   1.45495   -1.000
 5813.00    1.50668   1.45322   -1.000
 5814.00    1.49615   1.44999   -1.000
 5815.00    1.48818   1.44644   -1.000
 5816.00    1.48874   1.44477   -1.000
 5817.00    1.49052   1.44619   -1.000
 5818.00    1.49794   1.45047   -1.000
 5819.00    1.51187   1.45547   -1.000
 5820.00    1.51609   1.45948   -1.000
 5821.00    1.51288   1.46173   -1.000
 5822.00    1.51179   1.46276   -1.000
 5823.00    1.51542   1.46319   -1.000
 5824.00    1.51324   1.46340   -1.000
 5825.00    1.50884   1.46356   -1.000
 5826.00    1.50929   1.46405   -1.000
 5827.00    1.51428   1.46480   -1.000
 5828.00    1.51785   1.46573   -1.000
 5829.00    1.51773   1.46624   -1.000
 5830.00    1.52193   1.46620   -1.000
 5831.00    1.51653   1.46546   -1.000
 5832.00    1.51830   1.46405   -1.000
 5833.00    1.51283   1.46225   -1.000
 5834.00    1.50077   1.46053   -1.000
 5835.00    1.50914   1.45986   -1.000
 5836.00    1.51194   1.46047   -1.000
 5837.00    1.51722   1.46217   -1.000
 5838.00    1.51210   1.46395   -1.000
 5839.00    1.51380   1.46549   -1.000
 5840.00    1.51605   1.46653   -1.000
 5841.00    1.51667   1.46719   -1.000
 5842.00    1.52173   1.46708   -1.000
 5843.00    1.51979   1.46583   -1.000
 5844.00    1.51851   1.46329   -1.000
 5845.00    1.51036   1.45972   -1.000
 5846.00    1.49829   1.45578   -1.000
 5847.00    1.49281   1.45256   -1.000
 5848.00    1.49428   1.45030   -1.000
 5849.00    1.49061   1.44851   -1.000
 5850.00    1.49151   1.44537   -1.000
 5851.00    1.49587   1.44017   -1.000
 5852.00    1.47824   1.43271   -1.000
 5853.00    1.46754   1.42444   -1.000
 5854.00    1.46634   1.41598   -1.000
 5855.00    1.46131   1.40721   -1.000
 5856.00    1.45739   1.39839   -1.000
 5857.00    1.45034   1.39053   -1.000
 5858.00    1.45106   1.38712   -1.000
 5859.00    1.46154   1.39023   -1.000
 5860.00    1.47430   1.39839   -1.000
 5861.00    1.48101   1.40893   -1.000
 5862.00    1.49037   1.41838   -1.000
 5863.00    1.49088   1.42525   -1.000
 5864.00    1.48603   1.42933   -1.000
 5865.00    1.48195   1.43026   -1.000
 5866.00    1.47670   1.42943   -1.000
 5867.00    1.47658   1.42909   -1.000
 5868.00    1.48411   1.43108   -1.000
 5869.00    1.49788   1.43612   -1.000
 5870.00    1.50623   1.44211   -1.000
 5871.00    1.50478   1.44666   -1.000
 5872.00    1.50239   1.44811   -1.000
 5873.00    1.50139   1.44676   -1.000
 5874.00    1.50098   1.44385   -1.000
 5875.00    1.50150   1.44065   -1.000
 5876.00    1.49713   1.43756   -1.000
 5877.00    1.49463   1.43459   -1.000
 5878.00    1.48749   1.43130   -1.000
 5879.00    1.48159   1.42750   -1.000
 5880.00    1.47188   1.42306   -1.000
 5881.00    1.46821   1.41800   -1.000
 5882.00    1.47493   1.41215   -1.000
 5883.00    1.47280   1.40538   -1.000
 5884.00    1.46313   1.39695   -1.000
 5885.00    1.44404   1.38412   -1.000
 5886.00    1.40521   1.36254   -1.000
 5887.00    1.31957   1.32796  137.283
 5888.00    1.24010   1.28225   -1.000
 5889.00    1.21065   1.23673   -1.000
 5890.00    1.24710   1.20431   -1.000
 5891.00    1.31525   1.19562   -1.000
 5892.00    1.34821   1.20254   -1.000
 5893.00    1.32140   1.21350   -1.000
 5894.00    1.28085   1.21738   -1.000
 5895.00    1.26301   1.21490   -1.000
 5896.00    1.30117   1.21602   -1.000
 5897.00    1.35778   1.22875   -1.000
 5898.00    1.40232   1.25607   -1.000
 5899.00    1.43687   1.29025   -1.000
 5900.00    1.45538   1.32452   -1.000
 5901.00    1.47094   1.35375   -1.000
 5902.00    1.47412   1.37592   -1.000
 5903.00    1.47388   1.39124   -1.000
 5904.00    1.47641   1.40098   -1.000
 5905.00    1.47511   1.40678   -1.000
 5906.00    1.46785   1.41092   -1.000
 5907.00    1.46488   1.41440   -1.000
 5908.00    1.47198   1.41764   -1.000
 5909.00    1.47823   1.42013   -1.000
 5910.00    1.47374   1.42121   -1.000
 5911.00    1.46959   1.41987   -1.000
 5912.00    1.46761   1.41597   -1.000
 5913.00    1.45456   1.40977   -1.000
 5914.00    1.44068   1.40353   -1.000
 5915.00    1.43365   1.39964   -1.000
 5916.00    1.43874   1.39951   -1.000
 5917.00    1.44582   1.40319   -1.000
 5918.00    1.45313   1.40886   -1.000
 5919.00    1.46038   1.41471   -1.000
 5920.00    1.46442   1.41874   -1.000
 5921.00    1.46348   1.42101   -1.000
 5922.00    1.46103   1.42185   -1.000
 5923.00    1.46138   1.42274   -1.000
 5924.00    1.47433   1.42416   -1.000
 5925.00    1.47992   1.42597   -1.000
 5926.00    1.47890   1.42682   -1.000
 5927.00    1.48015   1.42542   -1.000
 5928.00    1.47233   1.42161   -1.000
 5929.00    1.46335   1.41702   -1.000
 5930.00    1.45977   1.41408   -1.000
 5931.00    1.46474   1.41379   -1.000
 5932.00    1.47522   1.41592   -1.000
 5933.00    1.47771   1.41841   -1.000
 5934.00    1.47077   1.42054   -1.000
 5935.00    1.46568   1.42292   -1.000
 5936.00    1.46096   1.42567   -1.000
 5937.00    1.46479   1.42837   -1.000
 5938.00    1.46193   1.42962   -1.000
 5939.00    1.45709   1.42854   -1.000
 5940.00    1.45663   1.42579   -1.000
 5941.00    1.45634   1.42268   -1.000
 5942.00    1.45468   1.42119   -1.000
 5943.00    1.45657   1.42139   -1.000
 5944.00    1.46429   1.42279   -1.000
 5945.00    1.46821   1.42364   -1.000
 5946.00    1.46980   1.42293   -1.000
 5947.00    1.46045   1.42057   -1.000
 5948.00    1.45285   1.41769   -1.000
 5949.00    1.45535   1.41584   -1.000
 5950.00    1.46117   1.41512   -1.000
 5951.00    1.46613   1.41524   -1.000
 5952.00    1.45504   1.41492   -1.000
 5953.00    1.45454   1.41426   -1.000
 5954.00    1.45697   1.41389   -1.000
 5955.00    1.45516   1.41354   -1.000
 5956.00    1.44834   1.41327   -1.000
 5957.00    1.44824   1.41418   -1.000
 5958.00    1.45484   1.41683   -1.000
 5959.00    1.47017   1.42160   -1.000
 5960.00    1.47731   1.42741   -1.000
 5961.00    1.47956   1.43239   -1.000
 5962.00    1.48423   1.43549   -1.000
 5963.00    1.48634   1.43620   -1.000
 5964.00    1.47320   1.43505   -1.000
 5965.00    1.46591   1.43304   -1.000
 5966.00    1.46390   1.43142   -1.000
 5967.00    1.46882   1.43103   -1.000
 5968.00    1.48001   1.43231   -1.000
 5969.00    1.48676   1.43466   -1.000
 5970.00    1.48816   1.43755   -1.000
 5971.00    1.48913   1.43975   -1.000
 5972.00    1.47968   1.44009   -1.000
 5973.00    1.47038   1.43791   -1.000
 5974.00    1.46790   1.43299   -1.000
 5975.00    1.46324   1.42650   -1.000
 5976.00    1.45442   1.42044   -1.000
 5977.00    1.45354   1.41690   -1.000
 5978.00    1.46093   1.41721   -1.000
 5979.00    1.46565   1.42020   -1.000
 5980.00    1.47499   1.42372   -1.000
 5981.00    1.47223   1.42479   -1.000
 5982.00    1.46272   1.42229   -1.000
 5983.00    1.45061   1.41706   -1.000
 5984.00    1.44451   1.41195   -1.000
 5985.00    1.45128   1.40972   -1.000
 5986.00    1.45682   1.41122   -1.000
 5987.00    1.46239   1.41551   -1.000
 5988.00    1.47311   1.42033   -1.000
 5989.00    1.47911   1.42439   -1.000
 5990.00    1.47294   1.42710   -1.000
 5991.00    1.47178   1.42953   -1.000
 5992.00    1.47731   1.43227   -1.000
 5993.00    1.47902   1.43558   -1.000
 5994.00    1.48486   1.43799   -1.000
 5995.00    1.48681   1.43800   -1.000
 5996.00    1.47963   1.43600   -1.000
 5997.00    1.47209   1.43279   -1.000
 5998.00    1.46977   1.43026   -1.000
 5999.00    1.47246   1.42867   -1.000
 6000.00    1.47168   1.42762   -1.000
 6001.00    1.46948   1.42618   -1.000
 6002.00    1.46300   1.42406   -1.000
 6003.00    1.45358   1.42162   -1.000
 6004.00    1.45925   1.41916   -1.000
 6005.00    1.45586   1.41627   -1.000
 6006.00    1.44800   1.41238   -1.000
 6007.00    1.43669   1.40822   -1.000
 6008.00    1.43351   1.40616   -1.000
 6009.00    1.43916   1.40751   -1.000
 6010.00    1.45720   1.41178   -1.000
 6011.00    1.46442   1.41630   -1.000
 6012.00    1.45698   1.41843   -1.000
 6013.00    1.45523   1.41841   -1.000
 6014.00    1.46084   1.41685   -1.000
 6015.00    1.46534   1.41528   -1.000
 6016.00    1.46097   1.41384   -1.000
 6017.00    1.45512   1.41210   -1.000
 6018.00    1.45628   1.40962   -1.000
 6019.00    1.45332   1.40634   -1.000
 6020.00    1.44673   1.40301   -1.000
 6021.00    1.44327   1.40081   -1.000
 6022.00    1.44503   1.40103   -1.000
 6023.00    1.44872   1.40356   -1.000
 6024.00    1.44577   1.40810   -1.000
 6025.00    1.45225   1.41444   -1.000
 6026.00    1.45824   1.42169   -1.000
 6027.00    1.46137   1.42861   -1.000
 6028.00    1.47165   1.43483   -1.000
 6029.00    1.47796   1.44003   -1.000
 6030.00    1.47598   1.44400   -1.000
 6031.00    1.47468   1.44687   -1.000
 6032.00    1.47726   1.44897   -1.000
 6033.00    1.47900   1.45069   -1.000
 6034.00    1.47927   1.45207   -1.000
 6035.00    1.47525   1.45285  113.178
 6036.00    1.47733   1.45260   -1.000
 6037.00    1.47467   1.45126   -1.000
 6038.00    1.47683   1.44882   -1.000
 6039.00    1.47220   1.44567   -1.000
 6040.00    1.46684   1.44255   -1.000
 6041.00    1.46742   1.44039   -1.000
 6042.00    1.46705   1.43991   -1.000
 6043.00    1.47032   1.44123   -1.000
 6044.00    1.47130   1.44394   -1.000
 6045.00    1.47545   1.44733   -1.000
 6046.00    1.48103   1.45055   -1.000
 6047.00    1.48512   1.45364   -1.000
 6048.00    1.48810   1.45612   -1.000
 6049.00    1.48494   1.45769   -1.000
 6050.00    1.48313   1.45801   -1.000
 6051.00    1.48121   1.45677   -1.000
 6052.00    1.47958   1.45400   -1.000
 6053.00    1.47557   1.44965   -1.000
 6054.00    1.46768   1.44474   -1.000
 6055.00    1.46176   1.44044  114.785
 6056.00    1.46631   1.43835   -1.000
 6057.00    1.45940   1.43891  113.722
 6058.00    1.42186   1.44160  113.977
 6059.00    1.43300   1.44458  114.547
 6060.00    1.46357   1.44619  116.513
 6061.00    1.25306   1.44487   -1.000
 6062.00    0.80814   1.43998   -1.000
 6063.00    0.99385   1.43236   -1.000
 6064.00    1.44118   1.42444   39.560
 6065.00    1.40942   1.41934  129.052
 6066.00    1.42111   1.41999  113.984
 6067.00    1.47722   1.42612   -1.000
 6068.00    1.49582   1.43488   -1.000
 6069.00    1.48039   1.44381   -1.000
 6070.00    1.48597   1.45063   -1.000
 6071.00    1.48441   1.45515   -1.000
 6072.00    1.47869   1.45781  112.992
 6073.00    1.47896   1.45910  113.461
 6074.00    1.47835   1.45900  114.086
 6075.00    1.47307   1.45706  114.799
 6076.00    1.46273   1.45310  115.678
 6077.00    1.45401   1.44771  116.206
 6078.00    1.45160   1.44173  116.206
 6079.00    1.44769   1.43665  116.382
 6080.00    1.45140   1.43314  116.664
 6081.00    1.44878   1.43047  116.591
 6082.00    1.44425   1.42825  116.494
 6083.00    1.43877   1.42660  116.315
 6084.00    1.44227   1.42587  115.920
 6085.00    1.44879   1.42664  115.603
 6086.00    1.45160   1.42881   -1.000
 6087.00    1.45356   1.43146   -1.000
 6088.00    1.45123   1.43311  117.062
 6089.00    1.44542   1.43315  116.775
 6090.00    1.44207   1.43213  115.991
 6091.00    1.43850   1.43119  115.425
 6092.00    1.44237   1.43169  114.792
 6093.00    1.44798   1.43380  114.444
 6094.00    1.45258   1.43726  114.605
 6095.00    1.45620   1.44109  114.861
 6096.00    1.45885   1.44434  114.890
 6097.00    1.45810   1.44592  115.221
 6098.00    1.45919   1.44416  117.110
 6099.00    1.46104   1.43773   -1.000
 6100.00    1.44476   1.42591  121.020
 6101.00    1.42334   1.41100  119.496
 6102.00    1.40482   1.39763  117.206
 6103.00    1.39849   1.39104  115.840
 6104.00    1.41568   1.39430  115.786
 6105.00    1.43424   1.40442   -1.000
 6106.00    1.44412   1.41717   -1.000
 6107.00    1.44607   1.42876  116.311
 6108.00    1.43946   1.43730  115.976
 6109.00    1.43569   1.44308  115.556
 6110.00    1.44560   1.44639  115.448
 6111.00    1.44374   1.44804  114.838
 6112.00    1.44423   1.44896  114.787
 6113.00    1.45275   1.44968  115.387
 6114.00    1.45600   1.45033  116.030
 6115.00    1.45185   1.45050  116.217
 6116.00    1.44621   1.44942  117.115
 6117.00    1.43988   1.44643  118.898
 6118.00    1.43765   1.44028  120.302
 6119.00    1.42923   1.42985  121.148
 6120.00    1.41493   1.41595  120.614
 6121.00    1.40178   1.40115  118.545
 6122.00    1.39352   1.39035  117.464
 6123.00    1.40631   1.38726  117.762
 6124.00    1.42130   1.39186   -1.000
 6125.00    1.42553   1.40146   -1.000
 6126.00    1.42584   1.41175  117.587
 6127.00    1.42073   1.42052  116.507
 6128.00    1.42069   1.42719  115.616
 6129.00    1.43034   1.43311  115.589
 6130.00    1.43733   1.43894  116.069
 6131.00    1.44246   1.44363  117.648
 6132.00    1.43647   1.44492  120.692
 6133.00    1.42796   1.43988  124.218
 6134.00    1.41174   1.42664  126.569
 6135.00    1.38123   1.40710  125.723
 6136.00    1.35230   1.38630   -1.000
 6137.00    1.33988   1.37050   -1.000
 6138.00    1.35673   1.36450  118.502
 6139.00    1.38631   1.36683  118.844
 6140.00    1.40395   1.37437   -1.000
 6141.00    1.39847   1.38591  117.246
 6142.00    1.39849   1.39906  116.152
 6143.00    1.41740   1.41240  116.296
 6144.00    1.42850   1.42346  116.946
 6145.00    1.43350   1.42997  117.733
 6146.00    1.43410   1.43183  118.554
 6147.00    1.42881   1.42988  119.048
 6148.00    1.42248   1.42609  118.867
 6149.00    1.41222   1.42251  118.286
 6150.00    1.40885   1.42042  117.598
 6151.00    1.41546   1.42021  117.835
 6152.00    1.41796   1.42134  118.854
 6153.00    1.42011   1.42190  119.263
 6154.00    1.42148   1.42074  119.407
 6155.00    1.41733   1.41813  120.162
 6156.00    1.41173   1.41448  121.791
 6157.00    1.39992   1.40906  124.585
 6158.00    1.39252   1.39972  128.481
 6159.00    1.38398   1.38440  131.515
 6160.00    1.35978   1.36314  131.640
 6161.00    1.32734   1.34025  128.915
 6162.00    1.31054   1.32225  125.634
 6163.00    1.31636   1.31503  124.276
 6164.00    1.33927   1.31914   -1.000
 6165.00    1.36151   1.32976   -1.000
 6166.00    1.36661   1.34082   -1.000
 6167.00    1.35847   1.34741  127.138
 6168.00    1.35422   1.34907  125.543
 6169.00    1.34118   1.34872  123.153
 6170.00    1.33835   1.35183  122.028
 6171.00    1.35273   1.35981  122.333
 6172.00    1.36705   1.37112  122.288
 6173.00    1.37432   1.38307  121.964
 6174.00    1.37885   1.39308  121.720
 6175.00    1.38441   1.40039  121.300
 6176.00    1.38490   1.40531  120.714
 6177.00    1.38723   1.40900  120.315
 6178.00    1.38765   1.41214  119.884
 6179.00    1.38777   1.41510  119.374
 6180.00    1.39190   1.41823  119.255
 6181.00    1.39632   1.42147  119.604
 6182.00    1.40011   1.42431  120.186
 6183.00    1.39845   1.42559  121.311
 6184.00    1.39420   1.42446   -1.000
 6185.00    1.38998   1.42098   -1.000
 6186.00    1.38629   1.41534   -1.000
 6187.00    1.37847   1.40797   -1.000
 6188.00    1.36256   1.39914   -1.000
 6189.00    1.35378   1.38947   -1.000
 6190.00    1.34258   1.38041   -1.000
 6191.00    1.32921   1.37474   -1.000
 6192.00    1.33432   1.37582   -1.000
 6193.00    1.35839   1.38321  120.514
 6194.00    1.37956   1.39372  120.657
 6195.00    1.38594   1.40427  121.731
 6196.00    1.39005   1.41172  123.090
 6197.00    1.38378   1.41503   -1.000
 6198.00    1.37099   1.41473   -1.000
 6199.00    1.35758   1.41266   -1.000
 6200.00    1.35575   1.41131   -1.000
 6201.00    1.36149   1.41270   -1.000
 6202.00    1.37437   1.41677   -1.000
 6203.00    1.38103   1.42255   -1.000
 6204.00    1.38750   1.42849   -1.000
 6205.00    1.39773   1.43332   -1.000
 6206.00    1.39763   1.43638   -1.000
 6207.00    1.39294   1.43763   -1.000
 6208.00    1.39227   1.43670   -1.000
 6209.00    1.38787   1.43314   -1.000
 6210.00    1.37643   1.42652   -1.000
 6211.00    1.36618   1.41701   -1.000
 6212.00    1.35501   1.40584   -1.000
 6213.00    1.34635   1.39514   -1.000
 6214.00    1.33853   1.38701   -1.000
 6215.00    1.33900   1.38212   -1.000
 6216.00    1.34341   1.37972   -1.000
 6217.00    1.34953   1.37863   -1.000
 6218.00    1.35121   1.37786  125.388
 6219.00    1.34286   1.37813   -1.000
 6220.00    1.34363   1.38004   -1.000
 6221.00    1.34951   1.38400   -1.000
 6222.00    1.36008   1.38885   -1.000
 6223.00    1.36539   1.39302  124.688
 6224.00    1.36278   1.39592   -1.000
 6225.00    1.36570   1.39649   -1.000
 6226.00    1.36644   1.39416  127.920
 6227.00    1.36045   1.38824   -1.000
 6228.00    1.34976   1.37864   -1.000
 6229.00    1.33060   1.36722   -1.000
 6230.00    1.31355   1.35746   -1.000
 6231.00    1.31250   1.35312   -1.000
 6232.00    1.32157   1.35573   -1.000
 6233.00    1.34161   1.36377  123.595
 6234.00    1.36246   1.37354  124.689
 6235.00    1.36770   1.38100  125.983
 6236.00    1.36313   1.38428  127.278
 6237.00    1.35864   1.38330  128.398
 6238.00    1.35084   1.37996   -1.000
 6239.00    1.33966   1.37581   -1.000
 6240.00    1.32976   1.37163   -1.000
 6241.00    1.32554   1.36719   -1.000
 6242.00    1.32717   1.36183   -1.000
 6243.00    1.32393   1.35552   -1.000
 6244.00    1.32052   1.34975   -1.000
 6245.00    1.31837   1.34657  125.988
 6246.00    1.31772   1.34797   -1.000
 6247.00    1.32741   1.35425  125.457
 6248.00    1.34158   1.36297  127.099
 6249.00    1.34691   1.37016  129.333
 6250.00    1.34051   1.37208   -1.000
 6251.00    1.32644   1.36799   -1.000
 6252.00    1.31334   1.35963   -1.000
 6253.00    1.30363   1.35067   -1.000
 6254.00    1.29686   1.34392   -1.000
 6255.00    1.29320   1.34024   -1.000
 6256.00    1.29272   1.33929   -1.000
 6257.00    1.29338   1.34030   -1.000
 6258.00    1.29413   1.34352   -1.000
 6259.00    1.30324   1.34934   -1.000
 6260.00    1.31824   1.35774   -1.000
 6261.00    1.32781   1.36753   -1.000
 6262.00    1.33775   1.37708   -1.000
 6263.00    1.34565   1.38467   -1.000
 6264.00    1.33865   1.38974   -1.000
 6265.00    1.32925   1.39311   -1.000
 6266.00    1.32927   1.39549   -1.000
 6267.00    1.33661   1.39721   -1.000
 6268.00    1.34092   1.39785   -1.000
 6269.00    1.33685   1.39730   -1.000
 6270.00    1.33818   1.39642   -1.000
 6271.00    1.34012   1.39548   -1.000
 6272.00    1.33482   1.39394   -1.000
 6273.00    1.31998   1.39038   -1.000
 6274.00    1.29305   1.38335   -1.000
 6275.00    1.26870   1.37341   -1.000
 6276.00    1.25869   1.36191   -1.000
 6277.00    1.26470   1.35127   -1.000
 6278.00    1.26765   1.34369   -1.000
 6279.00    1.26185   1.34024   -1.000
 6280.00    1.25254   1.34200   -1.000
 6281.00    1.25168   1.34879   -1.000
 6282.00    1.26481   1.35905   -1.000
 6283.00    1.28407   1.37090   -1.000
 6284.00    1.30039   1.38196   -1.000
 6285.00    1.31500   1.39075   -1.000
 6286.00    1.32819   1.39653   -1.000
 6287.00    1.33316   1.39932   -1.000
 6288.00    1.33645   1.39947   -1.000
 6289.00    1.33377   1.39740   -1.000
 6290.00    1.33115   1.39430   -1.000
 6291.00    1.32582   1.39139   -1.000
 6292.00    1.32092   1.38912   -1.000
 6293.00    1.32587   1.38725   -1.000
 6294.00    1.33121   1.38493   -1.000
 6295.00    1.32773   1.38133   -1.000
 6296.00    1.33007   1.37625   -1.000
 6297.00    1.33226   1.37050   -1.000
 6298.00    1.32072   1.36518   -1.000
 6299.00    1.30511   1.36095   -1.000
 6300.00    1.30136   1.35833   -1.000
 6301.00    1.30082   1.35814   -1.000
 6302.00    1.30688   1.36172   -1.000
 6303.00    1.32309   1.36950   -1.000
 6304.00    1.32724   1.37963   -1.000
 6305.00    1.33006   1.38959   -1.000
 6306.00    1.33840   1.39752   -1.000
 6307.00    1.34529   1.40250   -1.000
 6308.00    1.34875   1.40465   -1.000
 6309.00    1.34582   1.40491   -1.000
 6310.00    1.34342   1.40376   -1.000
 6311.00    1.33590   1.40120   -1.000
 6312.00    1.33005   1.39737   -1.000
 6313.00    1.32639   1.39206   -1.000
 6314.00    1.32067   1.38583   -1.000
 6315.00    1.31543   1.37982   -1.000
 6316.00    1.31937   1.37507   -1.000
 6317.00    1.32234   1.37281   -1.000
 6318.00    1.32340   1.37382   -1.000
 6319.00    1.33207   1.37827   -1.000
 6320.00    1.33690   1.38534   -1.000
 6321.00    1.33899   1.39321   -1.000
 6322.00    1.33815   1.40074   -1.000
 6323.00    1.34442   1.40785   -1.000
 6324.00    1.34894   1.41381   -1.000
 6325.00    1.35651   1.41795   -1.000
 6326.00    1.36052   1.42031   -1.000
 6327.00    1.35711   1.42103   -1.000
 6328.00    1.35789   1.42101   -1.000
 6329.00    1.36248   1.42083   -1.000
 6330.00    1.38428   1.42044   -1.000
 6331.00    1.40021   1.41924  122.166
 6332.00    1.36285   1.41609   -1.000
 6333.00    1.35735   1.41009   -1.000
 6334.00    1.34474   1.40188   -1.000
 6335.00    1.32590   1.39371   -1.000
 6336.00    1.32745   1.38849   -1.000
 6337.00    1.33743   1.38828   -1.000
 6338.00    1.34768   1.39256   -1.000
 6339.00    1.35653   1.39947   -1.000
 6340.00    1.36579   1.40679   -1.000
 6341.00    1.36785   1.41205   -1.000
 6342.00    1.36590   1.41410   -1.000
 6343.00    1.35895   1.41354   -1.000
 6344.00    1.35826   1.41192   -1.000
 6345.00    1.36114   1.41127   -1.000
 6346.00    1.36525   1.41294   -1.000
 6347.00    1.37057   1.41728   -1.000
 6348.00    1.37270   1.42339   -1.000
 6349.00    1.37860   1.42925   -1.000
 6350.00    1.37925   1.43306   -1.000
 6351.00    1.37654   1.43394   -1.000
 6352.00    1.37366   1.43178   -1.000
 6353.00    1.36224   1.42745   -1.000
 6354.00    1.35320   1.42217   -1.000
 6355.00    1.34649   1.41697   -1.000
 6356.00    1.34570   1.41239   -1.000
 6357.00    1.34481   1.40801   -1.000
 6358.00    1.33845   1.40373   -1.000
 6359.00    1.33748   1.39991   -1.000
 6360.00    1.34370   1.39653   -1.000
 6361.00    1.34683   1.39378   -1.000
 6362.00    1.33555   1.39241   -1.000
 6363.00    1.32955   1.39299   -1.000
 6364.00    1.33620   1.39569   -1.000
 6365.00    1.34435   1.39992   -1.000
 6366.00    1.35083   1.40467   -1.000
 6367.00    1.35215   1.40895   -1.000
 6368.00    1.35462   1.41188   -1.000
 6369.00    1.35772   1.41351   -1.000
 6370.00    1.36319   1.41484   -1.000
 6371.00    1.36112   1.41683   -1.000
 6372.00    1.35739   1.41965   -1.000
 6373.00    1.35662   1.42253   -1.000
 6374.00    1.34777   1.42429   -1.000
 6375.00    1.34077   1.42429   -1.000
 6376.00    1.33718   1.42253   -1.000
 6377.00    1.33553   1.41954   -1.000
 6378.00    1.33224   1.41621   -1.000
 6379.00    1.32712   1.41299   -1.000
 6380.00    1.32383   1.41024   -1.000
 6381.00    1.32439   1.40826   -1.000
 6382.00    1.32125   1.40735   -1.000
 6383.00    1.31802   1.40775   -1.000
 6384.00    1.31612   1.40949   -1.000
 6385.00    1.31709   1.41216   -1.000
 6386.00    1.31271   1.41485   -1.000
 6387.00    1.30377   1.41652   -1.000
 6388.00    1.29413   1.41650   -1.000
 6389.00    1.28580   1.41435   -1.000
 6390.00    1.27907   1.41001   -1.000
 6391.00    1.26999   1.40387   -1.000
 6392.00    1.25541   1.39765   -1.000
 6393.00    1.23773   1.39383   -1.000
 6394.00    1.23404   1.39371   -1.000
 6395.00    1.23856   1.39648   -1.000
 6396.00    1.24192   1.39929   -1.000
 6397.00    1.23949   1.39951   -1.000
 6398.00    1.22541   1.39650   -1.000
 6399.00    1.20236   1.39241   -1.000
 6400.00    1.18930   1.39091   -1.000
 6401.00    1.18970   1.39388   -1.000
 6402.00    1.20131   1.40054   -1.000
 6403.00    1.21018   1.40800   -1.000
 6404.00    1.20949   1.41318   -1.000
 6405.00    1.20144   1.41439   -1.000
 6406.00    1.18705   1.41202   -1.000
 6407.00    1.16986   1.40815   -1.000
 6408.00    1.15892   1.40488   -1.000
 6409.00    1.15431   1.40313   -1.000
 6410.00    1.14628   1.40237   -1.000
 6411.00    1.13050   1.40258   -1.000
 6412.00    1.11955   1.40406   -1.000
 6413.00    1.11458   1.40644   -1.000
 6414.00    1.11393   1.40894   -1.000
 6415.00    1.11258   1.41080   -1.000
 6416.00    1.10548   1.41129   -1.000
 6417.00    1.08984   1.40974   -1.000
 6418.00    1.07385   1.40609   -1.000
 6419.00    1.06163   1.40173   -1.000
 6420.00    1.04665   1.39893   -1.000
 6421.00    1.03476   1.39980   -1.000
 6422.00    1.03308   1.40546   -1.000
 6423.00    1.03640   1.41421   -1.000
 6424.00    1.03145   1.42328   -1.000
 6425.00    1.01820   1.43072   -1.000
 6426.00    1.00919   1.43447   -1.000
 6427.00    1.00148   1.43351   -1.000
 6428.00    0.66888   1.42803   -1.000
