###################################################################
## OUTPUT of StarlightChains_v04.for    [Cid@UFSC - 01/Apr/2007] ##
###################################################################

## Some input info
NGC5286_c_1.cxt                          [arq_obs]
Base.BC03.N                              [arq_base]
NGC5286_c_1.msk                          [arq_masks]
StCv04.C11.config                        [arq_config]
   45                                    [N_base]
    0                                    [N_YAV_components = # of components with extra extinction!]
    0                                    [i_FitPowerLaw (1/0 = Yes/No)]
-9.99                                    [alpha_PowerLaw]
CCM                                      [red_law_option]
 1.458241                                [q_norm = A(l_norm)/A(V)]

## (Re)Sampling Parameters
 3359.00                                 [l_ini (A)]
 6428.00                                 [l_fin (A)]
    1.00                                 [dl    (A)]     (OBS: dl_cushion =    50.00 A)

## Normalization info
 4020.00                                 [l_norm (A) - for base]
 4010.00                                 [llow_norm (A) - window for f_obs]
 4060.00                                 [lupp_norm (A) - window for f_obs]
3.906300E-14                             [fobs_norm (in input units)]

## S/N
 4730.00                                 [llow_SN (A) - window for S/N]
 4780.00                                 [lupp_SN (A) - window for S/N]
 103.062                                 [S/N in S/N window]
  88.537                                 [S/N in norm. window]
 171.763                                 [S/N_err in S/N window]
 147.556                                 [S/N_err in norm. window]
  1.0000                                 [fscale_chi2]

## etc...
  2147483636                             [idum_orig]
  3068                                   [NOl_eff]
  1502                                   [Nl_eff]
  1566    NSIGMA                         [Ntot_cliped & clip_method]
   831460                                [Nglobal_steps]
   7                                     [N_chains]
   8                                     [NEX0s_base = N_base in EX0s-fits]
 0   0   1      214   2.0   3.215E+02    [Clip-Bug, RC-Crash & Burn-In warning-flags, n_censored_weights, wei_nsig_threshold & wei_limit]
    11     10.478     10.474      0.004  [idt_all, wdt_TotTime, wdt_UsrTime & wdt_SysTime (sec)]

## Synthesis Results - Best model ##

 2.86297E+00                             [chi2/Nl_eff]
     0.98602                             [adev (%)]

   100.41975                             [sum-of-x (%)]
 2.02607E-13                             [Flux_tot (units of input spectrum!)]
 1.34868E-09                             [Mini_tot (???)]
 7.27649E-10                             [Mcor_tot (???)]

 -16.09                                  [v0_min  (km/s)]
 108.78                                  [vd_min  (km/s)]
 1.2225                                  [AV_min  (mag)]
 0.0000                                  [YAV_min (mag)]

# j     x_j(%)      Mini_j(%)     Mcor_j(%)     age_j(yr)     Z_j      (L/M)_j    YAV?  Mstars   component_j        a/Fe...       SSP_chi2r SSP_adev(%)   SSP_AV   SSP_x(%)
  1      0.0000     0.0000E+00    0.0000E+00    1.000000E+06  0.00400  1.114E-02    0   1.0000   age020_m42            0.0000     3.8186E+02     8.5903   4.0000    77.6760
  2     14.5701     5.3515E-02    9.9179E-02    3.160000E+06  0.00400  4.073E-02    0   0.9999   age045_m42            0.0000     5.6400E+01     3.6264   3.0776    91.4552
  3      0.0000     0.0000E+00    0.0000E+00    5.010000E+06  0.00400  2.534E-02    0   0.9488   age055_m42            0.0000     1.6824E+02     6.0116   3.4811    84.8592
  4     10.4776     1.2332E-01    2.0256E-01    1.000000E+07  0.00400  1.271E-02    0   0.8862   age070_m42            0.0000     1.4350E+02     6.1499   2.6932    88.8904
  5      0.0000     0.0000E+00    0.0000E+00    2.512000E+07  0.00400  5.070E-03    0   0.8174   age090_m42            0.0000     1.2212E+02     5.6965   2.5675    90.3786
  6      0.0000     0.0000E+00    0.0000E+00    4.000000E+07  0.00400  3.505E-03    0   0.7851   age104_m42            0.0000     6.0837E+01     4.0197   2.2564    93.4191
  7     10.3046     6.7969E-01    9.0793E-01    1.015200E+08  0.00400  2.268E-03    0   0.7207   age116_m42            0.0000     1.9754E+02     5.3922   2.2624   103.3929
  8      0.0000     0.0000E+00    0.0000E+00    2.861200E+08  0.00400  1.079E-03    0   0.6613   age125_m42            0.0000     2.2735E+02     6.1445   1.7745   105.2839
  9      5.0551     1.4895E+00    1.7109E+00    6.405400E+08  0.00400  5.077E-04    0   0.6197   age132_m42            0.0000     2.5455E+02     6.4913   1.4160   109.2908
 10     22.8819     9.6834E+00    1.0812E+01    9.047900E+08  0.00400  3.535E-04    0   0.6024   age135_m42            0.0000     1.5063E+02     5.3084   1.1775   108.4003
 11      0.0000     0.0000E+00    0.0000E+00    1.434000E+09  0.00400  1.910E-04    0   0.5716   age139_m42            0.0000     8.1392E+01     4.5269   0.6549   106.9737
 12     15.3626     2.3408E+01    2.3702E+01    2.500000E+09  0.00400  9.818E-05    0   0.5463   age150_m42            0.0000     6.9986E+01     3.8055   0.3827   101.9818
 13     20.3594     6.4556E+01    6.2554E+01    5.000000E+09  0.00400  4.718E-05    0   0.5228   age161_m42            0.0000     1.0255E+02     4.0188   0.2182    98.3949
 14      0.0000     0.0000E+00    0.0000E+00    1.100000E+10  0.00400  2.205E-05    0   0.4980   age185_m42            0.0000     1.9927E+02     5.4061  -0.0369    96.0430
 15      0.0000     0.0000E+00    0.0000E+00    1.300000E+10  0.00400  1.883E-05    0   0.4927   age193_m42            0.0000     2.1397E+02     5.5745  -0.0525    95.8213
 16      0.0000     0.0000E+00    0.0000E+00    1.000000E+06  0.02000  1.989E-02    0   1.0000   age020_m62            0.0000     3.8272E+02     8.7163   4.0000    77.5110
 17      0.0000     0.0000E+00    0.0000E+00    3.160000E+06  0.02000  3.772E-02    0   0.9858   age045_m62            0.0000     3.3162E+02     8.2673   3.8622    79.7611
 18      1.4085     6.5295E-03    1.1306E-02    5.010000E+06  0.02000  3.227E-02    0   0.9342   age055_m62            0.0000     1.0007E+02     4.8243   3.3400    87.9518
 19      0.0000     0.0000E+00    0.0000E+00    1.000000E+07  0.02000  1.011E-02    0   0.8751   age070_m62            0.0000     4.2852E+02    10.6376   2.7132    84.6269
 20      0.0000     0.0000E+00    0.0000E+00    2.512000E+07  0.02000  4.206E-03    0   0.8099   age090_m62            0.0000     2.9008E+02     8.5712   2.6489    85.7076
 21      0.0000     0.0000E+00    0.0000E+00    4.000000E+07  0.02000  3.373E-03    0   0.7799   age104_m62            0.0000     5.1198E+01     3.6530   2.4656    94.9817
 22      0.0000     0.0000E+00    0.0000E+00    1.015200E+08  0.02000  1.878E-03    0   0.7221   age116_m62            0.0000     1.4596E+02     4.3449   2.2875   103.6567
 23      0.0000     0.0000E+00    0.0000E+00    2.861200E+08  0.02000  8.869E-04    0   0.6700   age125_m62            0.0000     4.2071E+02     8.0309   1.7855   110.5809
 24      0.0000     0.0000E+00    0.0000E+00    6.405400E+08  0.02000  3.657E-04    0   0.6322   age132_m62            0.0000     2.9449E+02     7.6691   1.1117   113.8486
 25      0.0000     0.0000E+00    0.0000E+00    9.047900E+08  0.02000  2.312E-04    0   0.6152   age135_m62            0.0000     1.7459E+02     6.3955   0.7385   112.7581
 26      0.0000     0.0000E+00    0.0000E+00    1.434000E+09  0.02000  1.168E-04    0   0.5865   age139_m62            0.0000     9.9568E+01     4.7373   0.3243   106.3802
 27      0.0000     0.0000E+00    0.0000E+00    2.500000E+09  0.02000  5.505E-05    0   0.5610   age150_m62            0.0000     1.7461E+02     5.6427  -0.0412   103.1256
 28      0.0000     0.0000E+00    0.0000E+00    5.000000E+09  0.02000  2.596E-05    0   0.5353   age161_m62            0.0000     3.3205E+02     7.5197  -0.3645   102.8954
 29      0.0000     0.0000E+00    0.0000E+00    1.100000E+10  0.02000  1.169E-05    0   0.5103   age185_m62            0.0000     5.1563E+02     9.2947  -0.7228   104.1957
 30      0.0000     0.0000E+00    0.0000E+00    1.300000E+10  0.02000  9.691E-06    0   0.5047   age193_m62            0.0000     5.5145E+02     9.5790  -0.7670   104.3618
 31      0.0000     0.0000E+00    0.0000E+00    1.000000E+06  0.05000  2.651E-02    0   0.9998   age020_m72            0.0000     3.5523E+02     8.3024   4.0000    78.4480
 32      0.0000     0.0000E+00    0.0000E+00    3.160000E+06  0.05000  4.817E-02    0   0.9577   age045_m72            0.0000     2.2218E+02     6.8121   3.7214    83.1372
 33      0.0000     0.0000E+00    0.0000E+00    5.010000E+06  0.05000  3.101E-02    0   0.9147   age055_m72            0.0000     1.9779E+02     6.5477   3.3541    85.8604
 34      0.0000     0.0000E+00    0.0000E+00    1.000000E+07  0.05000  8.954E-03    0   0.8524   age070_m72            0.0000     2.2538E+02     6.8514   3.5994    84.1659
 35      0.0000     0.0000E+00    0.0000E+00    2.512000E+07  0.05000  4.207E-03    0   0.7902   age090_m72            0.0000     8.7587E+01     4.4953   3.1657    90.1175
 36      0.0000     0.0000E+00    0.0000E+00    4.000000E+07  0.05000  3.198E-03    0   0.7618   age104_m72            0.0000     6.8315E+01     3.1947   2.6570    99.0657
 37      0.0000     0.0000E+00    0.0000E+00    1.015200E+08  0.05000  1.716E-03    0   0.7092   age116_m72            0.0000     1.9318E+02     5.1008   2.3711   103.8962
 38      0.0000     0.0000E+00    0.0000E+00    2.861200E+08  0.05000  7.047E-04    0   0.6618   age125_m72            0.0000     4.1565E+02     8.2908   1.5781   111.1839
 39      0.0000     0.0000E+00    0.0000E+00    6.405400E+08  0.05000  2.633E-04    0   0.6253   age132_m72            0.0000     2.4145E+02     7.2528   0.7334   113.3077
 40      0.0000     0.0000E+00    0.0000E+00    9.047900E+08  0.05000  1.484E-04    0   0.6088   age135_m72            0.0000     1.5910E+02     6.1173   0.2574   107.6428
 41      0.0000     0.0000E+00    0.0000E+00    1.434000E+09  0.05000  7.827E-05    0   0.5847   age139_m72            0.0000     2.3838E+02     6.8095  -0.1270   103.7368
 42      0.0000     0.0000E+00    0.0000E+00    2.500000E+09  0.05000  3.759E-05    0   0.5583   age150_m72            0.0000     3.6088E+02     7.9074  -0.4444   102.6583
 43      0.0000     0.0000E+00    0.0000E+00    5.000000E+09  0.05000  1.548E-05    0   0.5320   age161_m72            0.0000     5.2970E+02     9.3180  -0.8606   102.3574
 44      0.0000     0.0000E+00    0.0000E+00    1.100000E+10  0.05000  6.532E-06    0   0.5070   age185_m72            0.0000     8.0532E+02    11.6361  -1.0000    95.2898
 45      0.0000     0.0000E+00    0.0000E+00    1.300000E+10  0.05000  5.316E-06    0   0.5018   age193_m72            0.0000     9.7035E+02    12.9240  -1.0000    91.9006


## Synthesis Results - Average & Chains ##

# j      x_j: min, <> & last-chain-values for 1 ...  7 chains
  1      0.0000      0.0053      0.0000      0.0000      0.0000      0.0000      0.0000      0.0000      0.0000
  2     14.5701     13.6974     13.8497     13.6892     13.6068     13.8000     13.7591     14.0918     14.0382
  3      0.0000      0.0188      0.0000      0.0000      0.0000      0.0215      0.0000      0.0000      0.0000
  4     10.4776     10.0691     10.0911     10.2970     10.2087     10.1579     10.1384     10.0004     10.0691
  5      0.0000      0.0834      0.1117      0.4173      0.0616      0.1408      0.0237      0.0449      0.0000
  6      0.0000      0.0209      0.0000      0.0000      0.0190      0.0000      0.1000      0.0037      0.0791
  7     10.3046     11.0185     11.1771     10.9844     11.0280     10.9253     11.2367     11.0315     11.0129
  8      0.0000      0.0368      0.0194      0.0000      0.0000      0.0000      0.0000      0.0358      0.0000
  9      5.0551      6.0076      6.0221      6.3016      6.1386      6.3135      6.0440      6.0305      6.1166
 10     22.8819     20.3756     20.5156     20.6748     20.8989     20.4437     20.5138     20.3689     20.4550
 11      0.0000      0.2747      0.0000      0.0674      0.0485      0.0115      0.0000      0.3523      0.0755
 12     15.3626     16.0117     16.2191     15.6182     15.6828     15.9679     16.1043     15.8218     16.0242
 13     20.3594     20.2365     20.2609     19.9904     20.1018     20.1547     20.1380     20.2103     20.3715
 14      0.0000      0.0104      0.0000      0.0000      0.0848      0.0000      0.0000      0.0126      0.0012
 15      0.0000      0.0087      0.0000      0.0000      0.0000      0.0000      0.0000      0.0000      0.0000
 16      0.0000      0.0047      0.0000      0.0000      0.0000      0.0000      0.0000      0.0000      0.0017
 17      0.0000      0.0054      0.0000      0.0000      0.0186      0.0000      0.0000      0.0000      0.0000
 18      1.4085      1.7006      1.6400      1.6620      1.6339      1.7094      1.8159      1.6298      1.6685
 19      0.0000      0.0210      0.0000      0.0000      0.0000      0.0355      0.0000      0.0000      0.0000
 20      0.0000      0.0112      0.0000      0.0000      0.0890      0.0000      0.0000      0.0000      0.0184
 21      0.0000      0.0110      0.0000      0.0000      0.0000      0.0000      0.0000      0.0000      0.0000
 22      0.0000      0.0259      0.0000      0.0000      0.0000      0.0000      0.0000      0.0299      0.0548
 23      0.0000      0.0301      0.0045      0.0000      0.0000      0.0248      0.0000      0.0000      0.0000
 24      0.0000      0.0223      0.0000      0.0000      0.0000      0.0000      0.0000      0.0240      0.0000
 25      0.0000      0.0252      0.0682      0.0000      0.0649      0.0000      0.0000      0.0000      0.0000
 26      0.0000      0.0335      0.0000      0.0000      0.0000      0.0000      0.0112      0.1318      0.0204
 27      0.0000      0.0664      0.0377      0.0555      0.0164      0.0000      0.2272      0.2022      0.1665
 28      0.0000      0.0212      0.0000      0.0000      0.0781      0.0457      0.0000      0.0000      0.0099
 29      0.0000      0.0149      0.0000      0.0000      0.0871      0.0896      0.0000      0.0000      0.0319
 30      0.0000      0.0895      0.1205      0.2163      0.0897      0.0666      0.0797      0.0841      0.0418
 31      0.0000      0.0079      0.0000      0.0000      0.0000      0.0000      0.0000      0.0000      0.0000
 32      0.0000      0.0154      0.0000      0.0000      0.0674      0.0000      0.0130      0.0000      0.0000
 33      0.0000      0.0781      0.1146      0.0056      0.1492      0.0084      0.0307      0.0997      0.0000
 34      0.0000      0.0059      0.0000      0.0000      0.0000      0.0048      0.0000      0.0020      0.0000
 35      0.0000      0.0186      0.0000      0.0000      0.0000      0.0000      0.0000      0.0000      0.0000
 36      0.0000      0.0171      0.0000      0.0000      0.0181      0.0000      0.0099      0.0000      0.0000
 37      0.0000      0.0236      0.0000      0.0000      0.0000      0.0242      0.0000      0.0868      0.0108
 38      0.0000      0.0206      0.0013      0.0000      0.0000      0.0028      0.0149      0.0000      0.0217
 39      0.0000      0.0333      0.0000      0.0000      0.0000      0.0000      0.0000      0.0000      0.0000
 40      0.0000      0.0482      0.0005      0.1082      0.0000      0.1614      0.0000      0.0000      0.0000
 41      0.0000      0.0678      0.0669      0.1373      0.1333      0.1988      0.0329      0.0000      0.0000
 42      0.0000      0.0352      0.0650      0.0000      0.0000      0.0658      0.0000      0.0613      0.0123
 43      0.0000      0.0491      0.0628      0.0854      0.0000      0.0302      0.0000      0.0000      0.0508
 44      0.0000      0.0859      0.0278      0.1577      0.1214      0.0957      0.1695      0.0896      0.0933
 45      0.0000      0.0208      0.0221      0.0000      0.0330      0.0000      0.0035      0.0481      0.0329

# j      m_j: min, <> & last-chain-values for 1 ...  7 chains
  1  0.0000E+00  1.2534E-04  0.0000E+00  0.0000E+00  0.0000E+00  0.0000E+00  0.0000E+00  0.0000E+00  0.0000E+00
  2  9.9179E-02  8.8559E-02  9.0318E-02  8.7363E-02  8.7040E-02  8.9317E-02  8.8875E-02  9.1130E-02  9.0694E-02
  3  0.0000E+00  1.8576E-04  0.0000E+00  0.0000E+00  0.0000E+00  2.1180E-04  0.0000E+00  0.0000E+00  0.0000E+00
  4  2.0256E-01  1.8490E-01  1.8690E-01  1.8664E-01  1.8547E-01  1.8672E-01  1.8600E-01  1.8368E-01  1.8476E-01
  5  0.0000E+00  3.5418E-03  4.7851E-03  1.7489E-02  2.5861E-03  5.9846E-03  1.0049E-03  1.9088E-03  0.0000E+00
  6  0.0000E+00  1.2313E-03  0.0000E+00  0.0000E+00  1.1112E-03  0.0000E+00  5.8941E-03  2.1824E-04  4.6600E-03
  7  9.0793E-01  9.2212E-01  9.4347E-01  9.0738E-01  9.1312E-01  9.1528E-01  9.3950E-01  9.2342E-01  9.2095E-01
  8  0.0000E+00  5.9458E-03  3.1559E-03  0.0000E+00  0.0000E+00  0.0000E+00  0.0000E+00  5.7805E-03  0.0000E+00
  9  1.7109E+00  1.9312E+00  1.9526E+00  1.9995E+00  1.9524E+00  2.0317E+00  1.9411E+00  1.9390E+00  1.9648E+00
 10  1.0812E+01  9.1445E+00  9.2869E+00  9.1588E+00  9.2798E+00  9.1847E+00  9.1979E+00  9.1436E+00  9.1732E+00
 11  0.0000E+00  2.1650E-01  0.0000E+00  5.2436E-02  3.7795E-02  9.0769E-03  0.0000E+00  2.7771E-01  5.9453E-02
 12  2.3702E+01  2.3464E+01  2.3973E+01  2.2591E+01  2.2738E+01  2.3424E+01  2.3578E+01  2.3191E+01  2.3464E+01
 13  6.2554E+01  5.9056E+01  5.9638E+01  5.7584E+01  5.8041E+01  5.8879E+01  5.8714E+01  5.8994E+01  5.9405E+01
 14  0.0000E+00  6.2040E-02  0.0000E+00  0.0000E+00  4.9887E-01  0.0000E+00  0.0000E+00  7.4946E-02  7.0094E-03
 15  0.0000E+00  5.9618E-02  0.0000E+00  0.0000E+00  0.0000E+00  0.0000E+00  0.0000E+00  0.0000E+00  0.0000E+00
 16  0.0000E+00  6.2454E-05  0.0000E+00  0.0000E+00  0.0000E+00  0.0000E+00  0.0000E+00  0.0000E+00  2.2907E-05
 17  0.0000E+00  3.7240E-05  0.0000E+00  0.0000E+00  1.2693E-04  0.0000E+00  0.0000E+00  0.0000E+00  0.0000E+00
 18  1.1306E-02  1.2966E-02  1.2612E-02  1.2508E-02  1.2325E-02  1.3046E-02  1.3832E-02  1.2429E-02  1.2711E-02
 19  0.0000E+00  4.7981E-04  0.0000E+00  0.0000E+00  0.0000E+00  8.1085E-04  0.0000E+00  0.0000E+00  0.0000E+00
 20  0.0000E+00  5.6943E-04  0.0000E+00  0.0000E+00  4.4653E-03  0.0000E+00  0.0000E+00  0.0000E+00  9.3465E-04
 21  0.0000E+00  6.6893E-04  0.0000E+00  0.0000E+00  0.0000E+00  0.0000E+00  0.0000E+00  0.0000E+00  0.0000E+00
 22  0.0000E+00  2.6222E-03  0.0000E+00  0.0000E+00  0.0000E+00  0.0000E+00  0.0000E+00  3.0280E-03  5.5494E-03
 23  0.0000E+00  5.9864E-03  9.0245E-04  0.0000E+00  0.0000E+00  4.9464E-03  0.0000E+00  0.0000E+00  0.0000E+00
 24  0.0000E+00  1.0171E-02  0.0000E+00  0.0000E+00  0.0000E+00  0.0000E+00  0.0000E+00  1.0916E-02  0.0000E+00
 25  0.0000E+00  1.7679E-02  4.8196E-02  0.0000E+00  4.4984E-02  0.0000E+00  0.0000E+00  0.0000E+00  0.0000E+00
 26  0.0000E+00  4.4297E-02  0.0000E+00  0.0000E+00  0.0000E+00  0.0000E+00  1.4782E-02  1.7438E-01  2.7004E-02
 27  0.0000E+00  1.7821E-01  1.0216E-01  1.4713E-01  4.3586E-02  0.0000E+00  6.0933E-01  5.4282E-01  4.4656E-01
 28  0.0000E+00  1.1515E-01  0.0000E+00  0.0000E+00  4.1977E-01  2.4858E-01  0.0000E+00  0.0000E+00  5.3976E-02
 29  0.0000E+00  1.7095E-01  0.0000E+00  0.0000E+00  9.9079E-01  1.0307E+00  0.0000E+00  0.0000E+00  3.6696E-01
 30  0.0000E+00  1.2274E+00  1.6665E+00  2.9289E+00  1.2172E+00  9.1488E-01  1.0926E+00  1.1535E+00  5.7288E-01
 31  0.0000E+00  7.8530E-05  0.0000E+00  0.0000E+00  0.0000E+00  0.0000E+00  0.0000E+00  0.0000E+00  0.0000E+00
 32  0.0000E+00  8.0401E-05  0.0000E+00  0.0000E+00  3.4921E-04  0.0000E+00  6.7811E-05  0.0000E+00  0.0000E+00
 33  0.0000E+00  6.0633E-04  8.9756E-04  4.3312E-05  1.1469E-03  6.5460E-05  2.3860E-04  7.7468E-04  0.0000E+00
 34  0.0000E+00  1.4669E-04  0.0000E+00  0.0000E+00  0.0000E+00  1.1981E-04  0.0000E+00  5.1370E-05  0.0000E+00
 35  0.0000E+00  9.2214E-04  0.0000E+00  0.0000E+00  0.0000E+00  0.0000E+00  0.0000E+00  0.0000E+00  0.0000E+00
 36  0.0000E+00  1.0715E-03  0.0000E+00  0.0000E+00  1.1251E-03  0.0000E+00  6.1807E-04  0.0000E+00  0.0000E+00
 37  0.0000E+00  2.5645E-03  0.0000E+00  0.0000E+00  0.0000E+00  2.6384E-03  0.0000E+00  9.4449E-03  1.1749E-03
 38  0.0000E+00  5.1069E-03  3.2395E-04  0.0000E+00  0.0000E+00  6.8207E-04  3.6802E-03  0.0000E+00  5.3686E-03
 39  0.0000E+00  2.0828E-02  0.0000E+00  0.0000E+00  0.0000E+00  0.0000E+00  0.0000E+00  0.0000E+00  0.0000E+00
 40  0.0000E+00  5.2027E-02  5.4489E-04  1.1537E-01  0.0000E+00  1.7455E-01  0.0000E+00  0.0000E+00  0.0000E+00
 41  0.0000E+00  1.3344E-01  1.3267E-01  2.6671E-01  2.5954E-01  3.9162E-01  6.4687E-02  0.0000E+00  0.0000E+00
 42  0.0000E+00  1.3771E-01  2.5650E-01  0.0000E+00  0.0000E+00  2.5748E-01  0.0000E+00  2.3965E-01  4.8185E-02
 43  0.0000E+00  4.4426E-01  5.7298E-01  7.6266E-01  0.0000E+00  2.7393E-01  0.0000E+00  0.0000E+00  4.5954E-01
 44  0.0000E+00  1.7567E+00  5.7231E-01  3.1814E+00  2.4558E+00  1.9593E+00  3.4609E+00  1.8314E+00  1.9067E+00
 45  0.0000E+00  5.1714E-01  5.5402E-01  0.0000E+00  8.1202E-01  0.0000E+00  8.7269E-02  1.1952E+00  8.1747E-01

# AV, chi2 & Mass for <> & i_chain = 1 ...  7 solutions
AV       1.2225      1.2017      1.2038      1.2061      1.2050      1.2017      1.2066      1.2048      1.2033
chi2 2.8630E+00  2.8991E+00  2.8917E+00  2.8801E+00  2.8898E+00  2.8907E+00  2.8875E+00  2.8881E+00  2.8897E+00
Mass 7.2765E-10  7.4499E-10  7.4075E-10  7.5924E-10  7.5637E-10  7.4418E-10  7.5065E-10  7.4789E-10  7.4718E-10
 -16.09                                  [v0_min (km/s) before EX0s...]
 108.78                                  [vd_min (km/s) before EX0s...]


## Synthetic spectrum (Best Model) ##l_obs f_obs f_syn wei
 3070    [Nl_obs]
 3359.00    0.18587   0.49734   -1.000
 3360.00    0.24109   0.48521   -1.000
 3361.00    0.24529   0.48420   -1.000
 3362.00    0.25920   0.49452   -1.000
 3363.00    0.27400   0.50961   -1.000
 3364.00    0.28935   0.52057   -1.000
 3365.00    0.30315   0.52166   -1.000
 3366.00    0.30835   0.51321   -1.000
 3367.00    0.31259   0.50060   -1.000
 3368.00    0.31069   0.49012   -1.000
 3369.00    0.30849   0.48452   -1.000
 3370.00    0.30990   0.48226   -1.000
 3371.00    0.30774   0.48112   -1.000
 3372.00    0.30735   0.48247   -1.000
 3373.00    0.31024   0.49021   -1.000
 3374.00    0.32298   0.50517   -1.000
 3375.00    0.33907   0.52129   -1.000
 3376.00    0.34460   0.52937   -1.000
 3377.00    0.35229   0.52542   -1.000
 3378.00    0.36165   0.51407   -1.000
 3379.00    0.35811   0.50423   -1.000
 3380.00    0.35675   0.50240   -1.000
 3381.00    0.35579   0.50899   -1.000
 3382.00    0.35616   0.51963   -1.000
 3383.00    0.35678   0.52955   -1.000
 3384.00    0.36609   0.53693   -1.000
 3385.00    0.37419   0.54194   -1.000
 3386.00    0.37920   0.54446   -1.000
 3387.00    0.38088   0.54458   -1.000
 3388.00    0.38078   0.54347   -1.000
 3389.00    0.38398   0.54212   -1.000
 3390.00    0.39209   0.53990   -1.000
 3391.00    0.39111   0.53592   -1.000
 3392.00    0.39103   0.53161   -1.000
 3393.00    0.39570   0.53072   -1.000
 3394.00    0.39872   0.53572   -1.000
 3395.00    0.40068   0.54531   -1.000
 3396.00    0.40856   0.55553   -1.000
 3397.00    0.41924   0.56244   -1.000
 3398.00    0.43191   0.56383   -1.000
 3399.00    0.43897   0.55994   -1.000
 3400.00    0.43827   0.55286   -1.000
 3401.00    0.43722   0.54480   -1.000
 3402.00    0.42970   0.53736   -1.000
 3403.00    0.42560   0.53183   -1.000
 3404.00    0.42478   0.52818   -1.000
 3405.00    0.42131   0.52493   -1.000
 3406.00    0.41681   0.52129   -1.000
 3407.00    0.41446   0.51864   -1.000
 3408.00    0.41585   0.51904   -1.000
 3409.00    0.41318   0.52269   -1.000
 3410.00    0.41013   0.52716   -1.000
 3411.00    0.41924   0.52967   -1.000
 3412.00    0.42638   0.52955   -1.000
 3413.00    0.42291   0.52836   -1.000
 3414.00    0.42118   0.52834   -1.000
 3415.00    0.42461   0.53110   -1.000
 3416.00    0.42941   0.53722   -1.000
 3417.00    0.43626   0.54608   -1.000
 3418.00    0.44341   0.55581   -1.000
 3419.00    0.44837   0.56345   -1.000
 3420.00    0.45604   0.56640   -1.000
 3421.00    0.46007   0.56444   -1.000
 3422.00    0.46015   0.55988   -1.000
 3423.00    0.45601   0.55560   -1.000
 3424.00    0.45189   0.55336   -1.000
 3425.00    0.45311   0.55385   -1.000
 3426.00    0.46111   0.55757   -1.000
 3427.00    0.46412   0.56459   -1.000
 3428.00    0.46857   0.57266   -1.000
 3429.00    0.47749   0.57749   -1.000
 3430.00    0.48126   0.57627   -1.000
 3431.00    0.48447   0.57013   -1.000
 3432.00    0.47813   0.56315   -1.000
 3433.00    0.47095   0.55921   -1.000
 3434.00    0.47137   0.55930   -1.000
 3435.00    0.48167   0.56109   -1.000
 3436.00    0.48256   0.56064   -1.000
 3437.00    0.47894   0.55487   -1.000
 3438.00    0.47163   0.54286   -1.000
 3439.00    0.45852   0.52619   -1.000
 3440.00    0.44854   0.50922   48.784
 3441.00    0.44722   0.49776   49.297
 3442.00    0.44102   0.49515   49.149
 3443.00    0.43962   0.49985   47.584
 3444.00    0.45139   0.50806   45.130
 3445.00    0.46502   0.51801   42.633
 3446.00    0.47226   0.53024   40.954
 3447.00    0.48053   0.54429   -1.000
 3448.00    0.49501   0.55631   -1.000
 3449.00    0.50190   0.56112   -1.000
 3450.00    0.49692   0.55671   -1.000
 3451.00    0.50006   0.54629   -1.000
 3452.00    0.50209   0.53597   -1.000
 3453.00    0.49984   0.53085   -1.000
 3454.00    0.49778   0.53179   -1.000
 3455.00    0.50711   0.53514   -1.000
 3456.00    0.51484   0.53606   -1.000
 3457.00    0.51390   0.53246   -1.000
 3458.00    0.50767   0.52584   50.286
 3459.00    0.50029   0.51916   40.010
 3460.00    0.49974   0.51538   39.928
 3461.00    0.49769   0.51699  126.364
 3462.00    0.49515   0.52394   -1.000
 3463.00    0.49914   0.53258   -1.000
 3464.00    0.50504   0.53890   -1.000
 3465.00    0.50946   0.54227   -1.000
 3466.00    0.51415   0.54465   -1.000
 3467.00    0.51168   0.54772   -1.000
 3468.00    0.51926   0.55145   -1.000
 3469.00    0.52908   0.55458   -1.000
 3470.00    0.53291   0.55535   -1.000
 3471.00    0.53702   0.55228   -1.000
 3472.00    0.53315   0.54478   -1.000
 3473.00    0.52403   0.53369  321.468
 3474.00    0.50321   0.52193   50.466
 3475.00    0.49328   0.51400   41.081
 3476.00    0.49485   0.51312   40.722
 3477.00    0.50006   0.51866  128.318
 3478.00    0.51387   0.52715   -1.000
 3479.00    0.53591   0.53490  321.468
 3480.00    0.55335   0.53944   -1.000
 3481.00    0.55452   0.53989   -1.000
 3482.00    0.55231   0.53735   -1.000
 3483.00    0.54784   0.53521   -1.000
 3484.00    0.54731   0.53740   -1.000
 3485.00    0.55061   0.54481  321.468
 3486.00    0.55578   0.55334  321.468
 3487.00    0.55529   0.55686  321.468
 3488.00    0.55758   0.55243  321.468
 3489.00    0.54500   0.54301  321.468
 3490.00    0.52596   0.53475  321.468
 3491.00    0.52006   0.53144   -1.000
 3492.00    0.51523   0.53157   -1.000
 3493.00    0.51885   0.53108   -1.000
 3494.00    0.52402   0.52804  321.468
 3495.00    0.52801   0.52464  321.468
 3496.00    0.51861   0.52522  321.468
 3497.00    0.51801   0.53175   -1.000
 3498.00    0.52739   0.54107   -1.000
 3499.00    0.53419   0.54797   -1.000
 3500.00    0.54249   0.55087  313.502
 3501.00    0.54521   0.55216  309.748
 3502.00    0.54777   0.55361  307.183
 3503.00    0.55198   0.55388  313.557
 3504.00    0.55610   0.55104  318.634
 3505.00    0.54763   0.54599  321.468
 3506.00    0.54497   0.54179  321.468
 3507.00    0.54434   0.54015  318.933
 3508.00    0.54888   0.53988   -1.000
 3509.00    0.55265   0.53860   -1.000
 3510.00    0.54672   0.53508   -1.000
 3511.00    0.53833   0.52983   -1.000
 3512.00    0.53024   0.52458  321.468
 3513.00    0.52675   0.52221  321.468
 3514.00    0.52606   0.52567  321.468
 3515.00    0.53122   0.53517  321.468
 3516.00    0.54269   0.54724  321.468
 3517.00    0.54737   0.55668  314.262
 3518.00    0.55488   0.55951  320.904
 3519.00    0.55231   0.55505  321.468
 3520.00    0.54392   0.54594  321.468
 3521.00    0.54267   0.53575  321.468
 3522.00    0.53393   0.52646  321.468
 3523.00    0.52355   0.51853   49.453
 3524.00    0.51364   0.51294   40.690
 3525.00    0.50342   0.51187   40.795
 3526.00    0.50101   0.51724  133.453
 3527.00    0.50401   0.52825   -1.000
 3528.00    0.51996   0.54082   -1.000
 3529.00    0.53391   0.55019   -1.000
 3530.00    0.53934   0.55439   -1.000
 3531.00    0.54902   0.55521  321.468
 3532.00    0.55044   0.55597  321.468
 3533.00    0.54583   0.55849   -1.000
 3534.00    0.54618   0.56213   -1.000
 3535.00    0.55071   0.56541   -1.000
 3536.00    0.54989   0.56798   -1.000
 3537.00    0.55246   0.57082   -1.000
 3538.00    0.55650   0.57432   -1.000
 3539.00    0.56444   0.57730   -1.000
 3540.00    0.56679   0.57868   -1.000
 3541.00    0.56536   0.57932   -1.000
 3542.00    0.56400   0.58087   -1.000
 3543.00    0.56794   0.58344   -1.000
 3544.00    0.57449   0.58555   -1.000
 3545.00    0.57647   0.58591  319.090
 3546.00    0.57529   0.58478  321.468
 3547.00    0.57300   0.58352   -1.000
 3548.00    0.56996   0.58319   -1.000
 3549.00    0.56407   0.58372   -1.000
 3550.00    0.56267   0.58400   -1.000
 3551.00    0.56103   0.58257   -1.000
 3552.00    0.56389   0.57896   -1.000
 3553.00    0.55842   0.57441   -1.000
 3554.00    0.55232   0.57101   -1.000
 3555.00    0.54843   0.56973   -1.000
 3556.00    0.54778   0.56958   -1.000
 3557.00    0.55238   0.56905   -1.000
 3558.00    0.55386   0.56819   -1.000
 3559.00    0.55034   0.56885   -1.000
 3560.00    0.55102   0.57259   -1.000
 3561.00    0.55167   0.57773   -1.000
 3562.00    0.55638   0.57898   -1.000
 3563.00    0.55299   0.57143   -1.000
 3564.00    0.54446   0.55618   49.399
 3565.00    0.52398   0.54034   41.270
 3566.00    0.51348   0.53023   41.234
 3567.00    0.51044   0.52564   40.950
 3568.00    0.50500   0.52170   42.013
 3569.00    0.50282   0.51553   42.929
 3570.00    0.49880   0.50948   42.003
 3571.00    0.49479   0.50758   40.225
 3572.00    0.50116   0.51053  135.642
 3573.00    0.50463   0.51536   -1.000
 3574.00    0.50841   0.51920   -1.000
 3575.00    0.51257   0.52146  321.468
 3576.00    0.51761   0.52239  321.468
 3577.00    0.52076   0.52098  321.468
 3578.00    0.52139   0.51557   50.905
 3579.00    0.52088   0.50631   43.902
 3580.00    0.50693   0.49622   46.547
 3581.00    0.49561   0.48924   47.299
 3582.00    0.48468   0.48675   47.511
 3583.00    0.48091   0.48629   48.510
 3584.00    0.48216   0.48448   50.041
 3585.00    0.47284   0.48112   50.940
 3586.00    0.46624   0.47940   48.990
 3587.00    0.46673   0.48258   46.393
 3588.00    0.47439   0.49150   44.106
 3589.00    0.49150   0.50438   40.487
 3590.00    0.51181   0.51788  135.231
 3591.00    0.52597   0.52869  321.468
 3592.00    0.53378   0.53561  321.468
 3593.00    0.54086   0.54032  321.468
 3594.00    0.54029   0.54578  321.468
 3595.00    0.53759   0.55342   -1.000
 3596.00    0.54549   0.56223   -1.000
 3597.00    0.55802   0.57009   -1.000
 3598.00    0.56522   0.57513  297.854
 3599.00    0.56848   0.57586  299.794
 3600.00    0.56588   0.57138  312.130
 3601.00    0.55917   0.56230  321.468
 3602.00    0.54930   0.55116  321.468
 3603.00    0.54115   0.54164  321.468
 3604.00    0.53289   0.53628  321.468
 3605.00    0.53071   0.53469  321.468
 3606.00    0.52965   0.53409  321.468
 3607.00    0.52919   0.53220  321.468
 3608.00    0.52708   0.52960  321.468
 3609.00    0.52283   0.52885  321.468
 3610.00    0.51975   0.53137   -1.000
 3611.00    0.52361   0.53588   -1.000
 3612.00    0.53440   0.54064  321.468
 3613.00    0.53918   0.54532  321.468
 3614.00    0.54508   0.54973  321.468
 3615.00    0.55161   0.55152  321.468
 3616.00    0.55357   0.54740  321.468
 3617.00    0.55292   0.53808   -1.000
 3618.00    0.53993   0.52983   48.093
 3619.00    0.52781   0.52913  137.399
 3620.00    0.53394   0.53711  321.468
 3621.00    0.54935   0.54965  321.468
 3622.00    0.56155   0.56180  312.042
 3623.00    0.57032   0.57175  307.550
 3624.00    0.57387   0.58124  297.524
 3625.00    0.57616   0.59192   -1.000
 3626.00    0.58735   0.60187   -1.000
 3627.00    0.59446   0.60578   -1.000
 3628.00    0.59254   0.59895  298.128
 3629.00    0.58150   0.58203  321.468
 3630.00    0.55411   0.56206  321.468
 3631.00    0.53684   0.54793  321.468
 3632.00    0.53295   0.54413   -1.000
 3633.00    0.54654   0.54837  321.468
 3634.00    0.55462   0.55480  321.468
 3635.00    0.56179   0.55970  321.468
 3636.00    0.56707   0.56405  312.809
 3637.00    0.57214   0.57054  298.580
 3638.00    0.57919   0.57903  287.944
 3639.00    0.59210   0.58583  285.905
 3640.00    0.59503   0.58697  291.754
 3641.00    0.58574   0.58149  301.190
 3642.00    0.57424   0.57182  316.460
 3643.00    0.56442   0.56184  321.468
 3644.00    0.55960   0.55427  321.468
 3645.00    0.55729   0.54941  321.468
 3646.00    0.55737   0.54629   -1.000
 3647.00    0.55362   0.54474   -1.000
 3648.00    0.55009   0.54588  321.468
 3649.00    0.55594   0.55077  321.468
 3650.00    0.56140   0.55924  310.113
 3651.00    0.56698   0.56966  296.719
 3652.00    0.57446   0.57979  288.519
 3653.00    0.58289   0.58799  283.972
 3654.00    0.59287   0.59408  282.494
 3655.00    0.59936   0.59915  279.635
 3656.00    0.60192   0.60415  276.672
 3657.00    0.60502   0.60865  272.257
 3658.00    0.60383   0.61129  271.671
 3659.00    0.60371   0.61099  271.718
 3660.00    0.60334   0.60770  274.203
 3661.00    0.60562   0.60236  277.176
 3662.00    0.59612   0.59657  281.633
 3663.00    0.59677   0.59211  284.266
 3664.00    0.59826   0.58992  281.761
 3665.00    0.59735   0.58933  281.290
 3666.00    0.59665   0.58847  286.251
 3667.00    0.58988   0.58621  289.933
 3668.00    0.58455   0.58375  296.428
 3669.00    0.58728   0.58380  296.143
 3670.00    0.57900   0.58763  286.491
 3671.00    0.58706   0.59352  279.836
 3672.00    0.59594   0.59817  278.069
 3673.00    0.59291   0.59914  277.862
 3674.00    0.59434   0.59587  278.384
 3675.00    0.59568   0.58914  285.645
 3676.00    0.59313   0.58055   -1.000
 3677.00    0.58259   0.57223   -1.000
 3678.00    0.57626   0.56630   -1.000
 3679.00    0.56888   0.56399  312.204
 3680.00    0.56260   0.56512  305.201
 3681.00    0.57276   0.56826  296.472
 3682.00    0.57689   0.57113  292.726
 3683.00    0.57619   0.57107  298.194
 3684.00    0.57595   0.56639   -1.000
 3685.00    0.57071   0.55861   -1.000
 3686.00    0.55850   0.55280  321.468
 3687.00    0.55610   0.55418  321.468
 3688.00    0.56873   0.56366  303.229
 3689.00    0.58350   0.57706  283.065
 3690.00    0.59725   0.58876  272.812
 3691.00    0.60400   0.59600  273.174
 3692.00    0.60823   0.59961  279.891
 3693.00    0.60996   0.60097  284.421
 3694.00    0.61164   0.60010   -1.000
 3695.00    0.61498   0.59748   -1.000
 3696.00    0.60463   0.59649  278.366
 3697.00    0.60333   0.60176  270.126
 3698.00    0.61953   0.61403  262.914
 3699.00    0.63359   0.62723  258.889
 3700.00    0.64280   0.63141  262.454
 3701.00    0.64142   0.61972   -1.000
 3702.00    0.62485   0.59376   -1.000
 3703.00    0.59896   0.56348   -1.000
 3704.00    0.56952   0.54115   -1.000
 3705.00    0.56030   0.53374   -1.000
 3706.00    0.56883   0.53954   -1.000
 3707.00    0.58350   0.55093   -1.000
 3708.00    0.59862   0.55999   -1.000
 3709.00    0.59474   0.56303   -1.000
 3710.00    0.58887   0.56281   -1.000
 3711.00    0.58797   0.56644   -1.000
 3712.00    0.59118   0.57962   -1.000
 3713.00    0.60787   0.60181  257.861
 3714.00    0.63392   0.62646  256.165
 3715.00    0.66257   0.64512   -1.000
 3716.00    0.67045   0.65092   -1.000
 3717.00    0.66500   0.63966   -1.000
 3718.00    0.63948   0.61086   -1.000
 3719.00    0.59661   0.57083   -1.000
 3720.00    0.54995   0.53309   47.875
 3721.00    0.52248   0.51258  150.361
 3722.00    0.52294   0.51745  321.468
 3723.00    0.55436   0.54466   -1.000
 3724.00    0.60078   0.58193   -1.000
 3725.00    0.64316   0.61543   -1.000
 3726.00    0.66179   0.63812   -1.000
 3727.00    0.66799   0.65100   -1.000
 3728.00    0.67179   0.65639   -1.000
 3729.00    0.66702   0.65204   -1.000
 3730.00    0.65777   0.63269   -1.000
 3731.00    0.63298   0.59661   -1.000
 3732.00    0.59410   0.55011   46.773
 3733.00    0.54497   0.50622   43.318
 3734.00    0.50342   0.47893   45.577
 3735.00    0.49657   0.47713   43.931
 3736.00    0.51806   0.50144   40.080
 3737.00    0.55924   0.54474  146.591
 3738.00    0.60960   0.59528   -1.000
 3739.00    0.65183   0.64048   -1.000
 3740.00    0.67959   0.67093  294.090
 3741.00    0.69403   0.68297   -1.000
 3742.00    0.69093   0.67838   -1.000
 3743.00    0.67874   0.66178   -1.000
 3744.00    0.65264   0.63757   -1.000
 3745.00    0.63043   0.60778   -1.000
 3746.00    0.60609   0.57267   47.357
 3747.00    0.57488   0.53420   42.142
 3748.00    0.53613   0.49983   42.980
 3749.00    0.51040   0.48161   -1.000
 3750.00    0.51000   0.48898   -1.000
 3751.00    0.54435   0.52191   -1.000
 3752.00    0.59275   0.57070   -1.000
 3753.00    0.64161   0.62154   -1.000
 3754.00    0.68165   0.66200   -1.000
 3755.00    0.70468   0.68429   -1.000
 3756.00    0.70668   0.68721   -1.000
 3757.00    0.69417   0.67696   -1.000
 3758.00    0.67412   0.66422   -1.000
 3759.00    0.66529   0.65789  321.468
 3760.00    0.67380   0.66029   -1.000
 3761.00    0.69390   0.66787   -1.000
 3762.00    0.70505   0.67490   -1.000
 3763.00    0.70778   0.67647   -1.000
 3764.00    0.69714   0.66958   -1.000
 3765.00    0.69225   0.65338   -1.000
 3766.00    0.67672   0.62881   -1.000
 3767.00    0.65277   0.59818   -1.000
 3768.00    0.62474   0.56578   -1.000
 3769.00    0.59638   0.53907   -1.000
 3770.00    0.57617   0.52754   -1.000
 3771.00    0.57922   0.53724   -1.000
 3772.00    0.60654   0.56545   -1.000
 3773.00    0.64292   0.60235   -1.000
 3774.00    0.67601   0.63859   -1.000
 3775.00    0.69869   0.67065   -1.000
 3776.00    0.71554   0.69951   -1.000
 3777.00    0.73466   0.72655  268.535
 3778.00    0.75328   0.75147  260.219
 3779.00    0.77480   0.77284  253.739
 3780.00    0.79042   0.78937  251.422
 3781.00    0.79723   0.80045  249.882
 3782.00    0.80517   0.80573  249.783
 3783.00    0.80608   0.80444  254.743
 3784.00    0.79866   0.79575  267.241
 3785.00    0.78211   0.78035  286.588
 3786.00    0.76516   0.76162  302.065
 3787.00    0.75061   0.74414  309.044
 3788.00    0.73966   0.73086   -1.000
 3789.00    0.73784   0.72134   -1.000
 3790.00    0.73869   0.71215   -1.000
 3791.00    0.72940   0.69862   -1.000
 3792.00    0.71914   0.67691   -1.000
 3793.00    0.69214   0.64567   -1.000
 3794.00    0.65305   0.60642   -1.000
 3795.00    0.62262   0.56323   -1.000
 3796.00    0.59065   0.52322   -1.000
 3797.00    0.54680   0.49690   -1.000
 3798.00    0.53405   0.49483   -1.000
 3799.00    0.55488   0.52079   -1.000
 3800.00    0.60192   0.56796   -1.000
 3801.00    0.65500   0.62270   -1.000
 3802.00    0.69598   0.67221   -1.000
 3803.00    0.72812   0.70931   -1.000
 3804.00    0.74753   0.73275   -1.000
 3805.00    0.75647   0.74594   -1.000
 3806.00    0.75755   0.75527  297.887
 3807.00    0.76480   0.76709  291.920
 3808.00    0.78020   0.78374  280.967
 3809.00    0.79898   0.80172  276.735
 3810.00    0.80268   0.81358   -1.000
 3811.00    0.80722   0.81262  294.911
 3812.00    0.80069   0.79788  313.001
 3813.00    0.77951   0.77596  321.468
 3814.00    0.76373   0.75734  321.468
 3815.00    0.76048   0.74906   -1.000
 3816.00    0.76625   0.74981   -1.000
 3817.00    0.77808   0.75165   -1.000
 3818.00    0.78160   0.74751   -1.000
 3819.00    0.76351   0.73752   -1.000
 3820.00    0.74392   0.72778   -1.000
 3821.00    0.74479   0.72257   -1.000
 3822.00    0.74988   0.71895   -1.000
 3823.00    0.74685   0.71042   -1.000
 3824.00    0.73081   0.69461   48.076
 3825.00    0.70584   0.67561   42.101
 3826.00    0.69461   0.65882   41.908
 3827.00    0.69345   0.64562   41.268
 3828.00    0.68863   0.63294   40.588
 3829.00    0.67859   0.61614   40.936
 3830.00    0.66745   0.59164   -1.000
 3831.00    0.64051   0.55841   -1.000
 3832.00    0.60346   0.51915   -1.000
 3833.00    0.55937   0.48075   -1.000
 3834.00    0.52690   0.45245   -1.000
 3835.00    0.51323   0.44159   -1.000
 3836.00    0.52092   0.44991   -1.000
 3837.00    0.54755   0.47381   -1.000
 3838.00    0.57478   0.50797   -1.000
 3839.00    0.60627   0.54849   42.885
 3840.00    0.63468   0.59281   -1.000
 3841.00    0.66774   0.63798   -1.000
 3842.00    0.70898   0.68003   -1.000
 3843.00    0.74754   0.71542   -1.000
 3844.00    0.76389   0.74295   -1.000
 3845.00    0.77135   0.76378  320.550
 3846.00    0.78802   0.77932  321.058
 3847.00    0.79860   0.78970  321.468
 3848.00    0.79465   0.79512  321.468
 3849.00    0.79036   0.79804  321.468
 3850.00    0.79135   0.80210   -1.000
 3851.00    0.79384   0.80852   -1.000
 3852.00    0.80216   0.81448   -1.000
 3853.00    0.81617   0.81595  321.468
 3854.00    0.81392   0.81147  321.468
 3855.00    0.80594   0.80299  321.468
 3856.00    0.79752   0.79341  321.468
 3857.00    0.78687   0.78490   45.179
 3858.00    0.77224   0.77945   41.280
 3859.00    0.76392   0.77955   40.812
 3860.00    0.76711   0.78642   -1.000
 3861.00    0.78724   0.79786   -1.000
 3862.00    0.82233   0.80897   -1.000
 3863.00    0.84186   0.81585   -1.000
 3864.00    0.84221   0.81823   -1.000
 3865.00    0.83912   0.81860   -1.000
 3866.00    0.83614   0.81911   -1.000
 3867.00    0.83310   0.81939   -1.000
 3868.00    0.82959   0.81672   -1.000
 3869.00    0.81477   0.80818  321.468
 3870.00    0.79205   0.79395   45.658
 3871.00    0.76850   0.77884  169.454
 3872.00    0.75587   0.76987   -1.000
 3873.00    0.76020   0.77067  320.709
 3874.00    0.77419   0.77729  306.577
 3875.00    0.79472   0.78071   -1.000
 3876.00    0.79382   0.77465   -1.000
 3877.00    0.76846   0.76101  321.468
 3878.00    0.74050   0.74673  321.468
 3879.00    0.72925   0.73617  321.468
 3880.00    0.72937   0.72774  321.468
 3881.00    0.72068   0.71687  321.468
 3882.00    0.70637   0.70037  321.468
 3883.00    0.70264   0.67664   -1.000
 3884.00    0.69637   0.64422   -1.000
 3885.00    0.66865   0.60298   -1.000
 3886.00    0.63313   0.55757   -1.000
 3887.00    0.59700   0.51834   -1.000
 3888.00    0.56562   0.49753   -1.000
 3889.00    0.55739   0.50269   -1.000
 3890.00    0.58521   0.53218   -1.000
 3891.00    0.63069   0.57552   -1.000
 3892.00    0.67809   0.61961   -1.000
 3893.00    0.71394   0.65635   -1.000
 3894.00    0.72704   0.68527   -1.000
 3895.00    0.73809   0.70948   -1.000
 3896.00    0.75355   0.73053   -1.000
 3897.00    0.77302   0.74761   -1.000
 3898.00    0.78705   0.76045   -1.000
 3899.00    0.78949   0.77104   -1.000
 3900.00    0.79636   0.78157   -1.000
 3901.00    0.80242   0.79154  261.382
 3902.00    0.81379   0.79818   -1.000
 3903.00    0.81496   0.80006   -1.000
 3904.00    0.81776   0.79964   -1.000
 3905.00    0.81429   0.80235   -1.000
 3906.00    0.81344   0.81272  270.767
 3907.00    0.83536   0.83068  252.670
 3908.00    0.86102   0.85148  245.398
 3909.00    0.87068   0.86893  242.813
 3910.00    0.88449   0.87920  240.516
 3911.00    0.88974   0.88224  238.993
 3912.00    0.89029   0.88002  241.349
 3913.00    0.88531   0.87524  246.150
 3914.00    0.87799   0.87045  251.894
 3915.00    0.87150   0.86686  255.404
 3916.00    0.86960   0.86372  258.791
 3917.00    0.86809   0.85933  265.924
 3918.00    0.85879   0.85279  277.299
 3919.00    0.84515   0.84524  290.528
 3920.00    0.83590   0.83922  297.408
 3921.00    0.83028   0.83661  295.660
 3922.00    0.83087   0.83685  290.448
 3923.00    0.84009   0.83654  291.885
 3924.00    0.84198   0.83131   -1.000
 3925.00    0.83406   0.81785   -1.000
 3926.00    0.81061   0.79521   -1.000
 3927.00    0.77709   0.76458   49.667
 3928.00    0.73350   0.72747   50.198
 3929.00    0.67822   0.68441   58.744
 3930.00    0.61409   0.63552   69.426
 3931.00    0.52475   0.58420   -1.000
 3932.00    0.43265   0.54047   -1.000
 3933.00    0.38408   0.51806   -1.000
 3934.00    0.39735   0.52613   -1.000
 3935.00    0.46414   0.56264   -1.000
 3936.00    0.55534   0.61554   -1.000
 3937.00    0.63658   0.67105   43.808
 3938.00    0.70123   0.72017   -1.000
 3939.00    0.75269   0.75874  321.468
 3940.00    0.78450   0.78573  321.468
 3941.00    0.80347   0.80144  321.468
 3942.00    0.80709   0.80832  321.468
 3943.00    0.80306   0.81123  320.589
 3944.00    0.81141   0.81490  292.446
 3945.00    0.83330   0.82130   -1.000
 3946.00    0.85397   0.82901   -1.000
 3947.00    0.85891   0.83552   -1.000
 3948.00    0.85738   0.83968   -1.000
 3949.00    0.85921   0.84169   -1.000
 3950.00    0.86128   0.84209   -1.000
 3951.00    0.85961   0.84174   -1.000
 3952.00    0.85572   0.84164   -1.000
 3953.00    0.86596   0.84135   -1.000
 3954.00    0.87349   0.83867   -1.000
 3955.00    0.86469   0.83220   -1.000
 3956.00    0.85016   0.82315   -1.000
 3957.00    0.84018   0.81340   -1.000
 3958.00    0.83616   0.80164   -1.000
 3959.00    0.82933   0.78349   -1.000
 3960.00    0.80297   0.75648   -1.000
 3961.00    0.76225   0.72261   -1.000
 3962.00    0.72153   0.68548   -1.000
 3963.00    0.69178   0.64565   46.386
 3964.00    0.65058   0.59901   47.356
 3965.00    0.57840   0.54213   58.073
 3966.00    0.48220   0.47806   71.141
 3967.00    0.38456   0.41776   79.623
 3968.00    0.32012   0.37630   -1.000
 3969.00    0.31450   0.36502   62.845
 3970.00    0.36530   0.38627   51.629
 3971.00    0.44533   0.43333   43.117
 3972.00    0.52778   0.49471   -1.000
 3973.00    0.60034   0.55924   -1.000
 3974.00    0.66891   0.61980   -1.000
 3975.00    0.72801   0.67303   -1.000
 3976.00    0.77351   0.71877   -1.000
 3977.00    0.80497   0.75786   -1.000
 3978.00    0.82852   0.79031   -1.000
 3979.00    0.85894   0.81512   -1.000
 3980.00    0.87155   0.83142   -1.000
 3981.00    0.86783   0.84110   -1.000
 3982.00    0.87256   0.84836   -1.000
 3983.00    0.87863   0.85679   -1.000
 3984.00    0.89986   0.86713   -1.000
 3985.00    0.91680   0.87800   -1.000
 3986.00    0.92440   0.88845   -1.000
 3987.00    0.92958   0.89857   -1.000
 3988.00    0.93352   0.90864   -1.000
 3989.00    0.94032   0.91848   -1.000
 3990.00    0.94776   0.92774   -1.000
 3991.00    0.95515   0.93598   -1.000
 3992.00    0.96206   0.94178   -1.000
 3993.00    0.96434   0.94323   -1.000
 3994.00    0.95415   0.93957  210.100
 3995.00    0.94663   0.93275  214.209
 3996.00    0.93903   0.92691  216.225
 3997.00    0.92868   0.92574  211.936
 3998.00    0.93052   0.93052  202.562
 3999.00    0.94885   0.93927  195.456
 4000.00    0.96160   0.94791  192.027
 4001.00    0.98058   0.95237   -1.000
 4002.00    0.98335   0.95003   -1.000
 4003.00    0.98119   0.94110   -1.000
 4004.00    0.96084   0.93004   -1.000
 4005.00    0.94559   0.92371   -1.000
 4006.00    0.94640   0.92677   -1.000
 4007.00    0.96170   0.93867   -1.000
 4008.00    0.98052   0.95352   -1.000
 4009.00    0.99608   0.96545   -1.000
 4010.00    1.00000   0.97223   -1.000
 4011.00    0.99655   0.97503   -1.000
 4012.00    0.98761   0.97635  191.536
 4013.00    0.98556   0.97793  190.313
 4014.00    0.98616   0.98028  187.692
 4015.00    0.99756   0.98310  188.944
 4016.00    1.00336   0.98627   -1.000
 4017.00    1.00486   0.99003  190.614
 4018.00    1.00370   0.99416  187.801
 4019.00    1.00714   0.99755  187.958
 4020.00    1.00372   0.99851  190.550
 4021.00    1.00060   0.99589  191.821
 4022.00    0.99526   0.98990  193.062
 4023.00    0.99112   0.98296  194.559
 4024.00    0.99228   0.97871  190.243
 4025.00    0.99815   0.97980   -1.000
 4026.00    1.00984   0.98492   -1.000
 4027.00    1.01481   0.98885   -1.000
 4028.00    1.01095   0.98659   -1.000
 4029.00    0.99801   0.97729   -1.000
 4030.00    0.97768   0.96539  209.311
 4031.00    0.96020   0.95660  212.341
 4032.00    0.94941   0.95466  210.047
 4033.00    0.95414   0.96032  203.476
 4034.00    0.96571   0.97219  193.624
 4035.00    0.98819   0.98820  184.046
 4036.00    1.00653   1.00490  177.357
 4037.00    1.02469   1.01808  176.242
 4038.00    1.02637   1.02444  179.667
 4039.00    1.02648   1.02374  183.957
 4040.00    1.01983   1.01822  186.158
 4041.00    1.01213   1.00934  187.139
 4042.00    1.00832   0.99533  195.540
 4043.00    0.99511   0.97606   -1.000
 4044.00    0.96720   0.95668  231.059
 4045.00    0.94131   0.94616  223.681
 4046.00    0.94257   0.95106  202.669
 4047.00    0.97440   0.96867  189.757
 4048.00    1.00481   0.98997  183.878
 4049.00    1.01652   1.00594  181.525
 4050.00    1.01897   1.01245  182.527
 4051.00    1.01704   1.01031  187.289
 4052.00    1.01452   1.00324  192.194
 4053.00    1.01000   0.99538  195.338
 4054.00    1.00332   0.98930  197.003
 4055.00    0.99466   0.98605  198.349
 4056.00    0.99142   0.98528  200.382
 4057.00    0.98881   0.98699  198.351
 4058.00    0.99450   0.99074  191.451
 4059.00    1.00237   0.99318  187.401
 4060.00    1.01649   0.98991   -1.000
 4061.00    0.99885   0.97831   -1.000
 4062.00    0.97343   0.96127  217.601
 4063.00    0.95966   0.94559   -1.000
 4064.00    0.95790   0.93690   -1.000
 4065.00    0.96541   0.93701   -1.000
 4066.00    0.97319   0.94353   -1.000
 4067.00    0.98268   0.95204   -1.000
 4068.00    0.99789   0.95729   -1.000
 4069.00    1.00334   0.95620   -1.000
 4070.00    0.99570   0.94949   -1.000
 4071.00    0.97867   0.94194   -1.000
 4072.00    0.97069   0.93792   -1.000
 4073.00    0.97908   0.93647   -1.000
 4074.00    0.98216   0.93256   -1.000
 4075.00    0.96897   0.92281   -1.000
 4076.00    0.94484   0.91075   -1.000
 4077.00    0.92368   0.90428   -1.000
 4078.00    0.92885   0.90903   -1.000
 4079.00    0.94316   0.92340   -1.000
 4080.00    0.96873   0.93949   -1.000
 4081.00    0.99057   0.94912   -1.000
 4082.00    0.98645   0.94899   -1.000
 4083.00    0.97477   0.94289   -1.000
 4084.00    0.96584   0.93744   -1.000
 4085.00    0.95615   0.93758   -1.000
 4086.00    0.96215   0.94314   -1.000
 4087.00    0.97770   0.94973   -1.000
 4088.00    0.98713   0.95229   -1.000
 4089.00    0.98556   0.94838   -1.000
 4090.00    0.97400   0.93922   -1.000
 4091.00    0.96392   0.92697   -1.000
 4092.00    0.95474   0.91255   -1.000
 4093.00    0.94996   0.89450   -1.000
 4094.00    0.93480   0.87129   -1.000
 4095.00    0.91027   0.84272   -1.000
 4096.00    0.88777   0.80905   -1.000
 4097.00    0.86355   0.76973   -1.000
 4098.00    0.83302   0.72348   -1.000
 4099.00    0.78929   0.67290   -1.000
 4100.00    0.72552   0.62769   -1.000
 4101.00    0.66610   0.60219   -1.000
 4102.00    0.65492   0.60749   -1.000
 4103.00    0.70285   0.64247   -1.000
 4104.00    0.77347   0.69446   -1.000
 4105.00    0.82574   0.74758   -1.000
 4106.00    0.86159   0.79097   -1.000
 4107.00    0.88346   0.82227   -1.000
 4108.00    0.88928   0.84443   -1.000
 4109.00    0.89598   0.86162   -1.000
 4110.00    0.90566   0.87740   -1.000
 4111.00    0.91834   0.89365   -1.000
 4112.00    0.93333   0.91072   -1.000
 4113.00    0.94946   0.92766   -1.000
 4114.00    0.96186   0.94261   -1.000
 4115.00    0.97087   0.95319  186.656
 4116.00    0.97671   0.95763   -1.000
 4117.00    0.97066   0.95669  196.833
 4118.00    0.96309   0.95346  199.413
 4119.00    0.95796   0.95156  197.177
 4120.00    0.95676   0.95255  195.091
 4121.00    0.96213   0.95629  195.168
 4122.00    0.97536   0.96173  193.204
 4123.00    0.97937   0.96779  189.824
 4124.00    0.98152   0.97289  189.023
 4125.00    0.98970   0.97483  191.409
 4126.00    0.99519   0.97264   -1.000
 4127.00    0.98905   0.96778   -1.000
 4128.00    0.98154   0.96278   -1.000
 4129.00    0.97401   0.95844  200.707
 4130.00    0.97052   0.95407   -1.000
 4131.00    0.96760   0.94982   -1.000
 4132.00    0.95707   0.94864  214.353
 4133.00    0.95076   0.95410  207.666
 4134.00    0.96530   0.96712  197.292
 4135.00    0.98479   0.98491  190.664
 4136.00    0.99845   1.00294  187.427
 4137.00    1.01239   1.01763  184.497
 4138.00    1.02038   1.02605  183.651
 4139.00    1.02302   1.02617  187.194
 4140.00    1.02249   1.01693  196.789
 4141.00    1.00197   1.00031  213.209
 4142.00    0.96991   0.98239  224.930
 4143.00    0.94763   0.97145   -1.000
 4144.00    0.95395   0.97175   -1.000
 4145.00    0.97687   0.98147  196.843
 4146.00    0.99557   0.99352  194.532
 4147.00    1.00437   1.00166  197.971
 4148.00    0.99663   1.00491  203.477
 4149.00    0.98957   1.00560   -1.000
 4150.00    0.98968   1.00570   -1.000
 4151.00    0.99191   1.00472  203.664
 4152.00    0.99418   1.00150  205.426
 4153.00    0.98989   0.99681  208.770
 4154.00    0.98037   0.99335  203.941
 4155.00    0.96844   0.99385   -1.000
 4156.00    1.04293   0.99911   -1.000
 4157.00    1.12130   1.00758   -1.000
 4158.00    0.98775   1.01649   -1.000
 4159.00    0.90568   1.02376   -1.000
 4160.00    0.98557   1.02872   -1.000
 4161.00    1.03002   1.03228  188.248
 4162.00    1.01809   1.03546   -1.000
 4163.00    1.02034   1.03815   -1.000
 4164.00    1.02272   1.03887   -1.000
 4165.00    1.01917   1.03646   -1.000
 4166.00    1.01563   1.03144   -1.000
 4167.00    1.00807   1.02530   -1.000
 4168.00    1.01022   1.01802  197.891
 4169.00    1.01654   1.00776  199.711
 4170.00    1.00656   0.99265  211.263
 4171.00    0.98287   0.97514  224.223
 4172.00    0.96125   0.96193  225.473
 4173.00    0.94567   0.95833  217.660
 4174.00    0.94653   0.96418   -1.000
 4175.00    0.96595   0.97362  209.254
 4176.00    0.97355   0.98141  210.466
 4177.00    0.97090   0.98657   -1.000
 4178.00    0.97284   0.99129   -1.000
 4179.00    0.98379   0.99670  204.382
 4180.00    0.99406   1.00160  204.464
 4181.00    0.99708   1.00468  202.362
 4182.00    0.99383   1.00662  198.342
 4183.00    0.99298   1.00830   -1.000
 4184.00    0.99487   1.00915  194.944
 4185.00    0.99591   1.00760  201.346
 4186.00    0.98765   1.00362   -1.000
 4187.00    0.97690   0.99999   -1.000
 4188.00    0.97480   0.99933   -1.000
 4189.00    0.98503   1.00249   -1.000
 4190.00    0.99264   1.00829   -1.000
 4191.00    0.99434   1.01467   -1.000
 4192.00    1.00331   1.01927   -1.000
 4193.00    1.01230   1.01945  195.515
 4194.00    1.00618   1.01302  205.748
 4195.00    0.99158   1.00046  212.728
 4196.00    0.97434   0.98486  216.584
 4197.00    0.96625   0.97026  217.160
 4198.00    0.95810   0.96002  214.859
 4199.00    0.95547   0.95536  211.420
 4200.00    0.96283   0.95592  210.757
 4201.00    0.96595   0.96063  209.426
 4202.00    0.97053   0.96853  206.167
 4203.00    0.96896   0.97898  204.636
 4204.00    0.96760   0.99136   -1.000
 4205.00    0.97624   1.00427   -1.000
 4206.00    0.98744   1.01554   -1.000
 4207.00    0.99708   1.02356   -1.000
 4208.00    0.99948   1.02779   -1.000
 4209.00    1.00281   1.02969   -1.000
 4210.00    1.00317   1.03116   -1.000
 4211.00    0.99827   1.03223   -1.000
 4212.00    1.00020   1.03041   -1.000
 4213.00    1.00551   1.02356   -1.000
 4214.00    0.98555   1.01313   -1.000
 4215.00    0.96128   1.00441   -1.000
 4216.00    0.96143   1.00313   -1.000
 4217.00    0.98010   1.01022   -1.000
 4218.00    0.99568   1.02171   -1.000
 4219.00    1.01154   1.03141   -1.000
 4220.00    1.02083   1.03387  177.789
 4221.00    1.01226   1.02639  185.011
 4222.00    0.99674   1.00805  197.936
 4223.00    0.98439   0.98067  217.471
 4224.00    0.95573   0.94977  246.663
 4225.00    0.91782   0.92499  267.227
 4226.00    0.88615   0.91613   -1.000
 4227.00    0.88821   0.92767   -1.000
 4228.00    0.93052   0.95402   -1.000
 4229.00    0.98393   0.98314  184.865
 4230.00    1.00416   1.00225  183.243
 4231.00    1.00198   1.00731  187.285
 4232.00    0.98816   1.00194  192.231
 4233.00    0.97926   0.99330  194.194
 4234.00    0.96852   0.98674   -1.000
 4235.00    0.97656   0.98430  202.368
 4236.00    0.96719   0.98571   -1.000
 4237.00    0.96164   0.99042   -1.000
 4238.00    0.97037   0.99757   -1.000
 4239.00    0.98073   1.00597   -1.000
 4240.00    0.99077   1.01377   -1.000
 4241.00    0.99894   1.02037   -1.000
 4242.00    1.00234   1.02535   -1.000
 4243.00    1.00149   1.02804   -1.000
 4244.00    1.00664   1.02662   -1.000
 4245.00    1.00011   1.01969   -1.000
 4246.00    0.98427   1.00870   -1.000
 4247.00    0.96788   0.99765   -1.000
 4248.00    0.95137   0.99082   -1.000
 4249.00    0.94846   0.99006   -1.000
 4250.00    0.95303   0.99383   -1.000
 4251.00    0.96690   0.99906   -1.000
 4252.00    0.97680   1.00228   -1.000
 4253.00    0.98353   1.00304   -1.000
 4254.00    0.97249   1.00282   -1.000
 4255.00    0.97531   1.00342   -1.000
 4256.00    0.98672   1.00389   -1.000
 4257.00    0.99601   1.00074  193.648
 4258.00    0.98919   0.99329  204.415
 4259.00    0.96894   0.98581   -1.000
 4260.00    0.95563   0.98509   -1.000
 4261.00    0.96497   0.99464   -1.000
 4262.00    0.99126   1.01143   -1.000
 4263.00    1.00698   1.02913   -1.000
 4264.00    1.01783   1.04112   -1.000
 4265.00    1.02228   1.04502   -1.000
 4266.00    1.01936   1.04064   -1.000
 4267.00    1.00565   1.02908   -1.000
 4268.00    0.99120   1.01157   -1.000
 4269.00    0.97839   0.99030  210.573
 4270.00    0.95220   0.96891   -1.000
 4271.00    0.93304   0.95272   -1.000
 4272.00    0.92390   0.94552   -1.000
 4273.00    0.93174   0.94880   -1.000
 4274.00    0.93777   0.96128   -1.000
 4275.00    0.94520   0.97956   -1.000
 4276.00    0.97978   0.99877   -1.000
 4277.00    1.00149   1.01358  183.275
 4278.00    1.00104   1.02004   -1.000
 4279.00    0.98597   1.01887   -1.000
 4280.00    0.97303   1.01398   -1.000
 4281.00    0.96645   1.00965   -1.000
 4282.00    0.97278   1.00646   -1.000
 4283.00    0.97957   1.00327   -1.000
 4284.00    0.97302   0.99786   -1.000
 4285.00    0.95803   0.98907   -1.000
 4286.00    0.95046   0.97687   -1.000
 4287.00    0.94118   0.96158   -1.000
 4288.00    0.92299   0.94629   -1.000
 4289.00    0.89733   0.93586   -1.000
 4290.00    0.89031   0.93426   -1.000
 4291.00    0.90865   0.94103   -1.000
 4292.00    0.93333   0.95056   -1.000
 4293.00    0.94847   0.95608  202.581
 4294.00    0.94524   0.95447  205.947
 4295.00    0.93471   0.94564  210.668
 4296.00    0.92852   0.93099  221.379
 4297.00    0.91102   0.91127  240.727
 4298.00    0.87751   0.88942  258.742
 4299.00    0.85176   0.86969   -1.000
 4300.00    0.83457   0.85722   -1.000
 4301.00    0.83793   0.85404   -1.000
 4302.00    0.84237   0.85903   -1.000
 4303.00    0.85099   0.86794   -1.000
 4304.00    0.86415   0.87530  244.580
 4305.00    0.86986   0.87680  253.140
 4306.00    0.86212   0.87193  266.928
 4307.00    0.84224   0.86497   -1.000
 4308.00    0.82718   0.86253   -1.000
 4309.00    0.82519   0.86796   -1.000
 4310.00    0.83746   0.87999   -1.000
 4311.00    0.86162   0.89501   -1.000
 4312.00    0.87779   0.91174   -1.000
 4313.00    0.89225   0.93221   -1.000
 4314.00    0.91913   0.95904   -1.000
 4315.00    0.95325   0.98974   -1.000
 4316.00    0.99144   1.01868   -1.000
 4317.00    1.01856   1.03820   -1.000
 4318.00    1.02895   1.04491   -1.000
 4319.00    1.02464   1.03926  172.040
 4320.00    1.01284   1.02392  177.915
 4321.00    0.99783   1.00150  186.743
 4322.00    0.97522   0.97441  200.657
 4323.00    0.94285   0.94705  218.855
 4324.00    0.90903   0.92659   -1.000
 4325.00    0.89385   0.91991   -1.000
 4326.00    0.90885   0.92898   -1.000
 4327.00    0.94201   0.94725  176.406
 4328.00    0.96964   0.96524  173.125
 4329.00    0.97660   0.97514  173.934
 4330.00    0.97538   0.97659  172.943
 4331.00    0.97094   0.97223  169.862
 4332.00    0.96144   0.96345  168.146
 4333.00    0.95384   0.94830  167.803
 4334.00    0.94737   0.92222   -1.000
 4335.00    0.92696   0.88172   -1.000
 4336.00    0.89300   0.82693   -1.000
 4337.00    0.84192   0.76465   -1.000
 4338.00    0.77590   0.70681   -1.000
 4339.00    0.71019   0.66853   -1.000
 4340.00    0.67705   0.66017   -1.000
 4341.00    0.69556   0.68333  201.548
 4342.00    0.76164   0.72891   -1.000
 4343.00    0.83175   0.78347   -1.000
 4344.00    0.87694   0.83534   -1.000
 4345.00    0.90637   0.87971   -1.000
 4346.00    0.92626   0.91527  173.614
 4347.00    0.94426   0.94112  170.722
 4348.00    0.95833   0.95534  171.271
 4349.00    0.96861   0.95752  181.031
 4350.00    0.95882   0.95193  194.809
 4351.00    0.93281   0.94697  197.296
 4352.00    0.92469   0.95043   -1.000
 4353.00    0.94129   0.96441   -1.000
 4354.00    0.97047   0.98420  174.867
 4355.00    0.99150   1.00334  171.262
 4356.00    1.00172   1.01724  171.428
 4357.00    1.00653   1.02586   -1.000
 4358.00    1.00587   1.03164   -1.000
 4359.00    0.99892   1.03788   -1.000
 4360.00    1.00421   1.04629   -1.000
 4361.00    1.01990   1.05633   -1.000
 4362.00    1.02996   1.06623   -1.000
 4363.00    1.03409   1.07355   -1.000
 4364.00    1.03892   1.07624   -1.000
 4365.00    1.03884   1.07270   -1.000
 4366.00    1.02538   1.06352   -1.000
 4367.00    1.01061   1.05157   -1.000
 4368.00    1.00773   1.04059   -1.000
 4369.00    1.01104   1.03241   -1.000
 4370.00    1.01219   1.02593  174.314
 4371.00    1.01597   1.01859  176.119
 4372.00    1.01732   1.00890  183.538
 4373.00    0.99993   0.99879  190.852
 4374.00    0.98024   0.99307  190.753
 4375.00    0.97407   0.99620   -1.000
 4376.00    0.99276   1.00777  173.369
 4377.00    1.01185   1.02259  170.474
 4378.00    1.02745   1.03264  171.617
 4379.00    1.03508   1.03171  174.763
 4380.00    1.03329   1.01662  183.234
 4381.00    1.01966   0.98957   -1.000
 4382.00    0.98048   0.95802   -1.000
 4383.00    0.94117   0.93438  229.009
 4384.00    0.92748   0.92757  207.188
 4385.00    0.94768   0.93851  187.576
 4386.00    0.98088   0.95892   -1.000
 4387.00    1.00294   0.97856   -1.000
 4388.00    1.01131   0.99223   -1.000
 4389.00    1.00476   1.00028  184.743
 4390.00    1.00748   1.00566  181.006
 4391.00    1.01664   1.00977  176.898
 4392.00    1.02070   1.01199  178.295
 4393.00    1.01756   1.01236  182.390
 4394.00    1.00545   1.01305  181.532
 4395.00    1.00680   1.01684  172.905
 4396.00    1.01727   1.02316  167.993
 4397.00    1.03402   1.02782  170.634
 4398.00    1.03602   1.02753  177.146
 4399.00    1.01812   1.02327  182.365
 4400.00    1.00764   1.01885  179.936
 4401.00    1.01557   1.01578  176.633
 4402.00    1.02609   1.01247  183.262
 4403.00    1.02476   1.00751   -1.000
 4404.00    1.00475   1.00247  195.443
 4405.00    0.99957   1.00077  188.543
 4406.00    1.01278   1.00424  185.956
 4407.00    1.01672   1.01226  184.338
 4408.00    1.01303   1.02390  177.033
 4409.00    1.02387   1.03788  169.402
 4410.00    1.04374   1.05134  163.716
 4411.00    1.05879   1.05947  161.934
 4412.00    1.06911   1.05772  166.607
 4413.00    1.05815   1.04582  176.514
 4414.00    1.03944   1.02914  182.718
 4415.00    1.01730   1.01630  181.357
 4416.00    1.00755   1.01460  174.772
 4417.00    1.01657   1.02528  167.450
 4418.00    1.03065   1.04346  162.824
 4419.00    1.04886   1.06043  164.023
 4420.00    1.05790   1.07036  168.546
 4421.00    1.04722   1.07210   -1.000
 4422.00    1.03829   1.06933   -1.000
 4423.00    1.04407   1.06611   -1.000
 4424.00    1.04301   1.06413   -1.000
 4425.00    1.03490   1.06321   -1.000
 4426.00    1.02276   1.06332   -1.000
 4427.00    1.02436   1.06447   -1.000
 4428.00    1.03389   1.06668   -1.000
 4429.00    1.03386   1.06879   -1.000
 4430.00    1.03543   1.06941   -1.000
 4431.00    1.04206   1.06723   -1.000
 4432.00    1.05102   1.06169  173.980
 4433.00    1.04401   1.05429  182.690
 4434.00    1.02033   1.04932   -1.000
 4435.00    1.00631   1.05142   -1.000
 4436.00    1.02483   1.06207   -1.000
 4437.00    1.05633   1.07699   -1.000
 4438.00    1.07755   1.08845  158.539
 4439.00    1.08094   1.09009  163.870
 4440.00    1.07579   1.08086  171.923
 4441.00    1.05196   1.06633  179.146
 4442.00    1.01862   1.05483   -1.000
 4443.00    1.00912   1.05357   -1.000
 4444.00    1.02191   1.06303   -1.000
 4445.00    1.04630   1.07823   -1.000
 4446.00    1.06254   1.09196   -1.000
 4447.00    1.06302   1.10001   -1.000
 4448.00    1.06808   1.10217   -1.000
 4449.00    1.06945   1.10059   -1.000
 4450.00    1.06009   1.09679   -1.000
 4451.00    1.06276   1.09061   -1.000
 4452.00    1.06593   1.08068  172.321
 4453.00    1.05516   1.06757  180.398
 4454.00    1.03500   1.05437   -1.000
 4455.00    1.01975   1.04585   -1.000
 4456.00    1.03218   1.04421  177.205
 4457.00    1.04652   1.04804  177.496
 4458.00    1.04832   1.05397  178.457
 4459.00    1.04514   1.05931  180.388
 4460.00    1.03808   1.06352   -1.000
 4461.00    1.03698   1.06728   -1.000
 4462.00    1.04479   1.07167   -1.000
 4463.00    1.05889   1.07644   -1.000
 4464.00    1.06652   1.08013  166.959
 4465.00    1.06290   1.08056   -1.000
 4466.00    1.05633   1.07695   -1.000
 4467.00    1.04812   1.07095   -1.000
 4468.00    1.03654   1.06647   -1.000
 4469.00    1.03782   1.06729   -1.000
 4470.00    1.04993   1.07511   -1.000
 4471.00    1.06199   1.08853   -1.000
 4472.00    1.07856   1.10416   -1.000
 4473.00    1.09912   1.11825   -1.000
 4474.00    1.10193   1.12834   -1.000
 4475.00    1.10076   1.13344   -1.000
 4476.00    1.09865   1.13345   -1.000
 4477.00    1.10759   1.12756   -1.000
 4478.00    1.10757   1.11523  159.579
 4479.00    1.09113   1.09804  166.936
 4480.00    1.07362   1.08184  171.483
 4481.00    1.05935   1.07410  169.186
 4482.00    1.05483   1.07905   -1.000
 4483.00    1.07018   1.09466   -1.000
 4484.00    1.08983   1.11335   -1.000
 4485.00    1.10224   1.12711   -1.000
 4486.00    1.10954   1.13098   -1.000
 4487.00    1.10263   1.12574   -1.000
 4488.00    1.09266   1.11621   -1.000
 4489.00    1.07928   1.10878   -1.000
 4490.00    1.07023   1.10694   -1.000
 4491.00    1.07999   1.11017   -1.000
 4492.00    1.09453   1.11492   -1.000
 4493.00    1.09038   1.11793   -1.000
 4494.00    1.08036   1.11910   -1.000
 4495.00    1.07250   1.12004   -1.000
 4496.00    1.07326   1.12246   -1.000
 4497.00    1.08542   1.12557   -1.000
 4498.00    1.10257   1.12763   -1.000
 4499.00    1.10123   1.12788   -1.000
 4500.00    1.08940   1.12809   -1.000
 4501.00    1.08140   1.13162   -1.000
 4502.00    1.08813   1.13991   -1.000
 4503.00    1.11567   1.15144   -1.000
 4504.00    1.13115   1.16153   -1.000
 4505.00    1.13332   1.16686   -1.000
 4506.00    1.13238   1.16659   -1.000
 4507.00    1.12281   1.16343   -1.000
 4508.00    1.11479   1.16069   -1.000
 4509.00    1.11874   1.15987   -1.000
 4510.00    1.12472   1.15987   -1.000
 4511.00    1.12422   1.15817   -1.000
 4512.00    1.11407   1.15352   -1.000
 4513.00    1.11254   1.14657   -1.000
 4514.00    1.10863   1.13940   -1.000
 4515.00    1.10603   1.13399   -1.000
 4516.00    1.10399   1.13078   -1.000
 4517.00    1.10011   1.12905   -1.000
 4518.00    1.10230   1.12792   -1.000
 4519.00    1.10351   1.12684   -1.000
 4520.00    1.10637   1.12558   -1.000
 4521.00    1.10881   1.12344  157.130
 4522.00    1.09395   1.11987   -1.000
 4523.00    1.08313   1.11480   -1.000
 4524.00    1.08431   1.10822   -1.000
 4525.00    1.08275   1.09985   -1.000
 4526.00    1.07549   1.08978  174.313
 4527.00    1.06413   1.07927  176.217
 4528.00    1.06274   1.07126  174.716
 4529.00    1.06258   1.06756  171.524
 4530.00    1.06301   1.06771  168.383
 4531.00    1.07310   1.06832  167.708
 4532.00    1.07422   1.06693  172.811
 4533.00    1.05893   1.06472  178.763
 4534.00    1.03983   1.06614   -1.000
 4535.00    1.04379   1.07554   -1.000
 4536.00    1.07066   1.09243   -1.000
 4537.00    1.10134   1.11208  151.714
 4538.00    1.11905   1.12750  153.551
 4539.00    1.12195   1.13516  157.412
 4540.00    1.11815   1.13570   -1.000
 4541.00    1.11498   1.13304   -1.000
 4542.00    1.11473   1.13034  155.332
 4543.00    1.10376   1.12822   -1.000
 4544.00    1.15043   1.12555   70.113
 4545.00    0.77789   1.12115   -1.000
 4546.00   -0.02144   1.11426    0.000
 4547.00   -0.03811   1.10518    0.000
 4548.00    0.35244   1.09568   -1.000
 4549.00    0.78344   1.08915   -1.000
 4550.00    0.24629   1.08805   -1.000
 4551.00    1.07688   1.09125  162.856
 4552.00    1.08809   1.09478  165.504
 4553.00    1.07617   1.09604   -1.000
 4554.00    1.07110   1.09627   -1.000
 4555.00    1.07342   1.09944   -1.000
 4556.00    1.08919   1.10815   -1.000
 4557.00    1.10594   1.12131  149.123
 4558.00    1.12143   1.13564  150.159
 4559.00    1.12855   1.14738   -1.000
 4560.00    1.13055   1.15408   -1.000
 4561.00    1.12405   1.15447   -1.000
 4562.00    1.11503   1.14917   -1.000
 4563.00    1.10402   1.14119   -1.000
 4564.00    1.09172   1.13511   -1.000
 4565.00    1.09982   1.13422   -1.000
 4566.00    1.12280   1.13890  149.979
 4567.00    1.13046   1.14551  148.653
 4568.00    1.13095   1.14971   -1.000
 4569.00    1.12600   1.14842   -1.000
 4570.00    1.11117   1.14268   -1.000
 4571.00    1.09272   1.13645   -1.000
 4572.00    1.08435   1.13434   -1.000
 4573.00    1.09645   1.13777   -1.000
 4574.00    1.11984   1.14424   -1.000
 4575.00    1.12733   1.14989   -1.000
 4576.00    1.12571   1.15154   -1.000
 4577.00    1.12626   1.14839   -1.000
 4578.00    1.11786   1.14044   -1.000
 4579.00    1.10683   1.12929   -1.000
 4580.00    1.10108   1.11699  161.880
 4581.00    1.09956   1.10656  159.496
 4582.00    1.09349   1.09988  158.406
 4583.00    1.09347   1.09835  158.984
 4584.00    1.09670   1.10150  159.979
 4585.00    1.10252   1.10828  157.545
 4586.00    1.10976   1.11668  153.297
 4587.00    1.11635   1.12474  150.125
 4588.00    1.12354   1.13081  150.110
 4589.00    1.12353   1.13380  152.466
 4590.00    1.11897   1.13375  155.349
 4591.00    1.11059   1.13191   -1.000
 4592.00    1.10740   1.13038   -1.000
 4593.00    1.10491   1.13103   -1.000
 4594.00    1.11391   1.13411   -1.000
 4595.00    1.12335   1.13876  154.997
 4596.00    1.12633   1.14325  154.674
 4597.00    1.13006   1.14629  154.350
 4598.00    1.13031   1.14691  155.818
 4599.00    1.12975   1.14530  157.205
 4600.00    1.12119   1.14225   -1.000
 4601.00    1.11032   1.13942   -1.000
 4602.00    1.10761   1.13810   -1.000
 4603.00    1.11047   1.13889   -1.000
 4604.00    1.11888   1.14168   -1.000
 4605.00    1.12879   1.14619  152.296
 4606.00    1.13477   1.15208  149.195
 4607.00    1.13967   1.15879   -1.000
 4608.00    1.14503   1.16499   -1.000
 4609.00    1.14882   1.16928   -1.000
 4610.00    1.14686   1.17035   -1.000
 4611.00    1.14349   1.16886   -1.000
 4612.00    1.13701   1.16593   -1.000
 4613.00    1.13625   1.16322   -1.000
 4614.00    1.13898   1.16088   -1.000
 4615.00    1.13808   1.15833   -1.000
 4616.00    1.13891   1.15511  148.159
 4617.00    1.13787   1.15164  149.241
 4618.00    1.13594   1.14955  148.997
 4619.00    1.13752   1.15042  147.475
 4620.00    1.14119   1.15483  145.117
 4621.00    1.14453   1.16158  145.221
 4622.00    1.14987   1.16818  145.607
 4623.00    1.15032   1.17242   -1.000
 4624.00    1.14348   1.17361   -1.000
 4625.00    1.14262   1.17205   -1.000
 4626.00    1.14029   1.16898   -1.000
 4627.00    1.13956   1.16532   -1.000
 4628.00    1.13316   1.16237   -1.000
 4629.00    1.12806   1.16124   -1.000
 4630.00    1.13095   1.16220   -1.000
 4631.00    1.13754   1.16412   -1.000
 4632.00    1.13931   1.16488   -1.000
 4633.00    1.13731   1.16340   -1.000
 4634.00    1.13642   1.16036   -1.000
 4635.00    1.14158   1.15756  151.979
 4636.00    1.13757   1.15611   -1.000
 4637.00    1.13681   1.15659   -1.000
 4638.00    1.13371   1.15887   -1.000
 4639.00    1.13359   1.16314   -1.000
 4640.00    1.14023   1.16866   -1.000
 4641.00    1.15429   1.17403   -1.000
 4642.00    1.15570   1.17686   -1.000
 4643.00    1.15928   1.17522  149.522
 4644.00    1.15366   1.16874  153.838
 4645.00    1.13645   1.15908   -1.000
 4646.00    1.12238   1.14952   -1.000
 4647.00    1.12282   1.14389   -1.000
 4648.00    1.12946   1.14415  151.673
 4649.00    1.13893   1.14956  149.733
 4650.00    1.14443   1.15690  149.577
 4651.00    1.14030   1.16248   -1.000
 4652.00    1.14104   1.16444   -1.000
 4653.00    1.13560   1.16268   -1.000
 4654.00    1.12712   1.15943   -1.000
 4655.00    1.12415   1.15764   -1.000
 4656.00    1.12653   1.16046   -1.000
 4657.00    1.13586   1.16860   -1.000
 4658.00    1.15398   1.18031   -1.000
 4659.00    1.16543   1.19084   -1.000
 4660.00    1.16701   1.19643   -1.000
 4661.00    1.16639   1.19518   -1.000
 4662.00    1.16083   1.18829   -1.000
 4663.00    1.15800   1.17742   -1.000
 4664.00    1.15622   1.16422  152.254
 4665.00    1.14881   1.14943  159.081
 4666.00    1.13365   1.13520  165.493
 4667.00    1.11230   1.12475  165.086
 4668.00    1.10520   1.12167  159.648
 4669.00    1.11574   1.12667  152.923
 4670.00    1.13326   1.13788  149.031
 4671.00    1.14441   1.15095  148.368
 4672.00    1.14862   1.16271  148.529
 4673.00    1.15235   1.17144   -1.000
 4674.00    1.15630   1.17719   -1.000
 4675.00    1.16456   1.18005  144.116
 4676.00    1.16529   1.17920  145.106
 4677.00    1.16195   1.17438  148.412
 4678.00    1.15472   1.16649  151.310
 4679.00    1.14592   1.15817  153.747
 4680.00    1.14174   1.15206  155.051
 4681.00    1.13183   1.14944  152.837
 4682.00    1.13773   1.15021  148.919
 4683.00    1.14599   1.15313  147.169
 4684.00    1.15439   1.15678  147.805
 4685.00    1.16298   1.16005  147.857
 4686.00    1.16086   1.16255  148.727
 4687.00    1.15814   1.16433  148.679
 4688.00    1.15801   1.16553  148.735
 4689.00    1.15550   1.16635  149.851
 4690.00    1.15578   1.16689  150.032
 4691.00    1.15011   1.16768  148.105
 4692.00    1.15885   1.16927  145.830
 4693.00    1.16871   1.17158  142.557
 4694.00    1.17064   1.17373  140.920
 4695.00    1.17424   1.17437  141.898
 4696.00    1.17770   1.17241  146.228
 4697.00    1.16884   1.16722  150.560
 4698.00    1.16083   1.15977  152.024
 4699.00    1.15532   1.15094  150.713
 4700.00    1.15242   1.14231  152.058
 4701.00    1.15313   1.13488  154.782
 4702.00    1.14497   1.13014  155.310
 4703.00    1.12889   1.12912  152.160
 4704.00    1.13327   1.13134  150.135
 4705.00    1.14689   1.13435  152.542
 4706.00    1.14467   1.13587  155.604
 4707.00    1.13238   1.13558  156.907
 4708.00    1.13006   1.13565  155.781
 4709.00    1.13505   1.13836  150.972
 4710.00    1.14445   1.14379  146.966
 4711.00    1.15754   1.15031  145.787
 4712.00    1.16803   1.15535  147.418
 4713.00    1.16384   1.15815  150.185
 4714.00    1.15057   1.15996  149.880
 4715.00    1.15169   1.16278  146.725
 4716.00    1.16045   1.16792  143.996
 4717.00    1.16144   1.17425  143.238
 4718.00    1.16437   1.18018  142.751
 4719.00    1.16714   1.18415  142.336
 4720.00    1.16858   1.18628  143.652
 4721.00    1.16794   1.18733  144.574
 4722.00    1.16276   1.18808   -1.000
 4723.00    1.16489   1.18853   -1.000
 4724.00    1.16868   1.18759  142.531
 4725.00    1.16939   1.18393  146.296
 4726.00    1.16899   1.17677  151.906
 4727.00    1.15650   1.16723  154.976
 4728.00    1.14473   1.15769  154.117
 4729.00    1.14945   1.15082  152.501
 4730.00    1.15841   1.14779  151.295
 4731.00    1.16005   1.14865  149.451
 4732.00    1.15443   1.15203  148.208
 4733.00    1.15633   1.15606  147.393
 4734.00    1.15443   1.15895  146.685
 4735.00    1.15851   1.16017  148.352
 4736.00    1.15543   1.16037  148.347
 4737.00    1.15406   1.16099  146.389
 4738.00    1.16191   1.16293  146.618
 4739.00    1.16844   1.16607  147.489
 4740.00    1.16454   1.16957  147.572
 4741.00    1.16626   1.17300  146.282
 4742.00    1.16684   1.17627  144.750
 4743.00    1.17337   1.17947  145.153
 4744.00    1.17193   1.18261  145.205
 4745.00    1.17047   1.18565  144.025
 4746.00    1.16950   1.18876  142.600
 4747.00    1.17320   1.19244  142.397
 4748.00    1.17462   1.19617   -1.000
 4749.00    1.17892   1.19947   -1.000
 4750.00    1.17743   1.20114   -1.000
 4751.00    1.17756   1.20022   -1.000
 4752.00    1.17355   1.19661   -1.000
 4753.00    1.16532   1.19118   -1.000
 4754.00    1.16132   1.18611   -1.000
 4755.00    1.16403   1.18327  148.029
 4756.00    1.16325   1.18365   -1.000
 4757.00    1.16613   1.18646   -1.000
 4758.00    1.16051   1.18979   -1.000
 4759.00    1.15779   1.19112   -1.000
 4760.00    1.15904   1.18818   -1.000
 4761.00    1.14742   1.18071   -1.000
 4762.00    1.14076   1.17016   -1.000
 4763.00    1.13521   1.16041   -1.000
 4764.00    1.13292   1.15427   -1.000
 4765.00    1.14200   1.15359  154.387
 4766.00    1.15044   1.15797  152.109
 4767.00    1.16268   1.16611  148.642
 4768.00    1.16875   1.17568  146.787
 4769.00    1.17472   1.18434  147.223
 4770.00    1.17592   1.19007  148.535
 4771.00    1.16788   1.19331   -1.000
 4772.00    1.16375   1.19550   -1.000
 4773.00    1.16751   1.19885   -1.000
 4774.00    1.17414   1.20356   -1.000
 4775.00    1.17815   1.20813   -1.000
 4776.00    1.18256   1.21074   -1.000
 4777.00    1.18192   1.21015   -1.000
 4778.00    1.17433   1.20722   -1.000
 4779.00    1.16402   1.20337   -1.000
 4780.00    1.16429   1.20008   -1.000
 4781.00    1.16839   1.19743   -1.000
 4782.00    1.16561   1.19480   -1.000
 4783.00    1.16924   1.19174   -1.000
 4784.00    1.16566   1.18819   -1.000
 4785.00    1.16369   1.18485   -1.000
 4786.00    1.15752   1.18249   -1.000
 4787.00    1.15379   1.18203   -1.000
 4788.00    1.15496   1.18379   -1.000
 4789.00    1.15559   1.18775   -1.000
 4790.00    1.16249   1.19374   -1.000
 4791.00    1.17138   1.20137   -1.000
 4792.00    1.17934   1.21018   -1.000
 4793.00    1.18217   1.21893   -1.000
 4794.00    1.19041   1.22603   -1.000
 4795.00    1.18998   1.22968   -1.000
 4796.00    1.18270   1.22901   -1.000
 4797.00    1.17855   1.22501   -1.000
 4798.00    1.16909   1.21982   -1.000
 4799.00    1.17188   1.21624   -1.000
 4800.00    1.17397   1.21558   -1.000
 4801.00    1.18086   1.21718   -1.000
 4802.00    1.18213   1.21870   -1.000
 4803.00    1.18353   1.21843   -1.000
 4804.00    1.17850   1.21595   -1.000
 4805.00    1.16960   1.21276   -1.000
 4806.00    1.17032   1.21058   -1.000
 4807.00    1.17376   1.21014   -1.000
 4808.00    1.17626   1.21128   -1.000
 4809.00    1.18235   1.21314   -1.000
 4810.00    1.18023   1.21497   -1.000
 4811.00    1.17816   1.21672   -1.000
 4812.00    1.18155   1.21905   -1.000
 4813.00    1.18844   1.22241   -1.000
 4814.00    1.19151   1.22684   -1.000
 4815.00    1.19615   1.23163   -1.000
 4816.00    1.19591   1.23576   -1.000
 4817.00    1.19370   1.23850   -1.000
 4818.00    1.19651   1.23940   -1.000
 4819.00    1.19451   1.23814   -1.000
 4820.00    1.19307   1.23389   -1.000
 4821.00    1.18891   1.22602   -1.000
 4822.00    1.17626   1.21555   -1.000
 4823.00    1.16847   1.20519   -1.000
 4824.00    1.16534   1.19894   -1.000
 4825.00    1.16932   1.19843   -1.000
 4826.00    1.18053   1.20198   -1.000
 4827.00    1.18344   1.20646   -1.000
 4828.00    1.18106   1.20869   -1.000
 4829.00    1.17786   1.20821   -1.000
 4830.00    1.17384   1.20544   -1.000
 4831.00    1.17321   1.20175   -1.000
 4832.00    1.17542   1.19880   -1.000
 4833.00    1.18357   1.19739  143.834
 4834.00    1.18627   1.19763  143.429
 4835.00    1.17846   1.19855   -1.000
 4836.00    1.17859   1.19858   -1.000
 4837.00    1.18008   1.19669  146.635
 4838.00    1.17351   1.19244  149.121
 4839.00    1.16677   1.18679   -1.000
 4840.00    1.16145   1.18116  148.677
 4841.00    1.16126   1.17711  147.880
 4842.00    1.16203   1.17515  146.729
 4843.00    1.16677   1.17492  145.181
 4844.00    1.17275   1.17552  142.963
 4845.00    1.17044   1.17564  142.569
 4846.00    1.16389   1.17360  145.610
 4847.00    1.15657   1.16891  147.579
 4848.00    1.14525   1.16288  147.300
 4849.00    1.14300   1.15689  145.253
 4850.00    1.14370   1.15131  145.091
 4851.00    1.14566   1.14404  146.008
 4852.00    1.13903   1.13235  147.499
 4853.00    1.12866   1.11440  152.075
 4854.00    1.10639   1.09055  156.032
 4855.00    1.08723   1.06302   -1.000
 4856.00    1.07592   1.03217   -1.000
 4857.00    1.06110   0.99639   -1.000
 4858.00    1.02719   0.95224   -1.000
 4859.00    0.96323   0.90126   -1.000
 4860.00    0.86628   0.85358  200.959
 4861.00    0.80477   0.82318   -1.000
 4862.00    0.83342   0.82218  170.813
 4863.00    0.92245   0.84971   -1.000
 4864.00    1.00278   0.89674   -1.000
 4865.00    1.04570   0.94953   -1.000
 4866.00    1.07157   0.99744   -1.000
 4867.00    1.08943   1.03481   -1.000
 4868.00    1.10491   1.05960   -1.000
 4869.00    1.11302   1.07285   -1.000
 4870.00    1.10355   1.07781   -1.000
 4871.00    1.08685   1.07974  158.736
 4872.00    1.08425   1.08481  154.198
 4873.00    1.10568   1.09493  151.720
 4874.00    1.12836   1.10893  150.634
 4875.00    1.13644   1.12299  149.851
 4876.00    1.13740   1.13512  149.227
 4877.00    1.13863   1.14590  147.017
 4878.00    1.14352   1.15653  145.705
 4879.00    1.14932   1.16677  147.218
 4880.00    1.15604   1.17491   -1.000
 4881.00    1.15508   1.17885   -1.000
 4882.00    1.14939   1.17885   -1.000
 4883.00    1.14447   1.17606   -1.000
 4884.00    1.14463   1.17223   -1.000
 4885.00    1.15163   1.16858  153.728
 4886.00    1.15193   1.16521  152.885
 4887.00    1.15515   1.16179  152.902
 4888.00    1.15317   1.15762  155.371
 4889.00    1.14194   1.15294  158.517
 4890.00    1.12600   1.15071   -1.000
 4891.00    1.12583   1.15482   -1.000
 4892.00    1.14227   1.16795   -1.000
 4893.00    1.17306   1.18884  139.389
 4894.00    1.19080   1.21132   -1.000
 4895.00    1.20128   1.23028   -1.000
 4896.00    1.20612   1.24181   -1.000
 4897.00    1.20769   1.24576   -1.000
 4898.00    1.20097   1.24381   -1.000
 4899.00    1.18921   1.23883   -1.000
 4900.00    1.18308   1.23315   -1.000
 4901.00    1.17684   1.22840   -1.000
 4902.00    1.17806   1.22525   -1.000
 4903.00    1.17948   1.22426   -1.000
 4904.00    1.18051   1.22632   -1.000
 4905.00    1.19596   1.23056   -1.000
 4906.00    1.20428   1.23380   -1.000
 4907.00    1.20058   1.23327   -1.000
 4908.00    1.19332   1.22697   -1.000
 4909.00    1.18581   1.21718   -1.000
 4910.00    1.17707   1.20792   -1.000
 4911.00    1.17865   1.20386   -1.000
 4912.00    1.18731   1.20647  144.062
 4913.00    1.19572   1.21389  142.240
 4914.00    1.20209   1.22179  141.170
 4915.00    1.20459   1.22488   -1.000
 4916.00    1.20021   1.21864  147.676
 4917.00    1.18544   1.20222  155.837
 4918.00    1.16387   1.17874  162.759
 4919.00    1.13580   1.15495  163.782
 4920.00    1.11728   1.13809   -1.000
 4921.00    1.12340   1.13171  152.678
 4922.00    1.14075   1.13550  150.712
 4923.00    1.14996   1.14568  150.478
 4924.00    1.15569   1.16012  148.311
 4925.00    1.16761   1.17732  144.460
 4926.00    1.18540   1.19565  142.030
 4927.00    1.20298   1.21361  140.768
 4928.00    1.21104   1.22813  139.824
 4929.00    1.21498   1.23701   -1.000
 4930.00    1.21620   1.23873   -1.000
 4931.00    1.20928   1.23322   -1.000
 4932.00    1.19519   1.22229   -1.000
 4933.00    1.17227   1.21020   -1.000
 4934.00    1.15831   1.20043   -1.000
 4935.00    1.16974   1.19460   -1.000
 4936.00    1.18452   1.19085  152.054
 4937.00    1.18052   1.18732  155.741
 4938.00    1.15872   1.18567   -1.000
 4939.00    1.15386   1.18824   -1.000
 4940.00    1.17011   1.19720   -1.000
 4941.00    1.19035   1.21101  141.430
 4942.00    1.20378   1.22517   -1.000
 4943.00    1.21414   1.23611   -1.000
 4944.00    1.21144   1.24206   -1.000
 4945.00    1.21099   1.24442   -1.000
 4946.00    1.21075   1.24566   -1.000
 4947.00    1.21043   1.24792   -1.000
 4948.00    1.21224   1.25130   -1.000
 4949.00    1.21422   1.25448   -1.000
 4950.00    1.21570   1.25587   -1.000
 4951.00    1.21607   1.25466   -1.000
 4952.00    1.21626   1.25082   -1.000
 4953.00    1.21234   1.24376   -1.000
 4954.00    1.21235   1.23253   -1.000
 4955.00    1.20053   1.21628  155.140
 4956.00    1.16673   1.19759   -1.000
 4957.00    1.13977   1.18393   -1.000
 4958.00    1.14414   1.18111   -1.000
 4959.00    1.17247   1.19112  142.907
 4960.00    1.19946   1.20844  142.089
 4961.00    1.21261   1.22542  142.854
 4962.00    1.21499   1.23657   -1.000
 4963.00    1.20825   1.23976   -1.000
 4964.00    1.20114   1.23664   -1.000
 4965.00    1.19544   1.23016   -1.000
 4966.00    1.18957   1.22340   -1.000
 4967.00    1.19464   1.21842   -1.000
 4968.00    1.20291   1.21627  148.904
 4969.00    1.20525   1.21741  147.292
 4970.00    1.20327   1.22140  145.693
 4971.00    1.20476   1.22750   -1.000
 4972.00    1.20980   1.23444   -1.000
 4973.00    1.21127   1.24092   -1.000
 4974.00    1.21936   1.24513   -1.000
 4975.00    1.22005   1.24627   -1.000
 4976.00    1.21575   1.24392   -1.000
 4977.00    1.20997   1.23811   -1.000
 4978.00    1.20428   1.22903   -1.000
 4979.00    1.19835   1.21655  153.644
 4980.00    1.18705   1.20053  158.807
 4981.00    1.16969   1.18214  163.449
 4982.00    1.15135   1.16511  162.982
 4983.00    1.14278   1.15436  159.667
 4984.00    1.15096   1.15391  155.071
 4985.00    1.16597   1.16357  150.235
 4986.00    1.17872   1.17916  146.934
 4987.00    1.19043   1.19511  147.379
 4988.00    1.19837   1.20596  149.553
 4989.00    1.19315   1.21022  150.923
 4990.00    1.18782   1.20943   -1.000
 4991.00    1.17904   1.20717   -1.000
 4992.00    1.18521   1.20639   -1.000
 4993.00    1.18899   1.20819  148.804
 4994.00    1.18857   1.21192   -1.000
 4995.00    1.19370   1.21562   -1.000
 4996.00    1.19973   1.21721  148.509
 4997.00    1.19728   1.21505  150.641
 4998.00    1.18910   1.20834  153.606
 4999.00    1.18114   1.19853  155.308
 5000.00    1.17680   1.18828  155.196
 5001.00    1.17418   1.18048  153.724
 5002.00    1.17856   1.17612  153.060
 5003.00    1.18455   1.17337  155.536
 5004.00    1.18338   1.17022  159.243
 5005.00    1.16850   1.16624  159.521
 5006.00    1.15713   1.16443  155.370
 5007.00    1.16231   1.16719  150.928
 5008.00    1.17932   1.17382  149.785
 5009.00    1.19513   1.18065  152.122
 5010.00    1.19341   1.18223  156.905
 5011.00    1.17497   1.17673  162.611
 5012.00    1.15342   1.16561  165.841
 5013.00    1.13981   1.15398  164.591
 5014.00    1.14016   1.14571  160.882
 5015.00    1.15208   1.14183  157.813
 5016.00    1.16122   1.14124   -1.000
 5017.00    1.16409   1.14206   -1.000
 5018.00    1.16532   1.14495   -1.000
 5019.00    1.16795   1.15061  154.319
 5020.00    1.17977   1.15829   -1.000
 5021.00    1.18786   1.16710   -1.000
 5022.00    1.19289   1.17536  154.209
 5023.00    1.19067   1.18299  152.618
 5024.00    1.19221   1.19002  151.806
 5025.00    1.19516   1.19491  152.584
 5026.00    1.19109   1.19770  153.076
 5027.00    1.18964   1.19938  151.441
 5028.00    1.19556   1.20112  148.618
 5029.00    1.19985   1.20458  146.484
 5030.00    1.20511   1.21006  144.169
 5031.00    1.21033   1.21630  142.742
 5032.00    1.21162   1.22115  143.515
 5033.00    1.21582   1.22203  148.391
 5034.00    1.20799   1.21728  153.960
 5035.00    1.19203   1.20814  156.179
 5036.00    1.18051   1.19609  156.827
 5037.00    1.18025   1.18307  159.285
 5038.00    1.17405   1.16908  165.736
 5039.00    1.15791   1.15451  171.743
 5040.00    1.14082   1.14380  170.601
 5041.00    1.12906   1.14166  161.816
 5042.00    1.14608   1.15146  152.135
 5043.00    1.17898   1.17166  146.380
 5044.00    1.20413   1.19532  143.076
 5045.00    1.22134   1.21560  138.631
 5046.00    1.20521   1.22679  110.895
 5047.00    0.95353   1.22734   -1.000
 5048.00    0.41291   1.21935   -1.000
 5049.00    0.08845   1.20767   -1.000
 5050.00    0.75791   1.19741   -1.000
 5051.00    1.21216   1.19267   -1.000
 5052.00    1.18729   1.19568  146.421
 5053.00    1.20896   1.20508  143.938
 5054.00    1.22402   1.21660  142.715
 5055.00    1.23004   1.22779  142.369
 5056.00    1.23000   1.23698  142.655
 5057.00    1.23216   1.24395  142.882
 5058.00    1.23334   1.24937  142.703
 5059.00    1.22809   1.25313   -1.000
 5060.00    1.22322   1.25451   -1.000
 5061.00    1.22265   1.25275   -1.000
 5062.00    1.22276   1.24678   -1.000
 5063.00    1.21558   1.23665   -1.000
 5064.00    1.20060   1.22527   -1.000
 5065.00    1.19223   1.21515   -1.000
 5066.00    1.19669   1.20891  150.772
 5067.00    1.20745   1.20656  150.326
 5068.00    1.20924   1.20652  149.568
 5069.00    1.21224   1.20745  148.838
 5070.00    1.21842   1.20783  150.122
 5071.00    1.21774   1.20701  150.929
 5072.00    1.21378   1.20581  149.044
 5073.00    1.21576   1.20541  148.024
 5074.00    1.21577   1.20604  147.870
 5075.00    1.20886   1.20667  147.948
 5076.00    1.21303   1.20511  149.901
 5077.00    1.20780   1.19970  155.522
 5078.00    1.18823   1.19016  162.342
 5079.00    1.16629   1.17971  163.330
 5080.00    1.16347   1.17251  159.690
 5081.00    1.16991   1.17070  156.439
 5082.00    1.18616   1.17496  154.272
 5083.00    1.19262   1.18343  151.353
 5084.00    1.20382   1.19429  148.961
 5085.00    1.21835   1.20562  148.061
 5086.00    1.22253   1.21569  147.819
 5087.00    1.22737   1.22413  147.009
 5088.00    1.22933   1.23081  145.965
 5089.00    1.23154   1.23612  145.176
 5090.00    1.23354   1.24051  144.305
 5091.00    1.23054   1.24425  142.648
 5092.00    1.23396   1.24707  141.711
 5093.00    1.23987   1.24755  143.320
 5094.00    1.24293   1.24398  146.401
 5095.00    1.23463   1.23531  149.621
 5096.00    1.22246   1.22267  153.209
 5097.00    1.21235   1.20917  156.050
 5098.00    1.20173   1.19910  155.864
 5099.00    1.20176   1.19525  151.776
 5100.00    1.21160   1.19846  147.748
 5101.00    1.22055   1.20629  146.852
 5102.00    1.22628   1.21433  147.940
 5103.00    1.22821   1.21945  149.928
 5104.00    1.22693   1.21959  151.814
 5105.00    1.22123   1.21505  153.678
 5106.00    1.20563   1.20792  155.325
 5107.00    1.18953   1.20097  154.900
 5108.00    1.18618   1.19681  153.861
 5109.00    1.18735   1.19692  152.601
 5110.00    1.18983   1.20165  150.402
 5111.00    1.20241   1.21005  148.574
 5112.00    1.22059   1.21997  146.826
 5113.00    1.23213   1.22988  145.593
 5114.00    1.23736   1.23852  144.730
 5115.00    1.23600   1.24548  143.210
 5116.00    1.23830   1.25055  142.244
 5117.00    1.24309   1.25321  142.925
 5118.00    1.24627   1.25301  144.899
 5119.00    1.24309   1.24919  147.124
 5120.00    1.23528   1.24188  149.748
 5121.00    1.22638   1.23184  153.760
 5122.00    1.21327   1.22038  157.955
 5123.00    1.19237   1.20900  158.556
 5124.00    1.18724   1.19964  157.131
 5125.00    1.19576   1.19321  156.368
 5126.00    1.19681   1.18978  155.584
 5127.00    1.19845   1.18869  155.809
 5128.00    1.19228   1.18946  155.387
 5129.00    1.19942   1.19188  153.190
 5130.00    1.20672   1.19581  150.737
 5131.00    1.21523   1.20095  149.541
 5132.00    1.22136   1.20644  148.119
 5133.00    1.21994   1.21139  146.946
 5134.00    1.22506   1.21478  147.023
 5135.00    1.23041   1.21551  149.940
 5136.00    1.22331   1.21277  153.468
 5137.00    1.20911   1.20720  155.548
 5138.00    1.19284   1.20007  155.436
 5139.00    1.18678   1.19370  154.325
 5140.00    1.19018   1.18967  155.783
 5141.00    1.19554   1.18812  157.901
 5142.00    1.19571   1.18877  156.574
 5143.00    1.19608   1.19079  154.155
 5144.00    1.20323   1.19315  153.994
 5145.00    1.21208   1.19493  155.377
 5146.00    1.21692   1.19547   -1.000
 5147.00    1.21400   1.19552   -1.000
 5148.00    1.21516   1.19575   -1.000
 5149.00    1.21964   1.19530   -1.000
 5150.00    1.20730   1.19391  157.872
 5151.00    1.19280   1.19171  158.561
 5152.00    1.18836   1.18947  157.348
 5153.00    1.19407   1.18953  154.093
 5154.00    1.21005   1.19383  150.129
 5155.00    1.22404   1.20285   -1.000
 5156.00    1.24007   1.21478   -1.000
 5157.00    1.24627   1.22706  143.163
 5158.00    1.24990   1.23680  143.259
 5159.00    1.25444   1.24208  143.812
 5160.00    1.25025   1.24224  144.771
 5161.00    1.24165   1.23687  146.533
 5162.00    1.23585   1.22530  149.314
 5163.00    1.22769   1.20642   -1.000
 5164.00    1.21600   1.17845   -1.000
 5165.00    1.18248   1.14251   -1.000
 5166.00    1.13066   1.10493   -1.000
 5167.00    1.08936   1.07311   -1.000
 5168.00    1.08521   1.05460   -1.000
 5169.00    1.11529   1.04824   -1.000
 5170.00    1.13572   1.04767   -1.000
 5171.00    1.12896   1.05063   -1.000
 5172.00    1.10590   1.05733   -1.000
 5173.00    1.10866   1.07422   -1.000
 5174.00    1.15532   1.10321   -1.000
 5175.00    1.21122   1.13836   -1.000
 5176.00    1.24019   1.17264   -1.000
 5177.00    1.25012   1.19698   -1.000
 5178.00    1.25367   1.20671   -1.000
 5179.00    1.24956   1.20087   -1.000
 5180.00    1.23640   1.17973   -1.000
 5181.00    1.21099   1.14786   -1.000
 5182.00    1.16586   1.11310   -1.000
 5183.00    1.11956   1.08804   -1.000
 5184.00    1.11843   1.08181   -1.000
 5185.00    1.16348   1.09547   -1.000
 5186.00    1.20958   1.12239   -1.000
 5187.00    1.22275   1.15048   -1.000
 5188.00    1.21895   1.17236   -1.000
 5189.00    1.21823   1.18472   -1.000
 5190.00    1.20953   1.18759   -1.000
 5191.00    1.19300   1.18497  162.516
 5192.00    1.18051   1.18110  160.751
 5193.00    1.18272   1.17851  157.969
 5194.00    1.19465   1.17921  155.661
 5195.00    1.20846   1.18324   -1.000
 5196.00    1.22595   1.19008   -1.000
 5197.00    1.24022   1.19959   -1.000
 5198.00    1.24650   1.21017   -1.000
 5199.00    1.25105   1.21961   -1.000
 5200.00    1.25017   1.22524   -1.000
 5201.00    1.24228   1.22421  151.384
 5202.00    1.23143   1.21552  155.092
 5203.00    1.21657   1.20057  160.044
 5204.00    1.18963   1.18267  164.282
 5205.00    1.17481   1.16587  164.688
 5206.00    1.17507   1.15379   -1.000
 5207.00    1.18252   1.14836   -1.000
 5208.00    1.18801   1.15036   -1.000
 5209.00    1.19290   1.16003   -1.000
 5210.00    1.20543   1.17596   -1.000
 5211.00    1.22634   1.19536   -1.000
 5212.00    1.24997   1.21357   -1.000
 5213.00    1.25817   1.22627   -1.000
 5214.00    1.25434   1.23123   -1.000
 5215.00    1.23455   1.23031  149.971
 5216.00    1.22255   1.22860  148.236
 5217.00    1.23116   1.23035  145.080
 5218.00    1.24847   1.23742  143.111
 5219.00    1.25972   1.24768  142.152
 5220.00    1.26534   1.25716  141.993
 5221.00    1.26999   1.26138  144.367
 5222.00    1.26880   1.25712  149.173
 5223.00    1.25454   1.24356  155.565
 5224.00    1.22933   1.22201  162.447
 5225.00    1.19949   1.19783  165.455
 5226.00    1.17033   1.17920  160.533
 5227.00    1.17073   1.17197  151.698
 5228.00    1.19985   1.17775   -1.000
 5229.00    1.23271   1.19130   -1.000
 5230.00    1.25243   1.20500   -1.000
 5231.00    1.24817   1.21333   -1.000
 5232.00    1.23279   1.21482  149.756
 5233.00    1.22422   1.21354  148.736
 5234.00    1.22830   1.21489  145.130
 5235.00    1.23992   1.22185  141.966
 5236.00    1.25726   1.23356   -1.000
 5237.00    1.26984   1.24707   -1.000
 5238.00    1.27168   1.25876  141.123
 5239.00    1.27362   1.26676  140.731
 5240.00    1.27494   1.27126  140.041
 5241.00    1.27080   1.27321  140.235
 5242.00    1.27195   1.27405  139.924
 5243.00    1.26947   1.27428  140.209
 5244.00    1.27233   1.27279  143.475
 5245.00    1.26562   1.26829  147.884
 5246.00    1.25039   1.26090  150.737
 5247.00    1.23646   1.25180  150.925
 5248.00    1.23560   1.24322  151.326
 5249.00    1.23031   1.23694  152.054
 5250.00    1.22593   1.23384  150.991
 5251.00    1.23418   1.23384  148.918
 5252.00    1.24333   1.23586  147.738
 5253.00    1.24577   1.23889  147.661
 5254.00    1.24542   1.24320  146.113
 5255.00    1.25411   1.24957  142.463
 5256.00    1.26495   1.25731  139.030
 5257.00    1.28124   1.26453  138.385
 5258.00    1.28403   1.26774  140.248
 5259.00    1.27741   1.26343  144.604
 5260.00    1.26387   1.25001  151.007
 5261.00    1.24430   1.22855  157.925
 5262.00    1.21823   1.20290  162.893
 5263.00    1.19930   1.17782   -1.000
 5264.00    1.18829   1.15776   -1.000
 5265.00    1.18542   1.14532   -1.000
 5266.00    1.19300   1.13929   -1.000
 5267.00    1.20175   1.13643   -1.000
 5268.00    1.18853   1.13479   -1.000
 5269.00    1.16375   1.13459   -1.000
 5270.00    1.16078   1.13948   -1.000
 5271.00    1.18707   1.15062   -1.000
 5272.00    1.22035   1.16546   -1.000
 5273.00    1.23554   1.18164   -1.000
 5274.00    1.23875   1.19635   -1.000
 5275.00    1.24305   1.20978   -1.000
 5276.00    1.24996   1.22354   -1.000
 5277.00    1.26579   1.23720   -1.000
 5278.00    1.28112   1.24829   -1.000
 5279.00    1.27940   1.25309   -1.000
 5280.00    1.26956   1.25081  146.831
 5281.00    1.25643   1.24369  149.100
 5282.00    1.24506   1.23615  149.041
 5283.00    1.23584   1.23344  145.521
 5284.00    1.24550   1.23873  140.958
 5285.00    1.26098   1.25112  137.117
 5286.00    1.26812   1.26701  136.596
 5287.00    1.28841   1.28212  137.286
 5288.00    1.29241   1.29360  137.072
 5289.00    1.29404   1.30084  136.314
 5290.00    1.29802   1.30396  136.254
 5291.00    1.29459   1.30392  137.210
 5292.00    1.29031   1.30139  138.633
 5293.00    1.28383   1.29559  140.850
 5294.00    1.27787   1.28606  145.086
 5295.00    1.26864   1.27312  150.479
 5296.00    1.25510   1.25838  153.496
 5297.00    1.24521   1.24575  151.690
 5298.00    1.23982   1.23858  147.864
 5299.00    1.25171   1.23784  145.512
 5300.00    1.25828   1.24291  144.530
 5301.00    1.25955   1.25138  142.292
 5302.00    1.26225   1.26145  138.552
 5303.00    1.27196   1.27175  136.486
 5304.00    1.28541   1.28021  136.570
 5305.00    1.29164   1.28623  137.979
 5306.00    1.28745   1.28981  138.775
 5307.00    1.28389   1.29186  137.636
 5308.00    1.28573   1.29434  136.265
 5309.00    1.29540   1.29764  135.617
 5310.00    1.30014   1.30092  135.929
 5311.00    1.29795   1.30243  136.700
 5312.00    1.29907   1.30040  137.351
 5313.00    1.29888   1.29449  138.446
 5314.00    1.29217   1.28566  139.815
 5315.00    1.28060   1.27628  140.823
 5316.00    1.27266   1.26975  140.588
 5317.00    1.27122   1.26824  139.562
 5318.00    1.27607   1.27135  139.206
 5319.00    1.28499   1.27592  139.875
 5320.00    1.28611   1.27813  141.012
 5321.00    1.28133   1.27546  142.867
 5322.00    1.27558   1.26698  145.209
 5323.00    1.26349   1.25417  146.210
 5324.00    1.25408   1.23902  146.819
 5325.00    1.25346   1.22272   -1.000
 5326.00    1.24158   1.20613   -1.000
 5327.00    1.20921   1.19197   -1.000
 5328.00    1.19137   1.18553  156.279
 5329.00    1.20554   1.18950  147.587
 5330.00    1.24275   1.20335   -1.000
 5331.00    1.26856   1.22250   -1.000
 5332.00    1.27549   1.24102   -1.000
 5333.00    1.27697   1.25570   -1.000
 5334.00    1.28515   1.26469  139.270
 5335.00    1.28843   1.26818  140.263
 5336.00    1.28211   1.26749  141.287
 5337.00    1.27859   1.26324  143.263
 5338.00    1.27182   1.25624  146.821
 5339.00    1.26060   1.24864  148.584
 5340.00    1.24964   1.24366  146.565
 5341.00    1.25139   1.24350  142.691
 5342.00    1.27067   1.24814   -1.000
 5343.00    1.28801   1.25459   -1.000
 5344.00    1.29175   1.25950   -1.000
 5345.00    1.28137   1.26121   -1.000
 5346.00    1.27607   1.25980  143.690
 5347.00    1.27474   1.25747  144.847
 5348.00    1.27446   1.25658  144.616
 5349.00    1.27227   1.25871  141.987
 5350.00    1.27965   1.26422  138.921
 5351.00    1.29056   1.27209  137.547
 5352.00    1.29311   1.28064  137.058
 5353.00    1.29505   1.28898  135.794
 5354.00    1.30132   1.29689  134.155
 5355.00    1.30992   1.30379  133.419
 5356.00    1.31387   1.30926  133.628
 5357.00    1.31265   1.31258  133.890
 5358.00    1.31309   1.31291  134.612
 5359.00    1.30899   1.30972  136.402
 5360.00    1.30096   1.30279  138.683
 5361.00    1.29656   1.29293  140.484
 5362.00    1.28437   1.28190  141.367
 5363.00    1.27290   1.27155  142.188
 5364.00    1.27345   1.26336  142.788
 5365.00    1.27396   1.25770  142.345
 5366.00    1.27838   1.25345   -1.000
 5367.00    1.27937   1.24855   -1.000
 5368.00    1.27330   1.24152   -1.000
 5369.00    1.25761   1.23264   -1.000
 5370.00    1.23878   1.22488  151.246
 5371.00    1.23643   1.22268  145.020
 5372.00    1.25032   1.22884   -1.000
 5373.00    1.27726   1.24288   -1.000
 5374.00    1.30492   1.26063   -1.000
 5375.00    1.31346   1.27718   -1.000
 5376.00    1.31105   1.28877   -1.000
 5377.00    1.30947   1.29386  136.485
 5378.00    1.31199   1.29340  137.427
 5379.00    1.30281   1.28930  138.828
 5380.00    1.29403   1.28373  140.053
 5381.00    1.29068   1.27846  140.531
 5382.00    1.28235   1.27509  140.268
 5383.00    1.28696   1.27489  139.391
 5384.00    1.29404   1.27806  138.084
 5385.00    1.29843   1.28328  138.088
 5386.00    1.30553   1.28811  138.917
 5387.00    1.30644   1.29044  140.475
 5388.00    1.30184   1.28905  142.569
 5389.00    1.29579   1.28408  143.923
 5390.00    1.29329   1.27692  144.380
 5391.00    1.28976   1.26895   -1.000
 5392.00    1.28389   1.26126   -1.000
 5393.00    1.27688   1.25432   -1.000
 5394.00    1.27221   1.24749   -1.000
 5395.00    1.26536   1.24058   -1.000
 5396.00    1.25321   1.23493   -1.000
 5397.00    1.24912   1.23243  145.251
 5398.00    1.26246   1.23468   -1.000
 5399.00    1.28152   1.24058   -1.000
 5400.00    1.29235   1.24688   -1.000
 5401.00    1.29127   1.25009   -1.000
 5402.00    1.28411   1.24727   -1.000
 5403.00    1.27025   1.23837   -1.000
 5404.00    1.25022   1.22708   -1.000
 5405.00    1.23808   1.21793   -1.000
 5406.00    1.24241   1.21371   -1.000
 5407.00    1.26076   1.21468   -1.000
 5408.00    1.27017   1.21844   -1.000
 5409.00    1.26176   1.22339   -1.000
 5410.00    1.26283   1.22945   -1.000
 5411.00    1.27595   1.23650   -1.000
 5412.00    1.29046   1.24441   -1.000
 5413.00    1.29822   1.25235   -1.000
 5414.00    1.29367   1.25986   -1.000
 5415.00    1.28880   1.26715   -1.000
 5416.00    1.29210   1.27377  138.125
 5417.00    1.29583   1.27936  138.977
 5418.00    1.29475   1.28327  140.299
 5419.00    1.29557   1.28473  140.787
 5420.00    1.29959   1.28374  140.115
 5421.00    1.30324   1.28059   -1.000
 5422.00    1.29846   1.27620   -1.000
 5423.00    1.28604   1.27222  142.740
 5424.00    1.28108   1.27009  140.810
 5425.00    1.28707   1.27046  138.979
 5426.00    1.29432   1.27142   -1.000
 5427.00    1.29412   1.26990   -1.000
 5428.00    1.27631   1.26522  148.387
 5429.00    1.25676   1.25853  147.653
 5430.00    1.25889   1.25233  145.364
 5431.00    1.26761   1.24821   -1.000
 5432.00    1.27504   1.24586   -1.000
 5433.00    1.26671   1.24544   -1.000
 5434.00    1.25566   1.24751  148.049
 5435.00    1.26032   1.25325  144.672
 5436.00    1.27633   1.26355  140.818
 5437.00    1.29329   1.27705  138.166
 5438.00    1.31012   1.29104  136.475
 5439.00    1.31847   1.30257  135.596
 5440.00    1.31690   1.30987  135.481
 5441.00    1.31844   1.31188  135.802
 5442.00    1.31546   1.30803  137.833
 5443.00    1.30504   1.29847  142.131
 5444.00    1.28691   1.28436  147.923
 5445.00    1.26253   1.26913  151.370
 5446.00    1.24716   1.25752  148.939
 5447.00    1.24822   1.25352  144.022
 5448.00    1.26935   1.25800  140.661
 5449.00    1.29547   1.26793   -1.000
 5450.00    1.30993   1.27868   -1.000
 5451.00    1.31340   1.28540   -1.000
 5452.00    1.30902   1.28523   -1.000
 5453.00    1.29247   1.27879  149.625
 5454.00    1.27146   1.26966  151.556
 5455.00    1.25963   1.26306  148.232
 5456.00    1.25929   1.26304  143.128
 5457.00    1.28768   1.26934  140.023
 5458.00    1.31408   1.27856   -1.000
 5459.00    1.31703   1.28617   -1.000
 5460.00    1.31526   1.28873   -1.000
 5461.00    1.30794   1.28599   -1.000
 5462.00    1.29981   1.28073   -1.000
 5463.00    1.29300   1.27674  144.386
 5464.00    1.29866   1.27636   -1.000
 5465.00    1.30358   1.27964   -1.000
 5466.00    1.30800   1.28505   -1.000
 5467.00    1.31499   1.29077   -1.000
 5468.00    1.31821   1.29508   -1.000
 5469.00    1.31089   1.29681  143.415
 5470.00    1.30997   1.29581  143.894
 5471.00    1.31422   1.29215   -1.000
 5472.00    1.31106   1.28586   -1.000
 5473.00    1.30403   1.27720   -1.000
 5474.00    1.29215   1.26687   -1.000
 5475.00    1.27663   1.25675   -1.000
 5476.00    1.26420   1.24972  150.904
 5477.00    1.26741   1.24797   -1.000
 5478.00    1.28408   1.25171   -1.000
 5479.00    1.29652   1.25868   -1.000
 5480.00    1.30172   1.26614   -1.000
 5481.00    1.30000   1.27297   -1.000
 5482.00    1.29952   1.27897   -1.000
 5483.00    1.29994   1.28450  141.238
 5484.00    1.30058   1.28941  140.751
 5485.00    1.30031   1.29266  142.479
 5486.00    1.30091   1.29368  144.290
 5487.00    1.30276   1.29300  144.832
 5488.00    1.30195   1.29200  144.554
 5489.00    1.30407   1.29184  143.442
 5490.00    1.30592   1.29293  142.522
 5491.00    1.30616   1.29482  142.237
 5492.00    1.30724   1.29659  142.559
 5493.00    1.30844   1.29756  142.566
 5494.00    1.31117   1.29722  142.792
 5495.00    1.30707   1.29538  143.923
 5496.00    1.29793   1.29251  144.500
 5497.00    1.29233   1.28942  143.365
 5498.00    1.29619   1.28667  142.329
 5499.00    1.29891   1.28403  143.987
 5500.00    1.29494   1.28092  145.904
 5501.00    1.28945   1.27774  145.618
 5502.00    1.28957   1.27507  144.523
 5503.00    1.29727   1.27269   -1.000
 5504.00    1.30585   1.27041   -1.000
 5505.00    1.29357   1.26825   -1.000
 5506.00    1.28153   1.26683  145.765
 5507.00    1.28389   1.26701  143.757
 5508.00    1.29270   1.26859   -1.000
 5509.00    1.30515   1.27048   -1.000
 5510.00    1.30329   1.27122   -1.000
 5511.00    1.29788   1.27010   -1.000
 5512.00    1.28802   1.26804   -1.000
 5513.00    1.28765   1.26714   -1.000
 5514.00    1.29360   1.26919   -1.000
 5515.00    1.30684   1.27466   -1.000
 5516.00    1.31803   1.28278   -1.000
 5517.00    1.32199   1.29195   -1.000
 5518.00    1.32392   1.30032   -1.000
 5519.00    1.32496   1.30650  139.288
 5520.00    1.32424   1.30995  139.619
 5521.00    1.32379   1.31062  140.065
 5522.00    1.32176   1.30856  140.427
 5523.00    1.31786   1.30350  141.585
 5524.00    1.31506   1.29516   -1.000
 5525.00    1.30900   1.28400   -1.000
 5526.00    1.29295   1.27197   -1.000
 5527.00    1.27616   1.26234  150.163
 5528.00    1.27337   1.25835  146.414
 5529.00    1.28226   1.26126   -1.000
 5530.00    1.29781   1.26896   -1.000
 5531.00    1.30747   1.27759   -1.000
 5532.00    1.31060   1.28389   -1.000
 5533.00    1.30854   1.28666   -1.000
 5534.00    1.29994   1.28701  143.377
 5535.00    1.29937   1.28732  142.349
 5536.00    1.30378   1.28921  142.008
 5537.00    1.30976   1.29272  141.165
 5538.00    1.31860   1.29715   -1.000
 5539.00    1.32232   1.30153   -1.000
 5540.00    1.32454   1.30461   -1.000
 5541.00    1.32510   1.30552   -1.000
 5542.00    1.32158   1.30455  142.199
 5543.00    1.31683   1.30276  142.286
 5544.00    1.31306   1.30145  141.849
 5545.00    1.31634   1.30157  141.397
 5546.00    1.32188   1.30351  140.325
 5547.00    1.32462   1.30707  138.946
 5548.00    1.32629   1.31132  138.015
 5549.00    1.32463   1.31501  138.029
 5550.00    1.32613   1.31729  138.970
 5551.00    1.32899   1.31774  140.316
 5552.00    1.32831   1.31646  141.729
 5553.00    1.32253   1.31431  142.103
 5554.00    1.31810   1.31250  141.762
 5555.00    1.31758   1.31172  141.350
 5556.00    1.32229   1.31195  141.145
 5557.00    1.32519   1.31277  140.977
 5558.00    1.32534   1.31345  140.942
 5559.00    1.32498   1.31314  141.392
 5560.00    1.32616   1.31131  142.334
 5561.00    1.32408   1.30805  143.736
 5562.00    1.31507   1.30403  144.544
 5563.00    1.31296   1.29997  144.877
 5564.00    1.31323   1.29640  145.131
 5565.00    1.31546   1.29352   -1.000
 5566.00    1.31184   1.29118   -1.000
 5567.00    1.30891   1.28906   -1.000
 5568.00    1.30796   1.28693   -1.000
 5569.00    1.30241   1.28475  144.914
 5570.00    1.30151   1.28263   -1.000
 5571.00    1.30813   1.28087   -1.000
 5572.00    1.32183   1.28011   -1.000
 5573.00    1.38273   1.28099   -1.000
 5574.00    1.55930   1.28335   -1.000
 5575.00    1.84653   1.28678   -1.000
 5576.00    2.01095   1.29104   -1.000
 5577.00    1.90384   1.29564   -1.000
 5578.00    1.62731   1.29975   -1.000
 5579.00    1.39645   1.30273   -1.000
 5580.00    1.33655   1.30431   -1.000
 5581.00    1.32618   1.30433   -1.000
 5582.00    1.31915   1.30255  142.993
 5583.00    1.31770   1.29837   -1.000
 5584.00    1.31213   1.29078   -1.000
 5585.00    1.30144   1.27930   -1.000
 5586.00    1.28348   1.26567   -1.000
 5587.00    1.26909   1.25309  154.723
 5588.00    1.26538   1.24481   -1.000
 5589.00    1.27058   1.24275   -1.000
 5590.00    1.28302   1.24652   -1.000
 5591.00    1.29514   1.25359   -1.000
 5592.00    1.30270   1.26109   -1.000
 5593.00    1.29946   1.26752   -1.000
 5594.00    1.29637   1.27251   -1.000
 5595.00    1.30258   1.27605   -1.000
 5596.00    1.30892   1.27764   -1.000
 5597.00    1.30588   1.27698   -1.000
 5598.00    1.29921   1.27459   -1.000
 5599.00    1.29746   1.27106   -1.000
 5600.00    1.29816   1.26734   -1.000
 5601.00    1.29282   1.26558   -1.000
 5602.00    1.28851   1.26811   -1.000
 5603.00    1.29657   1.27581   -1.000
 5604.00    1.31525   1.28783   -1.000
 5605.00    1.32990   1.30187   -1.000
 5606.00    1.33620   1.31523   -1.000
 5607.00    1.33759   1.32574  139.741
 5608.00    1.33461   1.33250  139.918
 5609.00    1.33497   1.33561  139.658
 5610.00    1.33593   1.33540  139.488
 5611.00    1.33704   1.33147  140.843
 5612.00    1.33419   1.32311  144.489
 5613.00    1.31961   1.31085  149.273
 5614.00    1.30015   1.29713  151.304
 5615.00    1.28800   1.28630  149.007
 5616.00    1.29234   1.28160  145.657
 5617.00    1.30563   1.28344   -1.000
 5618.00    1.31895   1.28995   -1.000
 5619.00    1.32609   1.29807   -1.000
 5620.00    1.32846   1.30479   -1.000
 5621.00    1.33110   1.30804   -1.000
 5622.00    1.32757   1.30743   -1.000
 5623.00    1.31864   1.30440  149.021
 5624.00    1.30997   1.30141  147.560
 5625.00    1.30854   1.30068  145.016
 5626.00    1.31644   1.30330  143.081
 5627.00    1.32631   1.30881  141.619
 5628.00    1.33472   1.31577  140.801
 5629.00    1.33954   1.32221  140.413
 5630.00    1.34157   1.32645  140.018
 5631.00    1.33652   1.32767  140.494
 5632.00    1.33581   1.32619  141.660
 5633.00    1.33669   1.32289  142.626
 5634.00    1.33254   1.31867  143.556
 5635.00    1.32860   1.31436  144.609
 5636.00    1.32575   1.31057  145.316
 5637.00    1.32385   1.30767  145.193
 5638.00    1.32544   1.30561   -1.000
 5639.00    1.32237   1.30416   -1.000
 5640.00    1.32114   1.30338  145.503
 5641.00    1.32127   1.30353  144.834
 5642.00    1.32302   1.30457   -1.000
 5643.00    1.32906   1.30634   -1.000
 5644.00    1.33400   1.30864   -1.000
 5645.00    1.33544   1.31110   -1.000
 5646.00    1.33297   1.31316   -1.000
 5647.00    1.33337   1.31445   -1.000
 5648.00    1.33567   1.31491   -1.000
 5649.00    1.33659   1.31485   -1.000
 5650.00    1.33775   1.31449   -1.000
 5651.00    1.33652   1.31371   -1.000
 5652.00    1.33215   1.31200   -1.000
 5653.00    1.32988   1.30864   -1.000
 5654.00    1.33054   1.30305   -1.000
 5655.00    1.32689   1.29503   -1.000
 5656.00    1.31768   1.28534   -1.000
 5657.00    1.30176   1.27626   -1.000
 5658.00    1.28807   1.27031   -1.000
 5659.00    1.29161   1.26864   -1.000
 5660.00    1.30537   1.27085   -1.000
 5661.00    1.31681   1.27571   -1.000
 5662.00    1.31796   1.28203   -1.000
 5663.00    1.32384   1.28885   -1.000
 5664.00    1.33282   1.29497   -1.000
 5665.00    1.33202   1.29956   -1.000
 5666.00    1.33065   1.30246   -1.000
 5667.00    1.32797   1.30412   -1.000
 5668.00    1.32544   1.30548   -1.000
 5669.00    1.32634   1.30739   -1.000
 5670.00    1.32721   1.31040  142.391
 5671.00    1.33432   1.31424   -1.000
 5672.00    1.34311   1.31820   -1.000
 5673.00    1.34809   1.32144   -1.000
 5674.00    1.34748   1.32354   -1.000
 5675.00    1.34285   1.32460  140.064
 5676.00    1.34388   1.32472   -1.000
 5677.00    1.34323   1.32384   -1.000
 5678.00    1.33786   1.32160  141.533
 5679.00    1.33974   1.31761   -1.000
 5680.00    1.33990   1.31181   -1.000
 5681.00    1.33461   1.30492   -1.000
 5682.00    1.32834   1.29827   -1.000
 5683.00    1.32525   1.29334   -1.000
 5684.00    1.32506   1.29068   -1.000
 5685.00    1.32856   1.28972   -1.000
 5686.00    1.32975   1.28973   -1.000
 5687.00    1.32798   1.29044   -1.000
 5688.00    1.32874   1.29230   -1.000
 5689.00    1.33424   1.29580   -1.000
 5690.00    1.33950   1.30084   -1.000
 5691.00    1.34579   1.30687   -1.000
 5692.00    1.34779   1.31282   -1.000
 5693.00    1.35026   1.31778   -1.000
 5694.00    1.34829   1.32098   -1.000
 5695.00    1.34525   1.32220   -1.000
 5696.00    1.34233   1.32146   -1.000
 5697.00    1.33685   1.31883  144.593
 5698.00    1.33211   1.31475  145.907
 5699.00    1.32717   1.30988  147.250
 5700.00    1.32040   1.30537  147.301
 5701.00    1.31925   1.30197  145.903
 5702.00    1.31463   1.29997  144.693
 5703.00    1.31613   1.29869  144.853
 5704.00    1.32310   1.29678   -1.000
 5705.00    1.32322   1.29325   -1.000
 5706.00    1.31610   1.28759   -1.000
 5707.00    1.30649   1.28028   -1.000
 5708.00    1.29831   1.27298   -1.000
 5709.00    1.29025   1.26794   -1.000
 5710.00    1.29045   1.26701   -1.000
 5711.00    1.30002   1.27104   -1.000
 5712.00    1.31583   1.27928   -1.000
 5713.00    1.33097   1.28989   -1.000
 5714.00    1.33709   1.30048   -1.000
 5715.00    1.33969   1.30957   -1.000
 5716.00    1.34129   1.31664   -1.000
 5717.00    1.34070   1.32199  140.347
 5718.00    1.34018   1.32640  139.493
 5719.00    1.34386   1.33037  138.967
 5720.00    1.34892   1.33407  138.698
 5721.00    1.35050   1.33717  138.507
 5722.00    1.35124   1.33929  138.494
 5723.00    1.35018   1.34008  139.130
 5724.00    1.34924   1.33927  140.480
 5725.00    1.34691   1.33705  141.881
 5726.00    1.34261   1.33422  142.393
 5727.00    1.34046   1.33161  141.408
 5728.00    1.34220   1.32988  140.947
 5729.00    1.34104   1.32899  141.564
 5730.00    1.34042   1.32884  141.926
 5731.00    1.34261   1.32943  140.997
 5732.00    1.34260   1.33083  139.694
 5733.00    1.34556   1.33304  139.177
 5734.00    1.34713   1.33559  139.412
 5735.00    1.34779   1.33803  139.647
 5736.00    1.35070   1.33984  140.003
 5737.00    1.34862   1.34076  140.130
 5738.00    1.34449   1.34090  140.434
 5739.00    1.34244   1.34047  140.662
 5740.00    1.34204   1.33972  140.795
 5741.00    1.34164   1.33902  140.451
 5742.00    1.34501   1.33863  140.069
 5743.00    1.34454   1.33868  139.020
 5744.00    1.34489   1.33884  138.777
 5745.00    1.34705   1.33870  139.883
 5746.00    1.34541   1.33822  141.065
 5747.00    1.34072   1.33750  141.079
 5748.00    1.34028   1.33663  140.241
 5749.00    1.34512   1.33503  140.342
 5750.00    1.34608   1.33214  141.791
 5751.00    1.34184   1.32810  143.474
 5752.00    1.33267   1.32385  144.418
 5753.00    1.32785   1.32124  143.673
 5754.00    1.32713   1.32149  141.406
 5755.00    1.33288   1.32485  139.010
 5756.00    1.34572   1.33002  138.113
 5757.00    1.35105   1.33491  139.086
 5758.00    1.35079   1.33770  140.827
 5759.00    1.34872   1.33749  142.718
 5760.00    1.34397   1.33465  144.294
 5761.00    1.33554   1.33105  144.168
 5762.00    1.33270   1.32883  142.076
 5763.00    1.33655   1.32951  139.709
 5764.00    1.33999   1.33310  138.490
 5765.00    1.34720   1.33821  138.265
 5766.00    1.35321   1.34327  138.108
 5767.00    1.35628   1.34694  138.023
 5768.00    1.35355   1.34860  138.416
 5769.00    1.34910   1.34823  138.985
 5770.00    1.34714   1.34624  139.820
 5771.00    1.34375   1.34325  140.531
 5772.00    1.34396   1.34000  140.772
 5773.00    1.34249   1.33709  140.787
 5774.00    1.34235   1.33491  140.315
 5775.00    1.33967   1.33347  139.753
 5776.00    1.33611   1.33188  139.864
 5777.00    1.32563   1.32898  140.853
 5778.00    1.30748   1.32423  143.425
 5779.00    1.29683   1.31795  146.347
 5780.00    1.30234   1.31151  147.415
 5781.00    1.31533   1.30636  146.862
 5782.00    1.32357   1.30355   -1.000
 5783.00    1.32899   1.30333   -1.000
 5784.00    1.33245   1.30526   -1.000
 5785.00    1.33459   1.30905   -1.000
 5786.00    1.33949   1.31389   -1.000
 5787.00    1.33968   1.31868   -1.000
 5788.00    1.34537   1.32257   -1.000
 5789.00    1.35013   1.32511   -1.000
 5790.00    1.34668   1.32687   -1.000
 5791.00    1.34176   1.32856  139.822
 5792.00    1.34144   1.33081  138.931
 5793.00    1.34652   1.33376  138.333
 5794.00    1.34283   1.33689  138.601
 5795.00    1.33891   1.33935  139.532
 5796.00    1.34031   1.34075  139.926
 5797.00    1.34538   1.34159  138.752
 5798.00    1.34964   1.34248  136.848
 5799.00    1.35508   1.34381  135.460
 5800.00    1.35942   1.34548  135.752
 5801.00    1.36153   1.34686  136.988
 5802.00    1.36412   1.34729  138.049
 5803.00    1.35774   1.34656  139.025
 5804.00    1.35286   1.34517  139.293
 5805.00    1.35193   1.34395  138.826
 5806.00    1.35375   1.34348  138.328
 5807.00    1.35728   1.34394  138.057
 5808.00    1.35692   1.34521  138.046
 5809.00    1.35901   1.34686  137.771
 5810.00    1.36425   1.34828  137.252
 5811.00    1.36759   1.34895  137.082
 5812.00    1.36889   1.34871   -1.000
 5813.00    1.36950   1.34758   -1.000
 5814.00    1.36573   1.34598   -1.000
 5815.00    1.36162   1.34480  137.993
 5816.00    1.36218   1.34493  137.097
 5817.00    1.36646   1.34652   -1.000
 5818.00    1.37087   1.34918   -1.000
 5819.00    1.37372   1.35218   -1.000
 5820.00    1.37247   1.35486  135.942
 5821.00    1.37025   1.35689  136.207
 5822.00    1.37176   1.35824  135.905
 5823.00    1.37104   1.35902  135.702
 5824.00    1.37244   1.35954  135.480
 5825.00    1.37706   1.35999  135.419
 5826.00    1.37722   1.36046  135.547
 5827.00    1.37549   1.36087  135.665
 5828.00    1.37388   1.36113  135.439
 5829.00    1.37494   1.36119  135.440
 5830.00    1.37948   1.36098  135.374
 5831.00    1.37938   1.36044  135.905
 5832.00    1.37679   1.35964  136.649
 5833.00    1.37438   1.35879  136.573
 5834.00    1.37209   1.35825  136.126
 5835.00    1.37637   1.35830  136.117
 5836.00    1.37779   1.35886  136.580
 5837.00    1.37514   1.35968  136.624
 5838.00    1.37796   1.36055  135.929
 5839.00    1.38283   1.36129   -1.000
 5840.00    1.38189   1.36165   -1.000
 5841.00    1.37560   1.36145  134.782
 5842.00    1.37288   1.36058  135.289
 5843.00    1.37424   1.35899  135.944
 5844.00    1.37516   1.35671  136.817
 5845.00    1.37733   1.35410   -1.000
 5846.00    1.36893   1.35167  137.877
 5847.00    1.36728   1.34968  137.765
 5848.00    1.36824   1.34783   -1.000
 5849.00    1.37126   1.34558   -1.000
 5850.00    1.37118   1.34226   -1.000
 5851.00    1.36489   1.33775   -1.000
 5852.00    1.35406   1.33229   -1.000
 5853.00    1.34607   1.32632   -1.000
 5854.00    1.34679   1.32011   -1.000
 5855.00    1.34720   1.31362   -1.000
 5856.00    1.34736   1.30790   -1.000
 5857.00    1.34815   1.30446   -1.000
 5858.00    1.34912   1.30420   -1.000
 5859.00    1.35417   1.30733   -1.000
 5860.00    1.36273   1.31287   -1.000
 5861.00    1.36426   1.31940   -1.000
 5862.00    1.36668   1.32559   -1.000
 5863.00    1.37382   1.33008   -1.000
 5864.00    1.37491   1.33244   -1.000
 5865.00    1.37144   1.33318   -1.000
 5866.00    1.37167   1.33332   -1.000
 5867.00    1.37390   1.33412   -1.000
 5868.00    1.37478   1.33615   -1.000
 5869.00    1.37960   1.33911   -1.000
 5870.00    1.38331   1.34203   -1.000
 5871.00    1.38083   1.34384   -1.000
 5872.00    1.37872   1.34391   -1.000
 5873.00    1.38064   1.34232   -1.000
 5874.00    1.38286   1.33973   -1.000
 5875.00    1.38065   1.33698   -1.000
 5876.00    1.37492   1.33452   -1.000
 5877.00    1.37154   1.33238   -1.000
 5878.00    1.37190   1.33028   -1.000
 5879.00    1.37032   1.32788   -1.000
 5880.00    1.36672   1.32477   -1.000
 5881.00    1.36541   1.32066   -1.000
 5882.00    1.36468   1.31537   -1.000
 5883.00    1.36041   1.30854   -1.000
 5884.00    1.35509   1.29915   -1.000
 5885.00    1.33744   1.28481   -1.000
 5886.00    1.29684   1.26312   -1.000
 5887.00    1.24244   1.23415  163.139
 5888.00    1.20530   1.20227  170.930
 5889.00    1.20660   1.17556   -1.000
 5890.00    1.23305   1.15927   -1.000
 5891.00    1.25534   1.15411   -1.000
 5892.00    1.25537   1.15601   -1.000
 5893.00    1.22567   1.15942   -1.000
 5894.00    1.19763   1.16181   -1.000
 5895.00    1.19838   1.16480   -1.000
 5896.00    1.23662   1.17238   -1.000
 5897.00    1.28948   1.18668   -1.000
 5898.00    1.32689   1.20726   -1.000
 5899.00    1.34848   1.23143   -1.000
 5900.00    1.35592   1.25533   -1.000
 5901.00    1.35942   1.27587   -1.000
 5902.00    1.36455   1.29168   -1.000
 5903.00    1.36601   1.30277   -1.000
 5904.00    1.36987   1.31020   -1.000
 5905.00    1.37103   1.31513   -1.000
 5906.00    1.37084   1.31852   -1.000
 5907.00    1.37016   1.32097   -1.000
 5908.00    1.36827   1.32276   -1.000
 5909.00    1.36774   1.32373   -1.000
 5910.00    1.36408   1.32349   -1.000
 5911.00    1.36670   1.32158   -1.000
 5912.00    1.36824   1.31822   -1.000
 5913.00    1.36779   1.31429   -1.000
 5914.00    1.36169   1.31091   -1.000
 5915.00    1.35710   1.30916   -1.000
 5916.00    1.35438   1.30958   -1.000
 5917.00    1.35508   1.31195   -1.000
 5918.00    1.35483   1.31536   -1.000
 5919.00    1.35875   1.31885   -1.000
 5920.00    1.36602   1.32166   -1.000
 5921.00    1.36470   1.32368   -1.000
 5922.00    1.36152   1.32515   -1.000
 5923.00    1.36636   1.32644   -1.000
 5924.00    1.37227   1.32758   -1.000
 5925.00    1.37527   1.32820   -1.000
 5926.00    1.37553   1.32766   -1.000
 5927.00    1.37424   1.32581   -1.000
 5928.00    1.36888   1.32320   -1.000
 5929.00    1.36353   1.32094   -1.000
 5930.00    1.36463   1.31996   -1.000
 5931.00    1.36899   1.32030   -1.000
 5932.00    1.37218   1.32158   -1.000
 5933.00    1.37201   1.32341   -1.000
 5934.00    1.36877   1.32548   -1.000
 5935.00    1.36660   1.32764   -1.000
 5936.00    1.36579   1.32964   -1.000
 5937.00    1.36397   1.33094   -1.000
 5938.00    1.36295   1.33116   -1.000
 5939.00    1.36227   1.33021   -1.000
 5940.00    1.35953   1.32860   -1.000
 5941.00    1.35916   1.32705   -1.000
 5942.00    1.36256   1.32614   -1.000
 5943.00    1.36259   1.32594   -1.000
 5944.00    1.36375   1.32606   -1.000
 5945.00    1.36683   1.32586   -1.000
 5946.00    1.36249   1.32502   -1.000
 5947.00    1.35790   1.32380   -1.000
 5948.00    1.35469   1.32270   -1.000
 5949.00    1.35579   1.32207   -1.000
 5950.00    1.36312   1.32180   -1.000
 5951.00    1.36839   1.32172   -1.000
 5952.00    1.36771   1.32171   -1.000
 5953.00    1.36467   1.32152   -1.000
 5954.00    1.36237   1.32108   -1.000
 5955.00    1.35700   1.32073   -1.000
 5956.00    1.35057   1.32093   -1.000
 5957.00    1.34968   1.32224   -1.000
 5958.00    1.35513   1.32480   -1.000
 5959.00    1.36361   1.32820   -1.000
 5960.00    1.36993   1.33175   -1.000
 5961.00    1.37220   1.33463   -1.000
 5962.00    1.37503   1.33622   -1.000
 5963.00    1.37231   1.33639   -1.000
 5964.00    1.36596   1.33552   -1.000
 5965.00    1.36210   1.33434   -1.000
 5966.00    1.36196   1.33361   -1.000
 5967.00    1.36289   1.33378   -1.000
 5968.00    1.36677   1.33499   -1.000
 5969.00    1.36863   1.33686   -1.000
 5970.00    1.36751   1.33866   -1.000
 5971.00    1.36760   1.33961   -1.000
 5972.00    1.36646   1.33905   -1.000
 5973.00    1.36446   1.33679   -1.000
 5974.00    1.36216   1.33329   -1.000
 5975.00    1.35700   1.32954   -1.000
 5976.00    1.35609   1.32673   -1.000
 5977.00    1.36094   1.32566   -1.000
 5978.00    1.35967   1.32633   -1.000
 5979.00    1.35714   1.32786   -1.000
 5980.00    1.35989   1.32891   -1.000
 5981.00    1.35997   1.32843   -1.000
 5982.00    1.35866   1.32635   -1.000
 5983.00    1.35272   1.32355   -1.000
 5984.00    1.34851   1.32132   -1.000
 5985.00    1.35080   1.32062   -1.000
 5986.00    1.35392   1.32169   -1.000
 5987.00    1.35562   1.32404   -1.000
 5988.00    1.35771   1.32678   -1.000
 5989.00    1.35700   1.32932   -1.000
 5990.00    1.35508   1.33152   -1.000
 5991.00    1.35564   1.33362   -1.000
 5992.00    1.35767   1.33562   -1.000
 5993.00    1.35860   1.33718   -1.000
 5994.00    1.35878   1.33787   -1.000
 5995.00    1.36036   1.33751   -1.000
 5996.00    1.35889   1.33634   -1.000
 5997.00    1.35568   1.33489   -1.000
 5998.00    1.35530   1.33360   -1.000
 5999.00    1.35702   1.33253   -1.000
 6000.00    1.35763   1.33153   -1.000
 6001.00    1.35507   1.33041   -1.000
 6002.00    1.35306   1.32917   -1.000
 6003.00    1.35285   1.32775   -1.000
 6004.00    1.35080   1.32595   -1.000
 6005.00    1.34577   1.32363   -1.000
 6006.00    1.34479   1.32114   -1.000
 6007.00    1.34180   1.31929   -1.000
 6008.00    1.33782   1.31889   -1.000
 6009.00    1.33982   1.32004   -1.000
 6010.00    1.34442   1.32209   -1.000
 6011.00    1.34889   1.32414   -1.000
 6012.00    1.34846   1.32542   -1.000
 6013.00    1.34721   1.32572   -1.000
 6014.00    1.35098   1.32525   -1.000
 6015.00    1.34960   1.32437   -1.000
 6016.00    1.34666   1.32321   -1.000
 6017.00    1.34669   1.32172   -1.000
 6018.00    1.34923   1.31980   -1.000
 6019.00    1.34661   1.31774   -1.000
 6020.00    1.34317   1.31606   -1.000
 6021.00    1.34339   1.31522   -1.000
 6022.00    1.34115   1.31569   -1.000
 6023.00    1.34281   1.31774   -1.000
 6024.00    1.34004   1.32117   -1.000
 6025.00    1.34070   1.32549  142.807
 6026.00    1.34798   1.33027  141.948
 6027.00    1.35146   1.33498  141.535
 6028.00    1.35518   1.33922  141.466
 6029.00    1.35740   1.34281  141.637
 6030.00    1.35761   1.34572  141.769
 6031.00    1.35715   1.34802  141.297
 6032.00    1.35762   1.34983  140.744
 6033.00    1.36066   1.35119  140.536
 6034.00    1.35958   1.35205  140.420
 6035.00    1.35369   1.35233  140.293
 6036.00    1.35428   1.35189  140.750
 6037.00    1.35247   1.35070  141.415
 6038.00    1.35018   1.34886  141.699
 6039.00    1.35214   1.34671  141.885
 6040.00    1.35280   1.34477  141.539
 6041.00    1.35174   1.34358  141.165
 6042.00    1.35248   1.34352  140.218
 6043.00    1.35211   1.34460  139.536
 6044.00    1.35478   1.34658  139.729
 6045.00    1.35538   1.34910  139.632
 6046.00    1.35323   1.35166  139.523
 6047.00    1.35203   1.35384  139.842
 6048.00    1.34904   1.35534  140.294
 6049.00    1.35022   1.35603  140.511
 6050.00    1.35572   1.35574  140.678
 6051.00    1.35452   1.35439  141.086
 6052.00    1.35271   1.35203  141.637
 6053.00    1.35135   1.34901  142.189
 6054.00    1.35267   1.34597  142.882
 6055.00    1.35223   1.34371  143.003
 6056.00    1.34678   1.34277  142.495
 6057.00    1.34916   1.34318  141.704
 6058.00    1.35386   1.34443  141.339
 6059.00    1.35451   1.34558  141.656
 6060.00    1.35247   1.34561  142.648
 6061.00    1.34508   1.34379  145.173
 6062.00    1.32177   1.34008  144.982
 6063.00    1.31385   1.33544  164.993
 6064.00    1.30148   1.33155   93.238
 6065.00    1.03806   1.32990   -1.000
 6066.00    0.69473   1.33126   -1.000
 6067.00    0.96554   1.33531   -1.000
 6068.00    1.34864   1.34087  140.313
 6069.00    1.33192   1.34653  136.970
 6070.00    1.32525   1.35132   -1.000
 6071.00    1.30396   1.35481   -1.000
 6072.00    1.31641   1.35694   -1.000
 6073.00    1.35845   1.35776  140.462
 6074.00    1.35069   1.35728  141.077
 6075.00    1.35058   1.35547  141.860
 6076.00    1.34698   1.35251  142.793
 6077.00    1.34467   1.34898  143.840
 6078.00    1.34453   1.34541  144.374
 6079.00    1.34261   1.34222  144.402
 6080.00    1.34182   1.33955  144.663
 6081.00    1.34117   1.33737  144.936
 6082.00    1.33972   1.33568  144.842
 6083.00    1.33605   1.33467  144.715
 6084.00    1.33513   1.33462  144.451
 6085.00    1.33778   1.33552  143.940
 6086.00    1.34090   1.33701  143.689
 6087.00    1.34210   1.33853  144.292
 6088.00    1.33797   1.33958  145.109
 6089.00    1.33719   1.34004  145.418
 6090.00    1.33827   1.34019  144.940
 6091.00    1.33769   1.34054  144.020
 6092.00    1.34002   1.34150  143.293
 6093.00    1.34277   1.34317  142.542
 6094.00    1.34384   1.34534  142.211
 6095.00    1.34455   1.34748  142.444
 6096.00    1.34562   1.34883  142.715
 6097.00    1.34119   1.34842  142.746
 6098.00    1.33752   1.34524  143.426
 6099.00    1.33539   1.33885  146.022
 6100.00    1.33191   1.33006  149.277
 6101.00    1.31841   1.32119  150.143
 6102.00    1.30804   1.31492  148.044
 6103.00    1.31243   1.31315  145.335
 6104.00    1.32231   1.31624  143.889
 6105.00    1.33016   1.32288  143.951
 6106.00    1.33482   1.33096  144.498
 6107.00    1.33367   1.33856  144.659
 6108.00    1.33014   1.34457  144.463
 6109.00    1.33214   1.34875  144.001
 6110.00    1.33521   1.35139  143.582
 6111.00    1.34074   1.35299  143.316
 6112.00    1.34099   1.35397  142.644
 6113.00    1.33881   1.35454  142.709
 6114.00    1.33794   1.35469  143.496
 6115.00    1.33289   1.35419  144.172
 6116.00    1.33053   1.35248  144.501
 6117.00    1.33004   1.34883  145.819
 6118.00    1.33106   1.34256  147.972
 6119.00    1.32159   1.33375  149.651
 6120.00    1.31414   1.32369  150.511
 6121.00    1.30800   1.31453  149.477
 6122.00    1.30173   1.30867  147.046
 6123.00    1.30700   1.30741  145.971
 6124.00    1.31576   1.31058  146.441
 6125.00    1.32193   1.31646  146.935
 6126.00    1.32568   1.32315  146.592
 6127.00    1.32507   1.32950  145.917
 6128.00    1.32207   1.33510  144.568
 6129.00    1.32358   1.34005  143.628
 6130.00    1.32850   1.34429  143.658
 6131.00    1.33174   1.34677  144.411
 6132.00    1.32815   1.34591  146.642
 6133.00    1.32194   1.34036  150.550
 6134.00    1.30813   1.33028  154.825
 6135.00    1.28746   1.31778   -1.000
 6136.00    1.27239   1.30573   -1.000
 6137.00    1.26927   1.29661   -1.000
 6138.00    1.28176   1.29222  147.939
 6139.00    1.29755   1.29281  147.297
 6140.00    1.29842   1.29764  147.684
 6141.00    1.29703   1.30545  147.192
 6142.00    1.30063   1.31469  145.439
 6143.00    1.31028   1.32365  144.313
 6144.00    1.32339   1.33071  144.592
 6145.00    1.32591   1.33484  145.424
 6146.00    1.32081   1.33597  146.418
 6147.00    1.31723   1.33486  147.405
 6148.00    1.31758   1.33277  147.896
 6149.00    1.31986   1.33100  147.606
 6150.00    1.31930   1.33016  146.821
 6151.00    1.31640   1.33013  146.104
 6152.00    1.31656   1.33030  146.591
 6153.00    1.31893   1.32998  147.754
 6154.00    1.31921   1.32867  148.181
 6155.00    1.31987   1.32616  148.448
 6156.00    1.31942   1.32216  149.518
 6157.00    1.31622   1.31593  151.710
 6158.00    1.31234   1.30668  155.417
 6159.00    1.30343   1.29435  160.211
 6160.00    1.28714   1.28047  163.542
 6161.00    1.27244   1.26784  163.171
 6162.00    1.26499   1.25932  159.559
 6163.00    1.26833   1.25662  155.827
 6164.00    1.28158   1.25917   -1.000
 6165.00    1.29234   1.26452   -1.000
 6166.00    1.29595   1.26979   -1.000
 6167.00    1.29390   1.27354   -1.000
 6168.00    1.28836   1.27598  157.761
 6169.00    1.28366   1.27849  155.557
 6170.00    1.28739   1.28256  152.757
 6171.00    1.29526   1.28871  151.673
 6172.00    1.30021   1.29627  152.000
 6173.00    1.30173   1.30395  151.879
 6174.00    1.30339   1.31069  151.501
 6175.00    1.30923   1.31601  151.175
 6176.00    1.31115   1.31997  150.607
 6177.00    1.30732   1.32299  149.916
 6178.00    1.30454   1.32557  149.425
 6179.00    1.30683   1.32804  148.856
 6180.00    1.31163   1.33044  148.275
 6181.00    1.31250   1.33254  148.218
 6182.00    1.31392   1.33392  148.670
 6183.00    1.31628   1.33409  149.488
 6184.00    1.31451   1.33273  150.935
 6185.00    1.31102   1.32979  152.585
 6186.00    1.30738   1.32536  154.095
 6187.00    1.30177   1.31961  155.401
 6188.00    1.30051   1.31301  156.882
 6189.00    1.29593   1.30668  158.593
 6190.00    1.28309   1.30204  158.293
 6191.00    1.27658   1.30032  155.345
 6192.00    1.28371   1.30213  151.888
 6193.00    1.29589   1.30695  150.222
 6194.00    1.30445   1.31333  149.715
 6195.00    1.30740   1.31947  150.054
 6196.00    1.30988   1.32400  151.474
 6197.00    1.30724   1.32645  153.072
 6198.00    1.29863   1.32725   -1.000
 6199.00    1.29555   1.32739   -1.000
 6200.00    1.29494   1.32799   -1.000
 6201.00    1.29307   1.32975   -1.000
 6202.00    1.29959   1.33272   -1.000
 6203.00    1.30596   1.33641   -1.000
 6204.00    1.31158   1.34009   -1.000
 6205.00    1.31455   1.34311   -1.000
 6206.00    1.31348   1.34502   -1.000
 6207.00    1.31396   1.34548   -1.000
 6208.00    1.31650   1.34418   -1.000
 6209.00    1.31279   1.34089   -1.000
 6210.00    1.30611   1.33565   -1.000
 6211.00    1.30238   1.32895   -1.000
 6212.00    1.29645   1.32178   -1.000
 6213.00    1.29003   1.31521   -1.000
 6214.00    1.29009   1.31008  158.127
 6215.00    1.29478   1.30660  156.403
 6216.00    1.29735   1.30454  156.660
 6217.00    1.29497   1.30355  157.240
 6218.00    1.28977   1.30348  156.203
 6219.00    1.29081   1.30441  155.948
 6220.00    1.29784   1.30634  161.615
 6221.00    1.30437   1.30906  167.039
 6222.00    1.30647   1.31197  158.750
 6223.00    1.30503   1.31431  154.460
 6224.00    1.30775   1.31535  154.916
 6225.00    1.30725   1.31444  155.291
 6226.00    1.30550   1.31117  156.798
 6227.00    1.29918   1.30565  159.251
 6228.00    1.28972   1.29871  161.662
 6229.00    1.27956   1.29195  162.459
 6230.00    1.27429   1.28720  160.799
 6231.00    1.27787   1.28581  158.049
 6232.00    1.28922   1.28792  155.192
 6233.00    1.30493   1.29236  153.505
 6234.00    1.31397   1.29724   -1.000
 6235.00    1.31786   1.30082   -1.000
 6236.00    1.31659   1.30225  156.713
 6237.00    1.31146   1.30164  158.336
 6238.00    1.30697   1.29971  159.585
 6239.00    1.30083   1.29711  159.833
 6240.00    1.29476   1.29411  160.264
 6241.00    1.29189   1.29062  161.511
 6242.00    1.28611   1.28654  162.032
 6243.00    1.28214   1.28231  161.419
 6244.00    1.28248   1.27896  160.069
 6245.00    1.27893   1.27772  158.240
 6246.00    1.27741   1.27927  156.350
 6247.00    1.28260   1.28318  155.402
 6248.00    1.28783   1.28787  156.068
 6249.00    1.28920   1.29129  158.274
 6250.00    1.28710   1.29194  160.896
 6251.00    1.27934   1.28960  162.386
 6252.00    1.26821   1.28529  163.147
 6253.00    1.26288   1.28063  163.324
 6254.00    1.26512   1.27698  163.899
 6255.00    1.27241   1.27504  165.523
 6256.00    1.27644   1.27496  166.014
 6257.00    1.27661   1.27664  164.327
 6258.00    1.27755   1.27995  161.729
 6259.00    1.27802   1.28475  159.424
 6260.00    1.28324   1.29061  157.139
 6261.00    1.28998   1.29685  155.400
 6262.00    1.28940   1.30272  155.650
 6263.00    1.28753   1.30766  156.950
 6264.00    1.28735   1.31146   -1.000
 6265.00    1.28419   1.31412   -1.000
 6266.00    1.28369   1.31572   -1.000
 6267.00    1.28705   1.31630   -1.000
 6268.00    1.28731   1.31593   -1.000
 6269.00    1.28512   1.31481   -1.000
 6270.00    1.28521   1.31305   -1.000
 6271.00    1.28855   1.31053  155.960
 6272.00    1.28631   1.30680  156.753
 6273.00    1.27720   1.30134   -1.000
 6274.00    1.26324   1.29411   -1.000
 6275.00    1.24509   1.28571   -1.000
 6276.00    1.22854   1.27742   -1.000
 6277.00    1.21748   1.27077   -1.000
 6278.00    1.21426   1.26701   -1.000
 6279.00    1.21406   1.26681   -1.000
 6280.00    1.21233   1.27013   -1.000
 6281.00    1.21412   1.27631   -1.000
 6282.00    1.22438   1.28421   -1.000
 6283.00    1.24049   1.29251   -1.000
 6284.00    1.25755   1.30008   -1.000
 6285.00    1.27398   1.30604   -1.000
 6286.00    1.28332   1.30996   -1.000
 6287.00    1.28553   1.31178   -1.000
 6288.00    1.28596   1.31180   -1.000
 6289.00    1.28439   1.31057   -1.000
 6290.00    1.28160   1.30877   -1.000
 6291.00    1.28007   1.30692   -1.000
 6292.00    1.28227   1.30517  158.491
 6293.00    1.28929   1.30331  159.203
 6294.00    1.30091   1.30100  160.433
 6295.00    1.32552   1.29805   -1.000
 6296.00    1.37106   1.29454   -1.000
 6297.00    1.43991   1.29083   -1.000
 6298.00    1.52187   1.28745   -1.000
 6299.00    1.55724   1.28507   -1.000
 6300.00    1.50066   1.28431   -1.000
 6301.00    1.39288   1.28571   -1.000
 6302.00    1.31662   1.28948   -1.000
 6303.00    1.29237   1.29524  157.768
 6304.00    1.29339   1.30195  156.146
 6305.00    1.30013   1.30837  154.810
 6306.00    1.30377   1.31351  153.904
 6307.00    1.30094   1.31688  154.157
 6308.00    1.29480   1.31852   -1.000
 6309.00    1.29224   1.31868   -1.000
 6310.00    1.29085   1.31761   -1.000
 6311.00    1.29176   1.31548   -1.000
 6312.00    1.28799   1.31239   -1.000
 6313.00    1.28245   1.30858   -1.000
 6314.00    1.27840   1.30447   -1.000
 6315.00    1.27167   1.30080   -1.000
 6316.00    1.27207   1.29839   -1.000
 6317.00    1.27418   1.29791   -1.000
 6318.00    1.27475   1.29965   -1.000
 6319.00    1.28146   1.30346  155.645
 6320.00    1.28967   1.30873  154.574
 6321.00    1.29242   1.31464  154.077
 6322.00    1.29417   1.32042   -1.000
 6323.00    1.29868   1.32553   -1.000
 6324.00    1.30806   1.32960  152.442
 6325.00    1.31418   1.33243  152.077
 6326.00    1.31545   1.33405  151.666
 6327.00    1.31849   1.33471  151.867
 6328.00    1.31893   1.33474  151.962
 6329.00    1.31792   1.33426  151.772
 6330.00    1.31738   1.33313  151.306
 6331.00    1.31302   1.33097  151.381
 6332.00    1.31017   1.32749  151.823
 6333.00    1.30429   1.32287  153.607
 6334.00    1.29007   1.31791   -1.000
 6335.00    1.27956   1.31388   -1.000
 6336.00    1.28491   1.31200   -1.000
 6337.00    1.29457   1.31282  152.181
 6338.00    1.30158   1.31595  150.916
 6339.00    1.30975   1.32024  150.244
 6340.00    1.31473   1.32429  149.881
 6341.00    1.31236   1.32701  150.617
 6342.00    1.31253   1.32794  151.550
 6343.00    1.31338   1.32743  151.390
 6344.00    1.31513   1.32642  150.756
 6345.00    1.31920   1.32607  149.804
 6346.00    1.32426   1.32725  148.955
 6347.00    1.32532   1.33016  148.694
 6348.00    1.32534   1.33424  148.601
 6349.00    1.32479   1.33836  148.455
 6350.00    1.32445   1.34135  148.855
 6351.00    1.32679   1.34247  149.548
 6352.00    1.32702   1.34164  150.701
 6353.00    1.32241   1.33928  152.320
 6354.00    1.31931   1.33604  153.035
 6355.00    1.31832   1.33255  153.194
 6356.00    1.31375   1.32921  154.263
 6357.00    1.31527   1.32614  155.619
 6358.00    1.31914   1.32340  155.615
 6359.00    1.33348   1.32101  154.970
 6360.00    1.35630   1.31904   -1.000
 6361.00    1.38160   1.31767   -1.000
 6362.00    1.40211   1.31711   -1.000
 6363.00    1.39983   1.31753   -1.000
 6364.00    1.37335   1.31890   -1.000
 6365.00    1.34561   1.32088   -1.000
 6366.00    1.33295   1.32296  149.771
 6367.00    1.32688   1.32468  149.047
 6368.00    1.32265   1.32590  148.925
 6369.00    1.31959   1.32688  148.783
 6370.00    1.32177   1.32811  148.197
 6371.00    1.32559   1.32991  148.052
 6372.00    1.32771   1.33215  148.383
 6373.00    1.32535   1.33427  148.567
 6374.00    1.32297   1.33559  149.009
 6375.00    1.32086   1.33565  149.670
 6376.00    1.31839   1.33447  150.563
 6377.00    1.31696   1.33243  151.403
 6378.00    1.31438   1.33006  151.733
 6379.00    1.31074   1.32783  151.895
 6380.00    1.30882   1.32610  152.053
 6381.00    1.30809   1.32513  151.822
 6382.00    1.30621   1.32505  151.900
 6383.00    1.30496   1.32588  152.519
 6384.00    1.30484   1.32743  152.620
 6385.00    1.30288   1.32931   -1.000
 6386.00    1.30050   1.33097   -1.000
 6387.00    1.29348   1.33183   -1.000
 6388.00    1.28764   1.33142   -1.000
 6389.00    1.28239   1.32954   -1.000
 6390.00    1.27315   1.32640   -1.000
 6391.00    1.26440   1.32272   -1.000
 6392.00    1.25285   1.31954   -1.000
 6393.00    1.24560   1.31777   -1.000
 6394.00    1.24693   1.31759   -1.000
 6395.00    1.25040   1.31831   -1.000
 6396.00    1.24872   1.31879   -1.000
 6397.00    1.24072   1.31826   -1.000
 6398.00    1.22770   1.31693   -1.000
 6399.00    1.21496   1.31591   -1.000
 6400.00    1.20951   1.31640   -1.000
 6401.00    1.21342   1.31884   -1.000
 6402.00    1.21936   1.32255   -1.000
 6403.00    1.22225   1.32615   -1.000
 6404.00    1.22090   1.32833   -1.000
 6405.00    1.21028   1.32853   -1.000
 6406.00    1.19795   1.32709   -1.000
 6407.00    1.19029   1.32492   -1.000
 6408.00    1.18478   1.32294   -1.000
 6409.00    1.17654   1.32170   -1.000
 6410.00    1.16660   1.32137   -1.000
 6411.00    1.15989   1.32191   -1.000
 6412.00    1.15614   1.32309   -1.000
 6413.00    1.15415   1.32458   -1.000
 6414.00    1.15139   1.32592   -1.000
 6415.00    1.14360   1.32667   -1.000
 6416.00    1.13385   1.32648   -1.000
 6417.00    1.12694   1.32530   -1.000
 6418.00    1.11562   1.32353   -1.000
 6419.00    1.10271   1.32207   -1.000
 6420.00    1.09093   1.32200   -1.000
 6421.00    1.08026   1.32410   -1.000
 6422.00    1.07504   1.32836   -1.000
 6423.00    1.07344   1.33391   -1.000
 6424.00    1.07125   1.33934   -1.000
 6425.00    1.06533   1.34318   -1.000
 6426.00    1.05400   1.34442   -1.000
 6427.00    1.04294   1.34274   -1.000
 6428.00    1.03093   1.33871   -1.000
