###################################################################
## OUTPUT of StarlightChains_v04.for    [Cid@UFSC - 01/Apr/2007] ##
###################################################################

## Some input info
NGC5904_a_1.cxt                          [arq_obs]
Base.BC03.N                              [arq_base]
NGC5904_a_1.msk                          [arq_masks]
StCv04.C11.config                        [arq_config]
   45                                    [N_base]
    0                                    [N_YAV_components = # of components with extra extinction!]
    0                                    [i_FitPowerLaw (1/0 = Yes/No)]
-9.99                                    [alpha_PowerLaw]
CCM                                      [red_law_option]
 1.458241                                [q_norm = A(l_norm)/A(V)]

## (Re)Sampling Parameters
 3359.00                                 [l_ini (A)]
 6428.00                                 [l_fin (A)]
    1.00                                 [dl    (A)]     (OBS: dl_cushion =    50.00 A)

## Normalization info
 4020.00                                 [l_norm (A) - for base]
 4010.00                                 [llow_norm (A) - window for f_obs]
 4060.00                                 [lupp_norm (A) - window for f_obs]
5.027376E-14                             [fobs_norm (in input units)]

## S/N
 4730.00                                 [llow_SN (A) - window for S/N]
 4780.00                                 [lupp_SN (A) - window for S/N]
  94.495                                 [S/N in S/N window]
  88.383                                 [S/N in norm. window]
 203.063                                 [S/N_err in S/N window]
 189.929                                 [S/N_err in norm. window]
  1.0000                                 [fscale_chi2]

## etc...
  2147483635                             [idum_orig]
  3069                                   [NOl_eff]
   992                                   [Nl_eff]
  2077    NSIGMA                         [Ntot_cliped & clip_method]
   666120                                [Nglobal_steps]
   7                                     [N_chains]
   6                                     [NEX0s_base = N_base in EX0s-fits]
 0   0   1      257   2.0   3.991E+02    [Clip-Bug, RC-Crash & Burn-In warning-flags, n_censored_weights, wei_nsig_threshold & wei_limit]
     9      8.981      8.973      0.008  [idt_all, wdt_TotTime, wdt_UsrTime & wdt_SysTime (sec)]

## Synthesis Results - Best model ##

 2.89897E+00                             [chi2/Nl_eff]
     0.92466                             [adev (%)]

   103.03242                             [sum-of-x (%)]
 7.56589E-14                             [Flux_tot (units of input spectrum!)]
 4.95230E-10                             [Mini_tot (???)]
 2.73421E-10                             [Mcor_tot (???)]

  -8.53                                  [v0_min  (km/s)]
  85.23                                  [vd_min  (km/s)]
 0.2821                                  [AV_min  (mag)]
 0.0000                                  [YAV_min (mag)]

# j     x_j(%)      Mini_j(%)     Mcor_j(%)     age_j(yr)     Z_j      (L/M)_j    YAV?  Mstars   component_j        a/Fe...       SSP_chi2r SSP_adev(%)   SSP_AV   SSP_x(%)
  1      0.0000     0.0000E+00    0.0000E+00    1.000000E+06  0.00400  1.114E-02    0   1.0000   age020_m42            0.0000     9.2431E+02    14.2735   3.6282    77.0990
  2      7.0972     2.5838E-02    4.6794E-02    3.160000E+06  0.00400  4.073E-02    0   0.9999   age045_m42            0.0000     1.9977E+02     7.1078   2.5935    91.8355
  3      0.0000     0.0000E+00    0.0000E+00    5.010000E+06  0.00400  2.534E-02    0   0.9488   age055_m42            0.0000     4.6982E+02    10.6597   3.0362    85.0550
  4      7.7997     9.0994E-02    1.4606E-01    1.000000E+07  0.00400  1.271E-02    0   0.8862   age070_m42            0.0000     4.0378E+02    10.3321   2.2455    88.5273
  5      0.0000     0.0000E+00    0.0000E+00    2.512000E+07  0.00400  5.070E-03    0   0.8174   age090_m42            0.0000     3.4393E+02     9.5918   2.1034    90.2433
  6      0.0000     0.0000E+00    0.0000E+00    4.000000E+07  0.00400  3.505E-03    0   0.7851   age104_m42            0.0000     1.9914E+02     7.3401   1.7599    93.5696
  7     12.1759     7.9604E-01    1.0391E+00    1.015200E+08  0.00400  2.268E-03    0   0.7207   age116_m42            0.0000     4.1475E+02     6.3759   1.6421   105.4867
  8      0.0000     0.0000E+00    0.0000E+00    2.861200E+08  0.00400  1.079E-03    0   0.6613   age125_m42            0.0000     4.5907E+02     7.1578   1.1318   108.1185
  9      0.0000     0.0000E+00    0.0000E+00    6.405400E+08  0.00400  5.077E-04    0   0.6197   age132_m42            0.0000     5.1070E+02     7.5741   0.7636   112.4310
 10      3.3433     1.4024E+00    1.5301E+00    9.047900E+08  0.00400  3.535E-04    0   0.6024   age135_m42            0.0000     2.8695E+02     5.8589   0.5338   111.2136
 11     16.3307     1.2678E+01    1.3126E+01    1.434000E+09  0.00400  1.910E-04    0   0.5716   age139_m42            0.0000     1.0075E+02     4.3477  -0.0093   109.6512
 12     56.2856     8.5007E+01    8.4112E+01    2.500000E+09  0.00400  9.818E-05    0   0.5463   age150_m42            0.0000     5.3979E+01     3.3788  -0.2718   104.3258
 13      0.0000     0.0000E+00    0.0000E+00    5.000000E+09  0.00400  4.718E-05    0   0.5228   age161_m42            0.0000     1.1942E+02     4.1283  -0.4269   100.5346
 14      0.0000     0.0000E+00    0.0000E+00    1.100000E+10  0.00400  2.205E-05    0   0.4980   age185_m42            0.0000     2.8424E+02     6.1765  -0.7075    98.4380
 15      0.0000     0.0000E+00    0.0000E+00    1.300000E+10  0.00400  1.883E-05    0   0.4927   age193_m42            0.0000     3.1149E+02     6.4388  -0.7249    98.2645
 16      0.0000     0.0000E+00    0.0000E+00    1.000000E+06  0.02000  1.989E-02    0   1.0000   age020_m62            0.0000     9.2472E+02    14.1567   3.5875    77.8563
 17      0.0000     0.0000E+00    0.0000E+00    3.160000E+06  0.02000  3.772E-02    0   0.9858   age045_m62            0.0000     8.2285E+02    13.5162   3.4368    80.0623
 18      0.0000     0.0000E+00    0.0000E+00    5.010000E+06  0.02000  3.227E-02    0   0.9342   age055_m62            0.0000     3.1096E+02     8.8155   2.8699    88.2614
 19      0.0000     0.0000E+00    0.0000E+00    1.000000E+07  0.02000  1.011E-02    0   0.8751   age070_m62            0.0000     9.4818E+02    15.2750   2.2926    84.1682
 20      0.0000     0.0000E+00    0.0000E+00    2.512000E+07  0.02000  4.206E-03    0   0.8099   age090_m62            0.0000     6.8865E+02    12.8589   2.2011    85.5996
 21      0.0000     0.0000E+00    0.0000E+00    4.000000E+07  0.02000  3.373E-03    0   0.7799   age104_m62            0.0000     1.8795E+02     6.9942   1.9504    95.4966
 22      0.0000     0.0000E+00    0.0000E+00    1.015200E+08  0.02000  1.878E-03    0   0.7221   age116_m62            0.0000     3.4486E+02     5.9880   1.6822   105.4790
 23      0.0000     0.0000E+00    0.0000E+00    2.861200E+08  0.02000  8.869E-04    0   0.6700   age125_m62            0.0000     8.7681E+02     9.8641   1.0930   114.2774
 24      0.0000     0.0000E+00    0.0000E+00    6.405400E+08  0.02000  3.657E-04    0   0.6322   age132_m62            0.0000     5.2557E+02     8.8369   0.3771   118.2049
 25      0.0000     0.0000E+00    0.0000E+00    9.047900E+08  0.02000  2.312E-04    0   0.6152   age135_m62            0.0000     2.5561E+02     6.7972   0.0193   116.3566
 26      0.0000     0.0000E+00    0.0000E+00    1.434000E+09  0.02000  1.168E-04    0   0.5865   age139_m62            0.0000     8.7310E+01     4.3783  -0.3673   109.2327
 27      0.0000     0.0000E+00    0.0000E+00    2.500000E+09  0.02000  5.505E-05    0   0.5610   age150_m62            0.0000     2.0306E+02     5.9185  -0.7493   106.0200
 28      0.0000     0.0000E+00    0.0000E+00    5.000000E+09  0.02000  2.596E-05    0   0.5353   age161_m62            0.0000     5.1835E+02     8.5820  -1.0000   104.3840
 29      0.0000     0.0000E+00    0.0000E+00    1.100000E+10  0.02000  1.169E-05    0   0.5103   age185_m62            0.0000     1.2692E+03    13.8761  -1.0000    98.1344
 30      0.0000     0.0000E+00    0.0000E+00    1.300000E+10  0.02000  9.691E-06    0   0.5047   age193_m62            0.0000     1.4247E+03    14.7962  -1.0000    97.2816
 31      0.0000     0.0000E+00    0.0000E+00    1.000000E+06  0.05000  2.651E-02    0   0.9998   age020_m72            0.0000     8.5613E+02    13.4846   3.5861    78.7773
 32      0.0000     0.0000E+00    0.0000E+00    3.160000E+06  0.05000  4.817E-02    0   0.9577   age045_m72            0.0000     5.7017E+02    11.3152   3.2764    83.5307
 33      0.0000     0.0000E+00    0.0000E+00    5.010000E+06  0.05000  3.101E-02    0   0.9147   age055_m72            0.0000     5.2881E+02    11.1719   2.9060    86.0639
 34      0.0000     0.0000E+00    0.0000E+00    1.000000E+07  0.05000  8.954E-03    0   0.8524   age070_m72            0.0000     5.5380E+02    11.0279   3.1420    84.7963
 35      0.0000     0.0000E+00    0.0000E+00    2.512000E+07  0.05000  4.207E-03    0   0.7902   age090_m72            0.0000     2.5601E+02     7.8023   2.6630    91.0064
 36      0.0000     0.0000E+00    0.0000E+00    4.000000E+07  0.05000  3.198E-03    0   0.7618   age104_m72            0.0000     1.8184E+02     4.6714   2.0687   100.6565
 37      0.0000     0.0000E+00    0.0000E+00    1.015200E+08  0.05000  1.716E-03    0   0.7092   age116_m72            0.0000     4.3567E+02     6.6450   1.7486   106.0688
 38      0.0000     0.0000E+00    0.0000E+00    2.861200E+08  0.05000  7.047E-04    0   0.6618   age125_m72            0.0000     8.3157E+02    10.0347   0.8564   115.1598
 39      0.0000     0.0000E+00    0.0000E+00    6.405400E+08  0.05000  2.633E-04    0   0.6253   age132_m72            0.0000     3.7851E+02     8.0537  -0.0134   117.3898
 40      0.0000     0.0000E+00    0.0000E+00    9.047900E+08  0.05000  1.484E-04    0   0.6088   age135_m72            0.0000     1.6422E+02     6.1901  -0.4800   111.2804
 41      0.0000     0.0000E+00    0.0000E+00    1.434000E+09  0.05000  7.827E-05    0   0.5847   age139_m72            0.0000     2.8720E+02     7.4333  -0.8778   107.2869
 42      0.0000     0.0000E+00    0.0000E+00    2.500000E+09  0.05000  3.759E-05    0   0.5583   age150_m72            0.0000     6.0525E+02     9.1532  -1.0000   102.5699
 43      0.0000     0.0000E+00    0.0000E+00    5.000000E+09  0.05000  1.548E-05    0   0.5320   age161_m72            0.0000     1.5073E+03    15.6198  -1.0000    93.3313
 44      0.0000     0.0000E+00    0.0000E+00    1.100000E+10  0.05000  6.532E-06    0   0.5070   age185_m72            0.0000     2.9062E+03    22.1851  -1.0000    83.9564
 45      0.0000     0.0000E+00    0.0000E+00    1.300000E+10  0.05000  5.316E-06    0   0.5018   age193_m72            0.0000     3.4544E+03    24.1130  -1.0000    81.0410


## Synthesis Results - Average & Chains ##

# j      x_j: min, <> & last-chain-values for 1 ...  7 chains
  1      0.0000      0.0017      0.0042      0.0000      0.0000      0.0000      0.0000      0.0000      0.0000
  2      7.0972      6.6540      6.6482      6.6361      6.6938      6.8353      6.8528      6.7172      6.6069
  3      0.0000      0.0127      0.0180      0.0000      0.0000      0.0000      0.0000      0.0000      0.0041
  4      7.7997      8.2115      8.4243      8.1802      8.2883      8.3091      8.1423      8.2636      8.2879
  5      0.0000      0.0158      0.0000      0.0000      0.0000      0.0000      0.0000      0.0000      0.0000
  6      0.0000      0.0458      0.0000      0.0749      0.0000      0.0000      0.0000      0.0000      0.0000
  7     12.1759     11.2277     11.3046     11.3743     11.3195     11.1321     11.4346     11.2021     11.1715
  8      0.0000      0.1008      0.0000      0.1397      0.0000      0.2044      0.0000      0.4400      0.1768
  9      0.0000      0.0612      0.0000      0.3454      0.0000      0.0000      0.0000      0.0216      0.1016
 10      3.3433      1.8309      2.0211      1.7441      1.6939      1.9948      1.8436      2.2361      2.0082
 11     16.3307     21.1021     20.9827     20.2454     21.0171     21.1884     20.9045     19.7406     20.9612
 12     56.2856     52.7916     53.1550     53.7092     53.5981     52.8155     53.4082     54.1114     52.8347
 13      0.0000      0.3558      0.4752      0.5578      0.1759      0.2673      0.2946      0.2113      0.8046
 14      0.0000      0.0715      0.0000      0.0000      0.0000      0.2579      0.0543      0.0000      0.0000
 15      0.0000      0.0395      0.0000      0.0000      0.0000      0.0000      0.0000      0.0000      0.0000
 16      0.0000      0.0039      0.0000      0.0000      0.0000      0.0000      0.0006      0.0000      0.0000
 17      0.0000      0.0040      0.0000      0.0000      0.0000      0.0000      0.0000      0.0000      0.0000
 18      0.0000      0.0161      0.0000      0.0000      0.0000      0.0000      0.0348      0.0452      0.0887
 19      0.0000      0.0112      0.0000      0.0000      0.0000      0.0000      0.0000      0.0000      0.0000
 20      0.0000      0.0058      0.0000      0.0000      0.0000      0.0000      0.0000      0.0000      0.0000
 21      0.0000      0.0083      0.0018      0.0000      0.0000      0.0000      0.0000      0.0000      0.0000
 22      0.0000      0.0527      0.0000      0.0000      0.0000      0.0000      0.0000      0.0000      0.0348
 23      0.0000      0.0237      0.0000      0.0000      0.0069      0.0000      0.0000      0.0000      0.0000
 24      0.0000      0.0184      0.0000      0.0000      0.0417      0.0000      0.0000      0.0000      0.0000
 25      0.0000      0.0307      0.0177      0.0000      0.0000      0.0136      0.0000      0.0000      0.0250
 26      0.0000      0.0361      0.0000      0.0000      0.0000      0.0000      0.0143      0.0000      0.0000
 27      0.0000      0.0249      0.0000      0.0140      0.0000      0.0000      0.0857      0.0000      0.0000
 28      0.0000      0.0166      0.0000      0.0000      0.0000      0.0000      0.0000      0.0000      0.0000
 29      0.0000      0.0070      0.0000      0.0000      0.0000      0.0000      0.0000      0.0000      0.0000
 30      0.0000      0.0091      0.0000      0.0000      0.0000      0.0000      0.0000      0.0000      0.0084
 31      0.0000      0.0034      0.0000      0.0000      0.0000      0.0000      0.0013      0.0000      0.0000
 32      0.0000      0.0098      0.0000      0.0000      0.0291      0.0000      0.0000      0.0000      0.0027
 33      0.0000      0.0097      0.0000      0.0000      0.0000      0.0000      0.0000      0.0000      0.0000
 34      0.0000      0.0052      0.0000      0.0000      0.0000      0.0000      0.0000      0.0000      0.0000
 35      0.0000      0.0051      0.0000      0.0000      0.0000      0.0000      0.0000      0.0000      0.0000
 36      0.0000      0.0246      0.0000      0.0940      0.0837      0.0000      0.0000      0.0000      0.0000
 37      0.0000      0.0441      0.0000      0.0000      0.0436      0.0000      0.0187      0.0000      0.0000
 38      0.0000      0.0196      0.0000      0.0000      0.0000      0.0000      0.0000      0.0000      0.0000
 39      0.0000      0.0408      0.0000      0.0026      0.0463      0.0639      0.0000      0.0000      0.0000
 40      0.0000      0.0558      0.0092      0.0000      0.0575      0.0000      0.0000      0.0000      0.0000
 41      0.0000      0.0413      0.0000      0.0000      0.0000      0.0000      0.0022      0.0088      0.0000
 42      0.0000      0.0269      0.0000      0.0000      0.0000      0.0000      0.0000      0.0799      0.0000
 43      0.0000      0.0090      0.0000      0.0000      0.0000      0.0000      0.0000      0.0099      0.0000
 44      0.0000      0.0110      0.0000      0.0000      0.0000      0.0000      0.0000      0.0000      0.0000
 45      0.0000      0.0269      0.0000      0.0000      0.0000      0.0073      0.0000      0.0000      0.0000

# j      m_j: min, <> & last-chain-values for 1 ...  7 chains
  1  0.0000E+00  4.1400E-05  1.0237E-04  0.0000E+00  0.0000E+00  0.0000E+00  0.0000E+00  0.0000E+00  0.0000E+00
  2  4.6794E-02  4.3265E-02  4.3909E-02  4.3602E-02  4.4322E-02  4.4775E-02  4.5138E-02  4.4268E-02  4.3357E-02
  3  0.0000E+00  1.2625E-04  1.8155E-04  0.0000E+00  0.0000E+00  0.0000E+00  0.0000E+00  0.0000E+00  4.0710E-05
  4  1.4606E-01  1.5164E-01  1.5803E-01  1.5265E-01  1.5586E-01  1.5459E-01  1.5232E-01  1.5468E-01  1.5447E-01
  5  0.0000E+00  6.7483E-04  0.0000E+00  0.0000E+00  0.0000E+00  0.0000E+00  0.0000E+00  0.0000E+00  0.0000E+00
  6  0.0000E+00  2.7164E-03  0.0000E+00  4.4875E-03  0.0000E+00  0.0000E+00  0.0000E+00  0.0000E+00  0.0000E+00
  7  1.0391E+00  9.4496E-01  9.6644E-01  9.6736E-01  9.7015E-01  9.4391E-01  9.7490E-01  9.5560E-01  9.4894E-01
  8  0.0000E+00  1.6364E-02  0.0000E+00  2.2922E-02  0.0000E+00  3.3434E-02  0.0000E+00  7.2385E-02  2.8967E-02
  9  0.0000E+00  1.9774E-02  0.0000E+00  1.1283E-01  0.0000E+00  0.0000E+00  0.0000E+00  7.0681E-03  3.3135E-02
 10  1.5301E+00  8.2637E-01  9.2658E-01  7.9545E-01  7.7855E-01  9.0706E-01  8.4294E-01  1.0229E+00  9.1480E-01
 11  1.3126E+01  1.6726E+01  1.6894E+01  1.6216E+01  1.6964E+01  1.6920E+01  1.6785E+01  1.5859E+01  1.6768E+01
 12  8.4112E+01  7.7801E+01  7.9571E+01  7.9985E+01  8.0437E+01  7.8417E+01  7.9734E+01  8.0828E+01  7.8586E+01
 13  0.0000E+00  1.0443E+00  1.4166E+00  1.6542E+00  5.2585E-01  7.9040E-01  8.7581E-01  6.2852E-01  2.3833E+00
 14  0.0000E+00  4.2793E-01  0.0000E+00  0.0000E+00  0.0000E+00  1.5541E+00  3.2919E-01  0.0000E+00  0.0000E+00
 15  0.0000E+00  2.7361E-01  0.0000E+00  0.0000E+00  0.0000E+00  0.0000E+00  0.0000E+00  0.0000E+00  0.0000E+00
 16  0.0000E+00  5.1890E-05  0.0000E+00  0.0000E+00  0.0000E+00  0.0000E+00  8.2281E-06  0.0000E+00  0.0000E+00
 17  0.0000E+00  2.7800E-05  0.0000E+00  0.0000E+00  0.0000E+00  0.0000E+00  0.0000E+00  0.0000E+00  0.0000E+00
 18  0.0000E+00  1.2354E-04  0.0000E+00  0.0000E+00  0.0000E+00  0.0000E+00  2.7003E-04  3.5146E-04  6.8659E-04
 19  0.0000E+00  2.5695E-04  0.0000E+00  0.0000E+00  0.0000E+00  0.0000E+00  0.0000E+00  0.0000E+00  0.0000E+00
 20  0.0000E+00  2.9804E-04  0.0000E+00  0.0000E+00  0.0000E+00  0.0000E+00  0.0000E+00  0.0000E+00  0.0000E+00
 21  0.0000E+00  5.0905E-04  1.1247E-04  0.0000E+00  0.0000E+00  0.0000E+00  0.0000E+00  0.0000E+00  0.0000E+00
 22  0.0000E+00  5.3688E-03  0.0000E+00  0.0000E+00  0.0000E+00  0.0000E+00  0.0000E+00  0.0000E+00  3.5791E-03
 23  0.0000E+00  4.7466E-03  0.0000E+00  0.0000E+00  1.4034E-03  0.0000E+00  0.0000E+00  0.0000E+00  0.0000E+00
 24  0.0000E+00  8.4141E-03  0.0000E+00  0.0000E+00  1.9442E-02  0.0000E+00  0.0000E+00  0.0000E+00  0.0000E+00
 25  0.0000E+00  2.1649E-02  1.2653E-02  0.0000E+00  0.0000E+00  9.6893E-03  0.0000E+00  0.0000E+00  1.7797E-02
 26  0.0000E+00  4.8056E-02  0.0000E+00  0.0000E+00  0.0000E+00  0.0000E+00  1.9264E-02  0.0000E+00  0.0000E+00
 27  0.0000E+00  6.7293E-02  0.0000E+00  3.8113E-02  0.0000E+00  0.0000E+00  2.3436E-01  0.0000E+00  0.0000E+00
 28  0.0000E+00  9.0618E-02  0.0000E+00  0.0000E+00  0.0000E+00  0.0000E+00  0.0000E+00  0.0000E+00  0.0000E+00
 29  0.0000E+00  8.1413E-02  0.0000E+00  0.0000E+00  0.0000E+00  0.0000E+00  0.0000E+00  0.0000E+00  0.0000E+00
 30  0.0000E+00  1.2552E-01  0.0000E+00  0.0000E+00  0.0000E+00  0.0000E+00  0.0000E+00  0.0000E+00  1.1671E-01
 31  0.0000E+00  3.3994E-05  0.0000E+00  0.0000E+00  0.0000E+00  0.0000E+00  1.3070E-05  0.0000E+00  0.0000E+00
 32  0.0000E+00  5.1628E-05  0.0000E+00  0.0000E+00  1.5581E-04  0.0000E+00  0.0000E+00  0.0000E+00  1.4167E-05
 33  0.0000E+00  7.5948E-05  0.0000E+00  0.0000E+00  0.0000E+00  0.0000E+00  0.0000E+00  0.0000E+00  0.0000E+00
 34  0.0000E+00  1.3175E-04  0.0000E+00  0.0000E+00  0.0000E+00  0.0000E+00  0.0000E+00  0.0000E+00  0.0000E+00
 35  0.0000E+00  2.5202E-04  0.0000E+00  0.0000E+00  0.0000E+00  0.0000E+00  0.0000E+00  0.0000E+00  0.0000E+00
 36  0.0000E+00  1.5513E-03  0.0000E+00  5.9930E-03  5.3752E-03  0.0000E+00  0.0000E+00  0.0000E+00  0.0000E+00
 37  0.0000E+00  4.8222E-03  0.0000E+00  0.0000E+00  4.8620E-03  0.0000E+00  2.0786E-03  0.0000E+00  0.0000E+00
 38  0.0000E+00  4.8714E-03  0.0000E+00  0.0000E+00  0.0000E+00  0.0000E+00  0.0000E+00  0.0000E+00  0.0000E+00
 39  0.0000E+00  2.5662E-02  0.0000E+00  1.6564E-03  2.9668E-02  4.0523E-02  0.0000E+00  0.0000E+00  0.0000E+00
 40  0.0000E+00  6.0659E-02  1.0163E-02  0.0000E+00  6.3613E-02  0.0000E+00  0.0000E+00  0.0000E+00  0.0000E+00
 41  0.0000E+00  8.1716E-02  0.0000E+00  0.0000E+00  0.0000E+00  0.0000E+00  4.3369E-03  1.7564E-02  0.0000E+00
 42  0.0000E+00  1.0567E-01  0.0000E+00  0.0000E+00  0.0000E+00  0.0000E+00  0.0000E+00  3.1860E-01  0.0000E+00
 43  0.0000E+00  8.2176E-02  0.0000E+00  0.0000E+00  0.0000E+00  0.0000E+00  0.0000E+00  9.0901E-02  0.0000E+00
 44  0.0000E+00  2.2580E-01  0.0000E+00  0.0000E+00  0.0000E+00  0.0000E+00  0.0000E+00  0.0000E+00  0.0000E+00
 45  0.0000E+00  6.7363E-01  0.0000E+00  0.0000E+00  0.0000E+00  1.8460E-01  0.0000E+00  0.0000E+00  0.0000E+00

# AV, chi2 & Mass for <> & i_chain = 1 ...  7 solutions
AV       0.2821      0.2724      0.2762      0.2729      0.2752      0.2762      0.2741      0.2749      0.2737
chi2 2.8990E+00  2.9444E+00  2.9276E+00  2.9329E+00  2.9319E+00  2.9307E+00  2.9270E+00  2.9278E+00  2.9353E+00
Mass 2.7342E-10  2.7367E-10  2.7081E-10  2.7101E-10  2.6976E-10  2.7302E-10  2.7078E-10  2.7091E-10  2.7164E-10
  -8.53                                  [v0_min (km/s) before EX0s...]
  85.23                                  [vd_min (km/s) before EX0s...]


## Synthetic spectrum (Best Model) ##l_obs f_obs f_syn wei
 3070    [Nl_obs]
 3359.00    0.15448   0.51804   -1.000
 3360.00    0.27405   0.49889   -1.000
 3361.00    0.27348   0.49780   -1.000
 3362.00    0.28661   0.51593   -1.000
 3363.00    0.31002   0.54240   -1.000
 3364.00    0.33095   0.56202   -1.000
 3365.00    0.34387   0.56492   -1.000
 3366.00    0.34780   0.55140   -1.000
 3367.00    0.34238   0.53071   -1.000
 3368.00    0.33999   0.51400   -1.000
 3369.00    0.33587   0.50577   -1.000
 3370.00    0.32856   0.50282   -1.000
 3371.00    0.32691   0.50035   -1.000
 3372.00    0.33144   0.50058   -1.000
 3373.00    0.34460   0.51099   -1.000
 3374.00    0.36061   0.53347   -1.000
 3375.00    0.37355   0.55967   -1.000
 3376.00    0.39041   0.57468   -1.000
 3377.00    0.40531   0.56981   -1.000
 3378.00    0.41251   0.55038   -1.000
 3379.00    0.40490   0.53041   -1.000
 3380.00    0.39434   0.52267   -1.000
 3381.00    0.39673   0.52986   -1.000
 3382.00    0.40255   0.54529   -1.000
 3383.00    0.40746   0.56008   -1.000
 3384.00    0.41402   0.57132   -1.000
 3385.00    0.42115   0.58031   -1.000
 3386.00    0.42824   0.58582   -1.000
 3387.00    0.43389   0.58630   -1.000
 3388.00    0.43499   0.58367   -1.000
 3389.00    0.43897   0.58017   -1.000
 3390.00    0.44420   0.57491   -1.000
 3391.00    0.44754   0.56605   -1.000
 3392.00    0.44568   0.55609   -1.000
 3393.00    0.44080   0.55243   -1.000
 3394.00    0.44988   0.56033   -1.000
 3395.00    0.46213   0.57747   -1.000
 3396.00    0.46931   0.59689   -1.000
 3397.00    0.48714   0.61225   -1.000
 3398.00    0.50456   0.61994   -1.000
 3399.00    0.51018   0.61843   -1.000
 3400.00    0.50922   0.60865   -1.000
 3401.00    0.50545   0.59382   -1.000
 3402.00    0.49006   0.57846   -1.000
 3403.00    0.47735   0.56753   -1.000
 3404.00    0.47352   0.56265   -1.000
 3405.00    0.47139   0.55968   -1.000
 3406.00    0.46822   0.55417   -1.000
 3407.00    0.46361   0.54721   -1.000
 3408.00    0.46384   0.54458   -1.000
 3409.00    0.46103   0.54985   -1.000
 3410.00    0.45908   0.55893   -1.000
 3411.00    0.46697   0.56413   -1.000
 3412.00    0.47159   0.56207   -1.000
 3413.00    0.46901   0.55638   -1.000
 3414.00    0.46625   0.55343   -1.000
 3415.00    0.46804   0.55685   -1.000
 3416.00    0.47663   0.56688   -1.000
 3417.00    0.49504   0.58138   -1.000
 3418.00    0.50331   0.59682   -1.000
 3419.00    0.50836   0.60850   -1.000
 3420.00    0.51692   0.61222   -1.000
 3421.00    0.52066   0.60785   -1.000
 3422.00    0.51511   0.59979   -1.000
 3423.00    0.50653   0.59236   -1.000
 3424.00    0.50784   0.58773   -1.000
 3425.00    0.51119   0.58694   -1.000
 3426.00    0.51546   0.59139   -1.000
 3427.00    0.52182   0.60267   -1.000
 3428.00    0.52802   0.61813   -1.000
 3429.00    0.53337   0.62896   -1.000
 3430.00    0.54022   0.62806   -1.000
 3431.00    0.54554   0.61667   -1.000
 3432.00    0.53854   0.60313   -1.000
 3433.00    0.52789   0.59569   -1.000
 3434.00    0.52605   0.59618   -1.000
 3435.00    0.53305   0.60023   -1.000
 3436.00    0.53741   0.60111   -1.000
 3437.00    0.53288   0.59446   -1.000
 3438.00    0.51867   0.57911   -1.000
 3439.00    0.50434   0.55660   58.911
 3440.00    0.48994   0.53215   62.310
 3441.00    0.47525   0.51429   63.430
 3442.00    0.46908   0.50888   63.307
 3443.00    0.47455   0.51443   61.726
 3444.00    0.48750   0.52558   58.716
 3445.00    0.50588   0.54004   55.472
 3446.00    0.52225   0.55889   53.066
 3447.00    0.53687   0.58138   -1.000
 3448.00    0.54731   0.60184   -1.000
 3449.00    0.55296   0.61220   -1.000
 3450.00    0.55353   0.60789   -1.000
 3451.00    0.55234   0.59197   -1.000
 3452.00    0.55107   0.57383   -1.000
 3453.00    0.54802   0.56375   -1.000
 3454.00    0.54410   0.56479   -1.000
 3455.00    0.55651   0.57127   -1.000
 3456.00    0.57090   0.57417  399.090
 3457.00    0.56575   0.56878  399.090
 3458.00    0.55492   0.55774   83.081
 3459.00    0.54692   0.54611   51.356
 3460.00    0.54190   0.53850   51.456
 3461.00    0.53928   0.53979  104.679
 3462.00    0.54373   0.55079  399.090
 3463.00    0.55811   0.56431  399.090
 3464.00    0.57015   0.57266  399.090
 3465.00    0.57475   0.57542  399.090
 3466.00    0.57478   0.57730  399.090
 3467.00    0.57361   0.58198   -1.000
 3468.00    0.57931   0.58864   -1.000
 3469.00    0.58758   0.59431  399.090
 3470.00    0.59309   0.59628  399.090
 3471.00    0.58902   0.59246  399.090
 3472.00    0.57860   0.58193  399.090
 3473.00    0.56826   0.56540  399.090
 3474.00    0.55366   0.54663   83.389
 3475.00    0.53240   0.53325   52.485
 3476.00    0.52408   0.53210   52.643
 3477.00    0.53541   0.54297  106.364
 3478.00    0.55820   0.55896  399.090
 3479.00    0.58035   0.57258   -1.000
 3480.00    0.59379   0.57953   -1.000
 3481.00    0.59811   0.57917   -1.000
 3482.00    0.59482   0.57385   -1.000
 3483.00    0.59078   0.56875   -1.000
 3484.00    0.58655   0.57019   -1.000
 3485.00    0.58776   0.58052   -1.000
 3486.00    0.60143   0.59328   -1.000
 3487.00    0.61016   0.59714   -1.000
 3488.00    0.59923   0.58756   -1.000
 3489.00    0.58181   0.57089   -1.000
 3490.00    0.56590   0.55857   -1.000
 3491.00    0.56020   0.55646  399.090
 3492.00    0.56615   0.56011  399.090
 3493.00    0.57056   0.56110   -1.000
 3494.00    0.57048   0.55538   -1.000
 3495.00    0.56525   0.54686   -1.000
 3496.00    0.55689   0.54434   -1.000
 3497.00    0.55397   0.55393  399.090
 3498.00    0.56977   0.57115  399.090
 3499.00    0.59211   0.58461   -1.000
 3500.00    0.60933   0.58977   -1.000
 3501.00    0.61072   0.59118   -1.000
 3502.00    0.60684   0.59354   -1.000
 3503.00    0.61073   0.59508   -1.000
 3504.00    0.61046   0.59125   -1.000
 3505.00    0.60758   0.58365   -1.000
 3506.00    0.60010   0.57835   -1.000
 3507.00    0.59756   0.57751   -1.000
 3508.00    0.60180   0.57783   -1.000
 3509.00    0.59803   0.57518   -1.000
 3510.00    0.59095   0.56900   -1.000
 3511.00    0.58421   0.56147   -1.000
 3512.00    0.57753   0.55403   -1.000
 3513.00    0.57348   0.54913   -1.000
 3514.00    0.56978   0.55216   -1.000
 3515.00    0.57080   0.56535  399.090
 3516.00    0.58638   0.58409  399.090
 3517.00    0.60575   0.59954  399.090
 3518.00    0.60981   0.60407  399.090
 3519.00    0.60235   0.59639  399.090
 3520.00    0.58775   0.58138  399.090
 3521.00    0.57341   0.56578   -1.000
 3522.00    0.56503   0.55191   -1.000
 3523.00    0.55794   0.53872   81.815
 3524.00    0.54316   0.52782   51.997
 3525.00    0.53519   0.52445   52.576
 3526.00    0.53512   0.53329  108.692
 3527.00    0.54438   0.55258   -1.000
 3528.00    0.56500   0.57380   -1.000
 3529.00    0.59109   0.58814  399.090
 3530.00    0.59990   0.59269  399.090
 3531.00    0.59643   0.59157  399.090
 3532.00    0.59558   0.59113  399.090
 3533.00    0.59675   0.59444  399.090
 3534.00    0.59792   0.59976  399.090
 3535.00    0.59991   0.60429  399.090
 3536.00    0.60027   0.60779   -1.000
 3537.00    0.60273   0.61213   -1.000
 3538.00    0.60990   0.61773   -1.000
 3539.00    0.61743   0.62148  399.090
 3540.00    0.61865   0.62072  399.090
 3541.00    0.61163   0.61823  399.090
 3542.00    0.60695   0.61881   -1.000
 3543.00    0.60867   0.62311   -1.000
 3544.00    0.61628   0.62753   -1.000
 3545.00    0.61583   0.62838   -1.000
 3546.00    0.60832   0.62625   -1.000
 3547.00    0.60410   0.62452   -1.000
 3548.00    0.60244   0.62525   -1.000
 3549.00    0.60556   0.62738   -1.000
 3550.00    0.60973   0.62812   -1.000
 3551.00    0.60436   0.62543   -1.000
 3552.00    0.59106   0.61954   -1.000
 3553.00    0.58301   0.61340   -1.000
 3554.00    0.57894   0.60998   -1.000
 3555.00    0.57862   0.60960   -1.000
 3556.00    0.58123   0.61004   -1.000
 3557.00    0.58485   0.60863   -1.000
 3558.00    0.58301   0.60545   -1.000
 3559.00    0.58118   0.60412   -1.000
 3560.00    0.58609   0.60857   -1.000
 3561.00    0.58927   0.61723   -1.000
 3562.00    0.59198   0.62145   -1.000
 3563.00    0.59290   0.61119   -1.000
 3564.00    0.57500   0.58665   81.549
 3565.00    0.54371   0.56163   52.682
 3566.00    0.52781   0.54793   53.198
 3567.00    0.52700   0.54407   52.760
 3568.00    0.53092   0.54060   53.699
 3569.00    0.52727   0.53253   55.048
 3570.00    0.51650   0.52534   54.409
 3571.00    0.51730   0.52593   52.247
 3572.00    0.52630   0.53309  108.174
 3573.00    0.53566   0.54050  399.090
 3574.00    0.54568   0.54442  399.090
 3575.00    0.54997   0.54621  399.090
 3576.00    0.55276   0.54785  399.090
 3577.00    0.55412   0.54755  399.090
 3578.00    0.55075   0.54086   84.186
 3579.00    0.54332   0.52676   55.619
 3580.00    0.52475   0.51106   59.260
 3581.00    0.50882   0.50095   60.802
 3582.00    0.50374   0.49808   61.096
 3583.00    0.51012   0.49744   62.113
 3584.00    0.50788   0.49271   63.978
 3585.00    0.49013   0.48472   65.378
 3586.00    0.48214   0.48028   63.716
 3587.00    0.48381   0.48454   60.365
 3588.00    0.49474   0.49829   57.328
 3589.00    0.51255   0.51888   53.092
 3590.00    0.53234   0.54114  107.910
 3591.00    0.55412   0.55901  399.090
 3592.00    0.56893   0.56924  399.090
 3593.00    0.56991   0.57388  399.090
 3594.00    0.57310   0.57877  399.090
 3595.00    0.58008   0.58792   -1.000
 3596.00    0.58729   0.60007   -1.000
 3597.00    0.59455   0.61176   -1.000
 3598.00    0.59972   0.62007   -1.000
 3599.00    0.60904   0.62217   -1.000
 3600.00    0.61251   0.61558  397.805
 3601.00    0.60196   0.60039  399.090
 3602.00    0.58353   0.58126  399.090
 3603.00    0.56576   0.56557  399.090
 3604.00    0.56043   0.55871  399.090
 3605.00    0.56471   0.55959  399.090
 3606.00    0.56761   0.56129  399.090
 3607.00    0.56477   0.55784   -1.000
 3608.00    0.55300   0.55013  399.090
 3609.00    0.54283   0.54562  399.090
 3610.00    0.54405   0.54909  399.090
 3611.00    0.55573   0.55708  399.090
 3612.00    0.56064   0.56496  399.090
 3613.00    0.56001   0.57257   -1.000
 3614.00    0.56922   0.58115   -1.000
 3615.00    0.58234   0.58715  399.090
 3616.00    0.58449   0.58216  399.090
 3617.00    0.56807   0.56537  399.090
 3618.00    0.54226   0.54951   79.690
 3619.00    0.53277   0.54744  108.170
 3620.00    0.54920   0.56005   -1.000
 3621.00    0.57458   0.57813  399.090
 3622.00    0.59360   0.59297  399.090
 3623.00    0.59941   0.60346  396.799
 3624.00    0.59777   0.61486   -1.000
 3625.00    0.60514   0.63104   -1.000
 3626.00    0.62106   0.64848   -1.000
 3627.00    0.63166   0.65807   -1.000
 3628.00    0.63087   0.65049   -1.000
 3629.00    0.61328   0.62460   -1.000
 3630.00    0.57991   0.59133   -1.000
 3631.00    0.55189   0.56675   -1.000
 3632.00    0.54417   0.56026   -1.000
 3633.00    0.55230   0.56856   -1.000
 3634.00    0.56731   0.58116   -1.000
 3635.00    0.57932   0.59037   -1.000
 3636.00    0.59186   0.59710  399.090
 3637.00    0.60263   0.60640  387.876
 3638.00    0.61229   0.61965   -1.000
 3639.00    0.62034   0.63183   -1.000
 3640.00    0.62281   0.63542   -1.000
 3641.00    0.61574   0.62750   -1.000
 3642.00    0.60278   0.61178   -1.000
 3643.00    0.58916   0.59556  399.090
 3644.00    0.57695   0.58441  399.090
 3645.00    0.57335   0.57827  399.090
 3646.00    0.57531   0.57430  399.090
 3647.00    0.56910   0.57188  399.090
 3648.00    0.56491   0.57277  399.090
 3649.00    0.57032   0.57881   -1.000
 3650.00    0.58201   0.59042   -1.000
 3651.00    0.59335   0.60562   -1.000
 3652.00    0.60658   0.62069   -1.000
 3653.00    0.61640   0.63257   -1.000
 3654.00    0.62425   0.64056   -1.000
 3655.00    0.62925   0.64704   -1.000
 3656.00    0.63462   0.65418   -1.000
 3657.00    0.63990   0.66080   -1.000
 3658.00    0.64091   0.66431   -1.000
 3659.00    0.64264   0.66343   -1.000
 3660.00    0.64072   0.65854   -1.000
 3661.00    0.63697   0.65109   -1.000
 3662.00    0.62779   0.64308   -1.000
 3663.00    0.62110   0.63699   -1.000
 3664.00    0.62473   0.63461   -1.000
 3665.00    0.63327   0.63470  361.950
 3666.00    0.63135   0.63371  366.771
 3667.00    0.62591   0.62891  372.316
 3668.00    0.61652   0.62265  379.537
 3669.00    0.60613   0.62136   -1.000
 3670.00    0.60830   0.62790   -1.000
 3671.00    0.62193   0.63868   -1.000
 3672.00    0.63017   0.64701   -1.000
 3673.00    0.63409   0.64883   -1.000
 3674.00    0.63662   0.64428   -1.000
 3675.00    0.63324   0.63479  365.236
 3676.00    0.62512   0.62231  376.711
 3677.00    0.61323   0.60944  388.266
 3678.00    0.60050   0.59925  398.891
 3679.00    0.58926   0.59422  399.090
 3680.00    0.58885   0.59496  394.988
 3681.00    0.59911   0.59999  383.876
 3682.00    0.60640   0.60586  377.431
 3683.00    0.60734   0.60782  381.791
 3684.00    0.60418   0.60187  395.144
 3685.00    0.59376   0.58928  399.090
 3686.00    0.58271   0.57813  399.090
 3687.00    0.57954   0.57748  399.090
 3688.00    0.58822   0.59004  395.831
 3689.00    0.60838   0.61031  369.451
 3690.00    0.62615   0.62885  353.285
 3691.00    0.63381   0.63894  350.958
 3692.00    0.63951   0.64147  358.120
 3693.00    0.64557   0.64076  365.035
 3694.00    0.64450   0.63844  365.883
 3695.00    0.63755   0.63460  363.186
 3696.00    0.63005   0.63268  359.178
 3697.00    0.63200   0.63916  350.094
 3698.00    0.64802   0.65607   -1.000
 3699.00    0.67161   0.67535  334.101
 3700.00    0.68159   0.68319  336.384
 3701.00    0.67304   0.66967  348.487
 3702.00    0.64417   0.63617  374.987
 3703.00    0.60282   0.59536   -1.000
 3704.00    0.57128   0.56373   -1.000
 3705.00    0.56391   0.55184   -1.000
 3706.00    0.57458   0.55759   -1.000
 3707.00    0.59083   0.57082   -1.000
 3708.00    0.60218   0.58181   -1.000
 3709.00    0.60808   0.58615   -1.000
 3710.00    0.60489   0.58734   -1.000
 3711.00    0.60367   0.59466  363.711
 3712.00    0.61475   0.61431  345.034
 3713.00    0.64342   0.64326  333.559
 3714.00    0.68050   0.67226  329.869
 3715.00    0.70315   0.69187   -1.000
 3716.00    0.71107   0.69570   -1.000
 3717.00    0.69935   0.67998   -1.000
 3718.00    0.66389   0.64299   -1.000
 3719.00    0.60944   0.59115   -1.000
 3720.00    0.55224   0.54249   79.381
 3721.00    0.51886   0.51708  113.902
 3722.00    0.52392   0.52515  399.090
 3723.00    0.56575   0.56183  398.875
 3724.00    0.62369   0.60901   -1.000
 3725.00    0.66974   0.64582   -1.000
 3726.00    0.68400   0.66521   -1.000
 3727.00    0.67905   0.67483  384.947
 3728.00    0.67798   0.68125  382.023
 3729.00    0.68211   0.68067  382.028
 3730.00    0.67327   0.66273   -1.000
 3731.00    0.64450   0.62197   -1.000
 3732.00    0.59483   0.56547   77.236
 3733.00    0.53419   0.51017   54.390
 3734.00    0.48856   0.47432   58.212
 3735.00    0.47758   0.46948   57.156
 3736.00    0.50034   0.49643   52.648
 3737.00    0.54800   0.54677  111.415
 3738.00    0.60933   0.60680  399.090
 3739.00    0.66192   0.66066  388.578
 3740.00    0.69557   0.69587  378.871
 3741.00    0.70679   0.70790  387.434
 3742.00    0.69878   0.69953  399.090
 3743.00    0.67932   0.67746  399.090
 3744.00    0.65166   0.64857  399.090
 3745.00    0.62540   0.61626   -1.000
 3746.00    0.59867   0.57984   78.499
 3747.00    0.56481   0.53824   53.508
 3748.00    0.51962   0.49875   55.196
 3749.00    0.48646   0.47805  122.587
 3750.00    0.50101   0.48947   -1.000
 3751.00    0.55262   0.53181   -1.000
 3752.00    0.61568   0.59153   -1.000
 3753.00    0.67244   0.65181   -1.000
 3754.00    0.71792   0.69865   -1.000
 3755.00    0.74688   0.72172   -1.000
 3756.00    0.74254   0.71798   -1.000
 3757.00    0.71047   0.69699   -1.000
 3758.00    0.67863   0.67612  399.090
 3759.00    0.67235   0.66826  399.090
 3760.00    0.68826   0.67379   -1.000
 3761.00    0.70743   0.68490   -1.000
 3762.00    0.71655   0.69449   -1.000
 3763.00    0.71487   0.69822   -1.000
 3764.00    0.71249   0.69266   -1.000
 3765.00    0.70292   0.67633   -1.000
 3766.00    0.68245   0.65086   -1.000
 3767.00    0.65726   0.61950   -1.000
 3768.00    0.63157   0.58622   -1.000
 3769.00    0.60142   0.55807   -1.000
 3770.00    0.57927   0.54589   -1.000
 3771.00    0.58896   0.55814   -1.000
 3772.00    0.63006   0.59131   -1.000
 3773.00    0.67525   0.63163   -1.000
 3774.00    0.70148   0.66777   -1.000
 3775.00    0.72142   0.69744   -1.000
 3776.00    0.74442   0.72404   -1.000
 3777.00    0.76532   0.75081   -1.000
 3778.00    0.78751   0.77788   -1.000
 3779.00    0.80637   0.80254  328.177
 3780.00    0.82100   0.82164  324.017
 3781.00    0.83182   0.83395  322.012
 3782.00    0.83631   0.83969  321.418
 3783.00    0.83808   0.83796  326.211
 3784.00    0.83540   0.82612   -1.000
 3785.00    0.81702   0.80390   -1.000
 3786.00    0.78604   0.77714   -1.000
 3787.00    0.76367   0.75412   -1.000
 3788.00    0.75664   0.73942   -1.000
 3789.00    0.75479   0.73199   -1.000
 3790.00    0.74848   0.72673   -1.000
 3791.00    0.73810   0.71658   -1.000
 3792.00    0.72165   0.69614   -1.000
 3793.00    0.69213   0.66434   -1.000
 3794.00    0.65737   0.62375   -1.000
 3795.00    0.61998   0.57860   -1.000
 3796.00    0.57854   0.53466   -1.000
 3797.00    0.54143   0.50266   -1.000
 3798.00    0.52735   0.49764   -1.000
 3799.00    0.55586   0.52666   -1.000
 3800.00    0.61400   0.58131   -1.000
 3801.00    0.67515   0.64403   -1.000
 3802.00    0.72291   0.69889   -1.000
 3803.00    0.75558   0.73747   -1.000
 3804.00    0.77517   0.75831   -1.000
 3805.00    0.78245   0.76521   -1.000
 3806.00    0.77657   0.76811   -1.000
 3807.00    0.78067   0.77837  377.916
 3808.00    0.80199   0.79919  364.700
 3809.00    0.82395   0.82322  356.959
 3810.00    0.83551   0.83794  360.076
 3811.00    0.83254   0.83381  375.140
 3812.00    0.81238   0.81088  397.551
 3813.00    0.78546   0.77975  399.090
 3814.00    0.76557   0.75540   -1.000
 3815.00    0.75367   0.74793  399.090
 3816.00    0.76201   0.75436   -1.000
 3817.00    0.78296   0.76122   -1.000
 3818.00    0.78387   0.75694   -1.000
 3819.00    0.75687   0.74185   -1.000
 3820.00    0.73249   0.72752  399.090
 3821.00    0.73875   0.72234   -1.000
 3822.00    0.75500   0.72063   -1.000
 3823.00    0.74929   0.71102   -1.000
 3824.00    0.72203   0.69054   79.699
 3825.00    0.69169   0.66706   53.938
 3826.00    0.67480   0.64940   54.044
 3827.00    0.66925   0.63885   53.299
 3828.00    0.66430   0.63014   52.423
 3829.00    0.65730   0.61663   52.535
 3830.00    0.64320   0.59353   54.318
 3831.00    0.61061   0.55944   -1.000
 3832.00    0.56702   0.51755   -1.000
 3833.00    0.52564   0.47615   -1.000
 3834.00    0.49723   0.44642   -1.000
 3835.00    0.48985   0.43618   -1.000
 3836.00    0.50430   0.44561   -1.000
 3837.00    0.52699   0.46885   -1.000
 3838.00    0.55156   0.50026   -1.000
 3839.00    0.58112   0.53866   55.903
 3840.00    0.61488   0.58416   -1.000
 3841.00    0.65915   0.63382   -1.000
 3842.00    0.71024   0.68120   -1.000
 3843.00    0.75289   0.71978   -1.000
 3844.00    0.77819   0.74765   -1.000
 3845.00    0.78690   0.76808   -1.000
 3846.00    0.79351   0.78453   -1.000
 3847.00    0.80009   0.79592  399.090
 3848.00    0.79942   0.80048  399.090
 3849.00    0.79017   0.80150   -1.000
 3850.00    0.78606   0.80503   -1.000
 3851.00    0.79832   0.81338   -1.000
 3852.00    0.81590   0.82199  399.090
 3853.00    0.82371   0.82403  399.090
 3854.00    0.81874   0.81797  399.090
 3855.00    0.80544   0.80714  399.090
 3856.00    0.79200   0.79456  399.090
 3857.00    0.78267   0.78177   74.927
 3858.00    0.76732   0.77149   52.407
 3859.00    0.74893   0.76964   52.804
 3860.00    0.74981   0.78031   -1.000
 3861.00    0.78011   0.80025   -1.000
 3862.00    0.81905   0.81948  399.090
 3863.00    0.84309   0.82954   -1.000
 3864.00    0.84802   0.83047   -1.000
 3865.00    0.83959   0.82786   -1.000
 3866.00    0.83009   0.82616  399.090
 3867.00    0.82611   0.82563  399.090
 3868.00    0.82637   0.82225  399.090
 3869.00    0.81359   0.81116  399.090
 3870.00    0.79048   0.79157   75.827
 3871.00    0.76958   0.77049  118.900
 3872.00    0.75479   0.75870  399.090
 3873.00    0.76152   0.76270  399.090
 3874.00    0.78606   0.77692   -1.000
 3875.00    0.80404   0.78621   -1.000
 3876.00    0.79590   0.77990   -1.000
 3877.00    0.76446   0.76164  399.090
 3878.00    0.73617   0.74376  399.090
 3879.00    0.72868   0.73342  399.090
 3880.00    0.73022   0.72732  399.090
 3881.00    0.72031   0.71893  399.090
 3882.00    0.70750   0.70514  399.090
 3883.00    0.69930   0.68509   -1.000
 3884.00    0.68924   0.65621   -1.000
 3885.00    0.65839   0.61564   -1.000
 3886.00    0.61748   0.56767   -1.000
 3887.00    0.57613   0.52456   -1.000
 3888.00    0.54329   0.50118   -1.000
 3889.00    0.54428   0.50716   -1.000
 3890.00    0.58711   0.54126   -1.000
 3891.00    0.64836   0.59005   -1.000
 3892.00    0.69405   0.63614   -1.000
 3893.00    0.71952   0.67024   -1.000
 3894.00    0.73018   0.69484   -1.000
 3895.00    0.74278   0.71691   -1.000
 3896.00    0.76442   0.73832   -1.000
 3897.00    0.78501   0.75564   -1.000
 3898.00    0.79024   0.76764   -1.000
 3899.00    0.78822   0.77815   -1.000
 3900.00    0.79982   0.79024   -1.000
 3901.00    0.81412   0.80167   -1.000
 3902.00    0.82216   0.80708   -1.000
 3903.00    0.82343   0.80420   -1.000
 3904.00    0.81817   0.79778   -1.000
 3905.00    0.80439   0.79662   -1.000
 3906.00    0.80224   0.80746  353.180
 3907.00    0.82332   0.83056  330.153
 3908.00    0.85460   0.85835  317.412
 3909.00    0.87537   0.88135  313.092
 3910.00    0.88827   0.89495  310.198
 3911.00    0.89515   0.89925  307.976
 3912.00    0.88986   0.89612  309.771
 3913.00    0.87401   0.88859   -1.000
 3914.00    0.86343   0.88019   -1.000
 3915.00    0.86403   0.87330   -1.000
 3916.00    0.86230   0.86773  332.084
 3917.00    0.85638   0.86112  340.014
 3918.00    0.84723   0.85177  353.409
 3919.00    0.83334   0.84089  370.001
 3920.00    0.82125   0.83268   -1.000
 3921.00    0.81562   0.83076   -1.000
 3922.00    0.81732   0.83413   -1.000
 3923.00    0.82161   0.83669   -1.000
 3924.00    0.82145   0.83101   -1.000
 3925.00    0.80698   0.81293  399.090
 3926.00    0.77370   0.78224   -1.000
 3927.00    0.73354   0.74136   82.097
 3928.00    0.68785   0.69307   62.279
 3929.00    0.63171   0.63815   72.928
 3930.00    0.56960   0.57679   85.938
 3931.00    0.49733   0.51239  100.989
 3932.00    0.42005   0.45631   -1.000
 3933.00    0.37034   0.42586   -1.000
 3934.00    0.37464   0.43372   -1.000
 3935.00    0.43133   0.47765   -1.000
 3936.00    0.51262   0.54315   70.081
 3937.00    0.59337   0.61320   58.489
 3938.00    0.65859   0.67626  129.655
 3939.00    0.70731   0.72669   -1.000
 3940.00    0.74361   0.76182   -1.000
 3941.00    0.76684   0.78169   -1.000
 3942.00    0.77667   0.79030   -1.000
 3943.00    0.78112   0.79468   -1.000
 3944.00    0.79091   0.80155   -1.000
 3945.00    0.81463   0.81269  357.754
 3946.00    0.83772   0.82403   -1.000
 3947.00    0.84094   0.83181   -1.000
 3948.00    0.83800   0.83680  336.105
 3949.00    0.84395   0.84064  324.564
 3950.00    0.85287   0.84279   -1.000
 3951.00    0.85426   0.84334   -1.000
 3952.00    0.84992   0.84447  323.513
 3953.00    0.85483   0.84666  316.078
 3954.00    0.86499   0.84581   -1.000
 3955.00    0.85440   0.83831   -1.000
 3956.00    0.82998   0.82744  332.243
 3957.00    0.81505   0.81857  330.009
 3958.00    0.81676   0.80961  333.023
 3959.00    0.81590   0.79197   -1.000
 3960.00    0.78726   0.76033   -1.000
 3961.00    0.74020   0.71915   -1.000
 3962.00    0.69722   0.67662   -1.000
 3963.00    0.66069   0.63425   76.929
 3964.00    0.61346   0.58552   58.707
 3965.00    0.54364   0.52305   71.112
 3966.00    0.45552   0.44957   87.326
 3967.00    0.36572   0.38045  100.204
 3968.00    0.30430   0.33579   98.657
 3969.00    0.29722   0.32833   84.287
 3970.00    0.34284   0.35797   69.275
 3971.00    0.41948   0.41390   57.634
 3972.00    0.50366   0.48234  128.586
 3973.00    0.58082   0.55232   -1.000
 3974.00    0.64769   0.61718   -1.000
 3975.00    0.70362   0.67425   -1.000
 3976.00    0.74594   0.72338   -1.000
 3977.00    0.78403   0.76628   -1.000
 3978.00    0.82005   0.80345   -1.000
 3979.00    0.84997   0.83207   -1.000
 3980.00    0.86874   0.84876   -1.000
 3981.00    0.87405   0.85530   -1.000
 3982.00    0.87181   0.85905   -1.000
 3983.00    0.87814   0.86649   -1.000
 3984.00    0.89415   0.87807   -1.000
 3985.00    0.90625   0.89078   -1.000
 3986.00    0.91752   0.90283   -1.000
 3987.00    0.93024   0.91449   -1.000
 3988.00    0.93763   0.92574  269.462
 3989.00    0.94259   0.93602  268.663
 3990.00    0.94639   0.94575  263.834
 3991.00    0.95563   0.95547  257.453
 3992.00    0.97004   0.96304  257.492
 3993.00    0.97202   0.96467  262.809
 3994.00    0.96824   0.95862  269.009
 3995.00    0.95594   0.94744  274.512
 3996.00    0.93691   0.93726  277.774
 3997.00    0.92770   0.93478  274.212
 3998.00    0.93976   0.94243  263.485
 3999.00    0.96159   0.95711  253.471
 4000.00    0.98040   0.97231  248.000
 4001.00    0.99378   0.98108  244.363
 4002.00    1.00084   0.97840   -1.000
 4003.00    0.98942   0.96388   -1.000
 4004.00    0.95991   0.94338   -1.000
 4005.00    0.93426   0.92911  277.552
 4006.00    0.93569   0.93149  265.561
 4007.00    0.96360   0.94919  253.374
 4008.00    0.98622   0.97134  247.955
 4009.00    0.99640   0.98799  245.151
 4010.00    0.99924   0.99624  243.752
 4011.00    1.00135   0.99889  244.705
 4012.00    0.99947   1.00023  246.206
 4013.00    0.99476   1.00256  245.369
 4014.00    0.99868   1.00531  242.355
 4015.00    1.00815   1.00733  242.653
 4016.00    1.01183   1.00912  245.442
 4017.00    1.00476   1.01242  245.616
 4018.00    1.00375   1.01778   -1.000
 4019.00    1.01047   1.02320   -1.000
 4020.00    1.01186   1.02550   -1.000
 4021.00    1.00891   1.02295   -1.000
 4022.00    1.00622   1.01627   -1.000
 4023.00    0.99933   1.00831   -1.000
 4024.00    0.99329   1.00386   -1.000
 4025.00    0.99624   1.00710   -1.000
 4026.00    1.00774   1.01657   -1.000
 4027.00    1.02142   1.02328  232.168
 4028.00    1.01901   1.01762  239.432
 4029.00    0.99590   0.99856  253.872
 4030.00    0.97029   0.97429  266.891
 4031.00    0.95534   0.95573  272.597
 4032.00    0.95085   0.94965  271.160
 4033.00    0.95465   0.95674  263.879
 4034.00    0.96983   0.97427  252.079
 4035.00    0.99159   0.99890  239.567
 4036.00    1.01808   1.02573  230.080
 4037.00    1.03927   1.04696  226.966
 4038.00    1.04402   1.05559   -1.000
 4039.00    1.03547   1.05206   -1.000
 4040.00    1.02208   1.04313   -1.000
 4041.00    1.01644   1.03275   -1.000
 4042.00    1.01304   1.01707  248.846
 4043.00    0.99615   0.99082  269.338
 4044.00    0.95540   0.96019  292.291
 4045.00    0.92145   0.94254   -1.000
 4046.00    0.92629   0.94958   -1.000
 4047.00    0.96245   0.97671   -1.000
 4048.00    1.00093   1.00835  238.152
 4049.00    1.02018   1.03056   -1.000
 4050.00    1.02145   1.03834   -1.000
 4051.00    1.02388   1.03365   -1.000
 4052.00    1.01455   1.02126  245.903
 4053.00    0.99867   1.00762  250.531
 4054.00    0.98794   0.99783   -1.000
 4055.00    0.98769   0.99219  254.883
 4056.00    0.98768   0.98929  257.263
 4057.00    0.98452   0.99051  256.009
 4058.00    0.98716   0.99793   -1.000
 4059.00    1.00000   1.00790  242.255
 4060.00    1.01265   1.00999  243.648
 4061.00    1.00477   0.99688  257.256
 4062.00    0.96941   0.97289  275.704
 4063.00    0.93411   0.95054   -1.000
 4064.00    0.93456   0.93995  267.410
 4065.00    0.95756   0.94200   -1.000
 4066.00    0.97297   0.95165   -1.000
 4067.00    0.98098   0.96390   -1.000
 4068.00    0.99594   0.97318   -1.000
 4069.00    1.00706   0.97299   -1.000
 4070.00    0.99022   0.96247   -1.000
 4071.00    0.96593   0.95000   -1.000
 4072.00    0.96188   0.94498   -1.000
 4073.00    0.97423   0.94630   -1.000
 4074.00    0.98255   0.94298   -1.000
 4075.00    0.96789   0.92803   -1.000
 4076.00    0.93216   0.90743   -1.000
 4077.00    0.90834   0.89517   -1.000
 4078.00    0.91393   0.90130  266.518
 4079.00    0.93964   0.92382   -1.000
 4080.00    0.97112   0.94968   -1.000
 4081.00    0.99216   0.96449   -1.000
 4082.00    0.98911   0.96320   -1.000
 4083.00    0.96956   0.95244   -1.000
 4084.00    0.95714   0.94399  249.053
 4085.00    0.95825   0.94593  241.934
 4086.00    0.96978   0.95784  232.889
 4087.00    0.98291   0.97218  224.926
 4088.00    0.99274   0.97991  223.428
 4089.00    0.99011   0.97671  227.052
 4090.00    0.98074   0.96518   -1.000
 4091.00    0.97161   0.95102   -1.000
 4092.00    0.95708   0.93673   -1.000
 4093.00    0.94632   0.91983   -1.000
 4094.00    0.93159   0.89686   -1.000
 4095.00    0.90273   0.86769   -1.000
 4096.00    0.87487   0.83460   -1.000
 4097.00    0.85329   0.79752   -1.000
 4098.00    0.82417   0.75283   -1.000
 4099.00    0.77414   0.69942   -1.000
 4100.00    0.70422   0.64678   -1.000
 4101.00    0.64465   0.61426   -1.000
 4102.00    0.64082   0.61790   -1.000
 4103.00    0.69714   0.65731   -1.000
 4104.00    0.77194   0.71557   -1.000
 4105.00    0.82991   0.77188   -1.000
 4106.00    0.86337   0.81461   -1.000
 4107.00    0.88271   0.84301   -1.000
 4108.00    0.89202   0.86133   -1.000
 4109.00    0.89828   0.87489   -1.000
 4110.00    0.90606   0.88821   -1.000
 4111.00    0.91697   0.90356  251.215
 4112.00    0.93800   0.92120   -1.000
 4113.00    0.95861   0.94024   -1.000
 4114.00    0.96696   0.95818  239.777
 4115.00    0.97591   0.97067  239.919
 4116.00    0.98084   0.97426  243.905
 4117.00    0.97004   0.96979  251.320
 4118.00    0.95553   0.96233  255.997
 4119.00    0.95410   0.95738  254.558
 4120.00    0.96300   0.95711  251.681
 4121.00    0.96328   0.96043  251.094
 4122.00    0.96442   0.96591  249.299
 4123.00    0.97363   0.97307  245.334
 4124.00    0.98424   0.98002  243.432
 4125.00    0.99310   0.98268  245.534
 4126.00    0.99168   0.97886  250.316
 4127.00    0.97945   0.97150  253.419
 4128.00    0.97129   0.96518  254.900
 4129.00    0.97054   0.96040  257.535
 4130.00    0.96420   0.95379  264.245
 4131.00    0.94955   0.94450  272.687
 4132.00    0.93710   0.93812  275.767
 4133.00    0.93545   0.94204  269.420
 4134.00    0.94519   0.95833   -1.000
 4135.00    0.96730   0.98214   -1.000
 4136.00    0.99021   1.00611   -1.000
 4137.00    1.00697   1.02528   -1.000
 4138.00    1.02035   1.03746   -1.000
 4139.00    1.02476   1.03967   -1.000
 4140.00    1.01901   1.02815  250.127
 4141.00    0.99803   1.00404  269.024
 4142.00    0.96049   0.97671   -1.000
 4143.00    0.92904   0.95963   -1.000
 4144.00    0.93355   0.96120   -1.000
 4145.00    0.96543   0.97723   -1.000
 4146.00    0.99100   0.99477  250.915
 4147.00    0.99717   1.00419  253.591
 4148.00    0.99261   1.00553   -1.000
 4149.00    0.98479   1.00455   -1.000
 4150.00    0.98305   1.00466   -1.000
 4151.00    0.98564   1.00392   -1.000
 4152.00    0.98345   0.99910   -1.000
 4153.00    0.96801   0.99065   -1.000
 4154.00    1.01361   0.98329   -1.000
 4155.00    1.07508   0.98215   -1.000
 4156.00    0.99610   0.98875  262.303
 4157.00    0.90762   1.00052   -1.000
 4158.00    0.94322   1.01314   -1.000
 4159.00    1.00084   1.02305   -1.000
 4160.00    1.01222   1.02951   -1.000
 4161.00    1.01136   1.03441   -1.000
 4162.00    1.00849   1.03938   -1.000
 4163.00    1.00819   1.04358   -1.000
 4164.00    1.00908   1.04442   -1.000
 4165.00    1.00381   1.04028   -1.000
 4166.00    0.99777   1.03278   -1.000
 4167.00    0.99398   1.02536   -1.000
 4168.00    0.99633   1.01853   -1.000
 4169.00    0.99936   1.00751  256.331
 4170.00    0.98295   0.98743  268.011
 4171.00    0.95307   0.96115  284.508
 4172.00    0.92398   0.93982   -1.000
 4173.00    0.91412   0.93418   -1.000
 4174.00    0.92729   0.94413   -1.000
 4175.00    0.94825   0.95925   -1.000
 4176.00    0.96010   0.96995   -1.000
 4177.00    0.95787   0.97573   -1.000
 4178.00    0.95704   0.98155   -1.000
 4179.00    0.97015   0.98900   -1.000
 4180.00    0.98113   0.99455   -1.000
 4181.00    0.97760   0.99584   -1.000
 4182.00    0.97306   0.99573   -1.000
 4183.00    0.97522   0.99804   -1.000
 4184.00    0.97749   1.00134   -1.000
 4185.00    0.97909   1.00084   -1.000
 4186.00    0.97290   0.99558   -1.000
 4187.00    0.95930   0.99021   -1.000
 4188.00    0.95969   0.98984   -1.000
 4189.00    0.97080   0.99497   -1.000
 4190.00    0.97659   1.00292   -1.000
 4191.00    0.98024   1.01173   -1.000
 4192.00    0.99088   1.01911   -1.000
 4193.00    1.00171   1.02050   -1.000
 4194.00    1.00068   1.01204   -1.000
 4195.00    0.98274   0.99448   -1.000
 4196.00    0.96077   0.97308   -1.000
 4197.00    0.93921   0.95423   -1.000
 4198.00    0.92586   0.94211   -1.000
 4199.00    0.92737   0.93780   -1.000
 4200.00    0.93631   0.93974  271.376
 4201.00    0.93971   0.94515  269.954
 4202.00    0.94070   0.95259   -1.000
 4203.00    0.94577   0.96279   -1.000
 4204.00    0.95189   0.97631   -1.000
 4205.00    0.95718   0.99189   -1.000
 4206.00    0.96340   1.00678   -1.000
 4207.00    0.97796   1.01780   -1.000
 4208.00    0.98617   1.02334   -1.000
 4209.00    0.98732   1.02513   -1.000
 4210.00    0.98503   1.02670   -1.000
 4211.00    0.98745   1.02891   -1.000
 4212.00    0.99480   1.02770   -1.000
 4213.00    0.98871   1.01841   -1.000
 4214.00    0.96341   1.00258   -1.000
 4215.00    0.94104   0.98887   -1.000
 4216.00    0.94079   0.98626   -1.000
 4217.00    0.96274   0.99688   -1.000
 4218.00    0.98530   1.01452   -1.000
 4219.00    0.99606   1.02954   -1.000
 4220.00    1.00266   1.03489   -1.000
 4221.00    1.00352   1.02695   -1.000
 4222.00    0.99106   1.00391   -1.000
 4223.00    0.96150   0.96700  273.386
 4224.00    0.92533   0.92337  307.546
 4225.00    0.87372   0.88664   -1.000
 4226.00    0.83009   0.87253   -1.000
 4227.00    0.83815   0.88924   -1.000
 4228.00    0.89627   0.92874   -1.000
 4229.00    0.95457   0.97042   -1.000
 4230.00    0.98411   0.99643   -1.000
 4231.00    0.98523   1.00181   -1.000
 4232.00    0.97022   0.99283   -1.000
 4233.00    0.95843   0.97956   -1.000
 4234.00    0.95688   0.96903   -1.000
 4235.00    0.95047   0.96327   -1.000
 4236.00    0.94249   0.96214   -1.000
 4237.00    0.94457   0.96593   -1.000
 4238.00    0.94853   0.97448   -1.000
 4239.00    0.95745   0.98568   -1.000
 4240.00    0.97202   0.99652   -1.000
 4241.00    0.97919   1.00526   -1.000
 4242.00    0.98265   1.01192   -1.000
 4243.00    0.98471   1.01630   -1.000
 4244.00    0.98604   1.01602   -1.000
 4245.00    0.98286   1.00809   -1.000
 4246.00    0.96612   0.99306   -1.000
 4247.00    0.94383   0.97668   -1.000
 4248.00    0.93326   0.96603   -1.000
 4249.00    0.92862   0.96447   -1.000
 4250.00    0.92945   0.97044   -1.000
 4251.00    0.94183   0.97890   -1.000
 4252.00    0.96290   0.98399   -1.000
 4253.00    0.96614   0.98326   -1.000
 4254.00    0.95310   0.98092   -1.000
 4255.00    0.95395   0.98249   -1.000
 4256.00    0.97356   0.98616   -1.000
 4257.00    0.97844   0.98404  246.796
 4258.00    0.96176   0.97234   -1.000
 4259.00    0.94335   0.95807   -1.000
 4260.00    0.92840   0.95378   -1.000
 4261.00    0.93339   0.96595   -1.000
 4262.00    0.96024   0.98961   -1.000
 4263.00    0.98999   1.01343   -1.000
 4264.00    1.00391   1.02854   -1.000
 4265.00    1.00818   1.03232   -1.000
 4266.00    1.00249   1.02640   -1.000
 4267.00    0.98682   1.01284   -1.000
 4268.00    0.97452   0.99241   -1.000
 4269.00    0.95998   0.96634  266.672
 4270.00    0.93105   0.93883  283.644
 4271.00    0.89719   0.91692   -1.000
 4272.00    0.88473   0.90702   -1.000
 4273.00    0.89532   0.91073   -1.000
 4274.00    0.90651   0.92578   -1.000
 4275.00    0.92416   0.94898   -1.000
 4276.00    0.95612   0.97498   -1.000
 4277.00    0.98370   0.99507   -1.000
 4278.00    0.98950   1.00219   -1.000
 4279.00    0.97195   0.99720   -1.000
 4280.00    0.94787   0.98789   -1.000
 4281.00    0.94175   0.98138   -1.000
 4282.00    0.94735   0.97860   -1.000
 4283.00    0.95012   0.97564   -1.000
 4284.00    0.94725   0.96930   -1.000
 4285.00    0.93537   0.95899   -1.000
 4286.00    0.92487   0.94474   -1.000
 4287.00    0.91609   0.92668   -1.000
 4288.00    0.89649   0.90710   -1.000
 4289.00    0.86692   0.89276   -1.000
 4290.00    0.85913   0.89134   -1.000
 4291.00    0.87822   0.90307   -1.000
 4292.00    0.90986   0.91878  259.358
 4293.00    0.92619   0.92783  260.043
 4294.00    0.92314   0.92592  263.974
 4295.00    0.91709   0.91477  269.617
 4296.00    0.90819   0.89647   -1.000
 4297.00    0.88523   0.87159   -1.000
 4298.00    0.85203   0.84285   -1.000
 4299.00    0.81748   0.81733  336.472
 4300.00    0.80184   0.80207  329.686
 4301.00    0.80649   0.79912  323.269
 4302.00    0.81526   0.80559   -1.000
 4303.00    0.82625   0.81664  314.324
 4304.00    0.83567   0.82634  314.377
 4305.00    0.83951   0.82846   -1.000
 4306.00    0.82853   0.82092  338.995
 4307.00    0.80435   0.80937  350.134
 4308.00    0.78825   0.80378   -1.000
 4309.00    0.79781   0.81042   -1.000
 4310.00    0.82154   0.82693  309.870
 4311.00    0.84038   0.84652  293.029
 4312.00    0.85574   0.86661   -1.000
 4313.00    0.86832   0.89095   -1.000
 4314.00    0.88354   0.92384   -1.000
 4315.00    0.92010   0.96350   -1.000
 4316.00    0.96959   1.00084   -1.000
 4317.00    0.99984   1.02546   -1.000
 4318.00    1.00595   1.03280   -1.000
 4319.00    0.99729   1.02532   -1.000
 4320.00    0.98584   1.00768   -1.000
 4321.00    0.97149   0.98186  237.435
 4322.00    0.94852   0.94851  253.590
 4323.00    0.91614   0.91206  275.561
 4324.00    0.87586   0.88311  290.318
 4325.00    0.85690   0.87367   -1.000
 4326.00    0.86958   0.88804   -1.000
 4327.00    0.90838   0.91722  230.978
 4328.00    0.94487   0.94455  223.694
 4329.00    0.95696   0.95902  223.544
 4330.00    0.94813   0.96122   -1.000
 4331.00    0.94112   0.95781   -1.000
 4332.00    0.94088   0.95260  216.917
 4333.00    0.94146   0.94300  216.049
 4334.00    0.93863   0.92272   -1.000
 4335.00    0.91818   0.88568   -1.000
 4336.00    0.87826   0.83004   -1.000
 4337.00    0.81700   0.76229   -1.000
 4338.00    0.74879   0.69736   -1.000
 4339.00    0.68272   0.65317   -1.000
 4340.00    0.64329   0.64325  293.767
 4341.00    0.66745   0.66961  265.944
 4342.00    0.73958   0.72021   -1.000
 4343.00    0.81063   0.77683   -1.000
 4344.00    0.85432   0.82724   -1.000
 4345.00    0.88292   0.86891  226.689
 4346.00    0.90608   0.90307  223.994
 4347.00    0.92631   0.92906  220.632
 4348.00    0.94419   0.94295  220.205
 4349.00    0.94988   0.94119  229.659
 4350.00    0.92983   0.92701  246.097
 4351.00    0.89484   0.91269   -1.000
 4352.00    0.88584   0.91146   -1.000
 4353.00    0.91104   0.92683   -1.000
 4354.00    0.94312   0.95122  226.709
 4355.00    0.96938   0.97396  221.512
 4356.00    0.98327   0.98895  220.528
 4357.00    0.98334   0.99627   -1.000
 4358.00    0.97625   0.99978   -1.000
 4359.00    0.97134   1.00456   -1.000
 4360.00    0.97976   1.01371   -1.000
 4361.00    0.99550   1.02599   -1.000
 4362.00    1.00587   1.03781   -1.000
 4363.00    1.01114   1.04664   -1.000
 4364.00    1.01471   1.05038   -1.000
 4365.00    1.01303   1.04642   -1.000
 4366.00    1.00037   1.03480   -1.000
 4367.00    0.98308   1.01997   -1.000
 4368.00    0.97904   1.00729   -1.000
 4369.00    0.98235   0.99883   -1.000
 4370.00    0.98320   0.99259  224.370
 4371.00    0.98613   0.98453  226.067
 4372.00    0.98860   0.97192   -1.000
 4373.00    0.97063   0.95677   -1.000
 4374.00    0.94300   0.94641  245.618
 4375.00    0.93841   0.94873  237.606
 4376.00    0.95752   0.96455  225.958
 4377.00    0.98491   0.98573  220.239
 4378.00    1.00300   1.00135  220.463
 4379.00    1.00843   1.00325  223.888
 4380.00    1.00593   0.98688   -1.000
 4381.00    0.98561   0.95279   -1.000
 4382.00    0.93600   0.91003   -1.000
 4383.00    0.88135   0.87612  294.461
 4384.00    0.86477   0.86720  273.295
 4385.00    0.89748   0.88440  247.189
 4386.00    0.94017   0.91315   -1.000
 4387.00    0.96766   0.93723   -1.000
 4388.00    0.97788   0.95041   -1.000
 4389.00    0.97370   0.95632   -1.000
 4390.00    0.97222   0.96105  234.166
 4391.00    0.98014   0.96695  228.954
 4392.00    0.98879   0.97164   -1.000
 4393.00    0.98589   0.97264  233.385
 4394.00    0.97042   0.97268  233.954
 4395.00    0.96350   0.97726   -1.000
 4396.00    0.98153   0.98634  217.702
 4397.00    1.00248   0.99258  218.681
 4398.00    1.00269   0.98997  225.817
 4399.00    0.98069   0.98135  233.022
 4400.00    0.96302   0.97441   -1.000
 4401.00    0.97078   0.97212  228.367
 4402.00    0.98681   0.96988   -1.000
 4403.00    0.97963   0.96295   -1.000
 4404.00    0.95678   0.95389  251.250
 4405.00    0.94631   0.94932  244.864
 4406.00    0.95966   0.95215  240.103
 4407.00    0.96859   0.96086  237.746
 4408.00    0.96765   0.97426  230.153
 4409.00    0.97808   0.99260   -1.000
 4410.00    1.00221   1.01276  212.458
 4411.00    1.02432   1.02646  208.939
 4412.00    1.03754   1.02600  212.838
 4413.00    1.02913   1.01030   -1.000
 4414.00    0.99797   0.98662  233.167
 4415.00    0.97112   0.96774  233.904
 4416.00    0.96451   0.96464  227.024
 4417.00    0.97226   0.97922  217.783
 4418.00    0.99160   1.00355   -1.000
 4419.00    1.01406   1.02537   -1.000
 4420.00    1.02559   1.03555  215.415
 4421.00    1.01704   1.03386   -1.000
 4422.00    1.00969   1.02738   -1.000
 4423.00    1.01280   1.02273  218.468
 4424.00    1.01420   1.02111  218.885
 4425.00    1.01167   1.02042  219.903
 4426.00    1.00151   1.01993   -1.000
 4427.00    0.99925   1.02069   -1.000
 4428.00    1.00661   1.02279   -1.000
 4429.00    1.01163   1.02496   -1.000
 4430.00    1.00759   1.02574   -1.000
 4431.00    1.01239   1.02352  216.655
 4432.00    1.01505   1.01656  221.898
 4433.00    1.00157   1.00524  232.206
 4434.00    0.97860   0.99515   -1.000
 4435.00    0.96518   0.99507   -1.000
 4436.00    0.98162   1.00898   -1.000
 4437.00    1.01665   1.03087   -1.000
 4438.00    1.04147   1.04852  204.042
 4439.00    1.04968   1.05182  209.104
 4440.00    1.03954   1.03878  218.564
 4441.00    1.01097   1.01682  228.179
 4442.00    0.97589   0.99899   -1.000
 4443.00    0.95789   0.99605   -1.000
 4444.00    0.97116   1.00920   -1.000
 4445.00    0.99830   1.02985   -1.000
 4446.00    1.01553   1.04716   -1.000
 4447.00    1.02137   1.05575   -1.000
 4448.00    1.02311   1.05688   -1.000
 4449.00    1.01986   1.05428   -1.000
 4450.00    1.01471   1.05011   -1.000
 4451.00    1.01538   1.04338   -1.000
 4452.00    1.01701   1.03107   -1.000
 4453.00    1.00373   1.01247  229.471
 4454.00    0.97905   0.99272   -1.000
 4455.00    0.96503   0.97987   -1.000
 4456.00    0.97294   0.97757  229.084
 4457.00    0.98937   0.98219  228.323
 4458.00    0.99143   0.98767  229.357
 4459.00    0.98500   0.99126  231.525
 4460.00    0.97977   0.99414   -1.000
 4461.00    0.97580   0.99891   -1.000
 4462.00    0.98471   1.00713   -1.000
 4463.00    1.00088   1.01753   -1.000
 4464.00    1.01282   1.02618   -1.000
 4465.00    1.01581   1.02930   -1.000
 4466.00    1.01230   1.02586   -1.000
 4467.00    1.00346   1.01831   -1.000
 4468.00    0.99064   1.01186   -1.000
 4469.00    0.98465   1.01209   -1.000
 4470.00    0.99419   1.02138   -1.000
 4471.00    1.01191   1.03751   -1.000
 4472.00    1.03187   1.05561   -1.000
 4473.00    1.04732   1.07102   -1.000
 4474.00    1.05829   1.08115   -1.000
 4475.00    1.05847   1.08596   -1.000
 4476.00    1.05738   1.08631   -1.000
 4477.00    1.06412   1.08138   -1.000
 4478.00    1.06272   1.06881  203.365
 4479.00    1.04346   1.04850  212.375
 4480.00    1.01660   1.02655  219.206
 4481.00    0.99498   1.01348   -1.000
 4482.00    0.99490   1.01668   -1.000
 4483.00    1.01459   1.03456   -1.000
 4484.00    1.03750   1.05801   -1.000
 4485.00    1.05718   1.07600   -1.000
 4486.00    1.06235   1.08140   -1.000
 4487.00    1.05506   1.07413   -1.000
 4488.00    1.03386   1.06056   -1.000
 4489.00    1.01591   1.04958   -1.000
 4490.00    1.01464   1.04710   -1.000
 4491.00    1.02961   1.05240   -1.000
 4492.00    1.04321   1.05947   -1.000
 4493.00    1.03879   1.06273   -1.000
 4494.00    1.02906   1.06194   -1.000
 4495.00    1.02010   1.06140   -1.000
 4496.00    1.02189   1.06440   -1.000
 4497.00    1.03741   1.06985   -1.000
 4498.00    1.04924   1.07420   -1.000
 4499.00    1.05370   1.07520   -1.000
 4500.00    1.05071   1.07462   -1.000
 4501.00    1.04042   1.07757   -1.000
 4502.00    1.04798   1.08758   -1.000
 4503.00    1.07192   1.10246   -1.000
 4504.00    1.08600   1.11591   -1.000
 4505.00    1.08334   1.12248   -1.000
 4506.00    1.07290   1.12127   -1.000
 4507.00    1.06547   1.11601   -1.000
 4508.00    1.06246   1.11182   -1.000
 4509.00    1.06976   1.11100   -1.000
 4510.00    1.07606   1.11144   -1.000
 4511.00    1.07379   1.10927   -1.000
 4512.00    1.06729   1.10277   -1.000
 4513.00    1.05600   1.09347   -1.000
 4514.00    1.04837   1.08447   -1.000
 4515.00    1.04702   1.07821   -1.000
 4516.00    1.04563   1.07494   -1.000
 4517.00    1.04313   1.07297   -1.000
 4518.00    1.04181   1.07116   -1.000
 4519.00    1.04614   1.07015   -1.000
 4520.00    1.05107   1.07010   -1.000
 4521.00    1.04992   1.06909   -1.000
 4522.00    1.03779   1.06489   -1.000
 4523.00    1.02628   1.05749   -1.000
 4524.00    1.02472   1.04826   -1.000
 4525.00    1.02300   1.03741   -1.000
 4526.00    1.01478   1.02413  222.749
 4527.00    0.99943   1.00953  226.162
 4528.00    0.98506   0.99788   -1.000
 4529.00    0.98627   0.99340  221.784
 4530.00    0.99673   0.99579  217.723
 4531.00    1.00463   0.99965  216.060
 4532.00    1.00561   0.99926  220.694
 4533.00    0.99168   0.99463  228.064
 4534.00    0.97105   0.99258   -1.000
 4535.00    0.97099   1.00090   -1.000
 4536.00    0.99835   1.02127   -1.000
 4537.00    1.03678   1.04710  196.494
 4538.00    1.05962   1.06812  197.007
 4539.00    1.05832   1.07775   -1.000
 4540.00    1.05164   1.07732   -1.000
 4541.00    1.04212   1.07315   -1.000
 4542.00    1.08570   1.06999  199.961
 4543.00    0.80310   1.06788   -1.000
 4544.00    0.15256   1.06445   -1.000
 4545.00   -0.01538   1.05861    0.000
 4546.00    0.33456   1.05049   -1.000
 4547.00    0.66296   1.03998   -1.000
 4548.00    0.36828   1.02809   -1.000
 4549.00    0.81292   1.01910   -1.000
 4550.00    1.00119   1.01750   -1.000
 4551.00    1.01456   1.02237  209.247
 4552.00    1.02109   1.02728  212.124
 4553.00    1.01301   1.02748   -1.000
 4554.00    1.00151   1.02515   -1.000
 4555.00    1.00128   1.02678   -1.000
 4556.00    1.01972   1.03658   -1.000
 4557.00    1.04624   1.05289  192.692
 4558.00    1.06056   1.07029  192.916
 4559.00    1.06478   1.08408   -1.000
 4560.00    1.06419   1.09188   -1.000
 4561.00    1.06216   1.09241   -1.000
 4562.00    1.05556   1.08558   -1.000
 4563.00    1.03874   1.07412   -1.000
 4564.00    1.02522   1.06399   -1.000
 4565.00    1.02732   1.06102   -1.000
 4566.00    1.04253   1.06667   -1.000
 4567.00    1.05492   1.07673   -1.000
 4568.00    1.06536   1.08410   -1.000
 4569.00    1.06620   1.08366   -1.000
 4570.00    1.04815   1.07574   -1.000
 4571.00    1.02695   1.06619   -1.000
 4572.00    1.02961   1.06237   -1.000
 4573.00    1.04556   1.06717   -1.000
 4574.00    1.06131   1.07666   -1.000
 4575.00    1.06252   1.08423   -1.000
 4576.00    1.06170   1.08605   -1.000
 4577.00    1.05663   1.08164   -1.000
 4578.00    1.05068   1.07162   -1.000
 4579.00    1.04153   1.05739   -1.000
 4580.00    1.02862   1.04197   -1.000
 4581.00    1.02369   1.02935  206.040
 4582.00    1.02486   1.02235  204.210
 4583.00    1.02530   1.02140  204.414
 4584.00    1.02419   1.02504  205.598
 4585.00    1.02930   1.03147  203.580
 4586.00    1.03838   1.03961  198.663
 4587.00    1.04647   1.04856  194.211
 4588.00    1.05349   1.05668  193.167
 4589.00    1.05472   1.06156  195.425
 4590.00    1.05114   1.06150  198.965
 4591.00    1.04219   1.05740   -1.000
 4592.00    1.03521   1.05269   -1.000
 4593.00    1.03517   1.05086   -1.000
 4594.00    1.04042   1.05303  200.339
 4595.00    1.04739   1.05785  199.600
 4596.00    1.05127   1.06316  199.172
 4597.00    1.05309   1.06714   -1.000
 4598.00    1.05605   1.06847  200.046
 4599.00    1.05516   1.06667  201.871
 4600.00    1.04829   1.06259   -1.000
 4601.00    1.04155   1.05839   -1.000
 4602.00    1.04019   1.05622   -1.000
 4603.00    1.04445   1.05695  198.599
 4604.00    1.05008   1.06010  198.431
 4605.00    1.05404   1.06499  196.617
 4606.00    1.05932   1.07142  193.038
 4607.00    1.07049   1.07920  188.934
 4608.00    1.07844   1.08719  186.348
 4609.00    1.08077   1.09305  186.607
 4610.00    1.07831   1.09450   -1.000
 4611.00    1.07276   1.09154   -1.000
 4612.00    1.06654   1.08673   -1.000
 4613.00    1.06131   1.08277   -1.000
 4614.00    1.06379   1.08035   -1.000
 4615.00    1.06586   1.07835  189.427
 4616.00    1.06114   1.07543   -1.000
 4617.00    1.05941   1.07154  191.731
 4618.00    1.05813   1.06851  191.863
 4619.00    1.05582   1.06895  190.323
 4620.00    1.06219   1.07407  187.499
 4621.00    1.07328   1.08217  186.859
 4622.00    1.08189   1.08950  187.268
 4623.00    1.07995   1.09317  187.662
 4624.00    1.07590   1.09304   -1.000
 4625.00    1.06961   1.09063   -1.000
 4626.00    1.06959   1.08720   -1.000
 4627.00    1.07225   1.08347  190.818
 4628.00    1.06603   1.08026   -1.000
 4629.00    1.06023   1.07882   -1.000
 4630.00    1.06310   1.08000   -1.000
 4631.00    1.07148   1.08273  188.948
 4632.00    1.07215   1.08408  191.391
 4633.00    1.06630   1.08179   -1.000
 4634.00    1.06308   1.07663  193.920
 4635.00    1.06317   1.07130  195.131
 4636.00    1.06001   1.06772  197.559
 4637.00    1.05756   1.06639  198.731
 4638.00    1.05459   1.06759  198.634
 4639.00    1.05624   1.07170   -1.000
 4640.00    1.06592   1.07837  191.246
 4641.00    1.07570   1.08575  188.215
 4642.00    1.08188   1.09060  188.373
 4643.00    1.08004   1.08976  191.413
 4644.00    1.07205   1.08218  196.512
 4645.00    1.05947   1.06958  202.010
 4646.00    1.04695   1.05595  203.768
 4647.00    1.04313   1.04660  200.924
 4648.00    1.04740   1.04570  196.370
 4649.00    1.05831   1.05296  193.308
 4650.00    1.06584   1.06354  192.562
 4651.00    1.05907   1.07174  192.202
 4652.00    1.05508   1.07435   -1.000
 4653.00    1.05336   1.07145   -1.000
 4654.00    1.04450   1.06554   -1.000
 4655.00    1.03782   1.06076   -1.000
 4656.00    1.03722   1.06163   -1.000
 4657.00    1.05280   1.07056   -1.000
 4658.00    1.07741   1.08550  182.235
 4659.00    1.09451   1.10019  181.360
 4660.00    1.09822   1.10800  183.213
 4661.00    1.09150   1.10643   -1.000
 4662.00    1.08211   1.09749   -1.000
 4663.00    1.07465   1.08462  192.294
 4664.00    1.07405   1.06961  194.909
 4665.00    1.06895   1.05257   -1.000
 4666.00    1.05078   1.03450   -1.000
 4667.00    1.03004   1.01964  212.752
 4668.00    1.01743   1.01380  207.317
 4669.00    1.02183   1.01969  198.942
 4670.00    1.04447   1.03427  193.000
 4671.00    1.06395   1.05112  191.147
 4672.00    1.06975   1.06492  191.111
 4673.00    1.07125   1.07423  190.989
 4674.00    1.07194   1.08053  188.907
 4675.00    1.07465   1.08492  186.093
 4676.00    1.08010   1.08591  186.343
 4677.00    1.08091   1.08115  189.881
 4678.00    1.07284   1.07094  193.753
 4679.00    1.05874   1.05907  197.069
 4680.00    1.04974   1.05011  199.217
 4681.00    1.04878   1.04640  197.506
 4682.00    1.05501   1.04778  192.897
 4683.00    1.06342   1.05256  189.916
 4684.00    1.07224   1.05838  190.028
 4685.00    1.07616   1.06311  190.245
 4686.00    1.07582   1.06589  191.145
 4687.00    1.07127   1.06714  191.363
 4688.00    1.07182   1.06752  191.365
 4689.00    1.07300   1.06720  192.505
 4690.00    1.07246   1.06632  193.102
 4691.00    1.06656   1.06565  191.271
 4692.00    1.06736   1.06656  188.485
 4693.00    1.07691   1.06955  184.512
 4694.00    1.08997   1.07332  181.828
 4695.00    1.09787   1.07556   -1.000
 4696.00    1.09603   1.07418   -1.000
 4697.00    1.08764   1.06817   -1.000
 4698.00    1.07316   1.05836  195.256
 4699.00    1.06411   1.04714   -1.000
 4700.00    1.06133   1.03668   -1.000
 4701.00    1.05910   1.02808   -1.000
 4702.00    1.05092   1.02233   -1.000
 4703.00    1.04346   1.02097   -1.000
 4704.00    1.04909   1.02416   -1.000
 4705.00    1.05488   1.02876   -1.000
 4706.00    1.05402   1.03051   -1.000
 4707.00    1.04398   1.02851  201.577
 4708.00    1.03487   1.02626  201.020
 4709.00    1.03588   1.02798  195.887
 4710.00    1.04930   1.03458  190.381
 4711.00    1.06722   1.04330   -1.000
 4712.00    1.07782   1.05017   -1.000
 4713.00    1.07460   1.05306   -1.000
 4714.00    1.06359   1.05344  193.114
 4715.00    1.06130   1.05521  189.887
 4716.00    1.07049   1.06090  186.164
 4717.00    1.07963   1.06929  184.594
 4718.00    1.08217   1.07693  183.885
 4719.00    1.08607   1.08136  183.257
 4720.00    1.08723   1.08264  184.440
 4721.00    1.08409   1.08241  185.827
 4722.00    1.08171   1.08228  185.150
 4723.00    1.08040   1.08271  183.265
 4724.00    1.08608   1.08250  183.143
 4725.00    1.08776   1.07929  186.897
 4726.00    1.07895   1.07133  193.637
 4727.00    1.06419   1.05950  198.553
 4728.00    1.05306   1.04736  198.674
 4729.00    1.05428   1.03880  196.798
 4730.00    1.05808   1.03540   -1.000
 4731.00    1.05837   1.03651   -1.000
 4732.00    1.05929   1.04052   -1.000
 4733.00    1.06157   1.04534  189.973
 4734.00    1.06928   1.04873   -1.000
 4735.00    1.07127   1.04969   -1.000
 4736.00    1.06243   1.04922  191.016
 4737.00    1.06276   1.04937  188.972
 4738.00    1.06839   1.05144  188.588
 4739.00    1.06934   1.05497  189.549
 4740.00    1.06823   1.05852  189.957
 4741.00    1.06583   1.06143  188.720
 4742.00    1.06921   1.06423  186.725
 4743.00    1.07499   1.06734  186.685
 4744.00    1.08022   1.07028  186.917
 4745.00    1.07799   1.07260  185.778
 4746.00    1.07996   1.07478  183.955
 4747.00    1.07993   1.07781  183.313
 4748.00    1.08315   1.08194  183.500
 4749.00    1.08321   1.08626  183.656
 4750.00    1.08484   1.08922  184.787
 4751.00    1.08239   1.08908  186.779
 4752.00    1.07923   1.08478  188.452
 4753.00    1.07581   1.07724  189.785
 4754.00    1.07069   1.06951  189.722
 4755.00    1.06720   1.06481  190.262
 4756.00    1.06437   1.06449  191.580
 4757.00    1.06135   1.06770  192.002
 4758.00    1.06491   1.07233  190.690
 4759.00    1.07017   1.07557  190.115
 4760.00    1.06773   1.07432  192.543
 4761.00    1.06256   1.06654  197.114
 4762.00    1.05194   1.05343  200.087
 4763.00    1.04381   1.03958  200.738
 4764.00    1.03929   1.03014  200.415
 4765.00    1.04371   1.02783  199.162
 4766.00    1.05087   1.03251   -1.000
 4767.00    1.05931   1.04263   -1.000
 4768.00    1.06671   1.05536  189.433
 4769.00    1.07268   1.06671  189.279
 4770.00    1.07503   1.07334  190.708
 4771.00    1.07076   1.07521  192.403
 4772.00    1.06588   1.07555  190.824
 4773.00    1.06790   1.07800  186.991
 4774.00    1.08037   1.08340  185.239
 4775.00    1.08846   1.08951  185.183
 4776.00    1.08919   1.09319  185.678
 4777.00    1.08742   1.09285  186.787
 4778.00    1.07928   1.08924  188.756
 4779.00    1.07152   1.08447  190.050
 4780.00    1.06783   1.08037  190.621
 4781.00    1.06973   1.07723  191.474
 4782.00    1.06550   1.07418  192.928
 4783.00    1.06140   1.07053  193.125
 4784.00    1.06610   1.06639  193.637
 4785.00    1.06455   1.06221  195.371
 4786.00    1.05639   1.05867  196.649
 4787.00    1.04874   1.05684  196.661
 4788.00    1.04727   1.05748  195.802
 4789.00    1.05072   1.06068  194.625
 4790.00    1.05245   1.06620  192.725
 4791.00    1.06008   1.07398  189.733
 4792.00    1.07007   1.08370  185.661
 4793.00    1.07959   1.09413  182.307
 4794.00    1.08827   1.10306  181.248
 4795.00    1.09250   1.10783   -1.000
 4796.00    1.08716   1.10682   -1.000
 4797.00    1.07545   1.10072   -1.000
 4798.00    1.06377   1.09269   -1.000
 4799.00    1.05920   1.08669   -1.000
 4800.00    1.06380   1.08529   -1.000
 4801.00    1.07275   1.08818   -1.000
 4802.00    1.07878   1.09225  184.430
 4803.00    1.08017   1.09389  186.577
 4804.00    1.07290   1.09170   -1.000
 4805.00    1.06593   1.08720   -1.000
 4806.00    1.06495   1.08312   -1.000
 4807.00    1.06766   1.08141  190.648
 4808.00    1.06896   1.08226  189.847
 4809.00    1.07036   1.08471  188.256
 4810.00    1.07450   1.08742  186.840
 4811.00    1.07262   1.08962   -1.000
 4812.00    1.07544   1.09174   -1.000
 4813.00    1.08024   1.09476  185.121
 4814.00    1.08218   1.09894   -1.000
 4815.00    1.08248   1.10354   -1.000
 4816.00    1.08298   1.10757   -1.000
 4817.00    1.08524   1.11023   -1.000
 4818.00    1.08780   1.11127   -1.000
 4819.00    1.08651   1.11056   -1.000
 4820.00    1.08310   1.10710   -1.000
 4821.00    1.07927   1.09917   -1.000
 4822.00    1.07064   1.08660   -1.000
 4823.00    1.06230   1.07302  191.061
 4824.00    1.05773   1.06438  188.110
 4825.00    1.05813   1.06418  185.103
 4826.00    1.06587   1.07020  185.294
 4827.00    1.07165   1.07663  187.304
 4828.00    1.07039   1.07931  188.655
 4829.00    1.06461   1.07795  188.788
 4830.00    1.05935   1.07410  190.242
 4831.00    1.05669   1.06936  190.816
 4832.00    1.05480   1.06529  188.270
 4833.00    1.06157   1.06360  185.652
 4834.00    1.06918   1.06474  184.688
 4835.00    1.07111   1.06721  184.853
 4836.00    1.07164   1.06854  185.656
 4837.00    1.07099   1.06674  187.942
 4838.00    1.06622   1.06135  191.209
 4839.00    1.05302   1.05366  191.861
 4840.00    1.04784   1.04616  191.502
 4841.00    1.04645   1.04131  190.623
 4842.00    1.04864   1.03996  189.266
 4843.00    1.05001   1.04133  187.443
 4844.00    1.05080   1.04403  184.655
 4845.00    1.05832   1.04654  183.383
 4846.00    1.06101   1.04682  186.383
 4847.00    1.05233   1.04337  189.384
 4848.00    1.04047   1.03733  189.808
 4849.00    1.03540   1.03193  187.526
 4850.00    1.03523   1.02864  186.713
 4851.00    1.03288   1.02521  187.564
 4852.00    1.02913   1.01749  189.094
 4853.00    1.02022   1.00251   -1.000
 4854.00    1.00039   0.98074   -1.000
 4855.00    0.97541   0.95560   -1.000
 4856.00    0.96310   0.93018   -1.000
 4857.00    0.95656   0.90276   -1.000
 4858.00    0.92977   0.86683   -1.000
 4859.00    0.86389   0.81901   -1.000
 4860.00    0.76798   0.76769  257.638
 4861.00    0.71240   0.73195   -1.000
 4862.00    0.74173   0.72811  224.902
 4863.00    0.82114   0.75718   -1.000
 4864.00    0.89005   0.80565   -1.000
 4865.00    0.93335   0.85648   -1.000
 4866.00    0.96177   0.89939   -1.000
 4867.00    0.97956   0.93082   -1.000
 4868.00    0.99416   0.95027   -1.000
 4869.00    1.00065   0.95797   -1.000
 4870.00    0.98961   0.95630   -1.000
 4871.00    0.97530   0.95141   -1.000
 4872.00    0.97742   0.95125   -1.000
 4873.00    0.99427   0.96023   -1.000
 4874.00    1.01438   0.97572   -1.000
 4875.00    1.02481   0.99077   -1.000
 4876.00    1.02396   1.00140   -1.000
 4877.00    1.02463   1.00930  189.934
 4878.00    1.02980   1.01838  187.771
 4879.00    1.03675   1.02935  188.858
 4880.00    1.04399   1.03885  191.794
 4881.00    1.04596   1.04326  193.282
 4882.00    1.03987   1.04208  192.895
 4883.00    1.04021   1.03752  193.649
 4884.00    1.04042   1.03200  196.357
 4885.00    1.03381   1.02646  197.747
 4886.00    1.03024   1.02153  197.007
 4887.00    1.03275   1.01734   -1.000
 4888.00    1.03065   1.01275   -1.000
 4889.00    1.02382   1.00665   -1.000
 4890.00    1.00496   1.00090  202.839
 4891.00    1.00008   1.00126  195.695
 4892.00    1.02235   1.01335  186.700
 4893.00    1.05408   1.03681  180.677
 4894.00    1.07689   1.06435  176.998
 4895.00    1.08511   1.08693  175.763
 4896.00    1.09119   1.09963  175.964
 4897.00    1.09188   1.10297  179.242
 4898.00    1.08397   1.09945  183.475
 4899.00    1.07418   1.09233   -1.000
 4900.00    1.06349   1.08464   -1.000
 4901.00    1.06438   1.07830  185.483
 4902.00    1.06048   1.07367  187.470
 4903.00    1.05359   1.07124   -1.000
 4904.00    1.05719   1.07244  182.408
 4905.00    1.06911   1.07776  180.574
 4906.00    1.07700   1.08397  181.769
 4907.00    1.07519   1.08539  185.758
 4908.00    1.06650   1.07874  191.037
 4909.00    1.05610   1.06610  193.986
 4910.00    1.04621   1.05328  192.203
 4911.00    1.04815   1.04672  188.826
 4912.00    1.05693   1.04926  186.096
 4913.00    1.06467   1.05898  183.656
 4914.00    1.07115   1.07033  181.908
 4915.00    1.07664   1.07691  182.380
 4916.00    1.07629   1.07307  187.892
 4917.00    1.06111   1.05604  197.665
 4918.00    1.03277   1.02857  207.401
 4919.00    0.99945   0.99942  211.012
 4920.00    0.98319   0.97885  205.544
 4921.00    0.99237   0.97254   -1.000
 4922.00    1.01189   0.97876   -1.000
 4923.00    1.02014   0.99131   -1.000
 4924.00    1.02068   1.00560  191.811
 4925.00    1.03494   1.02100  187.162
 4926.00    1.05316   1.03838  183.551
 4927.00    1.06667   1.05647  181.589
 4928.00    1.07698   1.07220  180.280
 4929.00    1.08042   1.08260  179.169
 4930.00    1.08375   1.08541  180.482
 4931.00    1.07966   1.07980  184.928
 4932.00    1.06389   1.06701  191.440
 4933.00    1.04249   1.05169  192.981
 4934.00    1.02885   1.03990  190.075
 4935.00    1.03913   1.03445  189.396
 4936.00    1.04942   1.03209   -1.000
 4937.00    1.04367   1.02809   -1.000
 4938.00    1.02405   1.02244  198.995
 4939.00    1.02055   1.02111  192.926
 4940.00    1.03523   1.02943  186.631
 4941.00    1.05688   1.04599  182.785
 4942.00    1.06984   1.06415  180.857
 4943.00    1.07432   1.07716  180.715
 4944.00    1.07855   1.08261  181.838
 4945.00    1.07380   1.08277  182.385
 4946.00    1.06733   1.08174  181.051
 4947.00    1.07403   1.08290  178.964
 4948.00    1.07716   1.08693  178.172
 4949.00    1.07928   1.09173  177.462
 4950.00    1.08218   1.09415  178.124
 4951.00    1.08124   1.09295  179.315
 4952.00    1.07929   1.08912  181.266
 4953.00    1.07506   1.08353  183.509
 4954.00    1.07472   1.07448  188.009
 4955.00    1.06159   1.05893  197.015
 4956.00    1.03223   1.03739  205.393
 4957.00    1.00473   1.01738  203.181
 4958.00    1.00409   1.01009  192.555
 4959.00    1.03287   1.02059  185.195
 4960.00    1.06143   1.04245   -1.000
 4961.00    1.07617   1.06393  183.539
 4962.00    1.08075   1.07664  184.926
 4963.00    1.07372   1.07951  187.011
 4964.00    1.06684   1.07510  190.725
 4965.00    1.06038   1.06659  193.469
 4966.00    1.05190   1.05719  193.893
 4967.00    1.04855   1.04971  193.407
 4968.00    1.05233   1.04584  192.106
 4969.00    1.05565   1.04607  190.141
 4970.00    1.05816   1.05009  188.096
 4971.00    1.06178   1.05698  185.879
 4972.00    1.06683   1.06509  184.049
 4973.00    1.07197   1.07253  183.148
 4974.00    1.07624   1.07760  184.116
 4975.00    1.08047   1.07914  185.969
 4976.00    1.07394   1.07669  188.418
 4977.00    1.06609   1.07088  191.422
 4978.00    1.05995   1.06234  193.908
 4979.00    1.05596   1.05091  196.595
 4980.00    1.04507   1.03549  202.508
 4981.00    1.02084   1.01559  209.143
 4982.00    1.00322   0.99414  210.208
 4983.00    0.99522   0.97804   -1.000
 4984.00    0.99906   0.97432   -1.000
 4985.00    1.01576   0.98475   -1.000
 4986.00    1.03238   1.00414   -1.000
 4987.00    1.04780   1.02376   -1.000
 4988.00    1.05582   1.03673   -1.000
 4989.00    1.04810   1.04080  193.879
 4990.00    1.03495   1.03806  194.255
 4991.00    1.03592   1.03344  192.783
 4992.00    1.04128   1.03107  191.819
 4993.00    1.04311   1.03245  191.625
 4994.00    1.04572   1.03652  190.774
 4995.00    1.05131   1.04126  189.813
 4996.00    1.05756   1.04438  190.646
 4997.00    1.05827   1.04358  193.002
 4998.00    1.04690   1.03725  196.722
 4999.00    1.03459   1.02595  199.435
 5000.00    1.02414   1.01314  199.929
 5001.00    1.02374   1.00349   -1.000
 5002.00    1.02968   0.99916   -1.000
 5003.00    1.03290   0.99795   -1.000
 5004.00    1.02912   0.99534   -1.000
 5005.00    1.01225   0.98968   -1.000
 5006.00    0.99889   0.98488  201.532
 5007.00    1.01084   0.98675   -1.000
 5008.00    1.03265   0.99643   -1.000
 5009.00    1.04886   1.00778   -1.000
 5010.00    1.04919   1.01238   -1.000
 5011.00    1.03093   1.00614   -1.000
 5012.00    1.00872   0.99174   -1.000
 5013.00    0.99058   0.97663   -1.000
 5014.00    0.98689   0.96714   -1.000
 5015.00    1.00007   0.96490   -1.000
 5016.00    1.01077   0.96668   -1.000
 5017.00    1.00953   0.96918   -1.000
 5018.00    1.00532   0.97204   -1.000
 5019.00    1.01068   0.97689   -1.000
 5020.00    1.02232   0.98420   -1.000
 5021.00    1.02774   0.99183   -1.000
 5022.00    1.02751   0.99810   -1.000
 5023.00    1.02994   1.00380   -1.000
 5024.00    1.03699   1.00986   -1.000
 5025.00    1.04119   1.01533   -1.000
 5026.00    1.03946   1.01810   -1.000
 5027.00    1.03108   1.01818  195.648
 5028.00    1.03429   1.01868   -1.000
 5029.00    1.03978   1.02224   -1.000
 5030.00    1.05177   1.02907   -1.000
 5031.00    1.05678   1.03759   -1.000
 5032.00    1.05886   1.04475  183.980
 5033.00    1.06115   1.04695  189.077
 5034.00    1.05393   1.04181  196.439
 5035.00    1.03288   1.03029  200.385
 5036.00    1.01908   1.01623  201.446
 5037.00    1.01747   1.00271   -1.000
 5038.00    1.01268   0.98872   -1.000
 5039.00    0.99826   0.97255   -1.000
 5040.00    0.97132   0.95652   -1.000
 5041.00    0.95914   0.94890  211.628
 5042.00    0.97806   0.95711   -1.000
 5043.00    1.01343   0.98012   -1.000
 5044.00    1.04282   1.00931   -1.000
 5045.00    1.04326   1.03407  178.954
 5046.00    1.16272   1.04741   -1.000
 5047.00    0.47202   1.04790   -1.000
 5048.00    0.58193   1.03778   -1.000
 5049.00    1.00516   1.02257   -1.000
 5050.00    1.02566   1.00897   -1.000
 5051.00    1.02073   1.00281   -1.000
 5052.00    1.03253   1.00624   -1.000
 5053.00    1.04798   1.01728   -1.000
 5054.00    1.06264   1.03102   -1.000
 5055.00    1.07105   1.04284   -1.000
 5056.00    1.07418   1.05102   -1.000
 5057.00    1.07730   1.05695   -1.000
 5058.00    1.07324   1.06169  183.824
 5059.00    1.06690   1.06534  182.726
 5060.00    1.06716   1.06728  182.637
 5061.00    1.07038   1.06633  184.788
 5062.00    1.06816   1.06086  189.802
 5063.00    1.05291   1.05021  196.441
 5064.00    1.03491   1.03617  199.370
 5065.00    1.02342   1.02342  197.550
 5066.00    1.02705   1.01625  194.602
 5067.00    1.03588   1.01485   -1.000
 5068.00    1.04035   1.01675   -1.000
 5069.00    1.04534   1.01889   -1.000
 5070.00    1.05080   1.01980   -1.000
 5071.00    1.05203   1.01897   -1.000
 5072.00    1.04793   1.01680   -1.000
 5073.00    1.04587   1.01500   -1.000
 5074.00    1.04709   1.01525   -1.000
 5075.00    1.04881   1.01688   -1.000
 5076.00    1.05211   1.01661   -1.000
 5077.00    1.04681   1.01099   -1.000
 5078.00    1.02323   0.99937   -1.000
 5079.00    0.99972   0.98532   -1.000
 5080.00    0.99042   0.97468   -1.000
 5081.00    1.00452   0.97194   -1.000
 5082.00    1.01618   0.97695   -1.000
 5083.00    1.02154   0.98661   -1.000
 5084.00    1.03075   0.99823   -1.000
 5085.00    1.04747   1.00999   -1.000
 5086.00    1.05787   1.02073   -1.000
 5087.00    1.05667   1.02909   -1.000
 5088.00    1.05352   1.03481   -1.000
 5089.00    1.06127   1.03894   -1.000
 5090.00    1.06047   1.04267   -1.000
 5091.00    1.05961   1.04676  184.145
 5092.00    1.07315   1.05099   -1.000
 5093.00    1.07833   1.05373   -1.000
 5094.00    1.07369   1.05217   -1.000
 5095.00    1.06762   1.04396   -1.000
 5096.00    1.05556   1.02950   -1.000
 5097.00    1.04038   1.01259   -1.000
 5098.00    1.02507   0.99897   -1.000
 5099.00    1.02061   0.99341   -1.000
 5100.00    1.03101   0.99727   -1.000
 5101.00    1.04937   1.00749   -1.000
 5102.00    1.06204   1.01855   -1.000
 5103.00    1.05875   1.02515   -1.000
 5104.00    1.05329   1.02500   -1.000
 5105.00    1.04988   1.01912   -1.000
 5106.00    1.03611   1.00999   -1.000
 5107.00    1.02033   1.00086   -1.000
 5108.00    1.01619   0.99480   -1.000
 5109.00    1.02074   0.99392   -1.000
 5110.00    1.02267   0.99866   -1.000
 5111.00    1.03413   1.00773   -1.000
 5112.00    1.04699   1.01881   -1.000
 5113.00    1.05602   1.02939   -1.000
 5114.00    1.06246   1.03791   -1.000
 5115.00    1.06363   1.04455   -1.000
 5116.00    1.06808   1.04970   -1.000
 5117.00    1.07328   1.05312   -1.000
 5118.00    1.07310   1.05350   -1.000
 5119.00    1.06757   1.04965   -1.000
 5120.00    1.06009   1.04151   -1.000
 5121.00    1.05295   1.03011   -1.000
 5122.00    1.03679   1.01724   -1.000
 5123.00    1.01860   1.00473   -1.000
 5124.00    1.01054   0.99448   -1.000
 5125.00    1.01920   0.98784   -1.000
 5126.00    1.02092   0.98496   -1.000
 5127.00    1.01936   0.98443   -1.000
 5128.00    1.01934   0.98505   -1.000
 5129.00    1.02366   0.98683   -1.000
 5130.00    1.03020   0.99053   -1.000
 5131.00    1.03408   0.99613   -1.000
 5132.00    1.03719   1.00263   -1.000
 5133.00    1.03961   1.00857   -1.000
 5134.00    1.04704   1.01274   -1.000
 5135.00    1.05175   1.01391   -1.000
 5136.00    1.04589   1.01092   -1.000
 5137.00    1.03243   1.00378   -1.000
 5138.00    1.01419   0.99453   -1.000
 5139.00    1.00452   0.98647   -1.000
 5140.00    1.00764   0.98168   -1.000
 5141.00    1.01029   0.98037   -1.000
 5142.00    1.00637   0.98134   -1.000
 5143.00    1.00811   0.98362   -1.000
 5144.00    1.02160   0.98655   -1.000
 5145.00    1.02877   0.98880   -1.000
 5146.00    1.02507   0.98933   -1.000
 5147.00    1.02439   0.98868   -1.000
 5148.00    1.02919   0.98835   -1.000
 5149.00    1.03255   0.98882   -1.000
 5150.00    1.02664   0.98837   -1.000
 5151.00    1.01419   0.98545   -1.000
 5152.00    1.01094   0.98157   -1.000
 5153.00    1.01790   0.97984   -1.000
 5154.00    1.02577   0.98295   -1.000
 5155.00    1.03666   0.99167   -1.000
 5156.00    1.04987   1.00431   -1.000
 5157.00    1.06160   1.01756   -1.000
 5158.00    1.06572   1.02805   -1.000
 5159.00    1.06767   1.03397   -1.000
 5160.00    1.06590   1.03476   -1.000
 5161.00    1.06243   1.03072   -1.000
 5162.00    1.05462   1.02177   -1.000
 5163.00    1.05106   1.00637   -1.000
 5164.00    1.04010   0.98171   -1.000
 5165.00    1.00550   0.94671   -1.000
 5166.00    0.94863   0.90579   -1.000
 5167.00    0.89970   0.87056   -1.000
 5168.00    0.89438   0.85183   -1.000
 5169.00    0.92497   0.84994   -1.000
 5170.00    0.94975   0.85515   -1.000
 5171.00    0.93610   0.85644   -1.000
 5172.00    0.90310   0.85570   -1.000
 5173.00    0.90831   0.86485   -1.000
 5174.00    0.95723   0.89116   -1.000
 5175.00    1.01059   0.93030   -1.000
 5176.00    1.04266   0.96827   -1.000
 5177.00    1.05395   0.99450   -1.000
 5178.00    1.05719   1.00609   -1.000
 5179.00    1.05020   1.00265   -1.000
 5180.00    1.04026   0.98415   -1.000
 5181.00    1.01499   0.95117   -1.000
 5182.00    0.96283   0.91093   -1.000
 5183.00    0.91239   0.87807   -1.000
 5184.00    0.90711   0.86706   -1.000
 5185.00    0.95383   0.88268   -1.000
 5186.00    1.00813   0.91480   -1.000
 5187.00    1.03112   0.94774   -1.000
 5188.00    1.03098   0.97035   -1.000
 5189.00    1.02917   0.98024   -1.000
 5190.00    1.02652   0.98075   -1.000
 5191.00    1.01161   0.97537   -1.000
 5192.00    0.99303   0.96792   -1.000
 5193.00    0.99434   0.96295   -1.000
 5194.00    1.00419   0.96289   -1.000
 5195.00    1.00855   0.96713   -1.000
 5196.00    1.01829   0.97432   -1.000
 5197.00    1.02868   0.98365   -1.000
 5198.00    1.04046   0.99488   -1.000
 5199.00    1.04725   1.00615   -1.000
 5200.00    1.04942   1.01379   -1.000
 5201.00    1.05157   1.01444   -1.000
 5202.00    1.04245   1.00650   -1.000
 5203.00    1.02399   0.99095   -1.000
 5204.00    1.00313   0.97131   -1.000
 5205.00    0.98825   0.95246   -1.000
 5206.00    0.98291   0.93866   -1.000
 5207.00    0.98756   0.93202   -1.000
 5208.00    0.98379   0.93300   -1.000
 5209.00    0.98857   0.94134   -1.000
 5210.00    1.00835   0.95690   -1.000
 5211.00    1.03051   0.97764   -1.000
 5212.00    1.05479   0.99861   -1.000
 5213.00    1.06802   1.01328   -1.000
 5214.00    1.06100   1.01738   -1.000
 5215.00    1.04540   1.01270   -1.000
 5216.00    1.03228   1.00591   -1.000
 5217.00    1.03130   1.00468   -1.000
 5218.00    1.04794   1.01197   -1.000
 5219.00    1.06374   1.02495   -1.000
 5220.00    1.07148   1.03769   -1.000
 5221.00    1.07370   1.04473   -1.000
 5222.00    1.07174   1.04295   -1.000
 5223.00    1.05726   1.03055   -1.000
 5224.00    1.03211   1.00801   -1.000
 5225.00    1.00339   0.97996   -1.000
 5226.00    0.97551   0.95543   -1.000
 5227.00    0.97002   0.94476   -1.000
 5228.00    0.99523   0.95169   -1.000
 5229.00    1.02668   0.97019   -1.000
 5230.00    1.04839   0.98897   -1.000
 5231.00    1.05338   0.99883   -1.000
 5232.00    1.04466   0.99871   -1.000
 5233.00    1.03135   0.99390   -1.000
 5234.00    1.02680   0.99192   -1.000
 5235.00    1.04037   0.99755   -1.000
 5236.00    1.05679   1.01026   -1.000
 5237.00    1.06756   1.02516   -1.000
 5238.00    1.07052   1.03732   -1.000
 5239.00    1.07251   1.04453   -1.000
 5240.00    1.07312   1.04722   -1.000
 5241.00    1.07222   1.04752   -1.000
 5242.00    1.07341   1.04746   -1.000
 5243.00    1.07178   1.04791   -1.000
 5244.00    1.07161   1.04780   -1.000
 5245.00    1.06893   1.04477   -1.000
 5246.00    1.05507   1.03716   -1.000
 5247.00    1.03765   1.02637  194.152
 5248.00    1.03274   1.01584   -1.000
 5249.00    1.03023   1.00839   -1.000
 5250.00    1.02383   1.00507   -1.000
 5251.00    1.02320   1.00523   -1.000
 5252.00    1.03320   1.00760   -1.000
 5253.00    1.03951   1.01069   -1.000
 5254.00    1.03805   1.01415   -1.000
 5255.00    1.03997   1.01908   -1.000
 5256.00    1.05405   1.02701   -1.000
 5257.00    1.07053   1.03668   -1.000
 5258.00    1.07748   1.04360   -1.000
 5259.00    1.07636   1.04266   -1.000
 5260.00    1.06338   1.03079   -1.000
 5261.00    1.03937   1.00884   -1.000
 5262.00    1.01154   0.98085   -1.000
 5263.00    0.98784   0.95287   -1.000
 5264.00    0.97422   0.93110   -1.000
 5265.00    0.96876   0.91902   -1.000
 5266.00    0.97661   0.91557   -1.000
 5267.00    0.99271   0.91572   -1.000
 5268.00    0.98683   0.91389   -1.000
 5269.00    0.95772   0.91056   -1.000
 5270.00    0.94833   0.91145   -1.000
 5271.00    0.97903   0.92118   -1.000
 5272.00    1.01475   0.93859   -1.000
 5273.00    1.02805   0.95642   -1.000
 5274.00    1.02651   0.97014   -1.000
 5275.00    1.02442   0.98128   -1.000
 5276.00    1.03742   0.99360   -1.000
 5277.00    1.05547   1.00849   -1.000
 5278.00    1.06906   1.02193   -1.000
 5279.00    1.07634   1.02835   -1.000
 5280.00    1.06555   1.02497   -1.000
 5281.00    1.04769   1.01427   -1.000
 5282.00    1.03392   1.00265   -1.000
 5283.00    1.02796   0.99669   -1.000
 5284.00    1.03266   1.00038   -1.000
 5285.00    1.04950   1.01353   -1.000
 5286.00    1.07046   1.03163   -1.000
 5287.00    1.08201   1.04828   -1.000
 5288.00    1.08061   1.05967   -1.000
 5289.00    1.07976   1.06550  175.633
 5290.00    1.08104   1.06772  175.211
 5291.00    1.08094   1.06791  176.155
 5292.00    1.07794   1.06615  177.793
 5293.00    1.07604   1.06193  180.118
 5294.00    1.07258   1.05392   -1.000
 5295.00    1.06299   1.04080   -1.000
 5296.00    1.04197   1.02398   -1.000
 5297.00    1.01995   1.00803  196.348
 5298.00    1.01594   0.99828   -1.000
 5299.00    1.03171   0.99767   -1.000
 5300.00    1.04297   1.00399   -1.000
 5301.00    1.04208   1.01339   -1.000
 5302.00    1.04371   1.02367   -1.000
 5303.00    1.05709   1.03385   -1.000
 5304.00    1.06974   1.04326   -1.000
 5305.00    1.07721   1.04983   -1.000
 5306.00    1.07253   1.05240   -1.000
 5307.00    1.06636   1.05288  177.640
 5308.00    1.07058   1.05400   -1.000
 5309.00    1.07790   1.05747   -1.000
 5310.00    1.07928   1.06222   -1.000
 5311.00    1.07948   1.06538  175.672
 5312.00    1.08150   1.06478   -1.000
 5313.00    1.07962   1.05960   -1.000
 5314.00    1.07570   1.05056   -1.000
 5315.00    1.06588   1.04002   -1.000
 5316.00    1.05453   1.03148   -1.000
 5317.00    1.05414   1.02851   -1.000
 5318.00    1.05984   1.03190   -1.000
 5319.00    1.06701   1.03827   -1.000
 5320.00    1.06960   1.04237   -1.000
 5321.00    1.06534   1.04011   -1.000
 5322.00    1.05614   1.03145   -1.000
 5323.00    1.04358   1.01874   -1.000
 5324.00    1.03602   1.00449   -1.000
 5325.00    1.03538   0.98933   -1.000
 5326.00    1.02413   0.97237   -1.000
 5327.00    0.98852   0.95544   -1.000
 5328.00    0.96109   0.94382   -1.000
 5329.00    0.97536   0.94469   -1.000
 5330.00    1.01388   0.95951   -1.000
 5331.00    1.04332   0.98155   -1.000
 5332.00    1.05153   1.00235   -1.000
 5333.00    1.05016   1.01680   -1.000
 5334.00    1.05714   1.02524   -1.000
 5335.00    1.06308   1.02955   -1.000
 5336.00    1.05757   1.02991   -1.000
 5337.00    1.05553   1.02597   -1.000
 5338.00    1.05272   1.01796   -1.000
 5339.00    1.03964   1.00787   -1.000
 5340.00    1.02536   0.99942   -1.000
 5341.00    1.02268   0.99706   -1.000
 5342.00    1.03934   1.00206   -1.000
 5343.00    1.05939   1.01105   -1.000
 5344.00    1.06158   1.01845   -1.000
 5345.00    1.05908   1.02031   -1.000
 5346.00    1.05356   1.01752   -1.000
 5347.00    1.04790   1.01322   -1.000
 5348.00    1.04819   1.01063   -1.000
 5349.00    1.04493   1.01166   -1.000
 5350.00    1.04936   1.01669   -1.000
 5351.00    1.06384   1.02469   -1.000
 5352.00    1.07103   1.03367   -1.000
 5353.00    1.07050   1.04209   -1.000
 5354.00    1.07687   1.04941   -1.000
 5355.00    1.08313   1.05615   -1.000
 5356.00    1.08552   1.06198   -1.000
 5357.00    1.08611   1.06582   -1.000
 5358.00    1.08691   1.06687   -1.000
 5359.00    1.08615   1.06456   -1.000
 5360.00    1.07815   1.05870   -1.000
 5361.00    1.06915   1.04950   -1.000
 5362.00    1.06222   1.03808   -1.000
 5363.00    1.05573   1.02683   -1.000
 5364.00    1.04879   1.01805   -1.000
 5365.00    1.04518   1.01273   -1.000
 5366.00    1.04693   1.00973   -1.000
 5367.00    1.05095   1.00645   -1.000
 5368.00    1.04713   0.99999   -1.000
 5369.00    1.03541   0.98960   -1.000
 5370.00    1.01587   0.97845   -1.000
 5371.00    1.00518   0.97226   -1.000
 5372.00    1.01636   0.97656   -1.000
 5373.00    1.04693   0.99141   -1.000
 5374.00    1.07109   1.01177   -1.000
 5375.00    1.08176   1.03022   -1.000
 5376.00    1.08138   1.04180   -1.000
 5377.00    1.07960   1.04596   -1.000
 5378.00    1.07645   1.04445   -1.000
 5379.00    1.07287   1.03968   -1.000
 5380.00    1.06436   1.03350   -1.000
 5381.00    1.05679   1.02747   -1.000
 5382.00    1.05300   1.02314   -1.000
 5383.00    1.05460   1.02203   -1.000
 5384.00    1.05524   1.02498   -1.000
 5385.00    1.06476   1.03091   -1.000
 5386.00    1.07426   1.03709   -1.000
 5387.00    1.07142   1.04036   -1.000
 5388.00    1.06677   1.03897   -1.000
 5389.00    1.06226   1.03350   -1.000
 5390.00    1.05363   1.02563   -1.000
 5391.00    1.05043   1.01721   -1.000
 5392.00    1.04607   1.00985   -1.000
 5393.00    1.04106   1.00371   -1.000
 5394.00    1.03787   0.99780   -1.000
 5395.00    1.03009   0.99108   -1.000
 5396.00    1.01686   0.98362   -1.000
 5397.00    1.01012   0.97871   -1.000
 5398.00    1.02214   0.97965   -1.000
 5399.00    1.04057   0.98675   -1.000
 5400.00    1.05181   0.99643   -1.000
 5401.00    1.05466   1.00260   -1.000
 5402.00    1.05091   1.00086   -1.000
 5403.00    1.03885   0.99090   -1.000
 5404.00    1.01409   0.97663   -1.000
 5405.00    0.99707   0.96433   -1.000
 5406.00    1.00544   0.95951   -1.000
 5407.00    1.02190   0.96194   -1.000
 5408.00    1.03065   0.96780   -1.000
 5409.00    1.02596   0.97359   -1.000
 5410.00    1.02576   0.97874   -1.000
 5411.00    1.03363   0.98561   -1.000
 5412.00    1.05003   0.99437   -1.000
 5413.00    1.05937   1.00292   -1.000
 5414.00    1.05210   1.00967   -1.000
 5415.00    1.04843   1.01468   -1.000
 5416.00    1.05610   1.01962   -1.000
 5417.00    1.06464   1.02462   -1.000
 5418.00    1.06221   1.02814   -1.000
 5419.00    1.06206   1.02929   -1.000
 5420.00    1.05753   1.02799   -1.000
 5421.00    1.05806   1.02470   -1.000
 5422.00    1.05852   1.02009   -1.000
 5423.00    1.04882   1.01490   -1.000
 5424.00    1.03859   1.01165   -1.000
 5425.00    1.03965   1.01226   -1.000
 5426.00    1.05039   1.01489   -1.000
 5427.00    1.05579   1.01563   -1.000
 5428.00    1.04237   1.01056   -1.000
 5429.00    1.01936   1.00140   -1.000
 5430.00    1.01215   0.99352   -1.000
 5431.00    1.02445   0.98961   -1.000
 5432.00    1.03046   0.98879   -1.000
 5433.00    1.02316   0.98787   -1.000
 5434.00    1.01340   0.98681   -1.000
 5435.00    1.01420   0.98926   -1.000
 5436.00    1.03091   0.99787   -1.000
 5437.00    1.04810   1.01223   -1.000
 5438.00    1.06271   1.02795   -1.000
 5439.00    1.07084   1.04081   -1.000
 5440.00    1.07268   1.04869   -1.000
 5441.00    1.07365   1.05135   -1.000
 5442.00    1.07314   1.04906   -1.000
 5443.00    1.06744   1.04067   -1.000
 5444.00    1.05253   1.02625   -1.000
 5445.00    1.02828   1.00852   -1.000
 5446.00    1.00806   0.99341   -1.000
 5447.00    1.00651   0.98751   -1.000
 5448.00    1.02729   0.99278   -1.000
 5449.00    1.05631   1.00621   -1.000
 5450.00    1.06700   1.02070   -1.000
 5451.00    1.06735   1.02978   -1.000
 5452.00    1.06218   1.03016   -1.000
 5453.00    1.05327   1.02211   -1.000
 5454.00    1.03345   1.00942   -1.000
 5455.00    1.01367   0.99902   -1.000
 5456.00    1.01384   0.99668   -1.000
 5457.00    1.03862   1.00394   -1.000
 5458.00    1.06162   1.01643   -1.000
 5459.00    1.07069   1.02662   -1.000
 5460.00    1.06037   1.02959   -1.000
 5461.00    1.05491   1.02501   -1.000
 5462.00    1.04419   1.01692   -1.000
 5463.00    1.03968   1.01048   -1.000
 5464.00    1.04216   1.00927   -1.000
 5465.00    1.05174   1.01326   -1.000
 5466.00    1.05269   1.01991   -1.000
 5467.00    1.05327   1.02634   -1.000
 5468.00    1.05352   1.03074   -1.000
 5469.00    1.05722   1.03262   -1.000
 5470.00    1.05601   1.03184   -1.000
 5471.00    1.05200   1.02848   -1.000
 5472.00    1.05025   1.02284   -1.000
 5473.00    1.04567   1.01480   -1.000
 5474.00    1.03570   1.00419   -1.000
 5475.00    1.01982   0.99247   -1.000
 5476.00    1.00802   0.98273   -1.000
 5477.00    1.00517   0.97909   -1.000
 5478.00    1.02194   0.98309   -1.000
 5479.00    1.04188   0.99169   -1.000
 5480.00    1.04463   1.00052   -1.000
 5481.00    1.03764   1.00651   -1.000
 5482.00    1.03571   1.01080   -1.000
 5483.00    1.04047   1.01579   -1.000
 5484.00    1.04954   1.02150   -1.000
 5485.00    1.05357   1.02608   -1.000
 5486.00    1.05149   1.02721   -1.000
 5487.00    1.04950   1.02516   -1.000
 5488.00    1.04227   1.02239   -1.000
 5489.00    1.04213   1.02123   -1.000
 5490.00    1.04607   1.02243   -1.000
 5491.00    1.04289   1.02466   -1.000
 5492.00    1.04829   1.02659   -1.000
 5493.00    1.05140   1.02746   -1.000
 5494.00    1.04961   1.02689   -1.000
 5495.00    1.04918   1.02490   -1.000
 5496.00    1.04473   1.02180   -1.000
 5497.00    1.03629   1.01857   -1.000
 5498.00    1.03398   1.01630   -1.000
 5499.00    1.04280   1.01456   -1.000
 5500.00    1.04258   1.01220   -1.000
 5501.00    1.03493   1.00899   -1.000
 5502.00    1.03349   1.00575   -1.000
 5503.00    1.03736   1.00390   -1.000
 5504.00    1.04363   1.00279   -1.000
 5505.00    1.03584   1.00080   -1.000
 5506.00    1.02434   0.99846   -1.000
 5507.00    1.02459   0.99741   -1.000
 5508.00    1.03701   0.99918   -1.000
 5509.00    1.04234   1.00253   -1.000
 5510.00    1.04443   1.00428   -1.000
 5511.00    1.03577   1.00264   -1.000
 5512.00    1.02513   0.99843   -1.000
 5513.00    1.02245   0.99496   -1.000
 5514.00    1.02278   0.99522   -1.000
 5515.00    1.03339   1.00019   -1.000
 5516.00    1.04572   1.00848   -1.000
 5517.00    1.05202   1.01776   -1.000
 5518.00    1.05681   1.02600   -1.000
 5519.00    1.06204   1.03193   -1.000
 5520.00    1.06014   1.03507   -1.000
 5521.00    1.05765   1.03570   -1.000
 5522.00    1.05645   1.03437   -1.000
 5523.00    1.05625   1.03086   -1.000
 5524.00    1.05411   1.02439   -1.000
 5525.00    1.04488   1.01410   -1.000
 5526.00    1.02918   1.00123   -1.000
 5527.00    1.01315   0.98929   -1.000
 5528.00    1.00800   0.98307   -1.000
 5529.00    1.01810   0.98543   -1.000
 5530.00    1.03562   0.99463   -1.000
 5531.00    1.04619   1.00563   -1.000
 5532.00    1.04562   1.01287   -1.000
 5533.00    1.04362   1.01459   -1.000
 5534.00    1.03847   1.01291   -1.000
 5535.00    1.03260   1.01144   -1.000
 5536.00    1.03841   1.01254   -1.000
 5537.00    1.04704   1.01612   -1.000
 5538.00    1.04968   1.02076   -1.000
 5539.00    1.05361   1.02511   -1.000
 5540.00    1.05831   1.02822   -1.000
 5541.00    1.05844   1.02929   -1.000
 5542.00    1.05350   1.02781   -1.000
 5543.00    1.04846   1.02469   -1.000
 5544.00    1.04443   1.02201   -1.000
 5545.00    1.04503   1.02140   -1.000
 5546.00    1.04723   1.02334   -1.000
 5547.00    1.04846   1.02718   -1.000
 5548.00    1.05250   1.03178   -1.000
 5549.00    1.05687   1.03592   -1.000
 5550.00    1.06194   1.03830   -1.000
 5551.00    1.05963   1.03817   -1.000
 5552.00    1.05495   1.03587   -1.000
 5553.00    1.05010   1.03255   -1.000
 5554.00    1.04927   1.02981   -1.000
 5555.00    1.04502   1.02876   -1.000
 5556.00    1.04771   1.02942   -1.000
 5557.00    1.05193   1.03096   -1.000
 5558.00    1.05225   1.03227   -1.000
 5559.00    1.05298   1.03253   -1.000
 5560.00    1.05492   1.03104   -1.000
 5561.00    1.05046   1.02759   -1.000
 5562.00    1.03991   1.02279   -1.000
 5563.00    1.03538   1.01785   -1.000
 5564.00    1.03165   1.01386   -1.000
 5565.00    1.03161   1.01115   -1.000
 5566.00    1.03265   1.00934   -1.000
 5567.00    1.03236   1.00786   -1.000
 5568.00    1.02906   1.00632   -1.000
 5569.00    1.02569   1.00458   -1.000
 5570.00    1.02611   1.00267   -1.000
 5571.00    1.02578   1.00076   -1.000
 5572.00    1.02252   0.99940   -1.000
 5573.00    1.01612   0.99953   -1.000
 5574.00    1.00379   1.00145  182.700
 5575.00    1.07965   1.00484   -1.000
 5576.00    1.21466   1.00882   -1.000
 5577.00    1.26881   1.01290   -1.000
 5578.00    1.20214   1.01688   -1.000
 5579.00    1.10148   1.01999   -1.000
 5580.00    1.06385   1.02161   -1.000
 5581.00    1.04409   1.02172   -1.000
 5582.00    1.04062   1.02059   -1.000
 5583.00    1.04008   1.01792   -1.000
 5584.00    1.03902   1.01213   -1.000
 5585.00    1.02884   1.00156   -1.000
 5586.00    1.01139   0.98695   -1.000
 5587.00    0.99168   0.97171   -1.000
 5588.00    0.98159   0.96125   -1.000
 5589.00    0.98899   0.95880   -1.000
 5590.00    1.00343   0.96387   -1.000
 5591.00    1.01352   0.97280   -1.000
 5592.00    1.01836   0.98131   -1.000
 5593.00    1.01628   0.98726   -1.000
 5594.00    1.01247   0.99097   -1.000
 5595.00    1.02001   0.99389   -1.000
 5596.00    1.03033   0.99583   -1.000
 5597.00    1.02511   0.99561   -1.000
 5598.00    1.01087   0.99273   -1.000
 5599.00    1.01210   0.98796   -1.000
 5600.00    1.01390   0.98309   -1.000
 5601.00    1.00899   0.97984   -1.000
 5602.00    1.00043   0.98022   -1.000
 5603.00    1.00565   0.98646   -1.000
 5604.00    1.02291   0.99854   -1.000
 5605.00    1.04254   1.01349   -1.000
 5606.00    1.05183   1.02744   -1.000
 5607.00    1.05332   1.03753   -1.000
 5608.00    1.05508   1.04339  180.104
 5609.00    1.05278   1.04608  179.903
 5610.00    1.04739   1.04648  179.323
 5611.00    1.05200   1.04420  180.227
 5612.00    1.05473   1.03754   -1.000
 5613.00    1.04511   1.02554   -1.000
 5614.00    1.02284   1.00982   -1.000
 5615.00    1.00420   0.99581  193.157
 5616.00    1.00390   0.98887   -1.000
 5617.00    1.02071   0.99101   -1.000
 5618.00    1.03395   0.99949   -1.000
 5619.00    1.03658   1.00919   -1.000
 5620.00    1.03927   1.01656   -1.000
 5621.00    1.04255   1.01993   -1.000
 5622.00    1.03803   1.01895   -1.000
 5623.00    1.02741   1.01467  191.853
 5624.00    1.01969   1.00954  190.863
 5625.00    1.01716   1.00685  187.532
 5626.00    1.02698   1.00884   -1.000
 5627.00    1.04067   1.01496   -1.000
 5628.00    1.04515   1.02301   -1.000
 5629.00    1.04833   1.03044   -1.000
 5630.00    1.05006   1.03546   -1.000
 5631.00    1.04961   1.03727  180.414
 5632.00    1.05254   1.03587   -1.000
 5633.00    1.05251   1.03205   -1.000
 5634.00    1.04464   1.02710   -1.000
 5635.00    1.04173   1.02209   -1.000
 5636.00    1.03782   1.01774   -1.000
 5637.00    1.03565   1.01454   -1.000
 5638.00    1.03325   1.01256   -1.000
 5639.00    1.03208   1.01149   -1.000
 5640.00    1.03104   1.01090   -1.000
 5641.00    1.02968   1.01074   -1.000
 5642.00    1.03013   1.01132   -1.000
 5643.00    1.03348   1.01290   -1.000
 5644.00    1.03609   1.01520   -1.000
 5645.00    1.03779   1.01763   -1.000
 5646.00    1.04094   1.01960   -1.000
 5647.00    1.04180   1.02062   -1.000
 5648.00    1.04396   1.02055   -1.000
 5649.00    1.04435   1.01988   -1.000
 5650.00    1.04258   1.01922   -1.000
 5651.00    1.03953   1.01871   -1.000
 5652.00    1.04030   1.01780   -1.000
 5653.00    1.04142   1.01542   -1.000
 5654.00    1.03532   1.01078   -1.000
 5655.00    1.03133   1.00348   -1.000
 5656.00    1.02437   0.99391   -1.000
 5657.00    1.00763   0.98389   -1.000
 5658.00    0.99231   0.97641   -1.000
 5659.00    0.99292   0.97393   -1.000
 5660.00    1.00838   0.97664   -1.000
 5661.00    1.01605   0.98219   -1.000
 5662.00    1.01783   0.98834   -1.000
 5663.00    1.02144   0.99440   -1.000
 5664.00    1.02792   1.00024   -1.000
 5665.00    1.03563   1.00524   -1.000
 5666.00    1.03257   1.00820   -1.000
 5667.00    1.02606   1.00885   -1.000
 5668.00    1.02676   1.00859   -1.000
 5669.00    1.03031   1.00920   -1.000
 5670.00    1.03395   1.01159   -1.000
 5671.00    1.03776   1.01537   -1.000
 5672.00    1.04169   1.01945   -1.000
 5673.00    1.04611   1.02273   -1.000
 5674.00    1.04981   1.02472   -1.000
 5675.00    1.04631   1.02559   -1.000
 5676.00    1.04513   1.02574   -1.000
 5677.00    1.04696   1.02531   -1.000
 5678.00    1.04573   1.02382   -1.000
 5679.00    1.04422   1.02054   -1.000
 5680.00    1.04078   1.01513   -1.000
 5681.00    1.03953   1.00817   -1.000
 5682.00    1.03312   1.00113   -1.000
 5683.00    1.02470   0.99584   -1.000
 5684.00    1.02579   0.99331   -1.000
 5685.00    1.02771   0.99291   -1.000
 5686.00    1.02671   0.99315   -1.000
 5687.00    1.02469   0.99300   -1.000
 5688.00    1.02320   0.99319   -1.000
 5689.00    1.02618   0.99523   -1.000
 5690.00    1.03380   0.99977   -1.000
 5691.00    1.03997   1.00592   -1.000
 5692.00    1.03891   1.01190   -1.000
 5693.00    1.04270   1.01651   -1.000
 5694.00    1.04285   1.01936   -1.000
 5695.00    1.04087   1.02054   -1.000
 5696.00    1.03765   1.01999   -1.000
 5697.00    1.03126   1.01755   -1.000
 5698.00    1.02805   1.01339   -1.000
 5699.00    1.02441   1.00816   -1.000
 5700.00    1.01887   1.00315   -1.000
 5701.00    1.01354   0.99951   -1.000
 5702.00    1.01569   0.99784   -1.000
 5703.00    1.01865   0.99760   -1.000
 5704.00    1.02251   0.99721   -1.000
 5705.00    1.02021   0.99495   -1.000
 5706.00    1.01222   0.98982   -1.000
 5707.00    1.00517   0.98227   -1.000
 5708.00    0.99423   0.97392   -1.000
 5709.00    0.98417   0.96722   -1.000
 5710.00    0.98372   0.96464   -1.000
 5711.00    0.98929   0.96760   -1.000
 5712.00    1.00303   0.97564   -1.000
 5713.00    1.01639   0.98664   -1.000
 5714.00    1.02673   0.99760   -1.000
 5715.00    1.03173   1.00627   -1.000
 5716.00    1.03060   1.01213   -1.000
 5717.00    1.03177   1.01616   -1.000
 5718.00    1.03662   1.01970   -1.000
 5719.00    1.04006   1.02333   -1.000
 5720.00    1.03916   1.02699  178.594
 5721.00    1.04050   1.03022  178.327
 5722.00    1.04460   1.03249  178.116
 5723.00    1.04388   1.03336  178.594
 5724.00    1.04242   1.03248  180.189
 5725.00    1.04021   1.02989  182.124
 5726.00    1.03340   1.02627  183.532
 5727.00    1.02641   1.02284  182.352
 5728.00    1.02765   1.02077  181.267
 5729.00    1.03670   1.02016   -1.000
 5730.00    1.03558   1.02037   -1.000
 5731.00    1.03187   1.02079  182.026
 5732.00    1.03085   1.02162  180.168
 5733.00    1.03417   1.02338  179.089
 5734.00    1.03970   1.02595  179.350
 5735.00    1.04164   1.02848  179.554
 5736.00    1.03683   1.03008  180.133
 5737.00    1.03530   1.03058  180.224
 5738.00    1.03789   1.03040  180.648
 5739.00    1.03911   1.02991  180.901
 5740.00    1.03638   1.02913  181.327
 5741.00    1.03638   1.02805  180.821
 5742.00    1.03650   1.02704  180.683
 5743.00    1.03385   1.02661  179.239
 5744.00    1.03673   1.02677  178.319
 5745.00    1.04010   1.02687  179.457
 5746.00    1.03983   1.02632  181.307
 5747.00    1.03211   1.02526  181.893
 5748.00    1.03139   1.02427  180.680
 5749.00    1.02828   1.02333  180.188
 5750.00    1.03256   1.02142  181.776
 5751.00    1.02877   1.01755  184.049
 5752.00    1.01974   1.01219  185.851
 5753.00    1.01252   1.00769  185.654
 5754.00    1.01723   1.00658  183.096
 5755.00    1.02534   1.00986   -1.000
 5756.00    1.03321   1.01612   -1.000
 5757.00    1.03859   1.02248   -1.000
 5758.00    1.04091   1.02629   -1.000
 5759.00    1.03745   1.02628  182.871
 5760.00    1.03092   1.02289  185.386
 5761.00    1.02556   1.01802  186.166
 5762.00    1.01994   1.01435  183.922
 5763.00    1.01981   1.01418  180.539
 5764.00    1.03064   1.01803  178.434
 5765.00    1.03740   1.02423  178.007
 5766.00    1.03908   1.03011  177.841
 5767.00    1.04151   1.03370  177.525
 5768.00    1.04023   1.03459  177.951
 5769.00    1.04007   1.03344  178.554
 5770.00    1.04034   1.03105  179.586
 5771.00    1.03926   1.02801  180.709
 5772.00    1.03546   1.02481  181.098
 5773.00    1.03284   1.02204  181.309
 5774.00    1.03614   1.02030   -1.000
 5775.00    1.03446   1.01975   -1.000
 5776.00    1.03070   1.01973  179.825
 5777.00    1.03225   1.01876  180.449
 5778.00    1.03204   1.01533   -1.000
 5779.00    1.02508   1.00915   -1.000
 5780.00    1.01902   1.00167   -1.000
 5781.00    1.01568   0.99517   -1.000
 5782.00    1.01641   0.99136   -1.000
 5783.00    1.02003   0.99055   -1.000
 5784.00    1.02048   0.99204   -1.000
 5785.00    1.02248   0.99514   -1.000
 5786.00    1.02563   0.99941   -1.000
 5787.00    1.02992   1.00422   -1.000
 5788.00    1.03136   1.00829   -1.000
 5789.00    1.03199   1.01045   -1.000
 5790.00    1.03023   1.01085   -1.000
 5791.00    1.03127   1.01095   -1.000
 5792.00    1.03212   1.01230   -1.000
 5793.00    1.03758   1.01524   -1.000
 5794.00    1.03990   1.01884   -1.000
 5795.00    1.04021   1.02165   -1.000
 5796.00    1.03645   1.02280  180.347
 5797.00    1.03211   1.02264  179.318
 5798.00    1.03390   1.02248  176.924
 5799.00    1.03733   1.02348  174.485
 5800.00    1.04061   1.02551   -1.000
 5801.00    1.04374   1.02741   -1.000
 5802.00    1.04434   1.02793   -1.000
 5803.00    1.03864   1.02659  178.659
 5804.00    1.03461   1.02403  179.396
 5805.00    1.03393   1.02161  178.889
 5806.00    1.03583   1.02052   -1.000
 5807.00    1.03793   1.02105   -1.000
 5808.00    1.03751   1.02271   -1.000
 5809.00    1.03704   1.02478  177.528
 5810.00    1.04203   1.02673   -1.000
 5811.00    1.04690   1.02802   -1.000
 5812.00    1.04949   1.02813   -1.000
 5813.00    1.05047   1.02683   -1.000
 5814.00    1.04542   1.02449   -1.000
 5815.00    1.03900   1.02218   -1.000
 5816.00    1.03814   1.02125   -1.000
 5817.00    1.04493   1.02246   -1.000
 5818.00    1.05052   1.02537   -1.000
 5819.00    1.04876   1.02863   -1.000
 5820.00    1.04863   1.03109   -1.000
 5821.00    1.05220   1.03250   -1.000
 5822.00    1.05088   1.03323   -1.000
 5823.00    1.04851   1.03366   -1.000
 5824.00    1.04929   1.03387   -1.000
 5825.00    1.04918   1.03394   -1.000
 5826.00    1.05158   1.03404   -1.000
 5827.00    1.05125   1.03432   -1.000
 5828.00    1.05159   1.03466   -1.000
 5829.00    1.05465   1.03482   -1.000
 5830.00    1.05405   1.03461   -1.000
 5831.00    1.05070   1.03396   -1.000
 5832.00    1.04962   1.03286   -1.000
 5833.00    1.04972   1.03148   -1.000
 5834.00    1.04690   1.03029   -1.000
 5835.00    1.04921   1.02985   -1.000
 5836.00    1.04697   1.03037   -1.000
 5837.00    1.04660   1.03150   -1.000
 5838.00    1.04675   1.03264  175.370
 5839.00    1.05079   1.03344   -1.000
 5840.00    1.04977   1.03391   -1.000
 5841.00    1.05412   1.03403   -1.000
 5842.00    1.04967   1.03362   -1.000
 5843.00    1.04967   1.03241   -1.000
 5844.00    1.05264   1.03035   -1.000
 5845.00    1.04836   1.02765   -1.000
 5846.00    1.04477   1.02492   -1.000
 5847.00    1.04374   1.02285   -1.000
 5848.00    1.04210   1.02164   -1.000
 5849.00    1.04348   1.02060   -1.000
 5850.00    1.04599   1.01857   -1.000
 5851.00    1.04416   1.01483   -1.000
 5852.00    1.03442   1.00965   -1.000
 5853.00    1.02516   1.00390   -1.000
 5854.00    1.02659   0.99816   -1.000
 5855.00    1.02799   0.99234   -1.000
 5856.00    1.02354   0.98641   -1.000
 5857.00    1.01696   0.98153   -1.000
 5858.00    1.01501   0.97982   -1.000
 5859.00    1.02412   0.98238   -1.000
 5860.00    1.03255   0.98823   -1.000
 5861.00    1.03689   0.99512   -1.000
 5862.00    1.03659   1.00117   -1.000
 5863.00    1.03574   1.00553   -1.000
 5864.00    1.03870   1.00787   -1.000
 5865.00    1.03585   1.00823   -1.000
 5866.00    1.03197   1.00746   -1.000
 5867.00    1.03188   1.00714   -1.000
 5868.00    1.03653   1.00866   -1.000
 5869.00    1.04075   1.01207   -1.000
 5870.00    1.04206   1.01598   -1.000
 5871.00    1.04260   1.01866   -1.000
 5872.00    1.04500   1.01920   -1.000
 5873.00    1.04539   1.01790   -1.000
 5874.00    1.04330   1.01567   -1.000
 5875.00    1.04388   1.01332   -1.000
 5876.00    1.04517   1.01119   -1.000
 5877.00    1.04466   1.00920   -1.000
 5878.00    1.03979   1.00712   -1.000
 5879.00    1.02997   1.00473   -1.000
 5880.00    1.02539   1.00191   -1.000
 5881.00    1.02598   0.99858   -1.000
 5882.00    1.02355   0.99467   -1.000
 5883.00    1.02270   0.99024   -1.000
 5884.00    1.02197   0.98483   -1.000
 5885.00    1.01654   0.97667   -1.000
 5886.00    1.00147   0.96237   -1.000
 5887.00    0.97718   0.93907   -1.000
 5888.00    0.94309   0.90870   -1.000
 5889.00    0.92131   0.87912   -1.000
 5890.00    0.92538   0.86060   -1.000
 5891.00    0.94774   0.85743   -1.000
 5892.00    0.96783   0.86438   -1.000
 5893.00    0.97145   0.87171   -1.000
 5894.00    0.95797   0.87303   -1.000
 5895.00    0.94327   0.87035   -1.000
 5896.00    0.94673   0.87083   -1.000
 5897.00    0.96582   0.88039   -1.000
 5898.00    0.98919   0.89892   -1.000
 5899.00    0.99870   0.92141   -1.000
 5900.00    1.00902   0.94286   -1.000
 5901.00    1.02064   0.96041   -1.000
 5902.00    1.01993   0.97334   -1.000
 5903.00    1.02384   0.98193   -1.000
 5904.00    1.02266   0.98706   -1.000
 5905.00    1.02088   0.99009   -1.000
 5906.00    1.02306   0.99230   -1.000
 5907.00    1.02106   0.99434   -1.000
 5908.00    1.02169   0.99620   -1.000
 5909.00    1.02034   0.99756   -1.000
 5910.00    1.02324   0.99786   -1.000
 5911.00    1.02580   0.99658   -1.000
 5912.00    1.02357   0.99341   -1.000
 5913.00    1.01275   0.98888   -1.000
 5914.00    1.00487   0.98450   -1.000
 5915.00    1.00274   0.98191   -1.000
 5916.00    1.00506   0.98203   -1.000
 5917.00    1.00924   0.98452   -1.000
 5918.00    1.00684   0.98826   -1.000
 5919.00    1.01097   0.99180   -1.000
 5920.00    1.01387   0.99423   -1.000
 5921.00    1.01400   0.99544   -1.000
 5922.00    1.01499   0.99599   -1.000
 5923.00    1.01624   0.99666   -1.000
 5924.00    1.02123   0.99779   -1.000
 5925.00    1.02597   0.99900   -1.000
 5926.00    1.02861   0.99927   -1.000
 5927.00    1.02443   0.99777   -1.000
 5928.00    1.02058   0.99464   -1.000
 5929.00    1.01623   0.99130   -1.000
 5930.00    1.01262   0.98937   -1.000
 5931.00    1.01794   0.98958   -1.000
 5932.00    1.02245   0.99115   -1.000
 5933.00    1.02225   0.99277   -1.000
 5934.00    1.02073   0.99409   -1.000
 5935.00    1.01444   0.99550   -1.000
 5936.00    1.01581   0.99729   -1.000
 5937.00    1.02362   0.99898   -1.000
 5938.00    1.02052   0.99954   -1.000
 5939.00    1.01275   0.99850   -1.000
 5940.00    1.00843   0.99630  185.715
 5941.00    1.00725   0.99415   -1.000
 5942.00    1.00487   0.99307  184.244
 5943.00    1.00506   0.99323  183.184
 5944.00    1.00884   0.99395   -1.000
 5945.00    1.01285   0.99418   -1.000
 5946.00    1.01276   0.99328   -1.000
 5947.00    1.00676   0.99140   -1.000
 5948.00    1.00224   0.98954   -1.000
 5949.00    1.00070   0.98854  186.043
 5950.00    1.00208   0.98849   -1.000
 5951.00    1.01062   0.98870   -1.000
 5952.00    1.01138   0.98851   -1.000
 5953.00    1.01154   0.98807   -1.000
 5954.00    1.00655   0.98761   -1.000
 5955.00    1.00474   0.98712   -1.000
 5956.00    1.00078   0.98684   -1.000
 5957.00    1.00077   0.98736   -1.000
 5958.00    1.00712   0.98931   -1.000
 5959.00    1.01832   0.99267   -1.000
 5960.00    1.02235   0.99648   -1.000
 5961.00    1.02234   0.99960   -1.000
 5962.00    1.02323   1.00128   -1.000
 5963.00    1.02108   1.00136   -1.000
 5964.00    1.01596   1.00025   -1.000
 5965.00    1.01315   0.99868   -1.000
 5966.00    1.00830   0.99749  183.192
 5967.00    1.01392   0.99726   -1.000
 5968.00    1.01546   0.99808   -1.000
 5969.00    1.02000   0.99964   -1.000
 5970.00    1.02346   1.00145   -1.000
 5971.00    1.02286   1.00270   -1.000
 5972.00    1.02530   1.00268   -1.000
 5973.00    1.02096   1.00086   -1.000
 5974.00    1.01273   0.99728   -1.000
 5975.00    1.00566   0.99287   -1.000
 5976.00    1.00132   0.98901  186.871
 5977.00    1.00255   0.98718   -1.000
 5978.00    1.00604   0.98781   -1.000
 5979.00    1.01068   0.99007   -1.000
 5980.00    1.01461   0.99220   -1.000
 5981.00    1.01506   0.99243   -1.000
 5982.00    1.00942   0.99016   -1.000
 5983.00    1.00233   0.98632   -1.000
 5984.00    0.99685   0.98294   -1.000
 5985.00    0.99986   0.98167   -1.000
 5986.00    1.00312   0.98296   -1.000
 5987.00    1.00540   0.98580   -1.000
 5988.00    1.00514   0.98880   -1.000
 5989.00    1.00662   0.99095   -1.000
 5990.00    1.00735   0.99224   -1.000
 5991.00    1.00922   0.99334   -1.000
 5992.00    1.00814   0.99488   -1.000
 5993.00    1.00915   0.99677  180.601
 5994.00    1.01557   0.99792   -1.000
 5995.00    1.01216   0.99761   -1.000
 5996.00    1.00638   0.99590  184.073
 5997.00    1.00567   0.99375  184.404
 5998.00    1.00683   0.99212   -1.000
 5999.00    1.00642   0.99117   -1.000
 6000.00    1.00579   0.99051   -1.000
 6001.00    1.00695   0.98955   -1.000
 6002.00    1.00286   0.98821   -1.000
 6003.00    0.99923   0.98675  185.270
 6004.00    0.99730   0.98523  185.507
 6005.00    0.99814   0.98327   -1.000
 6006.00    0.99835   0.98050   -1.000
 6007.00    0.99142   0.97770   -1.000
 6008.00    0.98899   0.97638   -1.000
 6009.00    0.99113   0.97746   -1.000
 6010.00    0.99725   0.98033   -1.000
 6011.00    1.00276   0.98296   -1.000
 6012.00    1.00297   0.98405   -1.000
 6013.00    1.00053   0.98364   -1.000
 6014.00    0.99609   0.98258   -1.000
 6015.00    0.99687   0.98172   -1.000
 6016.00    0.99430   0.98099   -1.000
 6017.00    0.99731   0.98000   -1.000
 6018.00    0.99566   0.97833   -1.000
 6019.00    0.98724   0.97603  188.766
 6020.00    0.98551   0.97365  187.724
 6021.00    0.98620   0.97216   -1.000
 6022.00    0.98635   0.97220   -1.000
 6023.00    0.99068   0.97377   -1.000
 6024.00    0.98915   0.97672  184.655
 6025.00    0.99151   0.98071  184.226
 6026.00    0.99501   0.98512  182.932
 6027.00    0.99887   0.98938  182.218
 6028.00    0.99680   0.99320  182.039
 6029.00    1.00058   0.99638  182.124
 6030.00    1.00159   0.99884  182.608
 6031.00    1.00119   1.00059  182.143
 6032.00    1.00374   1.00184  181.272
 6033.00    1.00580   1.00282  180.880
 6034.00    1.00832   1.00360  180.851
 6035.00    1.00629   1.00397  180.459
 6036.00    1.00490   1.00370  180.756
 6037.00    1.00414   1.00263  181.916
 6038.00    1.00077   1.00073  182.150
 6039.00    0.99957   0.99829  182.791
 6040.00    1.00069   0.99585  182.226
 6041.00    0.99764   0.99411  182.036
 6042.00    0.99854   0.99359  180.973
 6043.00    0.99762   0.99438  179.465
 6044.00    1.00304   0.99618  179.834
 6045.00    0.99971   0.99837  179.820
 6046.00    0.99962   1.00057  179.478
 6047.00    1.00275   1.00260  179.741
 6048.00    0.99863   1.00415  180.436
 6049.00    1.00024   1.00505  180.790
 6050.00    1.00032   1.00503  180.923
 6051.00    1.00071   1.00401  181.305
 6052.00    0.99722   1.00183  182.110
 6053.00    0.99765   0.99867  182.624
 6054.00    0.99728   0.99515  183.728
 6055.00    0.99202   0.99235  184.191
 6056.00    0.99004   0.99120  183.753
 6057.00    0.98855   0.99195  182.686
 6058.00    0.99578   0.99392  181.770
 6059.00    0.99150   0.99589  182.170
 6060.00    1.03814   0.99666   -1.000
 6061.00    1.01905   0.99530   -1.000
 6062.00    0.98048   0.99158  189.320
 6063.00    1.00555   0.98622   -1.000
 6064.00    0.63164   0.98097   -1.000
 6065.00    0.66399   0.97808   -1.000
 6066.00    1.00505   0.97907   -1.000
 6067.00    0.97843   0.98333  182.279
 6068.00    0.98888   0.98917  182.513
 6069.00    1.00862   0.99467   -1.000
 6070.00    1.00777   0.99872  175.038
 6071.00    0.99345   1.00132  179.754
 6072.00    0.99387   1.00277  180.437
 6073.00    0.99566   1.00337  180.538
 6074.00    0.99582   1.00301  181.230
 6075.00    0.99370   1.00134  182.214
 6076.00    0.98794   0.99836  183.267
 6077.00    0.98226   0.99456  184.757
 6078.00    0.97848   0.99079  185.826
 6079.00    0.97859   0.98800  185.774
 6080.00    0.97814   0.98615  185.979
 6081.00    0.97578   0.98471  186.569
 6082.00    0.97529   0.98329  186.459
 6083.00    0.97210   0.98195  186.318
 6084.00    0.97433   0.98126  186.111
 6085.00    0.97674   0.98168  185.516
 6086.00    0.97626   0.98312  184.741
 6087.00    0.97772   0.98481  185.285
 6088.00    0.97822   0.98579  186.508
 6089.00    0.97493   0.98572  187.229
 6090.00    0.97237   0.98494  187.005
 6091.00    0.97095   0.98439  185.648
 6092.00    0.97216   0.98474  184.788
 6093.00    0.97653   0.98614  183.709
 6094.00    0.97991   0.98833  182.958
 6095.00    0.97890   0.99071  183.152
 6096.00    0.98066   0.99274  183.653
 6097.00    0.98114   0.99356  183.710
 6098.00    0.97866   0.99211  183.723
 6099.00    0.98052   0.98735  186.272
 6100.00    0.97352   0.97905  191.177
 6101.00    0.95897   0.96910  193.935
 6102.00    0.94639   0.96081  191.899
 6103.00    0.94976   0.95777  187.976
 6104.00    0.96170   0.96089  185.300
 6105.00    0.97139   0.96807  184.966
 6106.00    0.97312   0.97634  185.833
 6107.00    0.97057   0.98325  186.225
 6108.00    0.96895   0.98822  186.076
 6109.00    0.96991   0.99141   -1.000
 6110.00    0.97180   0.99315   -1.000
 6111.00    0.96968   0.99397   -1.000
 6112.00    0.97557   0.99429  183.698
 6113.00    0.97643   0.99450  183.366
 6114.00    0.97443   0.99464   -1.000
 6115.00    0.96995   0.99447   -1.000
 6116.00    0.97056   0.99366   -1.000
 6117.00    0.96843   0.99169   -1.000
 6118.00    0.96915   0.98762  189.627
 6119.00    0.96114   0.98080   -1.000
 6120.00    0.94935   0.97163   -1.000
 6121.00    0.94340   0.96218  193.629
 6122.00    0.94050   0.95572  190.041
 6123.00    0.94687   0.95432  187.771
 6124.00    0.95468   0.95800  188.047
 6125.00    0.96074   0.96439  189.264
 6126.00    0.96235   0.97079  188.802
 6127.00    0.95893   0.97575  188.387
 6128.00    0.95663   0.97931   -1.000
 6129.00    0.96215   0.98263   -1.000
 6130.00    0.96554   0.98613   -1.000
 6131.00    0.96656   0.98914   -1.000
 6132.00    0.96696   0.98991   -1.000
 6133.00    0.95984   0.98617   -1.000
 6134.00    0.94839   0.97689   -1.000
 6135.00    0.93260   0.96361   -1.000
 6136.00    0.91370   0.95011   -1.000
 6137.00    0.90750   0.94101   -1.000
 6138.00    0.91949   0.93834  190.963
 6139.00    0.93816   0.94064  189.354
 6140.00    0.94719   0.94591  189.977
 6141.00    0.94139   0.95262  190.218
 6142.00    0.94101   0.96013  187.967
 6143.00    0.94766   0.96785   -1.000
 6144.00    0.95742   0.97408  185.748
 6145.00    0.96345   0.97764  186.739
 6146.00    0.95837   0.97824   -1.000
 6147.00    0.95585   0.97673   -1.000
 6148.00    0.95430   0.97454   -1.000
 6149.00    0.95182   0.97289   -1.000
 6150.00    0.94961   0.97240   -1.000
 6151.00    0.94612   0.97288   -1.000
 6152.00    0.95195   0.97357   -1.000
 6153.00    0.95796   0.97342  189.869
 6154.00    0.95956   0.97209  190.698
 6155.00    0.95774   0.96991  190.736
 6156.00    0.95504   0.96725  191.665
 6157.00    0.95581   0.96360  193.903
 6158.00    0.94994   0.95753  197.869
 6159.00    0.94234   0.94756  204.205
 6160.00    0.93204   0.93405  209.987
 6161.00    0.91392   0.92000  211.339
 6162.00    0.90086   0.90984  207.490
 6163.00    0.90387   0.90697  201.477
 6164.00    0.91952   0.91096  198.847
 6165.00    0.93200   0.91858   -1.000
 6166.00    0.93286   0.92535  199.002
 6167.00    0.93139   0.92859  201.898
 6168.00    0.92390   0.92852  203.744
 6169.00    0.91462   0.92799  201.686
 6170.00    0.91867   0.93003  197.487
 6171.00    0.93026   0.93524  194.990
 6172.00    0.93555   0.94263  195.595
 6173.00    0.93533   0.95000  195.666
 6174.00    0.93988   0.95596  195.098
 6175.00    0.94571   0.96013  194.756
 6176.00    0.94386   0.96289  194.189
 6177.00    0.94314   0.96489   -1.000
 6178.00    0.94676   0.96653   -1.000
 6179.00    0.94664   0.96817   -1.000
 6180.00    0.94625   0.96999   -1.000
 6181.00    0.94692   0.97192   -1.000
 6182.00    0.94811   0.97357   -1.000
 6183.00    0.95206   0.97416   -1.000
 6184.00    0.94880   0.97330   -1.000
 6185.00    0.94816   0.97097   -1.000
 6186.00    0.94678   0.96740   -1.000
 6187.00    0.94292   0.96280   -1.000
 6188.00    0.93533   0.95713   -1.000
 6189.00    0.92988   0.95078   -1.000
 6190.00    0.92276   0.94494   -1.000
 6191.00    0.91215   0.94189   -1.000
 6192.00    0.91327   0.94329   -1.000
 6193.00    0.92821   0.94845   -1.000
 6194.00    0.94164   0.95558  192.745
 6195.00    0.94558   0.96215  192.597
 6196.00    0.94411   0.96643   -1.000
 6197.00    0.94141   0.96800   -1.000
 6198.00    0.93529   0.96731   -1.000
 6199.00    0.92658   0.96571   -1.000
 6200.00    0.92359   0.96493   -1.000
 6201.00    0.92738   0.96600   -1.000
 6202.00    0.93491   0.96891   -1.000
 6203.00    0.94196   0.97281   -1.000
 6204.00    0.94337   0.97661   -1.000
 6205.00    0.94247   0.97952   -1.000
 6206.00    0.94288   0.98125   -1.000
 6207.00    0.94141   0.98179   -1.000
 6208.00    0.93906   0.98095   -1.000
 6209.00    0.93922   0.97848   -1.000
 6210.00    0.93819   0.97402   -1.000
 6211.00    0.93044   0.96770   -1.000
 6212.00    0.92453   0.96047   -1.000
 6213.00    0.91712   0.95377   -1.000
 6214.00    0.90959   0.94893   -1.000
 6215.00    0.91302   0.94619   -1.000
 6216.00    0.91432   0.94503   -1.000
 6217.00    0.92123   0.94440   -1.000
 6218.00    0.91978   0.94396   -1.000
 6219.00    0.91134   0.94421   -1.000
 6220.00    0.91140   0.94564   -1.000
 6221.00    0.92434   0.94843   -1.000
 6222.00    0.92731   0.95159   -1.000
 6223.00    0.93061   0.95434   -1.000
 6224.00    0.92568   0.95597   -1.000
 6225.00    0.92357   0.95597   -1.000
 6226.00    0.92489   0.95402   -1.000
 6227.00    0.92364   0.94954   -1.000
 6228.00    0.91784   0.94272   -1.000
 6229.00    0.90517   0.93497   -1.000
 6230.00    0.89407   0.92876   -1.000
 6231.00    0.89243   0.92644   -1.000
 6232.00    0.89571   0.92871   -1.000
 6233.00    0.91164   0.93432   -1.000
 6234.00    0.92222   0.94042  197.254
 6235.00    0.92162   0.94460   -1.000
 6236.00    0.92592   0.94574   -1.000
 6237.00    0.91898   0.94429   -1.000
 6238.00    0.91322   0.94168   -1.000
 6239.00    0.91180   0.93896   -1.000
 6240.00    0.90588   0.93647   -1.000
 6241.00    0.90421   0.93377   -1.000
 6242.00    0.89902   0.93025   -1.000
 6243.00    0.89551   0.92594   -1.000
 6244.00    0.89284   0.92185   -1.000
 6245.00    0.89386   0.91951   -1.000
 6246.00    0.89881   0.92043   -1.000
 6247.00    0.90268   0.92463   -1.000
 6248.00    0.90880   0.93045   -1.000
 6249.00    0.90935   0.93497   -1.000
 6250.00    0.90684   0.93590   -1.000
 6251.00    0.89900   0.93279   -1.000
 6252.00    0.88553   0.92711   -1.000
 6253.00    0.87960   0.92139   -1.000
 6254.00    0.87888   0.91724   -1.000
 6255.00    0.87820   0.91526   -1.000
 6256.00    0.87626   0.91498   -1.000
 6257.00    0.87611   0.91605   -1.000
 6258.00    0.87675   0.91851   -1.000
 6259.00    0.88375   0.92257   -1.000
 6260.00    0.89298   0.92806   -1.000
 6261.00    0.89836   0.93416   -1.000
 6262.00    0.90061   0.93981   -1.000
 6263.00    0.90301   0.94397   -1.000
 6264.00    0.90236   0.94666   -1.000
 6265.00    0.89692   0.94837   -1.000
 6266.00    0.89529   0.94960   -1.000
 6267.00    0.90185   0.95040   -1.000
 6268.00    0.90377   0.95034   -1.000
 6269.00    0.90085   0.94954   -1.000
 6270.00    0.90020   0.94850   -1.000
 6271.00    0.89821   0.94740   -1.000
 6272.00    0.89928   0.94593   -1.000
 6273.00    0.89525   0.94291   -1.000
 6274.00    0.88457   0.93769   -1.000
 6275.00    0.86903   0.93070   -1.000
 6276.00    0.85401   0.92295   -1.000
 6277.00    0.84755   0.91611   -1.000
 6278.00    0.84825   0.91136   -1.000
 6279.00    0.85265   0.90956   -1.000
 6280.00    0.85747   0.91134   -1.000
 6281.00    0.86219   0.91626   -1.000
 6282.00    0.87365   0.92337   -1.000
 6283.00    0.88335   0.93112   -1.000
 6284.00    0.88803   0.93804   -1.000
 6285.00    0.89383   0.94330   -1.000
 6286.00    0.89718   0.94657   -1.000
 6287.00    0.89801   0.94792   -1.000
 6288.00    0.89787   0.94745   -1.000
 6289.00    0.89497   0.94566   -1.000
 6290.00    0.88637   0.94339   -1.000
 6291.00    0.88413   0.94136   -1.000
 6292.00    0.88482   0.93994   -1.000
 6293.00    0.88324   0.93884   -1.000
 6294.00    0.88048   0.93733   -1.000
 6295.00    0.87933   0.93481   -1.000
 6296.00    0.88058   0.93132   -1.000
 6297.00    0.88178   0.92748   -1.000
 6298.00    0.88857   0.92393   -1.000
 6299.00    0.90424   0.92109  205.281
 6300.00    0.90338   0.91935  207.415
 6301.00    0.88411   0.91947   -1.000
 6302.00    0.87129   0.92234   -1.000
 6303.00    0.87810   0.92780   -1.000
 6304.00    0.88235   0.93456   -1.000
 6305.00    0.88424   0.94096   -1.000
 6306.00    0.89059   0.94564   -1.000
 6307.00    0.89629   0.94818   -1.000
 6308.00    0.89723   0.94898   -1.000
 6309.00    0.89434   0.94866   -1.000
 6310.00    0.88833   0.94748   -1.000
 6311.00    0.88679   0.94559   -1.000
 6312.00    0.88731   0.94286   -1.000
 6313.00    0.88155   0.93923   -1.000
 6314.00    0.87477   0.93521   -1.000
 6315.00    0.87345   0.93128   -1.000
 6316.00    0.87443   0.92826   -1.000
 6317.00    0.87505   0.92696   -1.000
 6318.00    0.87438   0.92791   -1.000
 6319.00    0.87953   0.93113   -1.000
 6320.00    0.88524   0.93580   -1.000
 6321.00    0.88857   0.94084   -1.000
 6322.00    0.88786   0.94574   -1.000
 6323.00    0.88820   0.95021   -1.000
 6324.00    0.89358   0.95371   -1.000
 6325.00    0.89841   0.95609   -1.000
 6326.00    0.89855   0.95718   -1.000
 6327.00    0.89719   0.95722   -1.000
 6328.00    0.89434   0.95685   -1.000
 6329.00    0.89691   0.95637   -1.000
 6330.00    0.89959   0.95582   -1.000
 6331.00    0.89738   0.95471   -1.000
 6332.00    0.90772   0.95220   -1.000
 6333.00    0.93752   0.94784  195.885
 6334.00    0.89215   0.94221   -1.000
 6335.00    0.87813   0.93692   -1.000
 6336.00    0.87417   0.93400   -1.000
 6337.00    0.88049   0.93440   -1.000
 6338.00    0.88905   0.93765   -1.000
 6339.00    0.89736   0.94247   -1.000
 6340.00    0.89795   0.94706   -1.000
 6341.00    0.90376   0.94995   -1.000
 6342.00    0.89920   0.95074   -1.000
 6343.00    0.89526   0.94977   -1.000
 6344.00    0.89333   0.94810   -1.000
 6345.00    0.89534   0.94713   -1.000
 6346.00    0.89843   0.94782   -1.000
 6347.00    0.90048   0.95051   -1.000
 6348.00    0.90327   0.95449   -1.000
 6349.00    0.90344   0.95843   -1.000
 6350.00    0.90320   0.96115   -1.000
 6351.00    0.90179   0.96181   -1.000
 6352.00    0.90203   0.96042   -1.000
 6353.00    0.89994   0.95769   -1.000
 6354.00    0.89564   0.95445   -1.000
 6355.00    0.89057   0.95139   -1.000
 6356.00    0.89079   0.94865   -1.000
 6357.00    0.88727   0.94607   -1.000
 6358.00    0.88473   0.94370   -1.000
 6359.00    0.88473   0.94153   -1.000
 6360.00    0.88756   0.93953   -1.000
 6361.00    0.89399   0.93797   -1.000
 6362.00    0.89969   0.93714   -1.000
 6363.00    0.89926   0.93740   -1.000
 6364.00    0.89818   0.93890   -1.000
 6365.00    0.89710   0.94123   -1.000
 6366.00    0.89480   0.94381   -1.000
 6367.00    0.88977   0.94584   -1.000
 6368.00    0.89460   0.94688   -1.000
 6369.00    0.89381   0.94722   -1.000
 6370.00    0.89030   0.94761   -1.000
 6371.00    0.89164   0.94871   -1.000
 6372.00    0.89317   0.95056   -1.000
 6373.00    0.88898   0.95252   -1.000
 6374.00    0.89010   0.95368   -1.000
 6375.00    0.88670   0.95359   -1.000
 6376.00    0.88884   0.95229   -1.000
 6377.00    0.88531   0.95036   -1.000
 6378.00    0.87655   0.94836   -1.000
 6379.00    0.87459   0.94660   -1.000
 6380.00    0.87462   0.94529   -1.000
 6381.00    0.86779   0.94445   -1.000
 6382.00    0.86969   0.94421   -1.000
 6383.00    0.86604   0.94469   -1.000
 6384.00    0.86442   0.94593   -1.000
 6385.00    0.86273   0.94766   -1.000
 6386.00    0.86105   0.94930   -1.000
 6387.00    0.86193   0.95030   -1.000
 6388.00    0.85310   0.95019   -1.000
 6389.00    0.84818   0.94860   -1.000
 6390.00    0.84364   0.94537   -1.000
 6391.00    0.83449   0.94088   -1.000
 6392.00    0.82645   0.93659   -1.000
 6393.00    0.81750   0.93408   -1.000
 6394.00    0.81440   0.93419   -1.000
 6395.00    0.81919   0.93615   -1.000
 6396.00    0.82387   0.93786   -1.000
 6397.00    0.81635   0.93758   -1.000
 6398.00    0.80823   0.93515   -1.000
 6399.00    0.79315   0.93243   -1.000
 6400.00    0.78632   0.93167   -1.000
 6401.00    0.78778   0.93389   -1.000
 6402.00    0.79358   0.93828   -1.000
 6403.00    0.79874   0.94273   -1.000
 6404.00    0.79872   0.94526   -1.000
 6405.00    0.78980   0.94495   -1.000
 6406.00    0.78138   0.94253   -1.000
 6407.00    0.77182   0.93953   -1.000
 6408.00    0.76826   0.93728   -1.000
 6409.00    0.76518   0.93609   -1.000
 6410.00    0.75877   0.93573   -1.000
 6411.00    0.75421   0.93619   -1.000
 6412.00    0.74785   0.93730   -1.000
 6413.00    0.74475   0.93883   -1.000
 6414.00    0.74447   0.94040   -1.000
 6415.00    0.74267   0.94157   -1.000
 6416.00    0.73537   0.94181   -1.000
 6417.00    0.72881   0.94065   -1.000
 6418.00    0.71797   0.93824   -1.000
 6419.00    0.71052   0.93550   -1.000
 6420.00    0.70004   0.93389   -1.000
 6421.00    0.69159   0.93500   -1.000
 6422.00    0.68969   0.93906   -1.000
 6423.00    0.68893   0.94472   -1.000
 6424.00    0.68676   0.95056   -1.000
 6425.00    0.68232   0.95496   -1.000
 6426.00    0.67496   0.95675   -1.000
 6427.00    0.66845   0.95556   -1.000
 6428.00    0.65825   0.95141   -1.000
