###################################################################
## OUTPUT of StarlightChains_v04.for    [Cid@UFSC - 01/Apr/2007] ##
###################################################################

## Some input info
NGC5986_a_1.cxt                          [arq_obs]
Base.BC03.N                              [arq_base]
NGC5986_a_1.msk                          [arq_masks]
StCv04.C11.config                        [arq_config]
   45                                    [N_base]
    0                                    [N_YAV_components = # of components with extra extinction!]
    0                                    [i_FitPowerLaw (1/0 = Yes/No)]
-9.99                                    [alpha_PowerLaw]
CCM                                      [red_law_option]
 1.458241                                [q_norm = A(l_norm)/A(V)]

## (Re)Sampling Parameters
 3359.00                                 [l_ini (A)]
 6428.00                                 [l_fin (A)]
    1.00                                 [dl    (A)]     (OBS: dl_cushion =    50.00 A)

## Normalization info
 4020.00                                 [l_norm (A) - for base]
 4010.00                                 [llow_norm (A) - window for f_obs]
 4060.00                                 [lupp_norm (A) - window for f_obs]
1.970425E-14                             [fobs_norm (in input units)]

## S/N
 4730.00                                 [llow_SN (A) - window for S/N]
 4780.00                                 [lupp_SN (A) - window for S/N]
 120.453                                 [S/N in S/N window]
 104.720                                 [S/N in norm. window]
  85.601                                 [S/N_err in S/N window]
  74.420                                 [S/N_err in norm. window]
  1.0000                                 [fscale_chi2]

## etc...
  2147483629                             [idum_orig]
  3069                                   [NOl_eff]
  1592                                   [Nl_eff]
  1477    NSIGMA                         [Ntot_cliped & clip_method]
   901600                                [Nglobal_steps]
   7                                     [N_chains]
  13                                     [NEX0s_base = N_base in EX0s-fits]
 0   0   1       80   2.0   6.651E+02    [Clip-Bug, RC-Crash & Burn-In warning-flags, n_censored_weights, wei_nsig_threshold & wei_limit]
     9      9.883      9.875      0.008  [idt_all, wdt_TotTime, wdt_UsrTime & wdt_SysTime (sec)]

## Synthesis Results - Best model ##

 2.38231E+00                             [chi2/Nl_eff]
     1.74672                             [adev (%)]

   103.08069                             [sum-of-x (%)]
 7.31326E-14                             [Flux_tot (units of input spectrum!)]
 6.86635E-10                             [Mini_tot (???)]
 3.65554E-10                             [Mcor_tot (???)]

 -28.61                                  [v0_min  (km/s)]
 101.15                                  [vd_min  (km/s)]
 0.9538                                  [AV_min  (mag)]
 0.0000                                  [YAV_min (mag)]

# j     x_j(%)      Mini_j(%)     Mcor_j(%)     age_j(yr)     Z_j      (L/M)_j    YAV?  Mstars   component_j        a/Fe...       SSP_chi2r SSP_adev(%)   SSP_AV   SSP_x(%)
  1      0.0000     0.0000E+00    0.0000E+00    1.000000E+06  0.00400  1.114E-02    0   1.0000   age020_m42            0.0000     1.4428E+02     8.3911   4.0000    75.0451
  2      2.6262     6.6623E-03    1.2513E-02    3.160000E+06  0.00400  4.073E-02    0   0.9999   age045_m42            0.0000     3.0211E+01     3.7332   3.1160    88.4948
  3      0.0000     0.0000E+00    0.0000E+00    5.010000E+06  0.00400  2.534E-02    0   0.9488   age055_m42            0.0000     7.2776E+01     6.2030   3.5506    80.7650
  4      8.0977     6.5830E-02    1.0958E-01    1.000000E+07  0.00400  1.271E-02    0   0.8862   age070_m42            0.0000     6.5437E+01     6.8558   2.7392    85.4558
  5      0.7961     1.6224E-02    2.4910E-02    2.512000E+07  0.00400  5.070E-03    0   0.8174   age090_m42            0.0000     6.0015E+01     6.5673   2.6141    86.9150
  6      0.0000     0.0000E+00    0.0000E+00    4.000000E+07  0.00400  3.505E-03    0   0.7851   age104_m42            0.0000     4.0706E+01     5.1800   2.2985    90.1935
  7      7.4720     3.4041E-01    4.6082E-01    1.015200E+08  0.00400  2.268E-03    0   0.7207   age116_m42            0.0000     3.3469E+01     4.4819   2.2099   104.5274
  8      0.0000     0.0000E+00    0.0000E+00    2.861200E+08  0.00400  1.079E-03    0   0.6613   age125_m42            0.0000     3.7956E+01     4.8894   1.7294   106.2437
  9      6.4672     1.3162E+00    1.5320E+00    6.405400E+08  0.00400  5.077E-04    0   0.6197   age132_m42            0.0000     4.3510E+01     5.1170   1.3593   110.7893
 10     43.7267     1.2781E+01    1.4462E+01    9.047900E+08  0.00400  3.535E-04    0   0.6024   age135_m42            0.0000     2.1241E+01     3.9159   1.1368   109.1458
 11      0.0000     0.0000E+00    0.0000E+00    1.434000E+09  0.00400  1.910E-04    0   0.5716   age139_m42            0.0000     7.7051E+00     2.8635   0.6450   106.4635
 12     19.4204     2.0438E+01    2.0972E+01    2.500000E+09  0.00400  9.818E-05    0   0.5463   age150_m42            0.0000     1.2606E+01     3.1604   0.4082    99.9744
 13      9.6031     2.1031E+01    2.0653E+01    5.000000E+09  0.00400  4.718E-05    0   0.5228   age161_m42            0.0000     2.5415E+01     3.9479   0.2585    95.8186
 14      1.8597     8.7145E+00    8.1517E+00    1.100000E+10  0.00400  2.205E-05    0   0.4980   age185_m42            0.0000     4.5426E+01     5.1076   0.0129    93.3017
 15      0.0000     0.0000E+00    0.0000E+00    1.300000E+10  0.00400  1.883E-05    0   0.4927   age193_m42            0.0000     4.8998E+01     5.2908  -0.0009    93.0195
 16      0.0000     0.0000E+00    0.0000E+00    1.000000E+06  0.02000  1.989E-02    0   1.0000   age020_m62            0.0000     1.4133E+02     8.4704   4.0000    74.8531
 17      0.0000     0.0000E+00    0.0000E+00    3.160000E+06  0.02000  3.772E-02    0   0.9858   age045_m62            0.0000     1.2429E+02     8.3429   3.9616    74.7797
 18      0.0000     0.0000E+00    0.0000E+00    5.010000E+06  0.02000  3.227E-02    0   0.9342   age055_m62            0.0000     4.7044E+01     5.1303   3.3851    84.6986
 19      0.0002     2.4798E-06    4.0762E-06    1.000000E+07  0.02000  1.011E-02    0   0.8751   age070_m62            0.0000     1.5857E+02    11.2072   2.7982    79.7644
 20      0.0000     0.0000E+00    0.0000E+00    2.512000E+07  0.02000  4.206E-03    0   0.8099   age090_m62            0.0000     1.2142E+02     9.3866   2.7384    80.7868
 21      0.0000     0.0000E+00    0.0000E+00    4.000000E+07  0.02000  3.373E-03    0   0.7799   age104_m62            0.0000     3.2260E+01     4.8004   2.4990    92.1734
 22      0.0000     0.0000E+00    0.0000E+00    1.015200E+08  0.02000  1.878E-03    0   0.7221   age116_m62            0.0000     2.5300E+01     3.9584   2.2519   103.9732
 23      0.0000     0.0000E+00    0.0000E+00    2.861200E+08  0.02000  8.869E-04    0   0.6700   age125_m62            0.0000     8.2572E+01     6.5791   1.7243   112.4081
 24      0.0000     0.0000E+00    0.0000E+00    6.405400E+08  0.02000  3.657E-04    0   0.6322   age132_m62            0.0000     4.9187E+01     5.6121   1.0742   114.8233
 25      0.0000     0.0000E+00    0.0000E+00    9.047900E+08  0.02000  2.312E-04    0   0.6152   age135_m62            0.0000     2.4372E+01     4.4858   0.7204   112.7662
 26      0.0000     0.0000E+00    0.0000E+00    1.434000E+09  0.02000  1.168E-04    0   0.5865   age139_m62            0.0000     1.4057E+01     3.6044   0.3468   104.5660
 27      0.0000     0.0000E+00    0.0000E+00    2.500000E+09  0.02000  5.505E-05    0   0.5610   age150_m62            0.0000     3.1766E+01     4.8699   0.0010   100.6131
 28      0.0000     0.0000E+00    0.0000E+00    5.000000E+09  0.02000  2.596E-05    0   0.5353   age161_m62            0.0000     5.6422E+01     6.3549  -0.3138   100.1909
 29      1.0644     9.4079E+00    9.0176E+00    1.100000E+10  0.02000  1.169E-05    0   0.5103   age185_m62            0.0000     8.3130E+01     7.6895  -0.6683   101.4979
 30      0.9530     1.0161E+01    9.6326E+00    1.300000E+10  0.02000  9.691E-06    0   0.5047   age193_m62            0.0000     8.8440E+01     7.9054  -0.7137   101.7332
 31      0.0000     0.0000E+00    0.0000E+00    1.000000E+06  0.05000  2.651E-02    0   0.9998   age020_m72            0.0000     1.3306E+02     8.0702   4.0000    75.8115
 32      0.0000     0.0000E+00    0.0000E+00    3.160000E+06  0.05000  4.817E-02    0   0.9577   age045_m72            0.0000     8.8865E+01     6.8235   3.7990    78.7823
 33      0.0000     0.0000E+00    0.0000E+00    5.010000E+06  0.05000  3.101E-02    0   0.9147   age055_m72            0.0000     8.3468E+01     6.8930   3.4258    81.6522
 34      0.0000     0.0000E+00    0.0000E+00    1.000000E+07  0.05000  8.954E-03    0   0.8524   age070_m72            0.0000     9.0358E+01     7.1400   3.6784    79.8014
 35      0.0000     0.0000E+00    0.0000E+00    2.512000E+07  0.05000  4.207E-03    0   0.7902   age090_m72            0.0000     4.6011E+01     5.1936   3.2180    86.6941
 36      0.0000     0.0000E+00    0.0000E+00    4.000000E+07  0.05000  3.198E-03    0   0.7618   age104_m72            0.0000     1.5825E+01     3.3235   2.6497    98.1775
 37      0.0000     0.0000E+00    0.0000E+00    1.015200E+08  0.05000  1.716E-03    0   0.7092   age116_m72            0.0000     3.4895E+01     4.5398   2.3304   104.5754
 38      0.0000     0.0000E+00    0.0000E+00    2.861200E+08  0.05000  7.047E-04    0   0.6618   age125_m72            0.0000     8.1392E+01     6.6276   1.5182   113.1431
 39      0.0000     0.0000E+00    0.0000E+00    6.405400E+08  0.05000  2.633E-04    0   0.6253   age132_m72            0.0000     3.7492E+01     5.1305   0.7024   114.0754
 40      0.0000     0.0000E+00    0.0000E+00    9.047900E+08  0.05000  1.484E-04    0   0.6088   age135_m72            0.0000     2.0924E+01     4.3046   0.2647   106.6786
 41      0.0000     0.0000E+00    0.0000E+00    1.434000E+09  0.05000  7.827E-05    0   0.5847   age139_m72            0.0000     3.9574E+01     5.5625  -0.0910   101.6715
 42      0.0000     0.0000E+00    0.0000E+00    2.500000E+09  0.05000  3.759E-05    0   0.5583   age150_m72            0.0000     6.1411E+01     6.7264  -0.3935   100.0496
 43      0.0000     0.0000E+00    0.0000E+00    5.000000E+09  0.05000  1.548E-05    0   0.5320   age161_m72            0.0000     8.7522E+01     7.9957  -0.8034    99.7751
 44      0.9938     1.5721E+01    1.4971E+01    1.100000E+10  0.05000  6.532E-06    0   0.5070   age185_m72            0.0000     1.2787E+02     9.6726  -1.0000    94.4853
 45      0.0000     0.0000E+00    0.0000E+00    1.300000E+10  0.05000  5.316E-06    0   0.5018   age193_m72            0.0000     1.5903E+02    10.7023  -1.0000    91.0329


## Synthesis Results - Average & Chains ##

# j      x_j: min, <> & last-chain-values for 1 ...  7 chains
  1      0.0000      0.0168      0.0000      0.0000      0.0162      0.0000      0.0000      0.0000      0.0000
  2      2.6262      0.6949      0.6809      0.9148      0.7132      0.7890      0.9980      1.2497      0.6371
  3      0.0000      0.2996      0.4302      0.1504      0.0000      0.2311      0.5427      0.2302      0.2437
  4      8.0977      6.5005      7.0642      6.6843      6.9093      6.9801      6.5375      6.5307      6.9659
  5      0.7961      0.5399      0.6279      0.8759      1.0211      0.8522      0.4069      0.4902      0.5307
  6      0.0000      0.0649      0.0000      0.0000      0.0000      0.2722      0.1053      0.0000      0.0085
  7      7.4720      7.2704      8.0732      7.5412      7.2695      7.2898      7.3056      7.3345      7.2138
  8      0.0000      0.3286      0.0283      0.3801      0.0796      0.0000      0.1721      0.4706      0.4482
  9      6.4672      6.1019      6.0561      6.2557      6.1588      6.5984      5.9715      6.1826      6.3455
 10     43.7267     42.5622     43.1492     43.0453     43.6566     42.6232     43.7509     42.4290     42.7746
 11      0.0000      0.2068      0.1878      0.0000      0.1796      0.0615      0.0000      0.0000      0.0000
 12     19.4204     20.1543     20.1516     19.7034     19.4434     20.2810     19.6551     20.2196     20.6120
 13      9.6031     10.1897     10.4368     10.0507     10.2417      9.9008     10.2887     10.1420     10.1848
 14      1.8597      3.6414      2.5966      3.6339      3.3865      2.8813      2.7212      3.7359      3.4265
 15      0.0000      0.0187      0.0000      0.0000      0.0000      0.0000      0.0000      0.0000      0.0000
 16      0.0000      0.0088      0.0000      0.0000      0.0223      0.0000      0.0000      0.0000      0.0000
 17      0.0000      0.0298      0.0000      0.0055      0.0000      0.0000      0.0000      0.0000      0.0000
 18      0.0000      0.4596      0.3537      0.3917      0.7611      0.3474      0.5798      0.4708      0.4787
 19      0.0002      0.5121      0.5591      0.4929      0.4435      0.4284      0.4391      0.4987      0.5298
 20      0.0000      0.0305      0.0000      0.0000      0.0000      0.0599      0.0000      0.0000      0.0000
 21      0.0000      0.0461      0.0000      0.0282      0.0000      0.0000      0.2628      0.0000      0.0000
 22      0.0000      0.1392      0.0000      0.0000      0.0000      0.0000      0.2689      0.2986      0.0000
 23      0.0000      0.0726      0.0000      0.0000      0.0000      0.5171      0.0000      0.0125      0.0000
 24      0.0000      0.0272      0.0111      0.0000      0.0000      0.0000      0.0000      0.0092      0.0000
 25      0.0000      0.0279      0.0000      0.0000      0.0000      0.0000      0.0000      0.0000      0.0000
 26      0.0000      0.0536      0.0000      0.0000      0.0176      0.0000      0.0618      0.0000      0.0000
 27      0.0000      0.0356      0.0000      0.0000      0.0000      0.0000      0.0000      0.0000      0.0000
 28      0.0000      0.0705      0.0000      0.0000      0.0000      0.0584      0.0000      0.0545      0.0246
 29      1.0644      0.4498      0.5125      0.4429      0.4549      0.5629      0.4270      0.4915      0.3848
 30      0.9530      0.4123      0.6565      0.4363      0.3806      0.2592      0.6995      0.4687      0.3410
 31      0.0000      0.0106      0.0000      0.0000      0.0000      0.0000      0.0000      0.0000      0.1188
 32      0.0000      0.0279      0.0000      0.0000      0.0000      0.0000      0.0000      0.0000      0.0093
 33      0.0000      0.0555      0.0000      0.0000      0.0962      0.0375      0.0220      0.0000      0.0000
 34      0.0000      0.0150      0.0000      0.0737      0.0000      0.0000      0.0000      0.0000      0.0000
 35      0.0000      0.0239      0.0000      0.0000      0.0000      0.0119      0.0000      0.0000      0.0000
 36      0.0000      0.1076      0.0000      0.0000      0.1612      0.0407      0.0000      0.0800      0.0394
 37      0.0000      0.1221      0.0000      0.0831      0.0000      0.0595      0.1759      0.0092      0.0000
 38      0.0000      0.0414      0.0000      0.0000      0.0000      0.0183      0.0000      0.0000      0.0000
 39      0.0000      0.0219      0.0000      0.0000      0.0000      0.0000      0.0000      0.0000      0.0000
 40      0.0000      0.0404      0.0000      0.0000      0.0029      0.0000      0.0000      0.0000      0.0033
 41      0.0000      0.0219      0.0088      0.0000      0.0000      0.0000      0.0000      0.1929      0.0000
 42      0.0000      0.0784      0.0000      0.2634      0.0000      0.2667      0.0000      0.0000      0.1209
 43      0.0000      0.5688      0.4790      0.6282      0.6000      0.6007      0.7346      0.6472      0.4697
 44      0.9938      0.5808      0.6906      0.4930      0.5865      0.6420      0.6145      0.5058      0.6504
 45      0.0000      0.4523      0.4058      0.5654      0.5116      0.5137      0.4462      0.4046      0.5172

# j      m_j: min, <> & last-chain-values for 1 ...  7 chains
  1  0.0000E+00  2.7673E-04  0.0000E+00  0.0000E+00  2.7057E-04  0.0000E+00  0.0000E+00  0.0000E+00  0.0000E+00
  2  1.2513E-02  3.1359E-03  3.1177E-03  4.1084E-03  3.2548E-03  3.6256E-03  4.5338E-03  5.6747E-03  2.8905E-03
  3  0.0000E+00  2.0624E-03  3.0043E-03  1.0305E-03  0.0000E+00  1.6197E-03  3.7602E-03  1.5945E-03  1.6860E-03
  4  1.0958E-01  8.3321E-02  9.1861E-02  8.5262E-02  8.9553E-02  9.1098E-02  8.4347E-02  8.4222E-02  8.9756E-02
  5  2.4910E-02  1.6001E-02  1.8879E-02  2.5834E-02  3.0601E-02  2.5716E-02  1.2140E-02  1.4619E-02  1.5811E-02
  6  0.0000E+00  2.6709E-03  0.0000E+00  0.0000E+00  0.0000E+00  1.1413E-02  4.3627E-03  0.0000E+00  3.5345E-04
  7  4.6082E-01  4.2471E-01  4.7845E-01  4.3839E-01  4.2941E-01  4.3360E-01  4.2957E-01  4.3109E-01  4.2362E-01
  8  0.0000E+00  3.7027E-02  3.2368E-03  4.2618E-02  9.0721E-03  0.0000E+00  1.9516E-02  5.3343E-02  5.0764E-02
  9  1.5320E+00  1.3692E+00  1.3786E+00  1.3969E+00  1.3974E+00  1.5076E+00  1.3487E+00  1.3958E+00  1.4313E+00
 10  1.4462E+01  1.3333E+01  1.3713E+01  1.3419E+01  1.3829E+01  1.3596E+01  1.3796E+01  1.3373E+01  1.3470E+01
 11  0.0000E+00  1.1379E-01  1.0482E-01  0.0000E+00  9.9930E-02  3.4436E-02  0.0000E+00  0.0000E+00  0.0000E+00
 12  2.0972E+01  2.0616E+01  2.0912E+01  2.0057E+01  2.0111E+01  2.1123E+01  2.0237E+01  2.0809E+01  2.1195E+01
 13  2.0653E+01  2.0757E+01  2.1569E+01  2.0374E+01  2.1096E+01  2.0536E+01  2.1096E+01  2.0787E+01  2.0856E+01
 14  8.1517E+00  1.5119E+01  1.0937E+01  1.5014E+01  1.4218E+01  1.2181E+01  1.1372E+01  1.5606E+01  1.4301E+01
 15  0.0000E+00  8.9931E-02  0.0000E+00  0.0000E+00  0.0000E+00  0.0000E+00  0.0000E+00  0.0000E+00  0.0000E+00
 16  0.0000E+00  8.1753E-05  0.0000E+00  0.0000E+00  2.0863E-04  0.0000E+00  0.0000E+00  0.0000E+00  0.0000E+00
 17  0.0000E+00  1.4295E-04  0.0000E+00  2.6248E-05  0.0000E+00  0.0000E+00  0.0000E+00  0.0000E+00  0.0000E+00
 18  0.0000E+00  2.4458E-03  1.9098E-03  2.0746E-03  4.0957E-03  1.8825E-03  3.1057E-03  2.5209E-03  2.5612E-03
 19  4.0762E-06  8.1481E-03  9.0255E-03  7.8056E-03  7.1353E-03  6.9403E-03  7.0333E-03  7.9840E-03  8.4744E-03
 20  0.0000E+00  1.0810E-03  0.0000E+00  0.0000E+00  0.0000E+00  2.1578E-03  0.0000E+00  0.0000E+00  0.0000E+00
 21  0.0000E+00  1.9587E-03  0.0000E+00  1.1946E-03  0.0000E+00  0.0000E+00  1.1246E-02  0.0000E+00  0.0000E+00
 22  0.0000E+00  9.8377E-03  0.0000E+00  0.0000E+00  0.0000E+00  0.0000E+00  1.9132E-02  2.1238E-02  0.0000E+00
 23  0.0000E+00  1.0087E-02  0.0000E+00  0.0000E+00  0.0000E+00  7.3119E-02  0.0000E+00  1.7523E-03  0.0000E+00
 24  0.0000E+00  8.6553E-03  3.5825E-03  0.0000E+00  0.0000E+00  0.0000E+00  0.0000E+00  2.9355E-03  0.0000E+00
 25  0.0000E+00  1.3669E-02  0.0000E+00  0.0000E+00  0.0000E+00  0.0000E+00  0.0000E+00  0.0000E+00  0.0000E+00
 26  0.0000E+00  4.9480E-02  0.0000E+00  0.0000E+00  1.6460E-02  0.0000E+00  5.7438E-02  0.0000E+00  0.0000E+00
 27  0.0000E+00  6.6655E-02  0.0000E+00  0.0000E+00  0.0000E+00  0.0000E+00  0.0000E+00  0.0000E+00  0.0000E+00
 28  0.0000E+00  2.6711E-01  0.0000E+00  0.0000E+00  0.0000E+00  2.2547E-01  0.0000E+00  2.0789E-01  9.3818E-02
 29  9.0176E+00  3.6094E+00  4.1725E+00  3.5367E+00  3.6915E+00  4.5997E+00  3.4492E+00  3.9686E+00  3.1040E+00
 30  9.6326E+00  3.9477E+00  6.3768E+00  4.1568E+00  3.6844E+00  2.5267E+00  6.7407E+00  4.5147E+00  3.2815E+00
 31  0.0000E+00  7.3565E-05  0.0000E+00  0.0000E+00  0.0000E+00  0.0000E+00  0.0000E+00  0.0000E+00  8.2831E-04
 32  0.0000E+00  1.0208E-04  0.0000E+00  0.0000E+00  0.0000E+00  0.0000E+00  0.0000E+00  0.0000E+00  3.4225E-05
 33  0.0000E+00  3.0070E-04  0.0000E+00  0.0000E+00  5.2755E-04  2.0718E-04  1.2000E-04  0.0000E+00  0.0000E+00
 34  0.0000E+00  2.6271E-04  0.0000E+00  1.2833E-03  0.0000E+00  0.0000E+00  0.0000E+00  0.0000E+00  0.0000E+00
 35  0.0000E+00  8.2515E-04  0.0000E+00  0.0000E+00  0.0000E+00  4.1775E-04  0.0000E+00  0.0000E+00  0.0000E+00
 36  0.0000E+00  4.7131E-03  0.0000E+00  0.0000E+00  7.1367E-03  1.8125E-03  0.0000E+00  3.5266E-03  1.7347E-03
 37  0.0000E+00  9.2801E-03  0.0000E+00  6.2800E-03  0.0000E+00  4.6044E-03  1.3454E-02  7.0505E-04  0.0000E+00
 38  0.0000E+00  7.1550E-03  0.0000E+00  0.0000E+00  0.0000E+00  3.2244E-03  0.0000E+00  0.0000E+00  0.0000E+00
 39  0.0000E+00  9.5825E-03  0.0000E+00  0.0000E+00  0.0000E+00  0.0000E+00  0.0000E+00  0.0000E+00  0.0000E+00
 40  0.0000E+00  3.0458E-02  0.0000E+00  0.0000E+00  2.2086E-03  0.0000E+00  0.0000E+00  0.0000E+00  2.4984E-03
 41  0.0000E+00  3.0027E-02  1.2276E-02  0.0000E+00  0.0000E+00  0.0000E+00  0.0000E+00  2.6660E-01  0.0000E+00
 42  0.0000E+00  2.1403E-01  0.0000E+00  7.1578E-01  0.0000E+00  7.4155E-01  0.0000E+00  0.0000E+00  3.3194E-01
 43  0.0000E+00  3.5936E+00  3.0704E+00  3.9498E+00  3.8328E+00  3.8641E+00  4.6713E+00  4.1139E+00  2.9828E+00
 44  1.4971E+01  8.2872E+00  9.9965E+00  7.0007E+00  8.4618E+00  9.3275E+00  8.8255E+00  7.2609E+00  9.3297E+00
 45  0.0000E+00  7.8495E+00  7.1434E+00  9.7629E+00  8.9772E+00  9.0763E+00  7.7929E+00  7.0648E+00  9.0222E+00

# AV, chi2 & Mass for <> & i_chain = 1 ...  7 solutions
AV       0.9538      0.8968      0.9127      0.9022      0.9125      0.9096      0.9124      0.8991      0.9016
chi2 2.3823E+00  2.4613E+00  2.4287E+00  2.4464E+00  2.4322E+00  2.4374E+00  2.4314E+00  2.4531E+00  2.4497E+00
Mass 3.6555E-10  3.5749E-10  3.5998E-10  3.6182E-10  3.6103E-10  3.5714E-10  3.6263E-10  3.5639E-10  3.5791E-10
 -28.61                                  [v0_min (km/s) before EX0s...]
 101.15                                  [vd_min (km/s) before EX0s...]


## Synthetic spectrum (Best Model) ##l_obs f_obs f_syn wei
 3070    [Nl_obs]
 3359.00    0.23525   0.42979   -1.000
 3360.00    0.23311   0.41482   -1.000
 3361.00    0.24299   0.41512   -1.000
 3362.00    0.26273   0.42983   -1.000
 3363.00    0.27723   0.45008   -1.000
 3364.00    0.27363   0.46467   -1.000
 3365.00    0.27749   0.46626   -1.000
 3366.00    0.29185   0.45517   -1.000
 3367.00    0.28018   0.43870   -1.000
 3368.00    0.27482   0.42523   -1.000
 3369.00    0.28217   0.41813   -1.000
 3370.00    0.28400   0.41518   -1.000
 3371.00    0.26910   0.41384   -1.000
 3372.00    0.27859   0.41626   -1.000
 3373.00    0.28461   0.42742   -1.000
 3374.00    0.29194   0.44763   -1.000
 3375.00    0.29854   0.46795   -1.000
 3376.00    0.31690   0.47640   -1.000
 3377.00    0.32759   0.46916   -1.000
 3378.00    0.32754   0.45350   -1.000
 3379.00    0.32505   0.44111   -1.000
 3380.00    0.32589   0.43963   -1.000
 3381.00    0.31079   0.44859   -1.000
 3382.00    0.30912   0.46173   -1.000
 3383.00    0.33287   0.47306   -1.000
 3384.00    0.33904   0.48083   -1.000
 3385.00    0.33191   0.48561   -1.000
 3386.00    0.34068   0.48760   -1.000
 3387.00    0.35087   0.48749   -1.000
 3388.00    0.34972   0.48696   -1.000
 3389.00    0.35897   0.48640   -1.000
 3390.00    0.37041   0.48381   -1.000
 3391.00    0.36376   0.47766   -1.000
 3392.00    0.34548   0.47064   -1.000
 3393.00    0.36597   0.46846   -1.000
 3394.00    0.37004   0.47457   -1.000
 3395.00    0.37965   0.48714   -1.000
 3396.00    0.38879   0.50089   -1.000
 3397.00    0.41234   0.51081   -1.000
 3398.00    0.41889   0.51425   -1.000
 3399.00    0.42591   0.51136   -1.000
 3400.00    0.42157   0.50422   -1.000
 3401.00    0.41652   0.49532   -1.000
 3402.00    0.42650   0.48694   -1.000
 3403.00    0.42046   0.48061   -1.000
 3404.00    0.40669   0.47601   -1.000
 3405.00    0.39679   0.47138   -1.000
 3406.00    0.39717   0.46625   -1.000
 3407.00    0.39672   0.46268   -1.000
 3408.00    0.39853   0.46337   -1.000
 3409.00    0.39517   0.46848   -1.000
 3410.00    0.40643   0.47476   -1.000
 3411.00    0.40711   0.47811   -1.000
 3412.00    0.41512   0.47713   -1.000
 3413.00    0.41532   0.47394   -1.000
 3414.00    0.40566   0.47217   -1.000
 3415.00    0.41297   0.47458   -1.000
 3416.00    0.41309   0.48205   -1.000
 3417.00    0.41824   0.49354   -1.000
 3418.00    0.43357   0.50629   -1.000
 3419.00    0.44076   0.51611   -1.000
 3420.00    0.45244   0.51939   -1.000
 3421.00    0.45384   0.51595   -1.000
 3422.00    0.44535   0.50919   -1.000
 3423.00    0.44063   0.50312   -1.000
 3424.00    0.44280   0.50001   -1.000
 3425.00    0.44647   0.50044   -1.000
 3426.00    0.44600   0.50506   -1.000
 3427.00    0.45519   0.51395   -1.000
 3428.00    0.45902   0.52388   -1.000
 3429.00    0.46143   0.52916   -1.000
 3430.00    0.47773   0.52670   -1.000
 3431.00    0.46909   0.51867   -1.000
 3432.00    0.46916   0.51061   -1.000
 3433.00    0.47257   0.50700   -1.000
 3434.00    0.45898   0.50815   -1.000
 3435.00    0.46657   0.51037   -1.000
 3436.00    0.47414   0.50880   -1.000
 3437.00    0.47170   0.50041   -1.000
 3438.00    0.46846   0.48473  222.590
 3439.00    0.44283   0.46393  239.705
 3440.00    0.43616   0.44351  248.465
 3441.00    0.42362   0.43076  248.646
 3442.00    0.43568   0.42944   -1.000
 3443.00    0.43903   0.43667   -1.000
 3444.00    0.43955   0.44728  223.518
 3445.00    0.44310   0.45959  211.549
 3446.00    0.46262   0.47479  221.923
 3447.00    0.47685   0.49211   -1.000
 3448.00    0.49006   0.50643   -1.000
 3449.00    0.47398   0.51155   -1.000
 3450.00    0.47772   0.50580   -1.000
 3451.00    0.48972   0.49344  665.053
 3452.00    0.48560   0.48200   -1.000
 3453.00    0.49030   0.47759   -1.000
 3454.00    0.48763   0.48051   -1.000
 3455.00    0.49581   0.48519   -1.000
 3456.00    0.49853   0.48550   -1.000
 3457.00    0.49632   0.48010   -1.000
 3458.00    0.48627   0.47195   -1.000
 3459.00    0.47649   0.46443   -1.000
 3460.00    0.46974   0.46045   -1.000
 3461.00    0.47726   0.46258   -1.000
 3462.00    0.48969   0.47067   -1.000
 3463.00    0.49067   0.48061   -1.000
 3464.00    0.49275   0.48798   -1.000
 3465.00    0.50005   0.49196   -1.000
 3466.00    0.49196   0.49486  665.053
 3467.00    0.49952   0.49868   -1.000
 3468.00    0.50296   0.50326   -1.000
 3469.00    0.51564   0.50712   -1.000
 3470.00    0.52073   0.50829   -1.000
 3471.00    0.51841   0.50469   -1.000
 3472.00    0.50993   0.49513   -1.000
 3473.00    0.48666   0.48078   -1.000
 3474.00    0.47216   0.46619  202.107
 3475.00    0.47196   0.45771   -1.000
 3476.00    0.47308   0.45914   -1.000
 3477.00    0.47499   0.46866   -1.000
 3478.00    0.48315   0.48077   -1.000
 3479.00    0.49453   0.49037   -1.000
 3480.00    0.50212   0.49494   -1.000
 3481.00    0.52009   0.49445   -1.000
 3482.00    0.53181   0.49078   -1.000
 3483.00    0.51067   0.48764   -1.000
 3484.00    0.50497   0.48959   -1.000
 3485.00    0.51524   0.49794   -1.000
 3486.00    0.51971   0.50755   -1.000
 3487.00    0.52131   0.51034   -1.000
 3488.00    0.51952   0.50284   -1.000
 3489.00    0.50738   0.48970   -1.000
 3490.00    0.50401   0.47905   -1.000
 3491.00    0.48932   0.47495   -1.000
 3492.00    0.48236   0.47484   -1.000
 3493.00    0.49081   0.47386   -1.000
 3494.00    0.48823   0.47033   -1.000
 3495.00    0.48986   0.46741   -1.000
 3496.00    0.49340   0.47016   -1.000
 3497.00    0.49153   0.48019   -1.000
 3498.00    0.48498   0.49270  665.053
 3499.00    0.51040   0.50146   -1.000
 3500.00    0.51721   0.50548   -1.000
 3501.00    0.52531   0.50786   -1.000
 3502.00    0.52047   0.51031   -1.000
 3503.00    0.52222   0.51091   -1.000
 3504.00    0.52414   0.50727   -1.000
 3505.00    0.51517   0.50063   -1.000
 3506.00    0.50700   0.49493   -1.000
 3507.00    0.50097   0.49251   -1.000
 3508.00    0.51145   0.49212   -1.000
 3509.00    0.51953   0.49068   -1.000
 3510.00    0.52385   0.48631   -1.000
 3511.00    0.51267   0.47945   -1.000
 3512.00    0.50710   0.47260   -1.000
 3513.00    0.50110   0.47007   -1.000
 3514.00    0.49541   0.47571   -1.000
 3515.00    0.50829   0.48887   -1.000
 3516.00    0.52541   0.50433   -1.000
 3517.00    0.52788   0.51537   -1.000
 3518.00    0.52872   0.51728   -1.000
 3519.00    0.52108   0.51003   -1.000
 3520.00    0.51131   0.49771   -1.000
 3521.00    0.49521   0.48492   -1.000
 3522.00    0.49946   0.47350   -1.000
 3523.00    0.49345   0.46369   -1.000
 3524.00    0.48557   0.45690   -1.000
 3525.00    0.47347   0.45609   -1.000
 3526.00    0.47043   0.46358   -1.000
 3527.00    0.48602   0.47798   -1.000
 3528.00    0.49546   0.49352   -1.000
 3529.00    0.51582   0.50380  166.192
 3530.00    0.52997   0.50675   -1.000
 3531.00    0.52179   0.50579   -1.000
 3532.00    0.52437   0.50634   -1.000
 3533.00    0.52831   0.51084   -1.000
 3534.00    0.52435   0.51722  161.868
 3535.00    0.52715   0.52234  159.776
 3536.00    0.53138   0.52568  160.430
 3537.00    0.53062   0.52918  158.604
 3538.00    0.52604   0.53360  156.954
 3539.00    0.54208   0.53707  158.555
 3540.00    0.53978   0.53825  161.415
 3541.00    0.52920   0.53882  162.494
 3542.00    0.53100   0.54099  161.252
 3543.00    0.54829   0.54436  159.014
 3544.00    0.54290   0.54680  158.959
 3545.00    0.54454   0.54673  162.050
 3546.00    0.54791   0.54453  165.427
 3547.00    0.53764   0.54204  165.913
 3548.00    0.52871   0.54095  165.446
 3549.00    0.53527   0.54149  164.669
 3550.00    0.53035   0.54201  167.329
 3551.00    0.52679   0.54005  172.568
 3552.00    0.52780   0.53484  177.305
 3553.00    0.52521   0.52858  179.610
 3554.00    0.51964   0.52463  177.586
 3555.00    0.52645   0.52399  174.052
 3556.00    0.53068   0.52445  175.130
 3557.00    0.52134   0.52370  177.664
 3558.00    0.52926   0.52249  179.434
 3559.00    0.53252   0.52397  177.392
 3560.00    0.52580   0.52996  174.303
 3561.00    0.53975   0.53730  173.773
 3562.00    0.53819   0.53836  175.410
 3563.00    0.53473   0.52710   92.277
 3564.00    0.52256   0.50629   20.268
 3565.00    0.50630   0.48646   20.969
 3566.00    0.49151   0.47554   20.731
 3567.00    0.48535   0.47174   20.718
 3568.00    0.49538   0.46768   21.397
 3569.00    0.49117   0.46037   21.649
 3570.00    0.48711   0.45435   20.920
 3571.00    0.49339   0.45494   22.644
 3572.00    0.48935   0.46147   -1.000
 3573.00    0.49237   0.46877   -1.000
 3574.00    0.50069   0.47323   -1.000
 3575.00    0.50261   0.47510   -1.000
 3576.00    0.50911   0.47539   -1.000
 3577.00    0.51990   0.47292   -1.000
 3578.00    0.51066   0.46529   21.046
 3579.00    0.50019   0.45269   22.669
 3580.00    0.49603   0.43948   23.766
 3581.00    0.47974   0.43123   23.901
 3582.00    0.48288   0.42961   24.064
 3583.00    0.47259   0.43063   24.703
 3584.00    0.46500   0.42928   25.462
 3585.00    0.45947   0.42550   25.590
 3586.00    0.45987   0.42384   24.268
 3587.00    0.46127   0.42867   22.989
 3588.00    0.47057   0.44069   21.743
 3589.00    0.48335   0.45698   22.687
 3590.00    0.49169   0.47295   -1.000
 3591.00    0.50235   0.48481   -1.000
 3592.00    0.51132   0.49190   -1.000
 3593.00    0.52268   0.49722   -1.000
 3594.00    0.52270   0.50473   -1.000
 3595.00    0.52152   0.51547  160.335
 3596.00    0.52822   0.52694  155.751
 3597.00    0.53624   0.53599  151.881
 3598.00    0.54948   0.54065  149.989
 3599.00    0.55465   0.53980  152.567
 3600.00    0.54469   0.53297  160.186
 3601.00    0.53720   0.52111   -1.000
 3602.00    0.52719   0.50740   -1.000
 3603.00    0.50927   0.49624   -1.000
 3604.00    0.50855   0.49039   -1.000
 3605.00    0.51845   0.48878   -1.000
 3606.00    0.52459   0.48777   -1.000
 3607.00    0.51466   0.48495   -1.000
 3608.00    0.51451   0.48173   -1.000
 3609.00    0.50893   0.48171   -1.000
 3610.00    0.50171   0.48613   -1.000
 3611.00    0.50540   0.49259   -1.000
 3612.00    0.50778   0.49875  171.528
 3613.00    0.50742   0.50461  167.970
 3614.00    0.51243   0.50991  162.699
 3615.00    0.51922   0.51094  164.966
 3616.00    0.53183   0.50328   -1.000
 3617.00    0.51797   0.48910   87.301
 3618.00    0.50360   0.47795   22.709
 3619.00    0.49449   0.47813   -1.000
 3620.00    0.51030   0.48978   -1.000
 3621.00    0.52753   0.50633   -1.000
 3622.00    0.53542   0.52120  156.388
 3623.00    0.54957   0.53294   -1.000
 3624.00    0.54435   0.54457  148.021
 3625.00    0.54486   0.55802  142.374
 3626.00    0.56446   0.57008  141.006
 3627.00    0.57376   0.57366  144.518
 3628.00    0.55885   0.56313  154.654
 3629.00    0.54518   0.54045  172.601
 3630.00    0.52221   0.51562  185.178
 3631.00    0.50630   0.49987  185.998
 3632.00    0.50948   0.49753   -1.000
 3633.00    0.51277   0.50418  173.930
 3634.00    0.52525   0.51218   -1.000
 3635.00    0.52885   0.51802  162.908
 3636.00    0.53280   0.52414  155.240
 3637.00    0.54517   0.53364  148.521
 3638.00    0.54830   0.54517  144.276
 3639.00    0.54964   0.55339  144.733
 3640.00    0.55663   0.55353  148.631
 3641.00    0.55106   0.54547  154.128
 3642.00    0.54403   0.53326  162.024
 3643.00    0.53420   0.52177  166.410
 3644.00    0.52293   0.51357  169.183
 3645.00    0.51638   0.50809  171.842
 3646.00    0.51855   0.50385   -1.000
 3647.00    0.52033   0.50127   -1.000
 3648.00    0.51978   0.50251   -1.000
 3649.00    0.52206   0.50921  161.636
 3650.00    0.53052   0.52082  153.932
 3651.00    0.54345   0.53450  147.900
 3652.00    0.54480   0.54693  144.545
 3653.00    0.55515   0.55633  142.792
 3654.00    0.55997   0.56309  142.153
 3655.00    0.56780   0.56907  140.510
 3656.00    0.56398   0.57555  138.909
 3657.00    0.57521   0.58167  136.904
 3658.00    0.57403   0.58537  137.073
 3659.00    0.56677   0.58511  137.293
 3660.00    0.56581   0.58071  138.843
 3661.00    0.57084   0.57338  140.471
 3662.00    0.56727   0.56543  142.698
 3663.00    0.57412   0.55953  143.312
 3664.00    0.57015   0.55706  141.803
 3665.00    0.56865   0.55686  142.383
 3666.00    0.57454   0.55611  145.230
 3667.00    0.57714   0.55325   -1.000
 3668.00    0.57469   0.55014   -1.000
 3669.00    0.56439   0.55039  148.255
 3670.00    0.55509   0.55527  143.006
 3671.00    0.55715   0.56231  140.556
 3672.00    0.57186   0.56762  140.176
 3673.00    0.57610   0.56869  140.207
 3674.00    0.57952   0.56498  141.172
 3675.00    0.58012   0.55709   -1.000
 3676.00    0.56470   0.54683  150.170
 3677.00    0.55413   0.53689  154.609
 3678.00    0.55234   0.52981   -1.000
 3679.00    0.55309   0.52683   -1.000
 3680.00    0.56387   0.52760   -1.000
 3681.00    0.56908   0.53077   -1.000
 3682.00    0.56687   0.53398   -1.000
 3683.00    0.55912   0.53368   -1.000
 3684.00    0.55552   0.52743   -1.000
 3685.00    0.55049   0.51735   -1.000
 3686.00    0.54420   0.51002   -1.000
 3687.00    0.54150   0.51159   -1.000
 3688.00    0.55357   0.52282   -1.000
 3689.00    0.57629   0.53879   -1.000
 3690.00    0.57201   0.55289  137.043
 3691.00    0.57970   0.56157  138.635
 3692.00    0.58287   0.56554  142.233
 3693.00    0.58629   0.56646   -1.000
 3694.00    0.59895   0.56472   -1.000
 3695.00    0.60359   0.56164   -1.000
 3696.00    0.58359   0.56170   -1.000
 3697.00    0.58618   0.56983  134.843
 3698.00    0.59655   0.58526  131.715
 3699.00    0.61440   0.59943  130.697
 3700.00    0.62760   0.60111   -1.000
 3701.00    0.62049   0.58417   -1.000
 3702.00    0.60337   0.55239   -1.000
 3703.00    0.57672   0.51805   -1.000
 3704.00    0.54937   0.49447   -1.000
 3705.00    0.54644   0.48738   -1.000
 3706.00    0.55884   0.49307   -1.000
 3707.00    0.58198   0.50405   -1.000
 3708.00    0.59051   0.51389   -1.000
 3709.00    0.58415   0.51952   -1.000
 3710.00    0.57212   0.52369   -1.000
 3711.00    0.56777   0.53333   -1.000
 3712.00    0.57941   0.55278   -1.000
 3713.00    0.60844   0.57899   -1.000
 3714.00    0.63248   0.60350   -1.000
 3715.00    0.65485   0.61800   -1.000
 3716.00    0.67914   0.61726   -1.000
 3717.00    0.67709   0.59835   -1.000
 3718.00    0.64836   0.56191   -1.000
 3719.00    0.59138   0.51636   -1.000
 3720.00    0.53488   0.47775   23.955
 3721.00    0.50232   0.46186   -1.000
 3722.00    0.50950   0.47496   -1.000
 3723.00    0.54610   0.50997   -1.000
 3724.00    0.60005   0.55099   -1.000
 3725.00    0.64011   0.58346   -1.000
 3726.00    0.65518   0.60282   -1.000
 3727.00    0.66170   0.61290   -1.000
 3728.00    0.66717   0.61660   -1.000
 3729.00    0.65857   0.61029   -1.000
 3730.00    0.65310   0.58743   -1.000
 3731.00    0.63079   0.54665   -1.000
 3732.00    0.58216   0.49602   20.286
 3733.00    0.52615   0.45040   22.460
 3734.00    0.48833   0.42449   22.922
 3735.00    0.48174   0.42642   21.561
 3736.00    0.51440   0.45553   23.589
 3737.00    0.56286   0.50354   -1.000
 3738.00    0.61790   0.55750   -1.000
 3739.00    0.65511   0.60416   -1.000
 3740.00    0.69641   0.63417   -1.000
 3741.00    0.70242   0.64399   -1.000
 3742.00    0.69469   0.63556   -1.000
 3743.00    0.68023   0.61441   -1.000
 3744.00    0.66936   0.58635   -1.000
 3745.00    0.63321   0.55428   -1.000
 3746.00    0.60523   0.51806   20.406
 3747.00    0.57846   0.47924   21.538
 3748.00    0.52999   0.44644   25.889
 3749.00    0.48408   0.43299   -1.000
 3750.00    0.49309   0.44778   -1.000
 3751.00    0.53778   0.48868   -1.000
 3752.00    0.60092   0.54392   -1.000
 3753.00    0.65302   0.59835   -1.000
 3754.00    0.70585   0.63896   -1.000
 3755.00    0.73109   0.65808   -1.000
 3756.00    0.72934   0.65612   -1.000
 3757.00    0.70954   0.64219   -1.000
 3758.00    0.68224   0.62906   -1.000
 3759.00    0.67681   0.62520   -1.000
 3760.00    0.68864   0.63043   -1.000
 3761.00    0.71748   0.63878   -1.000
 3762.00    0.72479   0.64392   -1.000
 3763.00    0.72419   0.64202   -1.000
 3764.00    0.72490   0.63163   -1.000
 3765.00    0.71234   0.61298   -1.000
 3766.00    0.68181   0.58730   -1.000
 3767.00    0.64822   0.55674   -1.000
 3768.00    0.61619   0.52549   -1.000
 3769.00    0.58790   0.50142   -1.000
 3770.00    0.57512   0.49449   -1.000
 3771.00    0.58399   0.50977   -1.000
 3772.00    0.61664   0.54205   -1.000
 3773.00    0.65274   0.58007   -1.000
 3774.00    0.68812   0.61543   -1.000
 3775.00    0.72381   0.64651   -1.000
 3776.00    0.74047   0.67542   -1.000
 3777.00    0.75847   0.70346   -1.000
 3778.00    0.77953   0.72984   -1.000
 3779.00    0.79829   0.75281   -1.000
 3780.00    0.81744   0.77096   -1.000
 3781.00    0.82774   0.78365   -1.000
 3782.00    0.83320   0.79008   -1.000
 3783.00    0.82755   0.78839   -1.000
 3784.00    0.81815   0.77697   -1.000
 3785.00    0.80634   0.75730   -1.000
 3786.00    0.78817   0.73448   -1.000
 3787.00    0.77357   0.71412   -1.000
 3788.00    0.76361   0.69898   -1.000
 3789.00    0.74666   0.68805   -1.000
 3790.00    0.75769   0.67728   -1.000
 3791.00    0.75178   0.66139   -1.000
 3792.00    0.73011   0.63659   -1.000
 3793.00    0.69736   0.60246   -1.000
 3794.00    0.65977   0.56164   -1.000
 3795.00    0.61907   0.51847   -1.000
 3796.00    0.58550   0.47983   -1.000
 3797.00    0.54617   0.45652   -1.000
 3798.00    0.53337   0.45928   -1.000
 3799.00    0.55109   0.49063   -1.000
 3800.00    0.60484   0.54201   -1.000
 3801.00    0.65877   0.59903   -1.000
 3802.00    0.71779   0.64920   -1.000
 3803.00    0.75217   0.68597   -1.000
 3804.00    0.76675   0.70854   -1.000
 3805.00    0.78341   0.72096   -1.000
 3806.00    0.78145   0.73072   -1.000
 3807.00    0.79582   0.74481   -1.000
 3808.00    0.80772   0.76532   -1.000
 3809.00    0.81878   0.78812   -1.000
 3810.00    0.82941   0.80438   -1.000
 3811.00    0.82816   0.80509   -1.000
 3812.00    0.82255   0.78824   -1.000
 3813.00    0.80126   0.76198   -1.000
 3814.00    0.79236   0.73974   -1.000
 3815.00    0.79013   0.73057   -1.000
 3816.00    0.79472   0.73237   -1.000
 3817.00    0.79939   0.73472   -1.000
 3818.00    0.80290   0.72910   -1.000
 3819.00    0.79026   0.71670   -1.000
 3820.00    0.75943   0.70553   -1.000
 3821.00    0.75707   0.69959   -1.000
 3822.00    0.78340   0.69376   -1.000
 3823.00    0.77439   0.68051   -1.000
 3824.00    0.74995   0.65896   20.954
 3825.00    0.72484   0.63532   21.266
 3826.00    0.71397   0.61568   21.037
 3827.00    0.70736   0.60065   20.692
 3828.00    0.69564   0.58628   20.476
 3829.00    0.68677   0.56756   20.884
 3830.00    0.66874   0.54108   22.001
 3831.00    0.63741   0.50647   -1.000
 3832.00    0.58664   0.46735   -1.000
 3833.00    0.53576   0.43136   23.400
 3834.00    0.51051   0.40735   22.535
 3835.00    0.51445   0.40093   22.255
 3836.00    0.52621   0.41189   22.765
 3837.00    0.54272   0.43605   23.111
 3838.00    0.57549   0.46957   22.475
 3839.00    0.61326   0.51058   26.364
 3840.00    0.65090   0.55723   -1.000
 3841.00    0.69882   0.60592   -1.000
 3842.00    0.73768   0.65158   -1.000
 3843.00    0.76855   0.68978   -1.000
 3844.00    0.79027   0.71965   -1.000
 3845.00    0.80703   0.74337   -1.000
 3846.00    0.82436   0.76233   -1.000
 3847.00    0.82563   0.77535   -1.000
 3848.00    0.81395   0.78199   -1.000
 3849.00    0.81392   0.78570   -1.000
 3850.00    0.81583   0.79137   -1.000
 3851.00    0.81817   0.80013  166.718
 3852.00    0.83276   0.80786   -1.000
 3853.00    0.83547   0.80964   -1.000
 3854.00    0.82653   0.80450   -1.000
 3855.00    0.82397   0.79514   -1.000
 3856.00    0.81628   0.78442   66.118
 3857.00    0.80972   0.77422   20.016
 3858.00    0.80038   0.76725   20.909
 3859.00    0.79000   0.76740   25.392
 3860.00    0.78698   0.77656  179.276
 3861.00    0.80802   0.79167  163.290
 3862.00    0.84019   0.80605   -1.000
 3863.00    0.86044   0.81451   -1.000
 3864.00    0.86004   0.81699   -1.000
 3865.00    0.85925   0.81680   -1.000
 3866.00    0.85806   0.81642   -1.000
 3867.00    0.84572   0.81505   -1.000
 3868.00    0.84567   0.80935   -1.000
 3869.00    0.83812   0.79661   66.950
 3870.00    0.81869   0.77823   24.923
 3871.00    0.80611   0.76074   -1.000
 3872.00    0.79612   0.75213   -1.000
 3873.00    0.79495   0.75501   -1.000
 3874.00    0.81366   0.76266   -1.000
 3875.00    0.82747   0.76386   -1.000
 3876.00    0.81387   0.75296   -1.000
 3877.00    0.78745   0.73454   -1.000
 3878.00    0.75786   0.71743   -1.000
 3879.00    0.75023   0.70568   -1.000
 3880.00    0.76171   0.69615   -1.000
 3881.00    0.75058   0.68351   -1.000
 3882.00    0.73483   0.66468   -1.000
 3883.00    0.72197   0.63830   -1.000
 3884.00    0.71355   0.60305   -1.000
 3885.00    0.68918   0.55957   -1.000
 3886.00    0.64270   0.51422   -1.000
 3887.00    0.59799   0.47851   -1.000
 3888.00    0.57114   0.46397   -1.000
 3889.00    0.55991   0.47620   -1.000
 3890.00    0.59478   0.51086   -1.000
 3891.00    0.66202   0.55549   -1.000
 3892.00    0.70563   0.59738   -1.000
 3893.00    0.71850   0.63109   -1.000
 3894.00    0.73124   0.65886   -1.000
 3895.00    0.75500   0.68456   -1.000
 3896.00    0.78351   0.70836   -1.000
 3897.00    0.79935   0.72791   -1.000
 3898.00    0.80844   0.74282   -1.000
 3899.00    0.81195   0.75570   -1.000
 3900.00    0.81794   0.76857   -1.000
 3901.00    0.83275   0.77992   -1.000
 3902.00    0.84964   0.78645   -1.000
 3903.00    0.85264   0.78748   -1.000
 3904.00    0.83561   0.78708   -1.000
 3905.00    0.82990   0.79184   -1.000
 3906.00    0.83312   0.80609   -1.000
 3907.00    0.84799   0.82832  125.585
 3908.00    0.87304   0.85191  123.151
 3909.00    0.89101   0.87029  122.061
 3910.00    0.90381   0.88114  120.997
 3911.00    0.90218   0.88568  120.800
 3912.00    0.89667   0.88607  122.538
 3913.00    0.89143   0.88404  125.197
 3914.00    0.88755   0.88089  127.836
 3915.00    0.89380   0.87720  129.449
 3916.00    0.89252   0.87252  131.671
 3917.00    0.88173   0.86584  136.052
 3918.00    0.87517   0.85695  142.263
 3919.00    0.86442   0.84761  148.178
 3920.00    0.85521   0.84099  150.070
 3921.00    0.85540   0.83927  148.269
 3922.00    0.85723   0.84118  146.434
 3923.00    0.86573   0.84185   -1.000
 3924.00    0.87347   0.83550   -1.000
 3925.00    0.85041   0.81854   -1.000
 3926.00    0.82236   0.79085   67.871
 3927.00    0.79126   0.75478   22.890
 3928.00    0.74104   0.71252   26.830
 3929.00    0.67652   0.66399   31.467
 3930.00    0.60417   0.60873   37.159
 3931.00    0.50770   0.55147   42.811
 3932.00    0.41811   0.50501   45.286
 3933.00    0.38292   0.48502   -1.000
 3934.00    0.41165   0.49976   36.112
 3935.00    0.48362   0.54451   29.782
 3936.00    0.56717   0.60501   24.612
 3937.00    0.64798   0.66623   27.509
 3938.00    0.71855   0.71872  187.791
 3939.00    0.77778   0.75878   -1.000
 3940.00    0.80049   0.78553   -1.000
 3941.00    0.81329   0.79981   -1.000
 3942.00    0.81911   0.80507   -1.000
 3943.00    0.81834   0.80738  156.744
 3944.00    0.82742   0.81230  143.623
 3945.00    0.85479   0.82103   -1.000
 3946.00    0.87189   0.83057   -1.000
 3947.00    0.87286   0.83803   -1.000
 3948.00    0.86873   0.84281   -1.000
 3949.00    0.87427   0.84506   -1.000
 3950.00    0.87594   0.84475   -1.000
 3951.00    0.87438   0.84288   -1.000
 3952.00    0.87635   0.84114   -1.000
 3953.00    0.88826   0.83908   -1.000
 3954.00    0.88999   0.83385   -1.000
 3955.00    0.88326   0.82422   -1.000
 3956.00    0.86980   0.81265   -1.000
 3957.00    0.85105   0.80106   -1.000
 3958.00    0.84488   0.78632   -1.000
 3959.00    0.84143   0.76257   -1.000
 3960.00    0.81671   0.72812   -1.000
 3961.00    0.77374   0.68754   -1.000
 3962.00    0.73809   0.64598   -1.000
 3963.00    0.70154   0.60307   21.580
 3964.00    0.65465   0.55338   25.626
 3965.00    0.57319   0.49331   31.593
 3966.00    0.46893   0.42741   37.767
 3967.00    0.37536   0.36868   39.885
 3968.00    0.32358   0.33234   35.747
 3969.00    0.32681   0.32829   29.399
 3970.00    0.36669   0.35661   24.277
 3971.00    0.44083   0.40882   27.400
 3972.00    0.53141   0.47296   -1.000
 3973.00    0.61964   0.53863   -1.000
 3974.00    0.68558   0.59953   -1.000
 3975.00    0.73766   0.65343   -1.000
 3976.00    0.77801   0.70103   -1.000
 3977.00    0.80250   0.74339   -1.000
 3978.00    0.83331   0.77982   -1.000
 3979.00    0.85986   0.80779   -1.000
 3980.00    0.87387   0.82607   -1.000
 3981.00    0.88230   0.83717   -1.000
 3982.00    0.88269   0.84605   -1.000
 3983.00    0.88238   0.85635  111.829
 3984.00    0.89927   0.86859   -1.000
 3985.00    0.91745   0.88176   -1.000
 3986.00    0.92542   0.89518  106.066
 3987.00    0.92990   0.90842  105.440
 3988.00    0.93165   0.92087  105.581
 3989.00    0.94506   0.93223  104.405
 3990.00    0.95241   0.94282  101.905
 3991.00    0.96216   0.95229  100.396
 3992.00    0.96887   0.95865  102.012
 3993.00    0.96887   0.95954  104.485
 3994.00    0.96266   0.95472  106.786
 3995.00    0.95400   0.94721  108.522
 3996.00    0.93298   0.94209  108.496
 3997.00    0.92800   0.94326  105.264
 3998.00    0.93406   0.95114  100.703
 3999.00    0.94458   0.96282   97.804
 4000.00    0.96788   0.97361   96.324
 4001.00    0.97783   0.97871   95.818
 4002.00    0.98642   0.97500   98.993
 4003.00    0.97969   0.96305  105.474
 4004.00    0.95842   0.94894  109.196
 4005.00    0.94649   0.94185  106.657
 4006.00    0.95037   0.94739  100.889
 4007.00    0.95989   0.96306   97.663
 4008.00    0.96785   0.98108   96.497
 4009.00    0.98651   0.99480   95.654
 4010.00    0.99194   1.00222   95.624
 4011.00    0.97423   1.00514   -1.000
 4012.00    0.98232   1.00645   96.472
 4013.00    1.00860   1.00789   95.539
 4014.00    0.99341   1.00971   94.754
 4015.00    1.00258   1.01164   95.725
 4016.00    1.00295   1.01395   96.471
 4017.00    1.00039   1.01725   95.679
 4018.00    1.00698   1.02145   94.635
 4019.00    1.00956   1.02527   95.222
 4020.00    0.99977   1.02697   -1.000
 4021.00    0.99522   1.02546   -1.000
 4022.00    0.99555   1.02113   -1.000
 4023.00    0.99042   1.01645   -1.000
 4024.00    0.98439   1.01521   -1.000
 4025.00    0.98851   1.01948   -1.000
 4026.00    1.00069   1.02639   -1.000
 4027.00    1.01088   1.02905   92.319
 4028.00    1.00445   1.02225   96.902
 4029.00    0.99031   1.00720  102.957
 4030.00    0.96892   0.99069   -1.000
 4031.00    0.95912   0.97998  106.846
 4032.00    0.95762   0.97877  104.814
 4033.00    0.95921   0.98655   -1.000
 4034.00    0.96933   1.00087   -1.000
 4035.00    0.98685   1.01905   -1.000
 4036.00    1.00559   1.03736   -1.000
 4037.00    1.02474   1.05057   89.402
 4038.00    1.02979   1.05510   -1.000
 4039.00    1.01988   1.05199   -1.000
 4040.00    1.01306   1.04471   -1.000
 4041.00    1.01429   1.03398   95.691
 4042.00    1.01689   1.01661  101.709
 4043.00    0.99966   0.99212  111.296
 4044.00    0.96778   0.96878  116.037
 4045.00    0.94477   0.95912  108.987
 4046.00    0.94006   0.96929   -1.000
 4047.00    0.96572   0.99369   -1.000
 4048.00    0.99765   1.01984   92.195
 4049.00    1.00966   1.03738   -1.000
 4050.00    1.00799   1.04292   -1.000
 4051.00    1.00591   1.03879   -1.000
 4052.00    1.00446   1.02973   -1.000
 4053.00    1.00067   1.02038   98.902
 4054.00    0.99710   1.01307   99.638
 4055.00    1.00000   1.00793  100.417
 4056.00    1.00024   1.00507  100.834
 4057.00    0.99995   1.00572   98.856
 4058.00    1.00122   1.00999   95.671
 4059.00    1.00592   1.01358   94.819
 4060.00    1.00871   1.00959   98.013
 4061.00    0.99929   0.99492  105.287
 4062.00    0.98074   0.97437  109.985
 4063.00    0.96298   0.95748  106.945
 4064.00    0.96349   0.95090  102.353
 4065.00    0.97839   0.95465   99.836
 4066.00    0.98512   0.96421   96.966
 4067.00    0.98775   0.97411   94.369
 4068.00    0.99801   0.97898   94.610
 4069.00    1.00693   0.97548   98.667
 4070.00    1.00156   0.96571  101.692
 4071.00    0.98131   0.95668   99.928
 4072.00    0.97143   0.95337   97.082
 4073.00    0.98076   0.95281   98.123
 4074.00    0.99154   0.94765   -1.000
 4075.00    0.97673   0.93500   -1.000
 4076.00    0.94646   0.92049  112.560
 4077.00    0.92876   0.91376  107.432
 4078.00    0.93242   0.92043   99.932
 4079.00    0.95391   0.93734   94.192
 4080.00    0.98198   0.95447   92.712
 4081.00    0.99750   0.96239   94.864
 4082.00    0.98972   0.95888   97.650
 4083.00    0.97716   0.94976   98.218
 4084.00    0.97110   0.94365   96.115
 4085.00    0.96927   0.94545   92.675
 4086.00    0.97373   0.95317   89.268
 4087.00    0.98578   0.96010   87.376
 4088.00    0.99073   0.96021   88.270
 4089.00    0.98685   0.95203   90.091
 4090.00    0.97906   0.93841   -1.000
 4091.00    0.97434   0.92255   -1.000
 4092.00    0.96906   0.90483   -1.000
 4093.00    0.95501   0.88333   -1.000
 4094.00    0.93138   0.85664   -1.000
 4095.00    0.90547   0.82536   -1.000
 4096.00    0.88407   0.79041   -1.000
 4097.00    0.86265   0.75054   -1.000
 4098.00    0.82798   0.70350   -1.000
 4099.00    0.77795   0.65186   -1.000
 4100.00    0.71182   0.60715   -1.000
 4101.00    0.65755   0.58558   -1.000
 4102.00    0.65799   0.59739   -1.000
 4103.00    0.71236   0.63856   -1.000
 4104.00    0.77547   0.69346   -1.000
 4105.00    0.82859   0.74590   -1.000
 4106.00    0.86207   0.78720   -1.000
 4107.00    0.88241   0.81665   -1.000
 4108.00    0.89593   0.83791   -1.000
 4109.00    0.89952   0.85560   -1.000
 4110.00    0.90684   0.87305   99.341
 4111.00    0.92749   0.89153   97.228
 4112.00    0.94540   0.91094   95.624
 4113.00    0.95880   0.93022   94.322
 4114.00    0.97467   0.94708   93.838
 4115.00    0.98755   0.95859   94.808
 4116.00    0.98776   0.96305   97.241
 4117.00    0.98277   0.96198   99.923
 4118.00    0.97636   0.95941  100.283
 4119.00    0.96832   0.95938   99.032
 4120.00    0.96938   0.96318   98.359
 4121.00    0.97351   0.96968   98.128
 4122.00    0.97724   0.97742   96.824
 4123.00    0.98243   0.98505   95.513
 4124.00    0.98968   0.99066   95.724
 4125.00    0.99901   0.99218   97.303
 4126.00    1.00505   0.98969   99.034
 4127.00    0.99712   0.98576   99.720
 4128.00    0.98412   0.98251  100.449
 4129.00    0.97802   0.97897  102.325
 4130.00    0.96895   0.97318  105.628
 4131.00    0.95857   0.96636  108.018
 4132.00    0.95394   0.96344  106.995
 4133.00    0.95839   0.96930  102.751
 4134.00    0.96926   0.98450   98.089
 4135.00    0.99017   1.00523   95.449
 4136.00    1.01026   1.02587   93.960
 4137.00    1.01939   1.04196   92.837
 4138.00    1.02535   1.05023   -1.000
 4139.00    1.02812   1.04825   96.108
 4140.00    1.02024   1.03527  102.210
 4141.00    1.00980   1.01478  110.002
 4142.00    0.98343   0.99469  112.545
 4143.00    0.95364   0.98443   -1.000
 4144.00    0.95647   0.98809   -1.000
 4145.00    0.98288   1.00119   98.694
 4146.00    1.00659   1.01465   98.648
 4147.00    1.00975   1.02237  100.891
 4148.00    0.99944   1.02470   -1.000
 4149.00    0.99499   1.02500   -1.000
 4150.00    0.99724   1.02478   -1.000
 4151.00    0.99463   1.02277   -1.000
 4152.00    0.99353   1.01784   -1.000
 4153.00    0.98980   1.01177   -1.000
 4154.00    0.98392   1.00824   -1.000
 4155.00    1.01837   1.01011  102.278
 4156.00    1.17716   1.01749   -1.000
 4157.00    1.17371   1.02821   -1.000
 4158.00    0.85493   1.03912   -1.000
 4159.00    0.81854   1.04795   -1.000
 4160.00    1.02290   1.05439   -1.000
 4161.00    1.04588   1.05952   95.072
 4162.00    1.01758   1.06391   -1.000
 4163.00    1.02562   1.06653   -1.000
 4164.00    1.02302   1.06542   -1.000
 4165.00    1.01820   1.05999   -1.000
 4166.00    1.01361   1.05232   -1.000
 4167.00    1.00900   1.04515   -1.000
 4168.00    1.00807   1.03804   -1.000
 4169.00    1.01258   1.02721  102.716
 4170.00    1.00187   1.01044  109.076
 4171.00    0.97558   0.99149  113.684
 4172.00    0.96077   0.97887  112.360
 4173.00    0.95469   0.97793   -1.000
 4174.00    0.95963   0.98635   -1.000
 4175.00    0.97273   0.99693   -1.000
 4176.00    0.97815   1.00508   -1.000
 4177.00    0.97561   1.01136   -1.000
 4178.00    0.97824   1.01770   -1.000
 4179.00    0.98604   1.02357   -1.000
 4180.00    0.99166   1.02714   -1.000
 4181.00    0.99015   1.02847   -1.000
 4182.00    0.98458   1.02991   -1.000
 4183.00    0.98893   1.03224   -1.000
 4184.00    0.99516   1.03299   -1.000
 4185.00    0.99417   1.02980   -1.000
 4186.00    0.98792   1.02382   -1.000
 4187.00    0.97712   1.01938   -1.000
 4188.00    0.97642   1.01977   -1.000
 4189.00    0.99403   1.02492   -1.000
 4190.00    1.00021   1.03271   -1.000
 4191.00    0.99108   1.04066   -1.000
 4192.00    0.99719   1.04563   -1.000
 4193.00    1.01078   1.04435   -1.000
 4194.00    1.01169   1.03515   -1.000
 4195.00    0.99833   1.01958   -1.000
 4196.00    0.98261   1.00208   -1.000
 4197.00    0.97088   0.98736  109.142
 4198.00    0.96630   0.97825  107.708
 4199.00    0.96456   0.97528  106.444
 4200.00    0.96846   0.97738  106.065
 4201.00    0.97646   0.98320  105.025
 4202.00    0.97399   0.99229  103.644
 4203.00    0.97078   1.00448   -1.000
 4204.00    0.97293   1.01863   -1.000
 4205.00    0.97527   1.03289   -1.000
 4206.00    0.98408   1.04474   -1.000
 4207.00    0.99405   1.05227   -1.000
 4208.00    0.99974   1.05550   -1.000
 4209.00    1.00146   1.05676   -1.000
 4210.00    1.00184   1.05839   -1.000
 4211.00    1.00594   1.05978   -1.000
 4212.00    1.00938   1.05720   -1.000
 4213.00    1.00367   1.04816   -1.000
 4214.00    0.98427   1.03576   -1.000
 4215.00    0.96932   1.02699   -1.000
 4216.00    0.96857   1.02762   -1.000
 4217.00    0.98048   1.03734   -1.000
 4218.00    0.99596   1.05012   -1.000
 4219.00    1.01188   1.05921   -1.000
 4220.00    1.02185   1.05985   -1.000
 4221.00    1.01578   1.04926   -1.000
 4222.00    1.00025   1.02630   -1.000
 4223.00    0.98014   0.99309  115.043
 4224.00    0.95356   0.95644  128.710
 4225.00    0.91682   0.92819  132.306
 4226.00    0.88895   0.92048   -1.000
 4227.00    0.89658   0.93802   -1.000
 4228.00    0.93567   0.97211   -1.000
 4229.00    0.97881   1.00671   92.757
 4230.00    0.99947   1.02828   -1.000
 4231.00    1.00093   1.03326   -1.000
 4232.00    0.98859   1.02674   -1.000
 4233.00    0.97576   1.01672   -1.000
 4234.00    0.97709   1.00863   -1.000
 4235.00    0.97736   1.00453   -1.000
 4236.00    0.96985   1.00486   -1.000
 4237.00    0.96660   1.00970   -1.000
 4238.00    0.97900   1.01792   -1.000
 4239.00    0.99166   1.02766   -1.000
 4240.00    0.99956   1.03689   -1.000
 4241.00    1.00149   1.04479   -1.000
 4242.00    1.00389   1.05108   -1.000
 4243.00    1.00976   1.05435   -1.000
 4244.00    1.00665   1.05211   -1.000
 4245.00    0.99564   1.04277   -1.000
 4246.00    0.98055   1.02863   -1.000
 4247.00    0.96893   1.01536   -1.000
 4248.00    0.96148   1.00795   -1.000
 4249.00    0.95926   1.00827   -1.000
 4250.00    0.96520   1.01396   -1.000
 4251.00    0.97475   1.02053   -1.000
 4252.00    0.98514   1.02354   -1.000
 4253.00    0.98291   1.02271   -1.000
 4254.00    0.97708   1.02191   -1.000
 4255.00    0.98015   1.02352   -1.000
 4256.00    0.98810   1.02466   -1.000
 4257.00    0.99613   1.02007   99.750
 4258.00    0.98704   1.00951  104.327
 4259.00    0.97222   1.00023   -1.000
 4260.00    0.96786   1.00106   -1.000
 4261.00    0.97278   1.01494   -1.000
 4262.00    0.99005   1.03595   -1.000
 4263.00    1.01028   1.05553   -1.000
 4264.00    1.01856   1.06728   -1.000
 4265.00    1.01640   1.06931   -1.000
 4266.00    1.00999   1.06229   -1.000
 4267.00    1.00182   1.04729   -1.000
 4268.00    0.99590   1.02550   -1.000
 4269.00    0.98019   0.99994  108.819
 4270.00    0.95483   0.97554  113.521
 4271.00    0.93008   0.95856   -1.000
 4272.00    0.92673   0.95330   -1.000
 4273.00    0.92972   0.96008   -1.000
 4274.00    0.93846   0.97642   -1.000
 4275.00    0.96119   0.99878   -1.000
 4276.00    0.98438   1.02112   -1.000
 4277.00    1.00075   1.03633   -1.000
 4278.00    1.00533   1.04040   -1.000
 4279.00    0.99457   1.03605   -1.000
 4280.00    0.97952   1.02932   -1.000
 4281.00    0.97104   1.02498   -1.000
 4282.00    0.97239   1.02257   -1.000
 4283.00    0.97912   1.01903   -1.000
 4284.00    0.97868   1.01245   -1.000
 4285.00    0.96922   1.00190   -1.000
 4286.00    0.96055   0.98750   -1.000
 4287.00    0.94852   0.96983  112.464
 4288.00    0.92746   0.95216   -1.000
 4289.00    0.90675   0.94129   -1.000
 4290.00    0.90307   0.94199   -1.000
 4291.00    0.91653   0.95212   -1.000
 4292.00    0.93749   0.96420  101.536
 4293.00    0.94477   0.97039  102.849
 4294.00    0.95025   0.96776  104.820
 4295.00    0.95334   0.95639  108.303
 4296.00    0.93650   0.93746  115.322
 4297.00    0.91373   0.91253  125.040
 4298.00    0.89060   0.88633  131.446
 4299.00    0.86741   0.86519  130.706
 4300.00    0.85280   0.85418  127.347
 4301.00    0.85599   0.85413  125.480
 4302.00    0.85976   0.86175  123.717
 4303.00    0.86644   0.87148  122.992
 4304.00    0.88110   0.87722  124.978
 4305.00    0.88469   0.87486  130.365
 4306.00    0.87297   0.86577  136.124
 4307.00    0.85176   0.85629  137.048
 4308.00    0.83620   0.85434  132.286
 4309.00    0.83700   0.86279  124.388
 4310.00    0.85387   0.87862  116.916
 4311.00    0.87774   0.89746  111.535
 4312.00    0.89425   0.91901  106.311
 4313.00    0.90297   0.94540   -1.000
 4314.00    0.91936   0.97832   -1.000
 4315.00    0.94854   1.01363   -1.000
 4316.00    0.98881   1.04375   -1.000
 4317.00    1.01014   1.06150   -1.000
 4318.00    1.01707   1.06429   -1.000
 4319.00    1.01409   1.05392   -1.000
 4320.00    1.01007   1.03298   91.476
 4321.00    0.99766   1.00366   96.885
 4322.00    0.97411   0.96925  104.753
 4323.00    0.94636   0.93602  112.335
 4324.00    0.91749   0.91350  111.972
 4325.00    0.90469   0.90920  102.447
 4326.00    0.91729   0.92347   92.831
 4327.00    0.94596   0.94647   88.174
 4328.00    0.97037   0.96616   87.444
 4329.00    0.97123   0.97578   87.559
 4330.00    0.96587   0.97578   86.622
 4331.00    0.96597   0.97013   85.307
 4332.00    0.95768   0.95994   84.728
 4333.00    0.95244   0.94258   85.201
 4334.00    0.94431   0.91337   88.249
 4335.00    0.92141   0.86894   -1.000
 4336.00    0.88862   0.81019   -1.000
 4337.00    0.83334   0.74543   -1.000
 4338.00    0.76048   0.68815   -1.000
 4339.00    0.69987   0.65381   -1.000
 4340.00    0.67332   0.65231  108.093
 4341.00    0.69008   0.68281   98.941
 4342.00    0.75211   0.73319   94.170
 4343.00    0.82063   0.78900   91.460
 4344.00    0.86751   0.84007   89.353
 4345.00    0.90484   0.88306   88.101
 4346.00    0.92685   0.91752   86.985
 4347.00    0.94243   0.94263   86.186
 4348.00    0.95685   0.95575   88.237
 4349.00    0.95934   0.95579   94.019
 4350.00    0.95012   0.94789   98.934
 4351.00    0.93496   0.94245   97.879
 4352.00    0.93205   0.94807   93.497
 4353.00    0.94914   0.96572   89.785
 4354.00    0.97449   0.98868   87.431
 4355.00    0.98953   1.00963   86.379
 4356.00    1.00270   1.02454   87.222
 4357.00    1.01060   1.03383   88.881
 4358.00    1.00742   1.04072   -1.000
 4359.00    1.00398   1.04899   -1.000
 4360.00    1.00836   1.06018   -1.000
 4361.00    1.02070   1.07264   -1.000
 4362.00    1.02806   1.08421   -1.000
 4363.00    1.02460   1.09274   -1.000
 4364.00    1.03009   1.09557   -1.000
 4365.00    1.03676   1.09078   -1.000
 4366.00    1.02457   1.07956   -1.000
 4367.00    1.01154   1.06604   -1.000
 4368.00    1.00325   1.05437   -1.000
 4369.00    0.99986   1.04617   -1.000
 4370.00    1.00931   1.03965   -1.000
 4371.00    1.01472   1.03145   90.287
 4372.00    1.01300   1.02030   94.080
 4373.00    1.00282   1.00913   96.332
 4374.00    0.97915   1.00399   94.564
 4375.00    0.96836   1.00968   -1.000
 4376.00    0.98496   1.02455   -1.000
 4377.00    1.01325   1.04150   86.189
 4378.00    1.02703   1.05152   87.198
 4379.00    1.02319   1.04772   89.822
 4380.00    1.02347   1.02705   96.393
 4381.00    1.01338   0.99346  107.523
 4382.00    0.97723   0.95772  115.264
 4383.00    0.94073   0.93533  110.926
 4384.00    0.92774   0.93547  100.180
 4385.00    0.94850   0.95428   93.280
 4386.00    0.97663   0.97934   91.733
 4387.00    0.99486   0.99938   92.292
 4388.00    1.00413   1.01109   93.046
 4389.00    1.00481   1.01750   92.439
 4390.00    1.00394   1.02259   90.437
 4391.00    1.00653   1.02747   89.471
 4392.00    1.01273   1.03047   90.758
 4393.00    1.01598   1.03123   91.870
 4394.00    1.00635   1.03307   89.782
 4395.00    1.00386   1.03915   -1.000
 4396.00    1.01225   1.04736   -1.000
 4397.00    1.02027   1.05186   -1.000
 4398.00    1.02013   1.04953   -1.000
 4399.00    1.00753   1.04268   -1.000
 4400.00    0.99650   1.03598   -1.000
 4401.00    1.00570   1.03067   90.370
 4402.00    1.01685   1.02434   94.639
 4403.00    1.01014   1.01637   98.325
 4404.00    0.99609   1.01020   97.175
 4405.00    0.99001   1.00990   94.522
 4406.00    0.99574   1.01644   93.452
 4407.00    1.00576   1.02800   91.463
 4408.00    1.00563   1.04342   -1.000
 4409.00    1.00740   1.06139   -1.000
 4410.00    1.02462   1.07747   -1.000
 4411.00    1.04511   1.08536   -1.000
 4412.00    1.05504   1.08073   86.018
 4413.00    1.04543   1.06486   90.354
 4414.00    1.01970   1.04572   -1.000
 4415.00    1.00248   1.03411   -1.000
 4416.00    0.99605   1.03686   -1.000
 4417.00    0.99541   1.05253   -1.000
 4418.00    1.00600   1.07369   -1.000
 4419.00    1.02674   1.09046   -1.000
 4420.00    1.03570   1.09729   -1.000
 4421.00    1.03348   1.09555   -1.000
 4422.00    1.02626   1.09038   -1.000
 4423.00    1.02140   1.08616   -1.000
 4424.00    1.01988   1.08407   -1.000
 4425.00    1.02131   1.08353   -1.000
 4426.00    1.01616   1.08465   -1.000
 4427.00    1.01126   1.08727   -1.000
 4428.00    1.01541   1.09045   -1.000
 4429.00    1.01937   1.09279   -1.000
 4430.00    1.01990   1.09260   -1.000
 4431.00    1.02590   1.08854   -1.000
 4432.00    1.02721   1.08029   -1.000
 4433.00    1.02033   1.07015   -1.000
 4434.00    1.00542   1.06418   -1.000
 4435.00    0.99202   1.06825   -1.000
 4436.00    1.00780   1.08276   -1.000
 4437.00    1.04111   1.10101   -1.000
 4438.00    1.05893   1.11332   -1.000
 4439.00    1.06578   1.11314   -1.000
 4440.00    1.05675   1.10083   -1.000
 4441.00    1.03298   1.08434   -1.000
 4442.00    1.00866   1.07381   -1.000
 4443.00    0.99848   1.07569   -1.000
 4444.00    1.00854   1.08851   -1.000
 4445.00    1.03155   1.10499   -1.000
 4446.00    1.04448   1.11779   -1.000
 4447.00    1.04727   1.12413   -1.000
 4448.00    1.04783   1.12520   -1.000
 4449.00    1.04598   1.12310   -1.000
 4450.00    1.04522   1.11858   -1.000
 4451.00    1.04657   1.11066   -1.000
 4452.00    1.04820   1.09759   -1.000
 4453.00    1.04400   1.08080   -1.000
 4454.00    1.02290   1.06534   -1.000
 4455.00    1.00769   1.05663   -1.000
 4456.00    1.01861   1.05651   -1.000
 4457.00    1.03386   1.06237   89.733
 4458.00    1.03672   1.07023   -1.000
 4459.00    1.03068   1.07717   -1.000
 4460.00    1.02491   1.08243   -1.000
 4461.00    1.02781   1.08673   -1.000
 4462.00    1.03334   1.09151   -1.000
 4463.00    1.04255   1.09694   -1.000
 4464.00    1.05410   1.10086   -1.000
 4465.00    1.05642   1.10096   -1.000
 4466.00    1.05087   1.09699   -1.000
 4467.00    1.03939   1.09145   -1.000
 4468.00    1.02872   1.08894   -1.000
 4469.00    1.02735   1.09304   -1.000
 4470.00    1.03781   1.10420   -1.000
 4471.00    1.05148   1.11992   -1.000
 4472.00    1.06448   1.13614   -1.000
 4473.00    1.08475   1.14898   -1.000
 4474.00    1.09340   1.15685   -1.000
 4475.00    1.09004   1.15981   -1.000
 4476.00    1.09082   1.15799   -1.000
 4477.00    1.09240   1.14998   -1.000
 4478.00    1.09274   1.13448   -1.000
 4479.00    1.08243   1.11402   -1.000
 4480.00    1.05933   1.09646   -1.000
 4481.00    1.03639   1.09059   -1.000
 4482.00    1.03837   1.09981   -1.000
 4483.00    1.06018   1.11985   -1.000
 4484.00    1.07757   1.14125   -1.000
 4485.00    1.08670   1.15492   -1.000
 4486.00    1.08912   1.15664   -1.000
 4487.00    1.08545   1.14865   -1.000
 4488.00    1.07567   1.13740   -1.000
 4489.00    1.06365   1.12993   -1.000
 4490.00    1.05831   1.12940   -1.000
 4491.00    1.06835   1.13365   -1.000
 4492.00    1.08120   1.13813   -1.000
 4493.00    1.08184   1.13961   -1.000
 4494.00    1.06705   1.13934   -1.000
 4495.00    1.05712   1.14031   -1.000
 4496.00    1.06007   1.14375   -1.000
 4497.00    1.07016   1.14812   -1.000
 4498.00    1.07966   1.15087   -1.000
 4499.00    1.08446   1.15128   -1.000
 4500.00    1.07648   1.15161   -1.000
 4501.00    1.06896   1.15604   -1.000
 4502.00    1.07730   1.16580   -1.000
 4503.00    1.09814   1.17838   -1.000
 4504.00    1.11340   1.18871   -1.000
 4505.00    1.11855   1.19325   -1.000
 4506.00    1.11350   1.19209   -1.000
 4507.00    1.10492   1.18844   -1.000
 4508.00    1.10182   1.18587   -1.000
 4509.00    1.10575   1.18512   -1.000
 4510.00    1.11035   1.18437   -1.000
 4511.00    1.11076   1.18101   -1.000
 4512.00    1.10343   1.17445   -1.000
 4513.00    1.09616   1.16635   -1.000
 4514.00    1.09236   1.15901   -1.000
 4515.00    1.09198   1.15421   -1.000
 4516.00    1.08842   1.15185   -1.000
 4517.00    1.08696   1.15079   -1.000
 4518.00    1.08408   1.15061   -1.000
 4519.00    1.08720   1.15082   -1.000
 4520.00    1.08927   1.15050   -1.000
 4521.00    1.07896   1.14837   -1.000
 4522.00    1.07404   1.14345   -1.000
 4523.00    1.07023   1.13594   -1.000
 4524.00    1.06969   1.12631   -1.000
 4525.00    1.07372   1.11466   -1.000
 4526.00    1.06624   1.10177   -1.000
 4527.00    1.05295   1.08960   -1.000
 4528.00    1.04557   1.08156   -1.000
 4529.00    1.04807   1.07921   -1.000
 4530.00    1.05604   1.08080   84.790
 4531.00    1.05955   1.08219   85.678
 4532.00    1.05825   1.08067   88.429
 4533.00    1.04401   1.07836   -1.000
 4534.00    1.02514   1.08071   -1.000
 4535.00    1.02635   1.09254   -1.000
 4536.00    1.05625   1.11267   -1.000
 4537.00    1.08954   1.13514   -1.000
 4538.00    1.10679   1.15221   -1.000
 4539.00    1.11107   1.16010   -1.000
 4540.00    1.10428   1.16064   -1.000
 4541.00    1.09446   1.15799   -1.000
 4542.00    1.08793   1.15506   -1.000
 4543.00    1.11469   1.15173   58.348
 4544.00    0.91592   1.14667   -1.000
 4545.00    0.32577   1.13943   -1.000
 4546.00   -0.04125   1.13012    0.000
 4547.00    0.20183   1.11955   -1.000
 4548.00    0.59168   1.11005   -1.000
 4549.00    0.53927   1.10496   -1.000
 4550.00    0.68730   1.10604   -1.000
 4551.00    1.09340   1.11080   82.718
 4552.00    1.06806   1.11459   -1.000
 4553.00    1.06070   1.11557   -1.000
 4554.00    1.05377   1.11619   -1.000
 4555.00    1.06328   1.12078   -1.000
 4556.00    1.07808   1.13153   -1.000
 4557.00    1.09138   1.14632   -1.000
 4558.00    1.10456   1.16113   -1.000
 4559.00    1.11186   1.17229   -1.000
 4560.00    1.10724   1.17736   -1.000
 4561.00    1.10536   1.17567   -1.000
 4562.00    1.10233   1.16836   -1.000
 4563.00    1.09263   1.15899   -1.000
 4564.00    1.08761   1.15261   -1.000
 4565.00    1.09068   1.15246   -1.000
 4566.00    1.10149   1.15830   -1.000
 4567.00    1.11440   1.16565   -1.000
 4568.00    1.12158   1.16916   -1.000
 4569.00    1.11719   1.16625   -1.000
 4570.00    1.09889   1.15905   -1.000
 4571.00    1.07954   1.15289   -1.000
 4572.00    1.07465   1.15242   -1.000
 4573.00    1.09003   1.15810   -1.000
 4574.00    1.10445   1.16608   -1.000
 4575.00    1.10741   1.17200   -1.000
 4576.00    1.11209   1.17277   -1.000
 4577.00    1.11394   1.16758   -1.000
 4578.00    1.10923   1.15716   -1.000
 4579.00    1.09775   1.14387   -1.000
 4580.00    1.08781   1.13092   -1.000
 4581.00    1.08404   1.12151   -1.000
 4582.00    1.08020   1.11706   -1.000
 4583.00    1.08033   1.11736   -1.000
 4584.00    1.08264   1.12131   -1.000
 4585.00    1.08620   1.12811   -1.000
 4586.00    1.09536   1.13682   -1.000
 4587.00    1.10046   1.14574   -1.000
 4588.00    1.10032   1.15270   -1.000
 4589.00    1.10231   1.15563   -1.000
 4590.00    1.09843   1.15414   -1.000
 4591.00    1.08888   1.15013   -1.000
 4592.00    1.08626   1.14660   -1.000
 4593.00    1.09243   1.14599   -1.000
 4594.00    1.10078   1.14845   -1.000
 4595.00    1.10594   1.15267   -1.000
 4596.00    1.11277   1.15687   -1.000
 4597.00    1.11275   1.15966   -1.000
 4598.00    1.11018   1.16014   -1.000
 4599.00    1.11277   1.15845   -1.000
 4600.00    1.10876   1.15538   -1.000
 4601.00    1.09712   1.15254   -1.000
 4602.00    1.09306   1.15145   -1.000
 4603.00    1.09889   1.15265   -1.000
 4604.00    1.10737   1.15604   -1.000
 4605.00    1.11301   1.16150   -1.000
 4606.00    1.11461   1.16869   -1.000
 4607.00    1.12020   1.17675   -1.000
 4608.00    1.13067   1.18393   -1.000
 4609.00    1.13723   1.18819   -1.000
 4610.00    1.13357   1.18822   -1.000
 4611.00    1.12348   1.18524   -1.000
 4612.00    1.11636   1.18138   -1.000
 4613.00    1.11593   1.17860   -1.000
 4614.00    1.11845   1.17720   -1.000
 4615.00    1.12040   1.17600   -1.000
 4616.00    1.12456   1.17413   -1.000
 4617.00    1.12406   1.17180   -1.000
 4618.00    1.12069   1.17066   -1.000
 4619.00    1.12320   1.17228   -1.000
 4620.00    1.12916   1.17698   -1.000
 4621.00    1.13582   1.18331   -1.000
 4622.00    1.14035   1.18870   -1.000
 4623.00    1.14313   1.19133   -1.000
 4624.00    1.13475   1.19116   -1.000
 4625.00    1.12380   1.18890   -1.000
 4626.00    1.12056   1.18589   -1.000
 4627.00    1.11902   1.18312   -1.000
 4628.00    1.11897   1.18135   -1.000
 4629.00    1.11945   1.18116   -1.000
 4630.00    1.12027   1.18234   -1.000
 4631.00    1.12491   1.18363   -1.000
 4632.00    1.12764   1.18306   -1.000
 4633.00    1.12641   1.18003   -1.000
 4634.00    1.12775   1.17573   -1.000
 4635.00    1.12697   1.17184   -1.000
 4636.00    1.12384   1.16927   -1.000
 4637.00    1.12194   1.16857   -1.000
 4638.00    1.12055   1.17003   -1.000
 4639.00    1.12332   1.17389   -1.000
 4640.00    1.13232   1.17940   -1.000
 4641.00    1.13730   1.18468   -1.000
 4642.00    1.14026   1.18694   -1.000
 4643.00    1.14040   1.18388   -1.000
 4644.00    1.13980   1.17536   -1.000
 4645.00    1.13621   1.16376   79.797
 4646.00    1.12140   1.15337   -1.000
 4647.00    1.10815   1.14872   -1.000
 4648.00    1.11440   1.15153   -1.000
 4649.00    1.12392   1.15974   -1.000
 4650.00    1.12174   1.16885   -1.000
 4651.00    1.12301   1.17477   -1.000
 4652.00    1.12613   1.17602   -1.000
 4653.00    1.12510   1.17329   -1.000
 4654.00    1.11986   1.16952   -1.000
 4655.00    1.11508   1.16854   -1.000
 4656.00    1.11145   1.17344   -1.000
 4657.00    1.11776   1.18428   -1.000
 4658.00    1.13708   1.19794   -1.000
 4659.00    1.15042   1.20882   -1.000
 4660.00    1.15321   1.21293   -1.000
 4661.00    1.15171   1.20944   -1.000
 4662.00    1.14344   1.20018   -1.000
 4663.00    1.13741   1.18724   -1.000
 4664.00    1.13757   1.17201   -1.000
 4665.00    1.13326   1.15537   81.681
 4666.00    1.11943   1.13981   83.423
 4667.00    1.10018   1.12966   82.055
 4668.00    1.09222   1.12874   -1.000
 4669.00    1.10299   1.13702   76.238
 4670.00    1.11788   1.15091   75.021
 4671.00    1.13017   1.16508   74.878
 4672.00    1.13765   1.17628   -1.000
 4673.00    1.14077   1.18386   -1.000
 4674.00    1.14705   1.18854   -1.000
 4675.00    1.15133   1.19048   -1.000
 4676.00    1.14793   1.18841   -1.000
 4677.00    1.14581   1.18192   -1.000
 4678.00    1.14527   1.17257   76.870
 4679.00    1.13692   1.16361   77.869
 4680.00    1.12573   1.15799   77.729
 4681.00    1.12355   1.15677   76.193
 4682.00    1.12752   1.15940   74.707
 4683.00    1.13562   1.16424   74.382
 4684.00    1.14559   1.16936   74.561
 4685.00    1.15101   1.17325   74.783
 4686.00    1.15357   1.17536   75.010
 4687.00    1.15013   1.17596   75.001
 4688.00    1.14322   1.17559   75.281
 4689.00    1.14308   1.17494   75.646
 4690.00    1.14376   1.17451   75.249
 4691.00    1.13966   1.17503   -1.000
 4692.00    1.14001   1.17696   -1.000
 4693.00    1.14588   1.17986   71.520
 4694.00    1.15332   1.18235   71.274
 4695.00    1.15673   1.18281   72.530
 4696.00    1.15861   1.18013   74.737
 4697.00    1.15619   1.17390   76.296
 4698.00    1.14794   1.16516   76.367
 4699.00    1.14520   1.15513   76.310
 4700.00    1.14492   1.14537   77.323
 4701.00    1.13765   1.13737   78.227
 4702.00    1.12528   1.13292   77.621
 4703.00    1.11821   1.13320   76.257
 4704.00    1.12038   1.13706   76.261
 4705.00    1.12854   1.14110   77.639
 4706.00    1.13173   1.14277   78.801
 4707.00    1.12334   1.14254   78.929
 4708.00    1.11812   1.14334   77.479
 4709.00    1.12053   1.14751   75.217
 4710.00    1.12661   1.15444   73.842
 4711.00    1.13815   1.16168   73.891
 4712.00    1.15168   1.16655   75.003
 4713.00    1.14881   1.16859   75.715
 4714.00    1.13620   1.16984   74.884
 4715.00    1.13544   1.17292   -1.000
 4716.00    1.14359   1.17904   72.462
 4717.00    1.15094   1.18664   72.143
 4718.00    1.15473   1.19347   71.897
 4719.00    1.15520   1.19789   -1.000
 4720.00    1.15375   1.19997   -1.000
 4721.00    1.15252   1.20085   -1.000
 4722.00    1.15126   1.20145   -1.000
 4723.00    1.15162   1.20176   -1.000
 4724.00    1.15301   1.20032   -1.000
 4725.00    1.15114   1.19529   -1.000
 4726.00    1.14483   1.18593   -1.000
 4727.00    1.13633   1.17407   -1.000
 4728.00    1.13024   1.16325   77.369
 4729.00    1.13333   1.15670   76.659
 4730.00    1.14164   1.15532   75.893
 4731.00    1.14604   1.15811   75.101
 4732.00    1.14664   1.16290   74.575
 4733.00    1.14474   1.16742   74.163
 4734.00    1.14604   1.17002   74.381
 4735.00    1.14876   1.17062   74.853
 4736.00    1.14613   1.17047   74.362
 4737.00    1.14459   1.17131   73.887
 4738.00    1.14778   1.17397   74.161
 4739.00    1.15070   1.17786   74.430
 4740.00    1.15478   1.18181   74.150
 4741.00    1.15898   1.18538   73.418
 4742.00    1.15830   1.18881   73.109
 4743.00    1.15735   1.19239   73.244
 4744.00    1.15835   1.19613   72.980
 4745.00    1.15500   1.19996   -1.000
 4746.00    1.15103   1.20390   -1.000
 4747.00    1.15917   1.20812   -1.000
 4748.00    1.16514   1.21195   -1.000
 4749.00    1.16111   1.21478   -1.000
 4750.00    1.16158   1.21582   -1.000
 4751.00    1.16175   1.21419   -1.000
 4752.00    1.15803   1.20978   -1.000
 4753.00    1.15063   1.20371   -1.000
 4754.00    1.14692   1.19849   -1.000
 4755.00    1.14518   1.19629   -1.000
 4756.00    1.14019   1.19784   -1.000
 4757.00    1.14059   1.20198   -1.000
 4758.00    1.13986   1.20625   -1.000
 4759.00    1.14213   1.20779   -1.000
 4760.00    1.14437   1.20427   -1.000
 4761.00    1.13839   1.19569   -1.000
 4762.00    1.13223   1.18423   -1.000
 4763.00    1.12833   1.17380   -1.000
 4764.00    1.12684   1.16729   -1.000
 4765.00    1.13002   1.16621   -1.000
 4766.00    1.13829   1.17049   75.912
 4767.00    1.14655   1.17911   74.526
 4768.00    1.15063   1.18969   -1.000
 4769.00    1.15488   1.19925   -1.000
 4770.00    1.15865   1.20538   -1.000
 4771.00    1.15819   1.20857   -1.000
 4772.00    1.15769   1.21113   -1.000
 4773.00    1.15832   1.21548   -1.000
 4774.00    1.15989   1.22162   -1.000
 4775.00    1.16242   1.22728   -1.000
 4776.00    1.16087   1.23022   -1.000
 4777.00    1.15885   1.22960   -1.000
 4778.00    1.15852   1.22662   -1.000
 4779.00    1.15476   1.22290   -1.000
 4780.00    1.15426   1.21932   -1.000
 4781.00    1.15469   1.21565   -1.000
 4782.00    1.14801   1.21139   -1.000
 4783.00    1.14628   1.20669   -1.000
 4784.00    1.15045   1.20205   -1.000
 4785.00    1.14703   1.19821   -1.000
 4786.00    1.14294   1.19579   -1.000
 4787.00    1.14625   1.19551   -1.000
 4788.00    1.14660   1.19768   -1.000
 4789.00    1.14371   1.20221   -1.000
 4790.00    1.15042   1.20900   -1.000
 4791.00    1.16237   1.21794   -1.000
 4792.00    1.16575   1.22857   -1.000
 4793.00    1.16669   1.23927   -1.000
 4794.00    1.17100   1.24768   -1.000
 4795.00    1.17432   1.25144   -1.000
 4796.00    1.17638   1.24970   -1.000
 4797.00    1.17177   1.24401   -1.000
 4798.00    1.15616   1.23751   -1.000
 4799.00    1.14792   1.23351   -1.000
 4800.00    1.15338   1.23335   -1.000
 4801.00    1.16333   1.23572   -1.000
 4802.00    1.17117   1.23764   -1.000
 4803.00    1.17149   1.23692   -1.000
 4804.00    1.16506   1.23339   -1.000
 4805.00    1.16136   1.22888   -1.000
 4806.00    1.16369   1.22549   -1.000
 4807.00    1.16363   1.22427   -1.000
 4808.00    1.16321   1.22506   -1.000
 4809.00    1.16171   1.22693   -1.000
 4810.00    1.16267   1.22892   -1.000
 4811.00    1.16578   1.23077   -1.000
 4812.00    1.17031   1.23311   -1.000
 4813.00    1.17638   1.23664   -1.000
 4814.00    1.17953   1.24149   -1.000
 4815.00    1.18224   1.24684   -1.000
 4816.00    1.17965   1.25151   -1.000
 4817.00    1.17547   1.25464   -1.000
 4818.00    1.17462   1.25574   -1.000
 4819.00    1.17397   1.25434   -1.000
 4820.00    1.17307   1.24950   -1.000
 4821.00    1.17346   1.24058   -1.000
 4822.00    1.16508   1.22898   -1.000
 4823.00    1.15126   1.21826   -1.000
 4824.00    1.15200   1.21252   -1.000
 4825.00    1.15893   1.21308   -1.000
 4826.00    1.16155   1.21732   -1.000
 4827.00    1.16605   1.22132   -1.000
 4828.00    1.16972   1.22232   -1.000
 4829.00    1.16437   1.22027   -1.000
 4830.00    1.15648   1.21629   -1.000
 4831.00    1.15843   1.21201   -1.000
 4832.00    1.16384   1.20909   -1.000
 4833.00    1.16509   1.20840   -1.000
 4834.00    1.16978   1.20951   -1.000
 4835.00    1.17664   1.21073   72.668
 4836.00    1.17526   1.20998   73.380
 4837.00    1.16606   1.20619   -1.000
 4838.00    1.15863   1.19959   -1.000
 4839.00    1.15430   1.19182   75.103
 4840.00    1.14993   1.18483   74.818
 4841.00    1.15082   1.18016   74.334
 4842.00    1.15388   1.17815   73.669
 4843.00    1.15329   1.17838   72.690
 4844.00    1.15754   1.17979   71.963
 4845.00    1.16181   1.18063   72.625
 4846.00    1.15528   1.17883   73.937
 4847.00    1.14147   1.17355   74.411
 4848.00    1.12932   1.16632   73.794
 4849.00    1.12980   1.15917   73.213
 4850.00    1.13430   1.15242   73.392
 4851.00    1.13158   1.14365   73.941
 4852.00    1.12627   1.12971   75.452
 4853.00    1.11630   1.10920   77.692
 4854.00    1.09647   1.08330   78.567
 4855.00    1.07631   1.05465   77.982
 4856.00    1.05918   1.02366   78.792
 4857.00    1.04583   0.98725   -1.000
 4858.00    1.01155   0.94141   -1.000
 4859.00    0.93752   0.88816   -1.000
 4860.00    0.84586   0.83989   98.190
 4861.00    0.79459   0.81303   90.370
 4862.00    0.82776   0.81878   83.818
 4863.00    0.91306   0.85390   -1.000
 4864.00    0.98514   0.90576   -1.000
 4865.00    1.02689   0.95928   -1.000
 4866.00    1.05170   1.00499   -1.000
 4867.00    1.06905   1.03867   76.556
 4868.00    1.08286   1.05960   78.079
 4869.00    1.08946   1.06923   80.164
 4870.00    1.08618   1.07159   80.633
 4871.00    1.07491   1.07305   78.966
 4872.00    1.07489   1.07981   77.176
 4873.00    1.09119   1.09345   76.273
 4874.00    1.10909   1.11084   75.795
 4875.00    1.11834   1.12704   75.475
 4876.00    1.11867   1.14013   74.745
 4877.00    1.11949   1.15140   73.800
 4878.00    1.12580   1.16267   73.829
 4879.00    1.13406   1.17345   74.836
 4880.00    1.13835   1.18149   -1.000
 4881.00    1.13821   1.18505   -1.000
 4882.00    1.13696   1.18451   -1.000
 4883.00    1.13776   1.18130   -1.000
 4884.00    1.13931   1.17690   -1.000
 4885.00    1.13928   1.17219   77.334
 4886.00    1.14185   1.16755   77.077
 4887.00    1.14421   1.16285   77.679
 4888.00    1.14154   1.15761   79.184
 4889.00    1.13113   1.15258   79.667
 4890.00    1.11535   1.15115   77.555
 4891.00    1.11253   1.15800   -1.000
 4892.00    1.13318   1.17545   -1.000
 4893.00    1.16344   1.20062   69.710
 4894.00    1.18302   1.22622   68.965
 4895.00    1.19081   1.24573   -1.000
 4896.00    1.19278   1.25604   -1.000
 4897.00    1.18973   1.25824   -1.000
 4898.00    1.18254   1.25497   -1.000
 4899.00    1.17630   1.24936   -1.000
 4900.00    1.17325   1.24354   -1.000
 4901.00    1.16788   1.23860   -1.000
 4902.00    1.16228   1.23508   -1.000
 4903.00    1.16856   1.23399   -1.000
 4904.00    1.17499   1.23635   -1.000
 4905.00    1.17817   1.24109   -1.000
 4906.00    1.18639   1.24443   -1.000
 4907.00    1.19033   1.24237   -1.000
 4908.00    1.18238   1.23376   -1.000
 4909.00    1.17461   1.22202   -1.000
 4910.00    1.16610   1.21253   -1.000
 4911.00    1.16503   1.20993   -1.000
 4912.00    1.17547   1.21501   72.227
 4913.00    1.18095   1.22490   -1.000
 4914.00    1.18316   1.23404   -1.000
 4915.00    1.18791   1.23633   -1.000
 4916.00    1.19085   1.22721   76.377
 4917.00    1.17762   1.20631   80.307
 4918.00    1.15097   1.17862   82.486
 4919.00    1.12954   1.15302   81.284
 4920.00    1.11643   1.13769   78.397
 4921.00    1.12081   1.13574   76.508
 4922.00    1.13862   1.14450   76.007
 4923.00    1.14435   1.15869   75.436
 4924.00    1.14580   1.17498   73.868
 4925.00    1.15900   1.19247   72.269
 4926.00    1.17865   1.21093   71.339
 4927.00    1.19361   1.22873   70.782
 4928.00    1.19617   1.24295   -1.000
 4929.00    1.19645   1.25088   -1.000
 4930.00    1.19816   1.25081   -1.000
 4931.00    1.19263   1.24294   -1.000
 4932.00    1.17872   1.22996   -1.000
 4933.00    1.16222   1.21660   -1.000
 4934.00    1.15638   1.20660   -1.000
 4935.00    1.16383   1.20045   75.482
 4936.00    1.17249   1.19554   77.676
 4937.00    1.16669   1.19054   78.193
 4938.00    1.15495   1.18786   76.305
 4939.00    1.14788   1.19163   -1.000
 4940.00    1.15992   1.20360   71.973
 4941.00    1.18446   1.22054   71.046
 4942.00    1.19481   1.23684   70.810
 4943.00    1.19809   1.24813   -1.000
 4944.00    1.19917   1.25359   -1.000
 4945.00    1.19753   1.25551   -1.000
 4946.00    1.19776   1.25698   -1.000
 4947.00    1.19671   1.25993   -1.000
 4948.00    1.19662   1.26398   -1.000
 4949.00    1.20246   1.26732   -1.000
 4950.00    1.20608   1.26820   -1.000
 4951.00    1.20505   1.26606   -1.000
 4952.00    1.20377   1.26100   -1.000
 4953.00    1.20333   1.25229   -1.000
 4954.00    1.20103   1.23811   76.207
 4955.00    1.18780   1.21797   79.699
 4956.00    1.16126   1.19618   80.084
 4957.00    1.13477   1.18161   -1.000
 4958.00    1.13699   1.18163   -1.000
 4959.00    1.16463   1.19640   71.854
 4960.00    1.18687   1.21781   71.844
 4961.00    1.19644   1.23625   72.332
 4962.00    1.20176   1.24582   -1.000
 4963.00    1.20360   1.24624   -1.000
 4964.00    1.19767   1.24044   -1.000
 4965.00    1.18665   1.23218   -1.000
 4966.00    1.18014   1.22475   -1.000
 4967.00    1.18092   1.22020   75.437
 4968.00    1.18550   1.21929   74.727
 4969.00    1.19192   1.22188   73.922
 4970.00    1.19281   1.22738   73.074
 4971.00    1.19290   1.23486   72.306
 4972.00    1.19779   1.24286   -1.000
 4973.00    1.20213   1.24968   -1.000
 4974.00    1.20391   1.25359   -1.000
 4975.00    1.20452   1.25362   -1.000
 4976.00    1.20317   1.24951   -1.000
 4977.00    1.19814   1.24178   -1.000
 4978.00    1.19415   1.23077   76.781
 4979.00    1.18841   1.21637   78.713
 4980.00    1.17603   1.19839   81.316
 4981.00    1.16090   1.17830   82.409
 4982.00    1.14620   1.16033   81.455
 4983.00    1.13970   1.15038   79.449
 4984.00    1.14568   1.15252   77.030
 4985.00    1.15905   1.16583   74.895
 4986.00    1.17477   1.18485   74.175
 4987.00    1.18633   1.20232   74.872
 4988.00    1.18765   1.21302   75.798
 4989.00    1.17804   1.21602   76.134
 4990.00    1.16996   1.21399   -1.000
 4991.00    1.17270   1.21137   75.257
 4992.00    1.17730   1.21111   75.112
 4993.00    1.17923   1.21384   74.871
 4994.00    1.18252   1.21804   74.487
 4995.00    1.18961   1.22148   74.603
 4996.00    1.19997   1.22205   75.391
 4997.00    1.19988   1.21819   76.715
 4998.00    1.18486   1.20973   77.930
 4999.00    1.17218   1.19842   78.353
 5000.00    1.16460   1.18750   77.920
 5001.00    1.16841   1.17995   77.302
 5002.00    1.17747   1.17593   77.753
 5003.00    1.18198   1.17294   79.409
 5004.00    1.17986   1.16846   80.515
 5005.00    1.16660   1.16322   79.488
 5006.00    1.15638   1.16123   77.217
 5007.00    1.16094   1.16548   75.768
 5008.00    1.17327   1.17461   76.048
 5009.00    1.18724   1.18262   77.833
 5010.00    1.18886   1.18345   80.544
 5011.00    1.17178   1.17537   82.906
 5012.00    1.15389   1.16189   83.429
 5013.00    1.14255   1.14947   82.122
 5014.00    1.14011   1.14231   80.341
 5015.00    1.15105   1.14084   79.465
 5016.00    1.15833   1.14237   79.358
 5017.00    1.15498   1.14481   78.825
 5018.00    1.15771   1.14836   78.066
 5019.00    1.16666   1.15373   78.021
 5020.00    1.17666   1.16084   78.277
 5021.00    1.18435   1.16844   78.073
 5022.00    1.18251   1.17568   77.387
 5023.00    1.18041   1.18286   76.742
 5024.00    1.18549   1.18947   76.762
 5025.00    1.19164   1.19434   77.142
 5026.00    1.19035   1.19690   76.861
 5027.00    1.18903   1.19824   75.688
 5028.00    1.19264   1.20077   74.461
 5029.00    1.19301   1.20596   73.311
 5030.00    1.19806   1.21332   72.327
 5031.00    1.20692   1.22088   72.073
 5032.00    1.21064   1.22580   73.521
 5033.00    1.21125   1.22541   76.258
 5034.00    1.20075   1.21892   78.241
 5035.00    1.18439   1.20771   78.896
 5036.00    1.17267   1.19413   79.582
 5037.00    1.17535   1.17955   81.867
 5038.00    1.16999   1.16344   85.203
 5039.00    1.15081   1.14721   86.595
 5040.00    1.13207   1.13571   83.965
 5041.00    1.12666   1.13553   79.134
 5042.00    1.14369   1.15003   75.250
 5043.00    1.16613   1.17541   73.115
 5044.00    1.20044   1.20304   70.807
 5045.00    1.19749   1.22408   71.032
 5046.00    0.72617   1.23317   -1.000
 5047.00    0.22769   1.23021   -1.000
 5048.00    0.05890   1.21893   -1.000
 5049.00    0.56105   1.20551   -1.000
 5050.00    1.10102   1.19589   -1.000
 5051.00    1.19351   1.19387   74.788
 5052.00    1.18884   1.19978   73.220
 5053.00    1.20324   1.21087   72.285
 5054.00    1.21520   1.22325   71.885
 5055.00    1.22632   1.23422   71.884
 5056.00    1.22821   1.24280   72.022
 5057.00    1.22515   1.24962   72.056
 5058.00    1.22523   1.25503   71.738
 5059.00    1.22387   1.25886   71.568
 5060.00    1.22184   1.26020   72.186
 5061.00    1.22465   1.25762   73.870
 5062.00    1.22744   1.24983   76.344
 5063.00    1.21842   1.23759   77.946
 5064.00    1.19785   1.22384   77.668
 5065.00    1.18562   1.21258   76.550
 5066.00    1.19273   1.20641   75.954
 5067.00    1.20332   1.20478   75.652
 5068.00    1.20487   1.20582   75.203
 5069.00    1.20796   1.20721   75.390
 5070.00    1.21458   1.20761   76.011
 5071.00    1.21293   1.20671   75.650
 5072.00    1.20861   1.20537   74.906
 5073.00    1.21000   1.20488   74.628
 5074.00    1.20670   1.20569   74.561
 5075.00    1.20615   1.20627   74.991
 5076.00    1.21017   1.20383   76.903
 5077.00    1.20581   1.19629   80.235
 5078.00    1.18458   1.18440   82.283
 5079.00    1.16362   1.17233   81.493
 5080.00    1.16467   1.16470   79.719
 5081.00    1.17495   1.16443   78.412
 5082.00    1.18025   1.17094   77.096
 5083.00    1.18794   1.18167   75.716
 5084.00    1.20254   1.19424   74.896
 5085.00    1.21534   1.20656   74.645
 5086.00    1.22068   1.21754   74.376
 5087.00    1.21915   1.22648   73.893
 5088.00    1.21456   1.23341   73.435
 5089.00    1.21607   1.23885   73.048
 5090.00    1.21857   1.24325   72.374
 5091.00    1.22232   1.24699   71.646
 5092.00    1.22901   1.24951   71.823
 5093.00    1.23827   1.24929   73.034
 5094.00    1.24222   1.24420   74.611
 5095.00    1.23593   1.23327   76.350
 5096.00    1.22065   1.21808   78.050
 5097.00    1.20679   1.20288   78.806
 5098.00    1.19660   1.19263   77.635
 5099.00    1.19337   1.19053   75.469
 5100.00    1.20586   1.19651   74.244
 5101.00    1.21984   1.20666   74.308
 5102.00    1.22374   1.21605   75.109
 5103.00    1.22163   1.22065   76.085
 5104.00    1.21873   1.21907   77.028
 5105.00    1.21180   1.21263   77.987
 5106.00    1.20028   1.20389   78.268
 5107.00    1.18710   1.19604   77.884
 5108.00    1.17937   1.19176   77.340
 5109.00    1.18592   1.19262   76.425
 5110.00    1.19570   1.19869   75.419
 5111.00    1.20375   1.20836   74.501
 5112.00    1.21646   1.21938   73.744
 5113.00    1.22230   1.22982   73.256
 5114.00    1.22299   1.23864   72.622
 5115.00    1.22985   1.24583   71.949
 5116.00    1.23502   1.25114   71.872
 5117.00    1.24042   1.25411   72.566
 5118.00    1.24122   1.25361   73.623
 5119.00    1.23661   1.24893   74.805
 5120.00    1.23325   1.24008   76.486
 5121.00    1.22483   1.22804   78.689
 5122.00    1.21064   1.21460   79.901
 5123.00    1.19586   1.20196   79.605
 5124.00    1.18931   1.19217   79.081
 5125.00    1.19240   1.18631   78.644
 5126.00    1.19583   1.18416   78.549
 5127.00    1.19675   1.18450   78.555
 5128.00    1.19574   1.18646   77.859
 5129.00    1.19988   1.18963   76.621
 5130.00    1.20809   1.19413   75.752
 5131.00    1.21419   1.19951   75.078
 5132.00    1.21560   1.20503   74.395
 5133.00    1.22076   1.20972   74.042
 5134.00    1.22821   1.21257   74.844
 5135.00    1.22844   1.21241   76.532
 5136.00    1.22281   1.20854   77.993
 5137.00    1.21026   1.20144   78.487
 5138.00    1.19199   1.19309   78.042
 5139.00    1.18313   1.18612   78.158
 5140.00    1.18354   1.18187   79.217
 5141.00    1.18669   1.18059   79.378
 5142.00    1.18845   1.18157   78.307
 5143.00    1.19611   1.18397   77.655
 5144.00    1.20890   1.18674   78.056
 5145.00    1.21352   1.18859   78.455
 5146.00    1.21164   1.18904   77.876
 5147.00    1.20843   1.18888   77.237
 5148.00    1.20943   1.18875   77.722
 5149.00    1.21306   1.18854   79.014
 5150.00    1.20624   1.18744   79.865
 5151.00    1.19204   1.18517   79.761
 5152.00    1.18988   1.18345   78.598
 5153.00    1.19897   1.18458   76.743
 5154.00    1.21021   1.19043   74.782
 5155.00    1.22352   1.20091   73.212
 5156.00    1.23186   1.21400   72.397
 5157.00    1.23953   1.22665   72.222
 5158.00    1.24883   1.23586   72.387
 5159.00    1.25181   1.24002   72.749
 5160.00    1.24590   1.23849   73.437
 5161.00    1.24019   1.23119   74.479
 5162.00    1.23465   1.21738   76.749
 5163.00    1.23338   1.19546   -1.000
 5164.00    1.22098   1.16370   -1.000
 5165.00    1.18336   1.12458   -1.000
 5166.00    1.13192   1.08475   -1.000
 5167.00    1.09260   1.05410   -1.000
 5168.00    1.09133   1.03859   -1.000
 5169.00    1.11869   1.03428   -1.000
 5170.00    1.13902   1.03480   -1.000
 5171.00    1.12348   1.03556   -1.000
 5172.00    1.10100   1.04145   -1.000
 5173.00    1.11164   1.06097   -1.000
 5174.00    1.15364   1.09458   -1.000
 5175.00    1.20130   1.13582   -1.000
 5176.00    1.22808   1.17233   -1.000
 5177.00    1.24246   1.19531   -1.000
 5178.00    1.24825   1.20180   -1.000
 5179.00    1.24392   1.19055   -1.000
 5180.00    1.23578   1.16354   -1.000
 5181.00    1.20990   1.12526   -1.000
 5182.00    1.15620   1.08687   -1.000
 5183.00    1.11262   1.06282   -1.000
 5184.00    1.11053   1.06234   -1.000
 5185.00    1.15559   1.08534   -1.000
 5186.00    1.20465   1.11971   -1.000
 5187.00    1.21862   1.15207   -1.000
 5188.00    1.21754   1.17381   -1.000
 5189.00    1.21660   1.18285   -1.000
 5190.00    1.20989   1.18250   81.282
 5191.00    1.19298   1.17715   81.587
 5192.00    1.17736   1.17139   80.376
 5193.00    1.18128   1.16888   79.109
 5194.00    1.19126   1.17110   77.954
 5195.00    1.19733   1.17725   76.521
 5196.00    1.20921   1.18651   75.133
 5197.00    1.21776   1.19772   74.310
 5198.00    1.22279   1.20949   74.077
 5199.00    1.23180   1.21934   74.469
 5200.00    1.23548   1.22378   75.592
 5201.00    1.22990   1.22036   77.224
 5202.00    1.22126   1.20861   79.452
 5203.00    1.20887   1.19062   81.936
 5204.00    1.19113   1.17035   82.946
 5205.00    1.17835   1.15224   83.297
 5206.00    1.17616   1.13994   -1.000
 5207.00    1.17992   1.13534   -1.000
 5208.00    1.18098   1.13954   -1.000
 5209.00    1.18832   1.15221   -1.000
 5210.00    1.20359   1.17182   74.651
 5211.00    1.23126   1.19418   -1.000
 5212.00    1.24734   1.21350   72.770
 5213.00    1.25105   1.22488   74.253
 5214.00    1.24108   1.22694   75.451
 5215.00    1.22518   1.22369   75.290
 5216.00    1.22008   1.22100   73.939
 5217.00    1.23053   1.22396   72.649
 5218.00    1.24605   1.23304   71.930
 5219.00    1.25561   1.24485   71.570
 5220.00    1.26235   1.25436   72.119
 5221.00    1.26298   1.25695   73.950
 5222.00    1.25912   1.25001   76.785
 5223.00    1.25157   1.23277   80.272
 5224.00    1.23529   1.20771   83.002
 5225.00    1.20166   1.18183   82.448
 5226.00    1.17142   1.16361   78.616
 5227.00    1.16637   1.15995   74.993
 5228.00    1.19269   1.17051   73.151
 5229.00    1.22763   1.18790   -1.000
 5230.00    1.24517   1.20311   -1.000
 5231.00    1.24568   1.20991   -1.000
 5232.00    1.23505   1.20958   75.408
 5233.00    1.22309   1.20766   74.117
 5234.00    1.22298   1.21024   72.334
 5235.00    1.23219   1.21953   71.242
 5236.00    1.24676   1.23362   70.971
 5237.00    1.26218   1.24796   71.124
 5238.00    1.26784   1.25886   71.110
 5239.00    1.26829   1.26522   70.770
 5240.00    1.26905   1.26784   70.712
 5241.00    1.26723   1.26869   70.656
 5242.00    1.26588   1.26910   70.527
 5243.00    1.26598   1.26894   71.478
 5244.00    1.26968   1.26660   73.513
 5245.00    1.26191   1.26078   75.427
 5246.00    1.24941   1.25142   76.078
 5247.00    1.24124   1.24076   76.201
 5248.00    1.23222   1.23154   76.587
 5249.00    1.22703   1.22570   76.488
 5250.00    1.22365   1.22382   75.612
 5251.00    1.22630   1.22497   74.760
 5252.00    1.23643   1.22793   74.554
 5253.00    1.24546   1.23185   74.196
 5254.00    1.24185   1.23725   72.798
 5255.00    1.24467   1.24469   70.879
 5256.00    1.25418   1.25388   69.867
 5257.00    1.26647   1.26199   70.171
 5258.00    1.27731   1.26453   71.745
 5259.00    1.27616   1.25787   74.498
 5260.00    1.26464   1.24080   77.959
 5261.00    1.23801   1.21562   80.978
 5262.00    1.21338   1.18690   82.965
 5263.00    1.19506   1.16010   -1.000
 5264.00    1.18600   1.14011   -1.000
 5265.00    1.18525   1.12857   -1.000
 5266.00    1.19086   1.12335   -1.000
 5267.00    1.20130   1.12102   -1.000
 5268.00    1.19031   1.11884   -1.000
 5269.00    1.16467   1.11917   -1.000
 5270.00    1.16158   1.12602   -1.000
 5271.00    1.19073   1.14009   -1.000
 5272.00    1.21869   1.15915   -1.000
 5273.00    1.22804   1.17770   -1.000
 5274.00    1.23025   1.19330   -1.000
 5275.00    1.23308   1.20751   71.731
 5276.00    1.24449   1.22201   70.052
 5277.00    1.26284   1.23649   69.999
 5278.00    1.27447   1.24681   71.357
 5279.00    1.27268   1.24942   73.206
 5280.00    1.26550   1.24385   74.716
 5281.00    1.25452   1.23378   75.359
 5282.00    1.24150   1.22549   74.348
 5283.00    1.23534   1.22451   72.245
 5284.00    1.24072   1.23281   69.971
 5285.00    1.26121   1.24832   68.965
 5286.00    1.28102   1.26628   69.114
 5287.00    1.28649   1.28183   69.229
 5288.00    1.28287   1.29275   68.925
 5289.00    1.28482   1.29890   68.697
 5290.00    1.28986   1.30134   68.952
 5291.00    1.28721   1.30099   69.547
 5292.00    1.28121   1.29737   70.402
 5293.00    1.27756   1.28978   72.043
 5294.00    1.27478   1.27778   74.607
 5295.00    1.26846   1.26165   76.880
 5296.00    1.25178   1.24466   77.091
 5297.00    1.23939   1.23134   75.485
 5298.00    1.23724   1.22503   73.908
 5299.00    1.24420   1.22694   73.197
 5300.00    1.25179   1.23468   72.434
 5301.00    1.25221   1.24550   70.757
 5302.00    1.25375   1.25768   69.266
 5303.00    1.26295   1.26927   68.797
 5304.00    1.27303   1.27905   69.256
 5305.00    1.27950   1.28559   69.897
 5306.00    1.27915   1.28863   69.731
 5307.00    1.27326   1.29033   69.051
 5308.00    1.27798   1.29249   68.526
 5309.00    1.28723   1.29585   68.461
 5310.00    1.29306   1.29915   68.771
 5311.00    1.29664   1.30001   69.100
 5312.00    1.29142   1.29697   69.544
 5313.00    1.28534   1.28987   70.188
 5314.00    1.28202   1.28015   70.836
 5315.00    1.26929   1.27080   71.022
 5316.00    1.25915   1.26493   70.630
 5317.00    1.26176   1.26430   70.257
 5318.00    1.26803   1.26788   70.370
 5319.00    1.27511   1.27202   70.814
 5320.00    1.27941   1.27280   71.562
 5321.00    1.27693   1.26761   72.714
 5322.00    1.26806   1.25697   73.562
 5323.00    1.25489   1.24270   73.710
 5324.00    1.24822   1.22639   75.160
 5325.00    1.24950   1.20852   -1.000
 5326.00    1.23684   1.18983   -1.000
 5327.00    1.20450   1.17502   80.875
 5328.00    1.18440   1.16914   76.353
 5329.00    1.20032   1.17625   73.313
 5330.00    1.23564   1.19473   -1.000
 5331.00    1.26391   1.21750   -1.000
 5332.00    1.26946   1.23838   70.690
 5333.00    1.27136   1.25331   70.245
 5334.00    1.27932   1.26201   70.508
 5335.00    1.28035   1.26559   70.981
 5336.00    1.27372   1.26420   71.674
 5337.00    1.27088   1.25799   73.223
 5338.00    1.27222   1.24837   74.686
 5339.00    1.25944   1.23870   74.559
 5340.00    1.24380   1.23279   72.859
 5341.00    1.24418   1.23346   71.353
 5342.00    1.26560   1.23963   71.030
 5343.00    1.27950   1.24729   -1.000
 5344.00    1.28014   1.25248   71.869
 5345.00    1.27450   1.25289   72.250
 5346.00    1.27626   1.25003   72.824
 5347.00    1.27138   1.24679   73.131
 5348.00    1.26377   1.24585   72.321
 5349.00    1.26080   1.24883   70.753
 5350.00    1.27062   1.25566   69.665
 5351.00    1.28000   1.26490   69.294
 5352.00    1.28646   1.27475   68.843
 5353.00    1.29444   1.28429   68.039
 5354.00    1.29171   1.29278   67.429
 5355.00    1.29288   1.30021   67.353
 5356.00    1.29854   1.30602   67.457
 5357.00    1.29836   1.30900   67.668
 5358.00    1.30085   1.30844   68.327
 5359.00    1.30504   1.30380   69.400
 5360.00    1.29494   1.29542   70.464
 5361.00    1.28061   1.28441   71.093
 5362.00    1.27780   1.27245   71.516
 5363.00    1.27528   1.26158   71.942
 5364.00    1.27180   1.25324   71.884
 5365.00    1.27108   1.24758   71.812
 5366.00    1.27042   1.24286   72.365
 5367.00    1.26761   1.23692   -1.000
 5368.00    1.26374   1.22810   -1.000
 5369.00    1.25503   1.21741   -1.000
 5370.00    1.23881   1.20928   74.731
 5371.00    1.23352   1.20854   71.389
 5372.00    1.24197   1.21821   69.254
 5373.00    1.26706   1.23600   68.482
 5374.00    1.28946   1.25646   -1.000
 5375.00    1.29786   1.27360   68.619
 5376.00    1.30154   1.28383   68.723
 5377.00    1.30358   1.28722   69.060
 5378.00    1.29870   1.28540   69.682
 5379.00    1.29583   1.28064   70.377
 5380.00    1.28870   1.27457   70.806
 5381.00    1.27512   1.26888   70.846
 5382.00    1.27059   1.26534   70.572
 5383.00    1.27830   1.26527   69.907
 5384.00    1.28563   1.26893   69.613
 5385.00    1.29227   1.27446   69.833
 5386.00    1.29535   1.27911   70.434
 5387.00    1.29400   1.28035   71.427
 5388.00    1.29088   1.27698   72.309
 5389.00    1.28928   1.27014   72.741
 5390.00    1.28805   1.26164   72.834
 5391.00    1.27965   1.25305   73.008
 5392.00    1.27256   1.24567   73.480
 5393.00    1.27131   1.23900   -1.000
 5394.00    1.26357   1.23205   -1.000
 5395.00    1.25708   1.22517   -1.000
 5396.00    1.24485   1.21943   74.400
 5397.00    1.24083   1.21786   72.195
 5398.00    1.25813   1.22182   -1.000
 5399.00    1.27433   1.22962   -1.000
 5400.00    1.28145   1.23744   -1.000
 5401.00    1.28635   1.24014   -1.000
 5402.00    1.28165   1.23474   -1.000
 5403.00    1.26309   1.22298   -1.000
 5404.00    1.24088   1.20978   -1.000
 5405.00    1.23111   1.20013   75.680
 5406.00    1.23789   1.19768   -1.000
 5407.00    1.25311   1.20088   -1.000
 5408.00    1.26077   1.20679   -1.000
 5409.00    1.25834   1.21391   -1.000
 5410.00    1.25524   1.22150   -1.000
 5411.00    1.25878   1.23057   70.677
 5412.00    1.27657   1.24033   -1.000
 5413.00    1.28709   1.24915   -1.000
 5414.00    1.28070   1.25675   70.207
 5415.00    1.27818   1.26298   69.730
 5416.00    1.28705   1.26865   69.856
 5417.00    1.28912   1.27358   70.478
 5418.00    1.28650   1.27626   70.971
 5419.00    1.28624   1.27630   70.835
 5420.00    1.28356   1.27363   70.535
 5421.00    1.28409   1.26894   71.242
 5422.00    1.28271   1.26399   72.002
 5423.00    1.27647   1.26005   71.537
 5424.00    1.27227   1.25915   70.390
 5425.00    1.27638   1.26109   70.292
 5426.00    1.28492   1.26228   71.889
 5427.00    1.27852   1.26047   74.170
 5428.00    1.26913   1.25407   74.803
 5429.00    1.25801   1.24552   73.724
 5430.00    1.24903   1.23881   73.379
 5431.00    1.25895   1.23459   74.225
 5432.00    1.26468   1.23293   -1.000
 5433.00    1.25661   1.23265   75.116
 5434.00    1.25077   1.23447   73.854
 5435.00    1.25245   1.24120   71.907
 5436.00    1.26901   1.25328   70.290
 5437.00    1.28905   1.26911   69.214
 5438.00    1.29873   1.28473   68.565
 5439.00    1.30746   1.29691   68.360
 5440.00    1.30992   1.30385   68.342
 5441.00    1.30696   1.30464   68.912
 5442.00    1.30222   1.29925   70.531
 5443.00    1.29791   1.28711   73.254
 5444.00    1.28280   1.27023   75.836
 5445.00    1.25882   1.25277   75.911
 5446.00    1.23819   1.24054   73.783
 5447.00    1.23735   1.23817   71.619
 5448.00    1.26083   1.24514   70.670
 5449.00    1.28643   1.25775   70.565
 5450.00    1.30049   1.26955   -1.000
 5451.00    1.30364   1.27491   72.510
 5452.00    1.29672   1.27201   74.543
 5453.00    1.28131   1.26254   76.283
 5454.00    1.26044   1.25132   75.733
 5455.00    1.24479   1.24508   73.350
 5456.00    1.25168   1.24695   71.209
 5457.00    1.27883   1.25597   70.503
 5458.00    1.30088   1.26739   -1.000
 5459.00    1.30751   1.27490   -1.000
 5460.00    1.30457   1.27539   -1.000
 5461.00    1.29581   1.27007   73.963
 5462.00    1.28547   1.26348   73.296
 5463.00    1.28582   1.25968   72.401
 5464.00    1.29155   1.26069   -1.000
 5465.00    1.30269   1.26557   -1.000
 5466.00    1.30353   1.27204   -1.000
 5467.00    1.30380   1.27771   71.338
 5468.00    1.30978   1.28087   72.091
 5469.00    1.30919   1.28133   72.446
 5470.00    1.30363   1.27914   72.785
 5471.00    1.30221   1.27424   73.460
 5472.00    1.29699   1.26695   74.457
 5473.00    1.29100   1.25730   -1.000
 5474.00    1.28042   1.24601   -1.000
 5475.00    1.26656   1.23581   -1.000
 5476.00    1.25220   1.22956   74.819
 5477.00    1.25541   1.22970   73.196
 5478.00    1.27501   1.23553   -1.000
 5479.00    1.28688   1.24350   -1.000
 5480.00    1.28739   1.25139   -1.000
 5481.00    1.28436   1.25762   73.244
 5482.00    1.28283   1.26321   71.760
 5483.00    1.28741   1.26936   70.970
 5484.00    1.29433   1.27485   71.424
 5485.00    1.29609   1.27820   72.419
 5486.00    1.29044   1.27849   72.966
 5487.00    1.28724   1.27693   73.044
 5488.00    1.29222   1.27559   72.620
 5489.00    1.29064   1.27582   72.083
 5490.00    1.28855   1.27781   71.768
 5491.00    1.29527   1.28016   71.853
 5492.00    1.29711   1.28189   71.914
 5493.00    1.29865   1.28252   71.907
 5494.00    1.30296   1.28148   72.333
 5495.00    1.29633   1.27919   72.859
 5496.00    1.28654   1.27617   72.633
 5497.00    1.28148   1.27312   71.868
 5498.00    1.28171   1.27070   72.175
 5499.00    1.29044   1.26811   73.265
 5500.00    1.28992   1.26498   73.598
 5501.00    1.28183   1.26188   73.100
 5502.00    1.28388   1.25849   72.851
 5503.00    1.28918   1.25564   -1.000
 5504.00    1.29215   1.25329   -1.000
 5505.00    1.28166   1.25105   -1.000
 5506.00    1.26941   1.25015   72.884
 5507.00    1.27293   1.25087   72.404
 5508.00    1.27920   1.25309   72.758
 5509.00    1.29623   1.25509   -1.000
 5510.00    1.30160   1.25464   -1.000
 5511.00    1.29575   1.25169   -1.000
 5512.00    1.28227   1.24807   -1.000
 5513.00    1.28095   1.24675   -1.000
 5514.00    1.29121   1.24951   -1.000
 5515.00    1.29622   1.25655   -1.000
 5516.00    1.30455   1.26638   -1.000
 5517.00    1.30974   1.27675   -1.000
 5518.00    1.31442   1.28573   70.195
 5519.00    1.31633   1.29209   70.334
 5520.00    1.31133   1.29527   70.562
 5521.00    1.31294   1.29540   70.706
 5522.00    1.31239   1.29276   71.076
 5523.00    1.30815   1.28699   71.954
 5524.00    1.30355   1.27785   73.509
 5525.00    1.29312   1.26549   -1.000
 5526.00    1.27681   1.25239   76.095
 5527.00    1.26283   1.24233   74.775
 5528.00    1.26133   1.23929   72.811
 5529.00    1.27207   1.24414   71.691
 5530.00    1.28810   1.25368   -1.000
 5531.00    1.29880   1.26361   -1.000
 5532.00    1.29391   1.26979   72.695
 5533.00    1.29085   1.27141   72.543
 5534.00    1.29072   1.27080   71.992
 5535.00    1.28887   1.27086   71.738
 5536.00    1.29495   1.27297   71.457
 5537.00    1.30107   1.27698   70.820
 5538.00    1.30715   1.28212   70.228
 5539.00    1.31355   1.28683   70.163
 5540.00    1.31298   1.28967   70.784
 5541.00    1.31289   1.29029   71.519
 5542.00    1.31239   1.28885   71.794
 5543.00    1.30640   1.28642   71.647
 5544.00    1.30358   1.28478   71.472
 5545.00    1.30594   1.28499   71.070
 5546.00    1.30737   1.28747   70.400
 5547.00    1.30856   1.29170   69.787
 5548.00    1.31246   1.29628   69.558
 5549.00    1.31697   1.30021   69.850
 5550.00    1.31748   1.30247   70.432
 5551.00    1.32054   1.30225   71.216
 5552.00    1.31802   1.30005   71.642
 5553.00    1.31385   1.29712   71.600
 5554.00    1.31178   1.29483   71.384
 5555.00    1.30955   1.29389   71.243
 5556.00    1.30824   1.29428   71.151
 5557.00    1.31499   1.29535   71.073
 5558.00    1.32008   1.29591   71.188
 5559.00    1.31806   1.29520   71.526
 5560.00    1.31830   1.29290   72.203
 5561.00    1.31407   1.28921   72.753
 5562.00    1.31112   1.28489   73.003
 5563.00    1.30546   1.28069   73.156
 5564.00    1.30429   1.27727   73.242
 5565.00    1.30169   1.27470   73.123
 5566.00    1.30037   1.27259   -1.000
 5567.00    1.30024   1.27062   -1.000
 5568.00    1.29654   1.26860   -1.000
 5569.00    1.29043   1.26657   73.108
 5570.00    1.28532   1.26465   73.293
 5571.00    1.26471   1.26318   73.065
 5572.00    1.19280   1.26299   -1.000
 5573.00    0.93598   1.26449   -1.000
 5574.00    0.54711   1.26732   -1.000
 5575.00    0.40350   1.27146   -1.000
 5576.00    0.73499   1.27628   -1.000
 5577.00    1.26881   1.28075   72.685
 5578.00    1.47751   1.28451   -1.000
 5579.00    1.39370   1.28701   -1.000
 5580.00    1.32594   1.28771   -1.000
 5581.00    1.30867   1.28666   72.039
 5582.00    1.30624   1.28371   72.381
 5583.00    1.30970   1.27828   -1.000
 5584.00    1.30872   1.26901   -1.000
 5585.00    1.29422   1.25578   -1.000
 5586.00    1.27282   1.24103   -1.000
 5587.00    1.25453   1.22805   77.471
 5588.00    1.25214   1.22097   -1.000
 5589.00    1.26472   1.22156   -1.000
 5590.00    1.27897   1.22799   -1.000
 5591.00    1.29031   1.23672   -1.000
 5592.00    1.28986   1.24481   -1.000
 5593.00    1.28529   1.25107   -1.000
 5594.00    1.27972   1.25547   72.864
 5595.00    1.28891   1.25850   -1.000
 5596.00    1.30233   1.25946   -1.000
 5597.00    1.29612   1.25802   -1.000
 5598.00    1.28936   1.25450   -1.000
 5599.00    1.28456   1.24923   -1.000
 5600.00    1.28909   1.24457   -1.000
 5601.00    1.27756   1.24340   -1.000
 5602.00    1.26405   1.24701   73.270
 5603.00    1.27892   1.25649   71.533
 5604.00    1.30288   1.27090   -1.000
 5605.00    1.31531   1.28679   -1.000
 5606.00    1.31976   1.30100   70.423
 5607.00    1.32243   1.31116   70.567
 5608.00    1.32730   1.31696   70.526
 5609.00    1.32459   1.31936   70.320
 5610.00    1.31936   1.31853   70.575
 5611.00    1.32361   1.31351   71.892
 5612.00    1.32291   1.30351   74.287
 5613.00    1.31203   1.28919   76.157
 5614.00    1.28800   1.27360   75.844
 5615.00    1.27594   1.26237   74.132
 5616.00    1.28234   1.25854   72.989
 5617.00    1.30030   1.26235   -1.000
 5618.00    1.31104   1.27147   -1.000
 5619.00    1.31105   1.28078   -1.000
 5620.00    1.31727   1.28703   -1.000
 5621.00    1.32080   1.28896   -1.000
 5622.00    1.31521   1.28666   -1.000
 5623.00    1.30633   1.28226   74.888
 5624.00    1.29824   1.27851   73.707
 5625.00    1.29862   1.27782   72.603
 5626.00    1.30899   1.28165   71.739
 5627.00    1.31441   1.28884   71.174
 5628.00    1.31772   1.29718   70.937
 5629.00    1.32601   1.30417   70.667
 5630.00    1.32842   1.30805   70.693
 5631.00    1.32372   1.30868   71.196
 5632.00    1.32102   1.30649   71.723
 5633.00    1.32390   1.30229   72.181
 5634.00    1.32192   1.29733   72.703
 5635.00    1.31520   1.29262   73.204
 5636.00    1.30948   1.28861   73.271
 5637.00    1.30714   1.28572   73.194
 5638.00    1.30781   1.28371   73.403
 5639.00    1.30719   1.28229   73.475
 5640.00    1.30697   1.28162   73.216
 5641.00    1.30804   1.28168   72.875
 5642.00    1.31661   1.28258   -1.000
 5643.00    1.31907   1.28455   -1.000
 5644.00    1.31743   1.28727   -1.000
 5645.00    1.31672   1.28992   71.843
 5646.00    1.32186   1.29198   -1.000
 5647.00    1.32638   1.29324   -1.000
 5648.00    1.32466   1.29356   -1.000
 5649.00    1.32405   1.29344   -1.000
 5650.00    1.32193   1.29314   -1.000
 5651.00    1.32656   1.29243   -1.000
 5652.00    1.32650   1.29088   -1.000
 5653.00    1.32460   1.28737   -1.000
 5654.00    1.31955   1.28125   -1.000
 5655.00    1.31070   1.27240   -1.000
 5656.00    1.30211   1.26197   -1.000
 5657.00    1.28760   1.25273   -1.000
 5658.00    1.27519   1.24705   -1.000
 5659.00    1.28038   1.24599   -1.000
 5660.00    1.29887   1.24953   -1.000
 5661.00    1.30211   1.25582   -1.000
 5662.00    1.29711   1.26300   -1.000
 5663.00    1.30368   1.27007   -1.000
 5664.00    1.31281   1.27600   -1.000
 5665.00    1.31539   1.28047   -1.000
 5666.00    1.30957   1.28317   73.384
 5667.00    1.30503   1.28418   73.220
 5668.00    1.30585   1.28500   72.771
 5669.00    1.30875   1.28699   72.150
 5670.00    1.31207   1.29053   71.431
 5671.00    1.31926   1.29506   70.738
 5672.00    1.32598   1.29953   70.683
 5673.00    1.32592   1.30296   70.909
 5674.00    1.32081   1.30503   70.735
 5675.00    1.32059   1.30591   70.603
 5676.00    1.32740   1.30569   70.919
 5677.00    1.32782   1.30441   71.223
 5678.00    1.32229   1.30167   71.630
 5679.00    1.32055   1.29687   72.430
 5680.00    1.31789   1.29012   -1.000
 5681.00    1.31486   1.28255   -1.000
 5682.00    1.31192   1.27577   -1.000
 5683.00    1.30554   1.27121   -1.000
 5684.00    1.30605   1.26904   -1.000
 5685.00    1.30777   1.26836   -1.000
 5686.00    1.30644   1.26849   -1.000
 5687.00    1.30811   1.26917   -1.000
 5688.00    1.30392   1.27114   -1.000
 5689.00    1.30702   1.27540   -1.000
 5690.00    1.31621   1.28168   -1.000
 5691.00    1.31758   1.28885   -1.000
 5692.00    1.32243   1.29525   -1.000
 5693.00    1.32617   1.29973   -1.000
 5694.00    1.32425   1.30193   71.111
 5695.00    1.32307   1.30199   71.772
 5696.00    1.32424   1.30008   72.605
 5697.00    1.31706   1.29629   73.264
 5698.00    1.31541   1.29131   74.039
 5699.00    1.31104   1.28587   74.422
 5700.00    1.30098   1.28118   73.939
 5701.00    1.29730   1.27822   73.170
 5702.00    1.29383   1.27691   72.937
 5703.00    1.29791   1.27619   73.379
 5704.00    1.30187   1.27426   -1.000
 5705.00    1.30468   1.26990   -1.000
 5706.00    1.30255   1.26265   -1.000
 5707.00    1.29750   1.25371   -1.000
 5708.00    1.27754   1.24567   -1.000
 5709.00    1.26618   1.24098   76.579
 5710.00    1.27175   1.24137   -1.000
 5711.00    1.28416   1.24762   -1.000
 5712.00    1.29787   1.25826   -1.000
 5713.00    1.31818   1.27060   -1.000
 5714.00    1.32645   1.28218   -1.000
 5715.00    1.31903   1.29139   -1.000
 5716.00    1.31431   1.29792   70.992
 5717.00    1.31899   1.30266   70.538
 5718.00    1.32111   1.30694   70.197
 5719.00    1.32157   1.31103   70.018
 5720.00    1.32374   1.31489   69.907
 5721.00    1.32634   1.31815   69.822
 5722.00    1.33260   1.32014   69.970
 5723.00    1.33600   1.32040   70.533
 5724.00    1.32917   1.31880   71.276
 5725.00    1.32311   1.31578   71.859
 5726.00    1.32176   1.31237   71.542
 5727.00    1.32039   1.30945   71.103
 5728.00    1.32496   1.30774   71.252
 5729.00    1.32719   1.30715   71.613
 5730.00    1.32530   1.30735   71.393
 5731.00    1.32707   1.30825   70.716
 5732.00    1.32793   1.30981   70.247
 5733.00    1.32804   1.31226   70.276
 5734.00    1.32504   1.31522   70.364
 5735.00    1.32727   1.31796   70.569
 5736.00    1.33090   1.31970   70.634
 5737.00    1.33128   1.32018   70.779
 5738.00    1.32826   1.31988   70.889
 5739.00    1.33012   1.31906   71.046
 5740.00    1.32354   1.31811   70.900
 5741.00    1.32656   1.31748   70.823
 5742.00    1.32618   1.31736   70.331
 5743.00    1.32733   1.31769   69.937
 5744.00    1.32714   1.31813   70.269
 5745.00    1.32848   1.31815   70.962
 5746.00    1.32369   1.31759   71.264
 5747.00    1.31630   1.31654   70.884
 5748.00    1.31915   1.31516   70.646
 5749.00    1.33021   1.31302   71.155
 5750.00    1.33105   1.30953   72.014
 5751.00    1.32485   1.30473   72.749
 5752.00    1.31738   1.29975   72.781
 5753.00    1.30551   1.29700   71.901
 5754.00    1.30731   1.29820   70.579
 5755.00    1.31996   1.30319   69.710
 5756.00    1.33003   1.30988   69.862
 5757.00    1.33393   1.31514   70.623
 5758.00    1.33644   1.31689   71.549
 5759.00    1.33221   1.31458   72.528
 5760.00    1.32372   1.30974   72.931
 5761.00    1.31922   1.30509   72.209
 5762.00    1.31628   1.30322   70.935
 5763.00    1.31375   1.30531   70.039
 5764.00    1.32159   1.31098   69.785
 5765.00    1.33237   1.31803   69.711
 5766.00    1.33589   1.32426   69.596
 5767.00    1.33531   1.32792   69.722
 5768.00    1.33159   1.32872   69.951
 5769.00    1.32875   1.32736   70.332
 5770.00    1.32447   1.32452   70.769
 5771.00    1.32578   1.32091   70.962
 5772.00    1.32783   1.31729   71.052
 5773.00    1.32020   1.31435   70.917
 5774.00    1.31348   1.31250   70.569
 5775.00    1.30773   1.31154   70.483
 5776.00    1.29633   1.31013   70.692
 5777.00    1.28493   1.30699   71.677
 5778.00    1.27747   1.30158   73.278
 5779.00    1.27970   1.29423   74.282
 5780.00    1.29185   1.28657   74.210
 5781.00    1.30186   1.28059   73.920
 5782.00    1.30822   1.27741   -1.000
 5783.00    1.31448   1.27723   -1.000
 5784.00    1.31982   1.27965   -1.000
 5785.00    1.31754   1.28414   -1.000
 5786.00    1.31752   1.28963   -1.000
 5787.00    1.32419   1.29499   -1.000
 5788.00    1.33397   1.29938   -1.000
 5789.00    1.32645   1.30211   71.338
 5790.00    1.32129   1.30366   70.771
 5791.00    1.32536   1.30535   70.277
 5792.00    1.32385   1.30808   69.850
 5793.00    1.31837   1.31193   69.780
 5794.00    1.31630   1.31567   70.175
 5795.00    1.31709   1.31818   70.628
 5796.00    1.31779   1.31933   70.338
 5797.00    1.32377   1.31994   69.464
 5798.00    1.32846   1.32089   68.507
 5799.00    1.33540   1.32279   68.301
 5800.00    1.33858   1.32527   68.839
 5801.00    1.34390   1.32700   69.385
 5802.00    1.33797   1.32701   69.951
 5803.00    1.33679   1.32540   70.278
 5804.00    1.33322   1.32314   70.141
 5805.00    1.33338   1.32141   69.878
 5806.00    1.33006   1.32098   69.667
 5807.00    1.33063   1.32204   69.652
 5808.00    1.33315   1.32404   69.590
 5809.00    1.33720   1.32613   69.336
 5810.00    1.33838   1.32753   69.128
 5811.00    1.34457   1.32783   69.248
 5812.00    1.33958   1.32681   69.806
 5813.00    1.34281   1.32458   70.145
 5814.00    1.34382   1.32201   69.820
 5815.00    1.34198   1.32046   69.340
 5816.00    1.34346   1.32082   68.955
 5817.00    1.34273   1.32320   68.614
 5818.00    1.33997   1.32701   68.380
 5819.00    1.34333   1.33106   68.474
 5820.00    1.35205   1.33415   68.714
 5821.00    1.35260   1.33603   68.609
 5822.00    1.34832   1.33701   68.504
 5823.00    1.35290   1.33756   68.377
 5824.00    1.35581   1.33805   68.309
 5825.00    1.35039   1.33858   68.324
 5826.00    1.34953   1.33907   68.458
 5827.00    1.35451   1.33955   68.334
 5828.00    1.35371   1.33988   68.345
 5829.00    1.34964   1.33996   68.255
 5830.00    1.35226   1.33964   68.382
 5831.00    1.35640   1.33889   68.830
 5832.00    1.35726   1.33787   68.959
 5833.00    1.35535   1.33685   68.742
 5834.00    1.35249   1.33622   68.601
 5835.00    1.35250   1.33617   68.810
 5836.00    1.35601   1.33663   68.972
 5837.00    1.35487   1.33750   68.767
 5838.00    1.34666   1.33860   68.266
 5839.00    1.34434   1.33952   67.904
 5840.00    1.34877   1.34005   67.905
 5841.00    1.34925   1.34001   68.126
 5842.00    1.34511   1.33903   68.390
 5843.00    1.35021   1.33682   68.843
 5844.00    1.34878   1.33362   69.191
 5845.00    1.34942   1.33016   69.534
 5846.00    1.33820   1.32715   69.471
 5847.00    1.34130   1.32478   69.575
 5848.00    1.34028   1.32277   69.964
 5849.00    1.34376   1.32037   70.403
 5850.00    1.34413   1.31678   -1.000
 5851.00    1.34376   1.31177   -1.000
 5852.00    1.33429   1.30582   -1.000
 5853.00    1.32588   1.29938   -1.000
 5854.00    1.32502   1.29259   -1.000
 5855.00    1.32851   1.28573   -1.000
 5856.00    1.32415   1.28000   -1.000
 5857.00    1.31449   1.27680   -1.000
 5858.00    1.32776   1.27711   -1.000
 5859.00    1.33589   1.28143   -1.000
 5860.00    1.33662   1.28848   -1.000
 5861.00    1.34519   1.29594   -1.000
 5862.00    1.34052   1.30199   -1.000
 5863.00    1.34108   1.30566   -1.000
 5864.00    1.34229   1.30713   -1.000
 5865.00    1.34122   1.30735   -1.000
 5866.00    1.33965   1.30734   -1.000
 5867.00    1.33804   1.30838   -1.000
 5868.00    1.34340   1.31113   -1.000
 5869.00    1.35106   1.31504   -1.000
 5870.00    1.35587   1.31886   -1.000
 5871.00    1.35550   1.32116   -1.000
 5872.00    1.35018   1.32134   -1.000
 5873.00    1.34825   1.31976   -1.000
 5874.00    1.34863   1.31722   -1.000
 5875.00    1.34698   1.31434   -1.000
 5876.00    1.34931   1.31137   -1.000
 5877.00    1.34816   1.30840   -1.000
 5878.00    1.34094   1.30533   -1.000
 5879.00    1.33637   1.30201   -1.000
 5880.00    1.33147   1.29833   -1.000
 5881.00    1.32617   1.29413   -1.000
 5882.00    1.32362   1.28912   -1.000
 5883.00    1.31005   1.28269   -1.000
 5884.00    1.27045   1.27311   72.548
 5885.00    1.18178   1.25751   -1.000
 5886.00    1.04364   1.23356   -1.000
 5887.00    0.93938   1.20202   -1.000
 5888.00    0.94612   1.16865   -1.000
 5889.00    1.03795   1.14163   -1.000
 5890.00    1.12155   1.12692   81.123
 5891.00    1.13099   1.12505   79.532
 5892.00    1.06965   1.13126   -1.000
 5893.00    1.00172   1.13719   -1.000
 5894.00    1.00590   1.13963   -1.000
 5895.00    1.08941   1.14190   -1.000
 5896.00    1.18836   1.14929   -1.000
 5897.00    1.24874   1.16491   -1.000
 5898.00    1.28675   1.18796   -1.000
 5899.00    1.30588   1.21423   -1.000
 5900.00    1.31945   1.23791   -1.000
 5901.00    1.33282   1.25657   -1.000
 5902.00    1.33313   1.27022   -1.000
 5903.00    1.32750   1.27937   -1.000
 5904.00    1.33803   1.28503   -1.000
 5905.00    1.33487   1.28866   -1.000
 5906.00    1.33703   1.29131   -1.000
 5907.00    1.33115   1.29359   -1.000
 5908.00    1.33252   1.29547   -1.000
 5909.00    1.33245   1.29654   -1.000
 5910.00    1.32936   1.29595   -1.000
 5911.00    1.32907   1.29341   -1.000
 5912.00    1.32389   1.28925   -1.000
 5913.00    1.31876   1.28449   -1.000
 5914.00    1.31457   1.28049   -1.000
 5915.00    1.30944   1.27881   -1.000
 5916.00    1.30516   1.28002   -1.000
 5917.00    1.31206   1.28329   -1.000
 5918.00    1.31481   1.28735   -1.000
 5919.00    1.31741   1.29098   -1.000
 5920.00    1.32012   1.29362   -1.000
 5921.00    1.31430   1.29525   71.845
 5922.00    1.31340   1.29653   71.621
 5923.00    1.32558   1.29786   -1.000
 5924.00    1.33196   1.29916   -1.000
 5925.00    1.32780   1.29966   -1.000
 5926.00    1.32984   1.29866   -1.000
 5927.00    1.33961   1.29607   -1.000
 5928.00    1.33413   1.29283   -1.000
 5929.00    1.32704   1.29036   -1.000
 5930.00    1.33264   1.28959   -1.000
 5931.00    1.33293   1.29051   -1.000
 5932.00    1.33628   1.29260   -1.000
 5933.00    1.33403   1.29508   -1.000
 5934.00    1.32908   1.29737   -1.000
 5935.00    1.32952   1.29971   -1.000
 5936.00    1.33202   1.30213   -1.000
 5937.00    1.33238   1.30391   -1.000
 5938.00    1.32469   1.30423   72.366
 5939.00    1.31615   1.30298   72.755
 5940.00    1.31526   1.30083   72.698
 5941.00    1.31550   1.29894   72.263
 5942.00    1.32261   1.29799   -1.000
 5943.00    1.32666   1.29815   -1.000
 5944.00    1.31990   1.29861   71.774
 5945.00    1.32227   1.29841   -1.000
 5946.00    1.31918   1.29723   -1.000
 5947.00    1.31124   1.29559   73.348
 5948.00    1.31448   1.29416   72.963
 5949.00    1.32196   1.29326   -1.000
 5950.00    1.32542   1.29298   -1.000
 5951.00    1.32137   1.29318   -1.000
 5952.00    1.32501   1.29327   -1.000
 5953.00    1.32831   1.29272   -1.000
 5954.00    1.32641   1.29193   -1.000
 5955.00    1.32113   1.29158   -1.000
 5956.00    1.31563   1.29204   -1.000
 5957.00    1.31522   1.29369   71.965
 5958.00    1.31937   1.29684   71.280
 5959.00    1.33766   1.30102   -1.000
 5960.00    1.34658   1.30518   -1.000
 5961.00    1.34194   1.30812   -1.000
 5962.00    1.33572   1.30913   -1.000
 5963.00    1.33477   1.30844   -1.000
 5964.00    1.32856   1.30687   -1.000
 5965.00    1.31859   1.30538   71.825
 5966.00    1.31282   1.30479   71.264
 5967.00    1.31883   1.30561   71.107
 5968.00    1.33034   1.30774   -1.000
 5969.00    1.32883   1.31036   70.928
 5970.00    1.33543   1.31245   -1.000
 5971.00    1.33034   1.31311   71.257
 5972.00    1.33677   1.31178   -1.000
 5973.00    1.33354   1.30845   -1.000
 5974.00    1.33213   1.30402   -1.000
 5975.00    1.32550   1.29982   -1.000
 5976.00    1.32601   1.29719   -1.000
 5977.00    1.32217   1.29684   -1.000
 5978.00    1.32326   1.29843   -1.000
 5979.00    1.33474   1.30055   -1.000
 5980.00    1.33552   1.30142   -1.000
 5981.00    1.33269   1.30007   -1.000
 5982.00    1.33139   1.29681   -1.000
 5983.00    1.32945   1.29304   -1.000
 5984.00    1.32068   1.29043   -1.000
 5985.00    1.31728   1.29013   -1.000
 5986.00    1.31785   1.29222   -1.000
 5987.00    1.31691   1.29563   71.664
 5988.00    1.32247   1.29910   -1.000
 5989.00    1.32194   1.30195   71.962
 5990.00    1.32500   1.30440   71.585
 5991.00    1.32941   1.30659   -1.000
 5992.00    1.33194   1.30841   -1.000
 5993.00    1.33188   1.30951   -1.000
 5994.00    1.33932   1.30950   -1.000
 5995.00    1.34009   1.30817   -1.000
 5996.00    1.33183   1.30586   -1.000
 5997.00    1.32835   1.30357   -1.000
 5998.00    1.32774   1.30199   -1.000
 5999.00    1.32761   1.30117   -1.000
 6000.00    1.32714   1.30064   -1.000
 6001.00    1.32485   1.30007   -1.000
 6002.00    1.31795   1.29933   72.636
 6003.00    1.31189   1.29819   72.698
 6004.00    1.31328   1.29635   73.245
 6005.00    1.31975   1.29385   -1.000
 6006.00    1.31730   1.29116   -1.000
 6007.00    1.30801   1.28926   73.065
 6008.00    1.30779   1.28900   72.317
 6009.00    1.31287   1.29051   -1.000
 6010.00    1.31731   1.29307   -1.000
 6011.00    1.32010   1.29536   -1.000
 6012.00    1.32438   1.29630   -1.000
 6013.00    1.32497   1.29574   -1.000
 6014.00    1.32380   1.29460   -1.000
 6015.00    1.32398   1.29350   -1.000
 6016.00    1.32153   1.29240   -1.000
 6017.00    1.32216   1.29088   -1.000
 6018.00    1.32180   1.28890   -1.000
 6019.00    1.32287   1.28701   -1.000
 6020.00    1.31562   1.28561   -1.000
 6021.00    1.31045   1.28518   -1.000
 6022.00    1.31295   1.28637   -1.000
 6023.00    1.31478   1.28940   -1.000
 6024.00    1.31932   1.29355   -1.000
 6025.00    1.32114   1.29831   -1.000
 6026.00    1.32447   1.30340   -1.000
 6027.00    1.32997   1.30820   -1.000
 6028.00    1.32684   1.31223   71.378
 6029.00    1.32936   1.31560   71.554
 6030.00    1.33513   1.31844   71.406
 6031.00    1.32777   1.32078   71.079
 6032.00    1.32305   1.32271   70.908
 6033.00    1.32665   1.32424   70.883
 6034.00    1.32661   1.32528   70.743
 6035.00    1.32884   1.32561   70.835
 6036.00    1.32484   1.32498   71.258
 6037.00    1.32866   1.32338   71.384
 6038.00    1.33404   1.32112   71.620
 6039.00    1.32883   1.31869   71.442
 6040.00    1.32931   1.31673   71.354
 6041.00    1.32632   1.31590   70.968
 6042.00    1.32496   1.31646   70.392
 6043.00    1.33286   1.31824   70.470
 6044.00    1.32911   1.32091   70.479
 6045.00    1.32987   1.32393   70.356
 6046.00    1.33449   1.32680   70.438
 6047.00    1.33568   1.32911   70.696
 6048.00    1.33187   1.33069   70.846
 6049.00    1.33866   1.33126   70.906
 6050.00    1.33119   1.33046   71.047
 6051.00    1.33253   1.32817   71.348
 6052.00    1.32711   1.32462   71.560
 6053.00    1.31895   1.32045   71.972
 6054.00    1.32725   1.31649   72.176
 6055.00    1.32939   1.31381   72.035
 6056.00    1.32996   1.31296   71.638
 6057.00    1.33128   1.31389   71.274
 6058.00    1.32885   1.31572   71.386
 6059.00    1.32586   1.31719   71.548
 6060.00    1.33039   1.31699   72.631
 6061.00    1.32247   1.31445   74.074
 6062.00    1.29421   1.30988   71.380
 6063.00    1.29492   1.30479  116.973
 6064.00    1.27894   1.30117   22.865
 6065.00    1.17416   1.30053   -1.000
 6066.00    1.21852   1.30351   -1.000
 6067.00    1.30991   1.30942   71.524
 6068.00    1.31383   1.31644   69.531
 6069.00    1.38936   1.32269   -1.000
 6070.00    0.57068   1.32738   -1.000
 6071.00    0.69750   1.33037   -1.000
 6072.00    1.35505   1.33186   -1.000
 6073.00    1.32452   1.33196   71.008
 6074.00    1.33045   1.33067   71.384
 6075.00    1.33270   1.32790   71.794
 6076.00    1.32130   1.32401   72.364
 6077.00    1.31578   1.31974   72.797
 6078.00    1.32214   1.31574   72.814
 6079.00    1.32268   1.31236   72.885
 6080.00    1.31572   1.30981   73.104
 6081.00    1.31513   1.30794   73.084
 6082.00    1.31782   1.30649   73.030
 6083.00    1.31691   1.30570   72.951
 6084.00    1.31642   1.30594   72.730
 6085.00    1.31932   1.30709   72.432
 6086.00    1.31867   1.30865   72.603
 6087.00    1.31957   1.31002   73.060
 6088.00    1.31988   1.31069   73.359
 6089.00    1.31543   1.31061   73.302
 6090.00    1.31071   1.31033   72.806
 6091.00    1.31558   1.31061   72.453
 6092.00    1.31979   1.31188   72.037
 6093.00    1.31969   1.31408   71.732
 6094.00    1.31944   1.31678   71.778
 6095.00    1.32656   1.31932   71.965
 6096.00    1.32549   1.32079   72.002
 6097.00    1.31753   1.32006   72.006
 6098.00    1.32045   1.31608   72.923
 6099.00    1.32089   1.30843   74.773
 6100.00    1.31142   1.29843   75.927
 6101.00    1.29761   1.28888   75.279
 6102.00    1.28964   1.28283   73.795
 6103.00    1.29351   1.28228   72.707
 6104.00    1.29510   1.28735   72.504
 6105.00    1.31401   1.29605   -1.000
 6106.00    1.31233   1.30527   72.977
 6107.00    1.30467   1.31280   72.936
 6108.00    1.31188   1.31813   72.770
 6109.00    1.31636   1.32169   72.439
 6110.00    1.31595   1.32412   72.447
 6111.00    1.31593   1.32577   72.032
 6112.00    1.31354   1.32686   71.877
 6113.00    1.31849   1.32747   72.183
 6114.00    1.31703   1.32749   72.673
 6115.00    1.31880   1.32657   72.747
 6116.00    1.31770   1.32405   73.121
 6117.00    1.31353   1.31918   74.231
 6118.00    1.31092   1.31145   75.181
 6119.00    1.29627   1.30122   75.883
 6120.00    1.29521   1.29009   75.902
 6121.00    1.27918   1.28069   74.589
 6122.00    1.27265   1.27561   73.657
 6123.00    1.28382   1.27612   73.692
 6124.00    1.29321   1.28157   74.147
 6125.00    1.30167   1.28957   74.013
 6126.00    1.30757   1.29779   73.852
 6127.00    1.30156   1.30481   73.216
 6128.00    1.30729   1.31048   72.522
 6129.00    1.30390   1.31513   72.409
 6130.00    1.30650   1.31867   72.563
 6131.00    1.31086   1.31993   73.290
 6132.00    1.30754   1.31704   75.020
 6133.00    1.30241   1.30886   77.282
 6134.00    1.29288   1.29631   79.197
 6135.00    1.26880   1.28224   79.310
 6136.00    1.24700   1.27013   77.180
 6137.00    1.24150   1.26276   74.992
 6138.00    1.25769   1.26152   74.255
 6139.00    1.27551   1.26575   74.442
 6140.00    1.28455   1.27340   74.556
 6141.00    1.27712   1.28246   73.737
 6142.00    1.28564   1.29191   72.850
 6143.00    1.29083   1.30061   72.798
 6144.00    1.30051   1.30708   73.160
 6145.00    1.30703   1.31034   73.634
 6146.00    1.30623   1.31038   74.172
 6147.00    1.29248   1.30830   74.596
 6148.00    1.29363   1.30560   74.569
 6149.00    1.29403   1.30350   74.277
 6150.00    1.29295   1.30245   73.739
 6151.00    1.29856   1.30212   73.686
 6152.00    1.29629   1.30181   74.368
 6153.00    1.29840   1.30086   74.721
 6154.00    1.30058   1.29879   74.752
 6155.00    1.29876   1.29535   75.089
 6156.00    1.29633   1.29022   75.926
 6157.00    1.28811   1.28253   77.429
 6158.00    1.28588   1.27138   79.855
 6159.00    1.27716   1.25696   -1.000
 6160.00    1.25505   1.24145   82.818
 6161.00    1.24236   1.22831   81.441
 6162.00    1.23690   1.22087   79.116
 6163.00    1.24292   1.22057   -1.000
 6164.00    1.25782   1.22598   -1.000
 6165.00    1.26263   1.23339   -1.000
 6166.00    1.26789   1.23917   -1.000
 6167.00    1.26730   1.24219   -1.000
 6168.00    1.25711   1.24354   79.117
 6169.00    1.25222   1.24547   77.508
 6170.00    1.25214   1.24978   76.476
 6171.00    1.26763   1.25696   76.647
 6172.00    1.27973   1.26559   76.691
 6173.00    1.27860   1.27367   76.481
 6174.00    1.27780   1.28010   76.343
 6175.00    1.27551   1.28474   76.128
 6176.00    1.28145   1.28809   75.735
 6177.00    1.28046   1.29074   75.474
 6178.00    1.28012   1.29325   75.234
 6179.00    1.28144   1.29579   74.871
 6180.00    1.27757   1.29818   74.700
 6181.00    1.28028   1.30001   74.882
 6182.00    1.28391   1.30079   75.153
 6183.00    1.28646   1.30004   75.789
 6184.00    1.29208   1.29748   76.640
 6185.00    1.28767   1.29320   77.424
 6186.00    1.28572   1.28748   78.155
 6187.00    1.27975   1.28058   78.702
 6188.00    1.27526   1.27320   79.794
 6189.00    1.26717   1.26663   80.234
 6190.00    1.26282   1.26242   79.203
 6191.00    1.25460   1.26179   77.132
 6192.00    1.25436   1.26521   75.963
 6193.00    1.26712   1.27193   75.563
 6194.00    1.27844   1.27984   75.479
 6195.00    1.28556   1.28648   76.036
 6196.00    1.28725   1.29061   76.958
 6197.00    1.27851   1.29228   77.548
 6198.00    1.27334   1.29244   77.403
 6199.00    1.27129   1.29244   76.548
 6200.00    1.24985   1.29345   75.574
 6201.00    1.25759   1.29605   75.450
 6202.00    1.27039   1.29998   75.467
 6203.00    1.27732   1.30430   75.320
 6204.00    1.28520   1.30811   75.336
 6205.00    1.29129   1.31083   75.662
 6206.00    1.29586   1.31220   75.613
 6207.00    1.29214   1.31200   75.996
 6208.00    1.28735   1.30988   76.732
 6209.00    1.29002   1.30555   77.310
 6210.00    1.28552   1.29902   78.094
 6211.00    1.27951   1.29099   79.338
 6212.00    1.26867   1.28265   80.077
 6213.00    1.27043   1.27538   80.227
 6214.00    1.26460   1.27012   79.031
 6215.00    1.26632   1.26708   78.757
 6216.00    1.27050   1.26577   79.462
 6217.00    1.26928   1.26556   79.038
 6218.00    1.27286   1.26615   78.438
 6219.00    1.26787   1.26748   79.061
 6220.00    1.26858   1.26970   85.679
 6221.00    1.27787   1.27266   81.682
 6222.00    1.25970   1.27577   77.917
 6223.00    1.28135   1.27813   78.131
 6224.00    1.28678   1.27887   78.140
 6225.00    1.28501   1.27739   78.638
 6226.00    1.28738   1.27332   79.784
 6227.00    1.28051   1.26683   81.130
 6228.00    1.27485   1.25901   82.124
 6229.00    1.26132   1.25178   81.614
 6230.00    1.25293   1.24735   80.365
 6231.00    1.24865   1.24715   78.808
 6232.00    1.25462   1.25108   77.557
 6233.00    1.27161   1.25736   77.304
 6234.00    1.27508   1.26344   77.913
 6235.00    1.28301   1.26728   78.723
 6236.00    1.28825   1.26812   -1.000
 6237.00    1.27840   1.26645   80.375
 6238.00    1.27198   1.26338   80.643
 6239.00    1.26936   1.25979   80.580
 6240.00    1.26924   1.25603   81.255
 6241.00    1.27116   1.25198   -1.000
 6242.00    1.26436   1.24766   81.649
 6243.00    1.26241   1.24366   -1.000
 6244.00    1.25702   1.24115   80.248
 6245.00    1.25564   1.24133   79.201
 6246.00    1.25070   1.24451   78.402
 6247.00    1.25630   1.24968   78.407
 6248.00    1.26722   1.25476   79.221
 6249.00    1.26906   1.25749   80.771
 6250.00    1.26034   1.25656   81.692
 6251.00    1.25046   1.25225   82.210
 6252.00    1.24212   1.24628   82.404
 6253.00    1.23479   1.24062   82.344
 6254.00    1.23290   1.23670   83.196
 6255.00    1.23933   1.23498   83.920
 6256.00    1.24155   1.23533   83.433
 6257.00    1.24242   1.23757   82.085
 6258.00    1.24352   1.24167   80.866
 6259.00    1.25073   1.24751   79.781
 6260.00    1.25782   1.25450   78.521
 6261.00    1.26537   1.26167   78.233
 6262.00    1.26217   1.26801   78.963
 6263.00    1.26374   1.27295   79.459
 6264.00    1.26183   1.27639   79.003
 6265.00    1.25518   1.27851   78.415
 6266.00    1.25809   1.27966   78.796
 6267.00    1.26004   1.28004   79.195
 6268.00    1.26069   1.27968   79.031
 6269.00    1.26064   1.27862   78.746
 6270.00    1.26952   1.27685   78.573
 6271.00    1.26884   1.27419   78.826
 6272.00    1.25533   1.27017   79.439
 6273.00    1.24344   1.26424   80.083
 6274.00    1.22392   1.25648   81.448
 6275.00    1.20831   1.24775   83.603
 6276.00    1.19350   1.23957   85.029
 6277.00    1.18478   1.23368   85.456
 6278.00    1.18377   1.23119   85.041
 6279.00    1.17557   1.23255   83.592
 6280.00    1.16749   1.23746   -1.000
 6281.00    1.17585   1.24505   -1.000
 6282.00    1.19030   1.25403   -1.000
 6283.00    1.20491   1.26291   79.327
 6284.00    1.22534   1.27045   78.589
 6285.00    1.23821   1.27583   78.062
 6286.00    1.24510   1.27880   77.951
 6287.00    1.25503   1.27948   78.431
 6288.00    1.25725   1.27831   79.122
 6289.00    1.25689   1.27597   79.697
 6290.00    1.25618   1.27316   79.802
 6291.00    1.25188   1.27050   79.886
 6292.00    1.24953   1.26811   80.036
 6293.00    1.24014   1.26568   80.717
 6294.00    1.21299   1.26281   81.229
 6295.00    1.18876   1.25937   -1.000
 6296.00    1.13732   1.25554   -1.000
 6297.00    1.05804   1.25172   -1.000
 6298.00    1.05769   1.24850   -1.000
 6299.00    1.14170   1.24655   -1.000
 6300.00    1.22118   1.24639   82.191
 6301.00    1.23578   1.24843   81.308
 6302.00    1.23029   1.25287   79.969
 6303.00    1.24445   1.25936   79.028
 6304.00    1.24930   1.26686   78.383
 6305.00    1.25379   1.27384   77.660
 6306.00    1.26317   1.27913   77.606
 6307.00    1.25951   1.28230   77.996
 6308.00    1.25759   1.28351   78.546
 6309.00    1.26661   1.28302   78.817
 6310.00    1.26695   1.28117   79.149
 6311.00    1.25949   1.27824   79.190
 6312.00    1.25899   1.27444   80.012
 6313.00    1.24978   1.27006   80.231
 6314.00    1.24220   1.26559   80.144
 6315.00    1.23990   1.26180   80.068
 6316.00    1.24357   1.25962   80.204
 6317.00    1.24108   1.25970   79.857
 6318.00    1.24276   1.26223   78.813
 6319.00    1.24655   1.26692   78.073
 6320.00    1.25090   1.27302   77.826
 6321.00    1.26178   1.27957   77.563
 6322.00    1.26246   1.28563   77.122
 6323.00    1.26429   1.29064   76.904
 6324.00    1.26993   1.29446   76.884
 6325.00    1.26867   1.29704   76.451
 6326.00    1.26736   1.29836   76.587
 6327.00    1.27677   1.29874   76.631
 6328.00    1.27413   1.29860   76.686
 6329.00    1.27340   1.29806   76.364
 6330.00    1.26649   1.29679   76.262
 6331.00    1.26466   1.29420   76.508
 6332.00    1.26200   1.28999   76.693
 6333.00    1.29904   1.28452   -1.000
 6334.00    1.33251   1.27882   -1.000
 6335.00    1.24407   1.27448   77.913
 6336.00    1.24065   1.27295   77.111
 6337.00    1.24793   1.27469   76.252
 6338.00    1.25523   1.27894   75.939
 6339.00    1.26463   1.28399   75.559
 6340.00    1.26868   1.28807   75.672
 6341.00    1.26725   1.29024   76.433
 6342.00    1.26709   1.29049   76.461
 6343.00    1.26317   1.28959   76.220
 6344.00    1.25428   1.28882   75.784
 6345.00    1.25874   1.28933   75.238
 6346.00    1.26264   1.29163   74.984
 6347.00    1.26629   1.29552   75.035
 6348.00    1.26079   1.30004   74.843
 6349.00    1.26433   1.30398   74.945
 6350.00    1.26321   1.30621   75.297
 6351.00    1.26501   1.30616   75.644
 6352.00    1.26153   1.30401   76.584
 6353.00    1.26017   1.30041   77.209
 6354.00    1.25767   1.29613   77.172
 6355.00    1.25376   1.29179   77.431
 6356.00    1.25346   1.28778   78.395
 6357.00    1.24301   1.28420   78.650
 6358.00    1.23265   1.28103   78.265
 6359.00    1.21706   1.27832   -1.000
 6360.00    1.21319   1.27632   -1.000
 6361.00    1.19962   1.27530   -1.000
 6362.00    1.21813   1.27542   77.137
 6363.00    1.24430   1.27683   76.650
 6364.00    1.25463   1.27943   76.247
 6365.00    1.25933   1.28280   75.751
 6366.00    1.26631   1.28627   75.245
 6367.00    1.26346   1.28926   75.089
 6368.00    1.26316   1.29157   75.166
 6369.00    1.25400   1.29346   74.873
 6370.00    1.24955   1.29532   74.579
 6371.00    1.25096   1.29739   74.833
 6372.00    1.25216   1.29954   74.871
 6373.00    1.25804   1.30119   75.048
 6374.00    1.24494   1.30165   75.340
 6375.00    1.24020   1.30064   75.736
 6376.00    1.24261   1.29839   76.267
 6377.00    1.24095   1.29552   76.527
 6378.00    1.24219   1.29272   76.555
 6379.00    1.23680   1.29052   76.715
 6380.00    1.23077   1.28921   76.672
 6381.00    1.22967   1.28890   76.453
 6382.00    1.22729   1.28955   76.875
 6383.00    1.22698   1.29101   77.020
 6384.00    1.22419   1.29298   -1.000
 6385.00    1.21597   1.29506   -1.000
 6386.00    1.21419   1.29670   -1.000
 6387.00    1.21871   1.29731   -1.000
 6388.00    1.20754   1.29635   -1.000
 6389.00    1.20117   1.29358   -1.000
 6390.00    1.19795   1.28940   -1.000
 6391.00    1.19317   1.28483   -1.000
 6392.00    1.18075   1.28124   -1.000
 6393.00    1.17343   1.27966   -1.000
 6394.00    1.16815   1.28021   -1.000
 6395.00    1.17237   1.28175   -1.000
 6396.00    1.16967   1.28269   -1.000
 6397.00    1.16819   1.28204   -1.000
 6398.00    1.15057   1.28027   -1.000
 6399.00    1.14272   1.27905   -1.000
 6400.00    1.13163   1.27996   -1.000
 6401.00    1.13935   1.28336   -1.000
 6402.00    1.14723   1.28806   -1.000
 6403.00    1.15190   1.29204   -1.000
 6404.00    1.14606   1.29372   -1.000
 6405.00    1.13760   1.29279   -1.000
 6406.00    1.12252   1.29008   -1.000
 6407.00    1.11518   1.28691   -1.000
 6408.00    1.10121   1.28436   -1.000
 6409.00    1.09788   1.28301   -1.000
 6410.00    1.09137   1.28295   -1.000
 6411.00    1.07814   1.28400   -1.000
 6412.00    1.08364   1.28584   -1.000
 6413.00    1.07643   1.28813   -1.000
 6414.00    1.07182   1.29024   -1.000
 6415.00    1.07047   1.29134   -1.000
 6416.00    1.06956   1.29080   -1.000
 6417.00    1.04929   1.28870   -1.000
 6418.00    1.03731   1.28589   -1.000
 6419.00    1.02263   1.28364   -1.000
 6420.00    1.01937   1.28336   -1.000
 6421.00    1.00624   1.28590   -1.000
 6422.00    0.99224   1.29098   -1.000
 6423.00    0.99280   1.29733   -1.000
 6424.00    0.98811   1.30317   -1.000
 6425.00    0.98275   1.30667   -1.000
 6426.00    0.97824   1.30691   -1.000
 6427.00    0.96462   1.30398   -1.000
 6428.00    0.93287   1.29881   -1.000
