###################################################################
## OUTPUT of StarlightChains_v04.for    [Cid@UFSC - 01/Apr/2007] ##
###################################################################

## Some input info
NGC5946_a_1.cxt                          [arq_obs]
Base.BC03.N                              [arq_base]
NGC5946_a_1.msk                          [arq_masks]
StCv04.C11.config                        [arq_config]
   45                                    [N_base]
    0                                    [N_YAV_components = # of components with extra extinction!]
    0                                    [i_FitPowerLaw (1/0 = Yes/No)]
-9.99                                    [alpha_PowerLaw]
CCM                                      [red_law_option]
 1.458241                                [q_norm = A(l_norm)/A(V)]

## (Re)Sampling Parameters
 3359.00                                 [l_ini (A)]
 6428.00                                 [l_fin (A)]
    1.00                                 [dl    (A)]     (OBS: dl_cushion =    50.00 A)

## Normalization info
 4020.00                                 [l_norm (A) - for base]
 4010.00                                 [llow_norm (A) - window for f_obs]
 4060.00                                 [lupp_norm (A) - window for f_obs]
2.679293E-15                             [fobs_norm (in input units)]

## S/N
 4730.00                                 [llow_SN (A) - window for S/N]
 4780.00                                 [lupp_SN (A) - window for S/N]
  76.219                                 [S/N in S/N window]
  50.437                                 [S/N in norm. window]
 152.898                                 [S/N_err in S/N window]
 101.177                                 [S/N_err in norm. window]
  1.0000                                 [fscale_chi2]

## etc...
  2147483630                             [idum_orig]
  3068                                   [NOl_eff]
   787                                   [Nl_eff]
  2281    NSIGMA                         [Ntot_cliped & clip_method]
   955920                                [Nglobal_steps]
   7                                     [N_chains]
   9                                     [NEX0s_base = N_base in EX0s-fits]
 0   0   1      136   2.0   2.373E+02    [Clip-Bug, RC-Crash & Burn-In warning-flags, n_censored_weights, wei_nsig_threshold & wei_limit]
    12     12.187     12.187      0.000  [idt_all, wdt_TotTime, wdt_UsrTime & wdt_SysTime (sec)]

## Synthesis Results - Best model ##

 2.56815E+00                             [chi2/Nl_eff]
     2.01085                             [adev (%)]

    99.88862                             [sum-of-x (%)]
 5.29353E-14                             [Flux_tot (units of input spectrum!)]
 4.72179E-10                             [Mini_tot (???)]
 2.52407E-10                             [Mcor_tot (???)]

 -30.85                                  [v0_min  (km/s)]
 134.13                                  [vd_min  (km/s)]
 2.2222                                  [AV_min  (mag)]
 0.0000                                  [YAV_min (mag)]

# j     x_j(%)      Mini_j(%)     Mcor_j(%)     age_j(yr)     Z_j      (L/M)_j    YAV?  Mstars   component_j        a/Fe...       SSP_chi2r SSP_adev(%)   SSP_AV   SSP_x(%)
  1      0.0000     0.0000E+00    0.0000E+00    1.000000E+06  0.00400  1.114E-02    0   1.0000   age020_m42            0.0000     2.1608E+03    33.0602   4.0000    96.9350
  2      5.3239     1.4670E-02    2.7441E-02    3.160000E+06  0.00400  4.073E-02    0   0.9999   age045_m42            0.0000     1.3306E+02     8.8993   4.0000    99.7980
  3      0.5064     2.2429E-03    3.9810E-03    5.010000E+06  0.00400  2.534E-02    0   0.9488   age055_m42            0.0000     6.5935E+02    19.5699   4.0000   100.3487
  4     13.0263     1.1503E-01    1.9069E-01    1.000000E+07  0.00400  1.271E-02    0   0.8862   age070_m42            0.0000     7.7985E+01     8.2243   3.8652    91.2415
  5      7.3113     1.6185E-01    2.4749E-01    2.512000E+07  0.00400  5.070E-03    0   0.8174   age090_m42            0.0000     6.4688E+01     7.4970   3.7406    92.8183
  6      0.0000     0.0000E+00    0.0000E+00    4.000000E+07  0.00400  3.505E-03    0   0.7851   age104_m42            0.0000     3.3716E+01     5.4165   3.4345    95.9492
  7      0.0000     0.0000E+00    0.0000E+00    1.015200E+08  0.00400  2.268E-03    0   0.7207   age116_m42            0.0000     2.3652E+02    11.7078   3.4596   104.9805
  8      0.0000     0.0000E+00    0.0000E+00    2.861200E+08  0.00400  1.079E-03    0   0.6613   age125_m42            0.0000     2.7423E+02    12.7902   2.9800   106.3685
  9      2.9711     6.5681E-01    7.6142E-01    6.405400E+08  0.00400  5.077E-04    0   0.6197   age132_m42            0.0000     3.0265E+02    13.7936   2.6370   109.6117
 10     15.8484     5.0317E+00    5.6703E+00    9.047900E+08  0.00400  3.535E-04    0   0.6024   age135_m42            0.0000     2.0030E+02    11.3892   2.4021   108.7330
 11      0.0000     0.0000E+00    0.0000E+00    1.434000E+09  0.00400  1.910E-04    0   0.5716   age139_m42            0.0000     1.0721E+02     8.6307   1.8914   107.4168
 12     22.6713     2.5916E+01    2.6486E+01    2.500000E+09  0.00400  9.818E-05    0   0.5463   age150_m42            0.0000     4.5185E+01     5.9260   1.6201   102.7590
 13     28.6227     6.8089E+01    6.6591E+01    5.000000E+09  0.00400  4.718E-05    0   0.5228   age161_m42            0.0000     3.8793E+01     5.1823   1.4493    99.6038
 14      0.0000     0.0000E+00    0.0000E+00    1.100000E+10  0.00400  2.205E-05    0   0.4980   age185_m42            0.0000     7.5008E+01     6.7047   1.1967    97.5444
 15      0.0000     0.0000E+00    0.0000E+00    1.300000E+10  0.00400  1.883E-05    0   0.4927   age193_m42            0.0000     8.0321E+01     6.9630   1.1803    97.3967
 16      0.0000     0.0000E+00    0.0000E+00    1.000000E+06  0.02000  1.989E-02    0   1.0000   age020_m62            0.0000     2.0543E+03    32.0602   4.0000    97.4728
 17      0.0000     0.0000E+00    0.0000E+00    3.160000E+06  0.02000  3.772E-02    0   0.9858   age045_m62            0.0000     1.6192E+03    29.2041   4.0000    99.2744
 18      3.6071     1.2545E-02    2.1924E-02    5.010000E+06  0.02000  3.227E-02    0   0.9342   age055_m62            0.0000     3.9197E+02    15.2892   4.0000   101.4663
 19      0.0000     0.0000E+00    0.0000E+00    1.000000E+07  0.02000  1.011E-02    0   0.8751   age070_m62            0.0000     2.5482E+02    13.7469   3.8747    87.2971
 20      0.0000     0.0000E+00    0.0000E+00    2.512000E+07  0.02000  4.206E-03    0   0.8099   age090_m62            0.0000     1.6509E+02    11.5577   3.8109    88.4514
 21      0.0000     0.0000E+00    0.0000E+00    4.000000E+07  0.02000  3.373E-03    0   0.7799   age104_m62            0.0000     3.9358E+01     5.0096   3.6393    97.4581
 22      0.0000     0.0000E+00    0.0000E+00    1.015200E+08  0.02000  1.878E-03    0   0.7221   age116_m62            0.0000     1.8978E+02    10.2626   3.4760   105.5507
 23      0.0000     0.0000E+00    0.0000E+00    2.861200E+08  0.02000  8.869E-04    0   0.6700   age125_m62            0.0000     4.6401E+02    16.6746   3.0074   111.1773
 24      0.0000     0.0000E+00    0.0000E+00    6.405400E+08  0.02000  3.657E-04    0   0.6322   age132_m62            0.0000     3.4052E+02    14.5175   2.3665   113.1866
 25      0.0000     0.0000E+00    0.0000E+00    9.047900E+08  0.02000  2.312E-04    0   0.6152   age135_m62            0.0000     2.0661E+02    11.6362   1.9993   112.0837
 26      0.0000     0.0000E+00    0.0000E+00    1.434000E+09  0.02000  1.168E-04    0   0.5865   age139_m62            0.0000     8.0963E+01     7.4474   1.5786   106.6082
 27      0.0000     0.0000E+00    0.0000E+00    2.500000E+09  0.02000  5.505E-05    0   0.5610   age150_m62            0.0000     8.9963E+01     7.5645   1.2195   103.6020
 28      0.0000     0.0000E+00    0.0000E+00    5.000000E+09  0.02000  2.596E-05    0   0.5353   age161_m62            0.0000     1.6326E+02     9.7917   0.9034   103.4710
 29      0.0000     0.0000E+00    0.0000E+00    1.100000E+10  0.02000  1.169E-05    0   0.5103   age185_m62            0.0000     2.5957E+02    12.1191   0.5474   105.0699
 30      0.0000     0.0000E+00    0.0000E+00    1.300000E+10  0.02000  9.691E-06    0   0.5047   age193_m62            0.0000     2.7809E+02    12.5216   0.5019   105.3621
 31      0.0000     0.0000E+00    0.0000E+00    1.000000E+06  0.05000  2.651E-02    0   0.9998   age020_m72            0.0000     2.0218E+03    31.5587   4.0000    98.6559
 32      0.0000     0.0000E+00    0.0000E+00    3.160000E+06  0.05000  4.817E-02    0   0.9577   age045_m72            0.0000     1.1462E+03    24.8960   4.0000   102.0352
 33      0.0000     0.0000E+00    0.0000E+00    5.010000E+06  0.05000  3.101E-02    0   0.9147   age055_m72            0.0000     4.6409E+02    17.2938   4.0000    99.4388
 34      0.0000     0.0000E+00    0.0000E+00    1.000000E+07  0.05000  8.954E-03    0   0.8524   age070_m72            0.0000     8.7357E+02    22.0211   4.0000   101.4868
 35      0.0000     0.0000E+00    0.0000E+00    2.512000E+07  0.05000  4.207E-03    0   0.7902   age090_m72            0.0000     1.9127E+02    10.9888   4.0000   100.3918
 36      0.0000     0.0000E+00    0.0000E+00    4.000000E+07  0.05000  3.198E-03    0   0.7618   age104_m72            0.0000     1.0667E+02     7.1893   3.8374   101.4376
 37      0.0000     0.0000E+00    0.0000E+00    1.015200E+08  0.05000  1.716E-03    0   0.7092   age116_m72            0.0000     2.4127E+02    11.6100   3.5661   105.6324
 38      0.0000     0.0000E+00    0.0000E+00    2.861200E+08  0.05000  7.047E-04    0   0.6618   age125_m72            0.0000     4.5648E+02    16.6232   2.8174   111.4466
 39      0.0000     0.0000E+00    0.0000E+00    6.405400E+08  0.05000  2.633E-04    0   0.6253   age132_m72            0.0000     2.7039E+02    13.2331   2.0052   112.4610
 40      0.0000     0.0000E+00    0.0000E+00    9.047900E+08  0.05000  1.484E-04    0   0.6088   age135_m72            0.0000     1.3852E+02     9.8871   1.5315   107.1919
 41      0.0000     0.0000E+00    0.0000E+00    1.434000E+09  0.05000  7.827E-05    0   0.5847   age139_m72            0.0000     1.3275E+02     9.1524   1.1478   103.7901
 42      0.0000     0.0000E+00    0.0000E+00    2.500000E+09  0.05000  3.759E-05    0   0.5583   age150_m72            0.0000     1.7678E+02    10.1756   0.8294   103.1010
 43      0.0000     0.0000E+00    0.0000E+00    5.000000E+09  0.05000  1.548E-05    0   0.5320   age161_m72            0.0000     2.6050E+02    11.8762   0.4225   103.0328
 44      0.0000     0.0000E+00    0.0000E+00    1.100000E+10  0.05000  6.532E-06    0   0.5070   age185_m72            0.0000     3.8377E+02    14.1455   0.0479   103.6238
 45      0.0000     0.0000E+00    0.0000E+00    1.300000E+10  0.05000  5.316E-06    0   0.5018   age193_m72            0.0000     4.3862E+02    15.1010  -0.0677   103.9551


## Synthesis Results - Average & Chains ##

# j      x_j: min, <> & last-chain-values for 1 ...  7 chains
  1      0.0000      0.0204      0.0000      0.0079      0.0000      0.0000      0.0770      0.0000      0.0000
  2      5.3239      5.3841      5.4089      5.4373      5.3884      5.4358      5.4878      5.4762      5.4123
  3      0.5064      1.2218      1.3944      1.3167      1.2247      1.3363      1.2651      1.1685      1.1143
  4     13.0263     11.5725     11.9413     11.7967     11.8977     11.5402     11.5564     12.3696     11.8774
  5      7.3113      6.8385      6.6549      7.1169      6.9886      6.9451      6.9580      6.8110      6.8573
  6      0.0000      0.0734      0.1755      0.0000      0.0000      0.0000      0.0000      0.0000      0.0000
  7      0.0000      0.1815      0.0000      0.2593      0.1204      0.0708      0.4712      0.0000      0.0499
  8      0.0000      0.1101      0.1856      0.0000      0.0000      0.0015      0.0401      0.0000      0.0000
  9      2.9711      2.6108      2.5427      2.6595      2.5874      2.5828      2.4880      2.6628      2.7813
 10     15.8484     14.8909     15.4355     15.0346     15.7601     15.8362     14.6063     14.9130     14.7999
 11      0.0000      0.3021      0.5346      0.0000      0.0370      0.2686      0.6278      0.5650      0.3881
 12     22.6713     22.9275     22.8483     23.4266     23.0546     23.0923     23.1822     22.8519     22.9205
 13     28.6227     28.9726     28.9942     28.5611     29.1365     28.5287     29.0798     29.0341     29.1251
 14      0.0000      0.0502      0.0000      0.1166      0.0506      0.0000      0.0304      0.0000      0.0000
 15      0.0000      0.0326      0.0000      0.0410      0.0000      0.0000      0.0000      0.0000      0.0000
 16      0.0000      0.0173      0.0000      0.0000      0.0000      0.0000      0.0142      0.0000      0.0000
 17      0.0000      0.0202      0.0000      0.0364      0.0000      0.0082      0.0000      0.0000      0.0000
 18      3.6071      3.1118      3.0723      3.0961      3.0396      3.3254      3.2503      3.2416      3.3555
 19      0.0000      0.2848      0.2311      0.0658      0.2461      0.3816      0.2176      0.0750      0.1934
 20      0.0000      0.0342      0.0082      0.0000      0.0000      0.0000      0.0000      0.0000      0.1771
 21      0.0000      0.0706      0.0000      0.1367      0.0000      0.0000      0.0000      0.0000      0.0000
 22      0.0000      0.0798      0.0000      0.0639      0.0000      0.0000      0.0189      0.1106      0.0459
 23      0.0000      0.0595      0.0000      0.0587      0.0389      0.0000      0.0254      0.0000      0.0000
 24      0.0000      0.0588      0.0000      0.0000      0.0000      0.0000      0.0000      0.2626      0.0000
 25      0.0000      0.1043      0.0000      0.0000      0.0000      0.0641      0.0000      0.0000      0.0419
 26      0.0000      0.0741      0.0000      0.0000      0.0000      0.0000      0.0621      0.2090      0.0000
 27      0.0000      0.0611      0.0000      0.0578      0.0000      0.0000      0.0000      0.0000      0.0000
 28      0.0000      0.0352      0.0000      0.0000      0.0000      0.0176      0.0000      0.0000      0.0000
 29      0.0000      0.0454      0.0000      0.0000      0.0000      0.1168      0.0000      0.0000      0.0201
 30      0.0000      0.0077      0.0000      0.0742      0.0000      0.0000      0.0000      0.0000      0.0000
 31      0.0000      0.0183      0.0000      0.0000      0.0436      0.0000      0.0000      0.0000      0.0000
 32      0.0000      0.0342      0.0000      0.0000      0.0000      0.0000      0.0000      0.0233      0.0298
 33      0.0000      0.0611      0.0710      0.0000      0.0533      0.0234      0.0000      0.0000      0.0164
 34      0.0000      0.0172      0.0000      0.0000      0.0000      0.0000      0.0035      0.0000      0.0000
 35      0.0000      0.0308      0.0000      0.0000      0.0556      0.0000      0.0000      0.0000      0.0023
 36      0.0000      0.0614      0.0000      0.0000      0.0000      0.1334      0.0062      0.0000      0.0000
 37      0.0000      0.1628      0.2398      0.3345      0.0000      0.0648      0.3473      0.1162      0.4041
 38      0.0000      0.0419      0.0144      0.0000      0.0000      0.0000      0.0294      0.0000      0.0071
 39      0.0000      0.0827      0.0000      0.0063      0.0402      0.0000      0.0000      0.0000      0.0605
 40      0.0000      0.0664      0.1294      0.0000      0.0393      0.0000      0.0000      0.0000      0.1934
 41      0.0000      0.0378      0.0281      0.1302      0.1056      0.0000      0.0000      0.0000      0.0000
 42      0.0000      0.0296      0.0000      0.0000      0.0000      0.1515      0.0000      0.0000      0.0000
 43      0.0000      0.0133      0.0000      0.0000      0.0132      0.0000      0.0000      0.0000      0.0000
 44      0.0000      0.0166      0.0000      0.0000      0.0000      0.0000      0.0000      0.0000      0.0000
 45      0.0000      0.0216      0.0352      0.1015      0.0000      0.0000      0.0484      0.0315      0.0000

# j      m_j: min, <> & last-chain-values for 1 ...  7 chains
  1  0.0000E+00  3.7297E-04  0.0000E+00  1.4359E-04  0.0000E+00  0.0000E+00  1.4126E-03  0.0000E+00  0.0000E+00
  2  2.7441E-02  2.6859E-02  2.7324E-02  2.6858E-02  2.7205E-02  2.7471E-02  2.7539E-02  2.7660E-02  2.7428E-02
  3  3.9810E-03  9.2964E-03  1.0744E-02  9.9197E-03  9.4306E-03  1.0300E-02  9.6831E-03  9.0019E-03  8.6123E-03
  4  1.9069E-01  1.6397E-01  1.7133E-01  1.6550E-01  1.7061E-01  1.6565E-01  1.6471E-01  1.7745E-01  1.7095E-01
  5  2.4749E-01  2.2404E-01  2.2078E-01  2.3087E-01  2.3172E-01  2.3051E-01  2.2931E-01  2.2592E-01  2.2821E-01
  6  0.0000E+00  3.3396E-03  8.0912E-03  0.0000E+00  0.0000E+00  0.0000E+00  0.0000E+00  0.0000E+00  0.0000E+00
  7  0.0000E+00  1.1717E-02  0.0000E+00  1.6579E-02  7.8697E-03  4.6336E-03  3.0606E-02  0.0000E+00  3.2758E-03
  8  0.0000E+00  1.3718E-02  2.3403E-02  0.0000E+00  0.0000E+00  1.8941E-04  5.0278E-03  0.0000E+00  0.0000E+00
  9  7.6142E-01  6.4757E-01  6.3866E-01  6.5316E-01  6.4952E-01  6.4899E-01  6.2078E-01  6.6873E-01  7.0077E-01
 10  5.6703E+00  5.1565E+00  5.4127E+00  5.1550E+00  5.5234E+00  5.5555E+00  5.0880E+00  5.2286E+00  5.2062E+00
 11  0.0000E+00  1.8372E-01  3.2925E-01  0.0000E+00  2.2763E-02  1.6548E-01  3.8403E-01  3.4788E-01  2.3976E-01
 12  2.6486E+01  2.5924E+01  2.6161E+01  2.6228E+01  2.6383E+01  2.6452E+01  2.6368E+01  2.6161E+01  2.6327E+01
 13  6.6591E+01  6.5239E+01  6.6113E+01  6.3679E+01  6.6400E+01  6.5079E+01  6.5868E+01  6.6193E+01  6.6620E+01
 14  0.0000E+00  2.3044E-01  0.0000E+00  5.3005E-01  2.3511E-01  0.0000E+00  1.4026E-01  0.0000E+00  0.0000E+00
 15  0.0000E+00  1.7349E-01  0.0000E+00  2.1575E-01  0.0000E+00  0.0000E+00  0.0000E+00  0.0000E+00  0.0000E+00
 16  0.0000E+00  1.7634E-04  0.0000E+00  0.0000E+00  0.0000E+00  0.0000E+00  1.4632E-04  0.0000E+00  0.0000E+00
 17  0.0000E+00  1.0704E-04  0.0000E+00  1.9121E-04  0.0000E+00  4.4216E-05  0.0000E+00  0.0000E+00  0.0000E+00
 18  2.1924E-02  1.8306E-02  1.8302E-02  1.8034E-02  1.8097E-02  1.9818E-02  1.9234E-02  1.9307E-02  2.0052E-02
 19  0.0000E+00  5.0086E-03  4.1168E-03  1.1457E-03  4.3817E-03  6.7999E-03  3.8509E-03  1.3360E-03  3.4559E-03
 20  0.0000E+00  1.3373E-03  3.2597E-04  0.0000E+00  0.0000E+00  0.0000E+00  0.0000E+00  0.0000E+00  7.0379E-03
 21  0.0000E+00  3.3176E-03  0.0000E+00  6.3576E-03  0.0000E+00  0.0000E+00  0.0000E+00  0.0000E+00  0.0000E+00
 22  0.0000E+00  6.2341E-03  0.0000E+00  4.9429E-03  0.0000E+00  0.0000E+00  1.4885E-03  8.7487E-03  3.6449E-03
 23  0.0000E+00  9.1359E-03  0.0000E+00  8.9179E-03  6.0491E-03  0.0000E+00  3.9198E-03  0.0000E+00  0.0000E+00
 24  0.0000E+00  2.0644E-02  0.0000E+00  0.0000E+00  0.0000E+00  0.0000E+00  0.0000E+00  9.3387E-02  0.0000E+00
 25  0.0000E+00  5.6375E-02  0.0000E+00  0.0000E+00  0.0000E+00  3.5086E-02  0.0000E+00  0.0000E+00  2.2998E-02
 26  0.0000E+00  7.5587E-02  0.0000E+00  0.0000E+00  0.0000E+00  0.0000E+00  6.3785E-02  2.1591E-01  0.0000E+00
 27  0.0000E+00  1.2644E-01  0.0000E+00  1.1849E-01  0.0000E+00  0.0000E+00  0.0000E+00  0.0000E+00  0.0000E+00
 28  0.0000E+00  1.4768E-01  0.0000E+00  0.0000E+00  0.0000E+00  7.4537E-02  0.0000E+00  0.0000E+00  0.0000E+00
 29  0.0000E+00  4.0234E-01  0.0000E+00  0.0000E+00  0.0000E+00  1.0494E+00  0.0000E+00  0.0000E+00  1.8089E-01
 30  0.0000E+00  8.0969E-02  0.0000E+00  7.7754E-01  0.0000E+00  0.0000E+00  0.0000E+00  0.0000E+00  0.0000E+00
 31  0.0000E+00  1.3988E-04  0.0000E+00  0.0000E+00  3.3795E-04  0.0000E+00  0.0000E+00  0.0000E+00  0.0000E+00
 32  0.0000E+00  1.3815E-04  0.0000E+00  0.0000E+00  0.0000E+00  0.0000E+00  0.0000E+00  9.5252E-05  1.2222E-04
 33  0.0000E+00  3.6639E-04  4.3112E-04  0.0000E+00  3.2347E-04  1.4202E-04  0.0000E+00  0.0000E+00  1.0001E-04
 34  0.0000E+00  3.3282E-04  0.0000E+00  0.0000E+00  0.0000E+00  0.0000E+00  6.8264E-05  0.0000E+00  0.0000E+00
 35  0.0000E+00  1.1750E-03  0.0000E+00  0.0000E+00  2.1487E-03  0.0000E+00  0.0000E+00  0.0000E+00  8.8393E-05
 36  0.0000E+00  2.9702E-03  0.0000E+00  0.0000E+00  0.0000E+00  6.5410E-03  3.0052E-04  0.0000E+00  0.0000E+00
 37  0.0000E+00  1.3676E-02  2.0396E-02  2.7815E-02  0.0000E+00  5.5100E-03  2.9342E-02  9.8815E-03  3.4475E-02
 38  0.0000E+00  7.9895E-03  2.7863E-03  0.0000E+00  0.0000E+00  0.0000E+00  5.6462E-03  0.0000E+00  1.3765E-03
 39  0.0000E+00  3.9910E-02  0.0000E+00  3.0211E-03  1.9627E-02  0.0000E+00  0.0000E+00  0.0000E+00  2.9668E-02
 40  0.0000E+00  5.5355E-02  1.0926E-01  0.0000E+00  3.3177E-02  0.0000E+00  0.0000E+00  0.0000E+00  1.6381E-01
 41  0.0000E+00  5.7351E-02  4.3268E-02  1.9564E-01  1.6220E-01  0.0000E+00  0.0000E+00  0.0000E+00  0.0000E+00
 42  0.0000E+00  8.9382E-02  0.0000E+00  0.0000E+00  0.0000E+00  4.6311E-01  0.0000E+00  0.0000E+00  0.0000E+00
 43  0.0000E+00  9.3140E-02  0.0000E+00  0.0000E+00  9.3091E-02  0.0000E+00  0.0000E+00  0.0000E+00  0.0000E+00
 44  0.0000E+00  2.6113E-01  0.0000E+00  0.0000E+00  0.0000E+00  0.0000E+00  0.0000E+00  0.0000E+00  0.0000E+00
 45  0.0000E+00  4.1527E-01  6.8448E-01  1.9275E+00  0.0000E+00  0.0000E+00  9.3477E-01  6.1159E-01  0.0000E+00

# AV, chi2 & Mass for <> & i_chain = 1 ...  7 solutions
AV       2.2222      2.2014      2.2056      2.2033      2.2029      2.2085      2.2056      2.2070      2.2086
chi2 2.5681E+00  2.6166E+00  2.6033E+00  2.6051E+00  2.6051E+00  2.5976E+00  2.6032E+00  2.5973E+00  2.5992E+00
Mass 2.5241E-10  2.5359E-10  2.5185E-10  2.5678E-10  2.5109E-10  2.5274E-10  2.5352E-10  2.5236E-10  2.5208E-10
 -30.85                                  [v0_min (km/s) before EX0s...]
 134.13                                  [vd_min (km/s) before EX0s...]


## Synthetic spectrum (Best Model) ##l_obs f_obs f_syn wei
 3070    [Nl_obs]
 3359.00    0.28728   0.43264   -1.000
 3360.00    0.26005   0.42536   -1.000
 3361.00    0.24948   0.42704   -1.000
 3362.00    0.24920   0.43647   -1.000
 3363.00    0.24001   0.44816   -1.000
 3364.00    0.26099   0.45560   -1.000
 3365.00    0.28604   0.45510   -1.000
 3366.00    0.28813   0.44761   -1.000
 3367.00    0.26113   0.43752   -1.000
 3368.00    0.28413   0.42917   -1.000
 3369.00    0.31262   0.42441   -1.000
 3370.00    0.29003   0.42233   -1.000
 3371.00    0.27319   0.42235   -1.000
 3372.00    0.30322   0.42592   -1.000
 3373.00    0.33068   0.43461   -1.000
 3374.00    0.34053   0.44767   -1.000
 3375.00    0.36256   0.45971   -1.000
 3376.00    0.36307   0.46493   -1.000
 3377.00    0.34369   0.46168   -1.000
 3378.00    0.33646   0.45327   -1.000
 3379.00    0.35705   0.44629   -1.000
 3380.00    0.34236   0.44511   -1.000
 3381.00    0.33602   0.45050   -1.000
 3382.00    0.34441   0.45938   -1.000
 3383.00    0.32921   0.46844   -1.000
 3384.00    0.31895   0.47575   -1.000
 3385.00    0.32922   0.48044   -1.000
 3386.00    0.34216   0.48244   -1.000
 3387.00    0.35088   0.48242   -1.000
 3388.00    0.37710   0.48125   -1.000
 3389.00    0.38801   0.47938   -1.000
 3390.00    0.39373   0.47657   35.486
 3391.00    0.38609   0.47291   35.762
 3392.00    0.35882   0.47027   -1.000
 3393.00    0.34472   0.47122   -1.000
 3394.00    0.36593   0.47695   -1.000
 3395.00    0.40244   0.48603   30.924
 3396.00    0.39518   0.49526   30.007
 3397.00    0.39361   0.50165   -1.000
 3398.00    0.42993   0.50350   28.208
 3399.00    0.43477   0.50102   28.117
 3400.00    0.44750   0.49545   28.801
 3401.00    0.46822   0.48810   29.659
 3402.00    0.45537   0.48074   30.048
 3403.00    0.41932   0.47468   30.589
 3404.00    0.43348   0.47021   31.122
 3405.00    0.43526   0.46672   31.467
 3406.00    0.41126   0.46400   31.766
 3407.00    0.43799   0.46264   32.133
 3408.00    0.47858   0.46364   32.137
 3409.00    0.45616   0.46664   31.581
 3410.00    0.41370   0.46967   30.930
 3411.00    0.41471   0.47107   31.387
 3412.00    0.42753   0.47056   32.427
 3413.00    0.41209   0.46989   32.714
 3414.00    0.40834   0.47101   32.297
 3415.00    0.42124   0.47523   31.215
 3416.00    0.44220   0.48237   29.804
 3417.00    0.44505   0.49125   28.346
 3418.00    0.43748   0.49983   27.502
 3419.00    0.44007   0.50585   27.368
 3420.00    0.44546   0.50777   27.337
 3421.00    0.46247   0.50601   27.791
 3422.00    0.47725   0.50226   28.533
 3423.00    0.45320   0.49899   28.509
 3424.00    0.42582   0.49774   27.706
 3425.00    0.43365   0.49940   27.238
 3426.00    0.47416   0.50397   45.023
 3427.00    0.48355   0.51083   -1.000
 3428.00    0.47852   0.51737   -1.000
 3429.00    0.47885   0.52077   -1.000
 3430.00    0.48941   0.51951   -1.000
 3431.00    0.50280   0.51471   54.456
 3432.00    0.48577   0.50960   27.191
 3433.00    0.46085   0.50657   45.090
 3434.00    0.46621   0.50616   -1.000
 3435.00    0.46914   0.50613   53.878
 3436.00    0.46889   0.50376   27.637
 3437.00    0.47881   0.49682   29.105
 3438.00    0.45607   0.48515   31.110
 3439.00    0.43941   0.47045   33.055
 3440.00    0.45926   0.45676   33.800
 3441.00    0.43634   0.44802   33.756
 3442.00    0.43417   0.44631   33.055
 3443.00    0.47858   0.45059   31.499
 3444.00    0.47507   0.45881   29.761
 3445.00    0.44309   0.46956   28.397
 3446.00    0.46556   0.48203   46.619
 3447.00    0.48777   0.49461  237.300
 3448.00    0.46053   0.50415   -1.000
 3449.00    0.46623   0.50730   -1.000
 3450.00    0.51152   0.50370  237.300
 3451.00    0.50218   0.49566  237.300
 3452.00    0.47070   0.48802   -1.000
 3453.00    0.47355   0.48412  237.300
 3454.00    0.47112   0.48432  237.300
 3455.00    0.47585   0.48601  237.300
 3456.00    0.49267   0.48570  237.300
 3457.00    0.51225   0.48215   53.075
 3458.00    0.50691   0.47640   27.328
 3459.00    0.50606   0.47095   27.444
 3460.00    0.49797   0.46852   46.247
 3461.00    0.45850   0.47072  237.300
 3462.00    0.46222   0.47664  237.300
 3463.00    0.47451   0.48342  237.300
 3464.00    0.46845   0.48900   -1.000
 3465.00    0.48608   0.49269  237.300
 3466.00    0.49869   0.49588  237.300
 3467.00    0.50106   0.49928  233.860
 3468.00    0.51623   0.50275   -1.000
 3469.00    0.53125   0.50518   -1.000
 3470.00    0.52825   0.50500   -1.000
 3471.00    0.53547   0.50114   -1.000
 3472.00    0.53618   0.49360   -1.000
 3473.00    0.51351   0.48361   52.831
 3474.00    0.50143   0.47426   27.857
 3475.00    0.50839   0.46890   28.126
 3476.00    0.49930   0.46939   47.327
 3477.00    0.48018   0.47477  237.300
 3478.00    0.50873   0.48233   -1.000
 3479.00    0.53494   0.48882   -1.000
 3480.00    0.53326   0.49234   -1.000
 3481.00    0.53978   0.49249   -1.000
 3482.00    0.52787   0.49090   -1.000
 3483.00    0.52176   0.49051   -1.000
 3484.00    0.53865   0.49359   -1.000
 3485.00    0.54512   0.49996   -1.000
 3486.00    0.54998   0.50575   -1.000
 3487.00    0.54128   0.50721   -1.000
 3488.00    0.53715   0.50292   -1.000
 3489.00    0.54486   0.49578   -1.000
 3490.00    0.51494   0.48998   -1.000
 3491.00    0.47540   0.48750  237.300
 3492.00    0.48594   0.48715  237.300
 3493.00    0.50921   0.48629   -1.000
 3494.00    0.52891   0.48423   -1.000
 3495.00    0.52657   0.48272   -1.000
 3496.00    0.50631   0.48445   -1.000
 3497.00    0.53197   0.49030   -1.000
 3498.00    0.54198   0.49755   -1.000
 3499.00    0.52821   0.50353   -1.000
 3500.00    0.52112   0.50735   -1.000
 3501.00    0.49856   0.50967  211.150
 3502.00    0.51534   0.51119  213.214
 3503.00    0.53406   0.51087   -1.000
 3504.00    0.52970   0.50836   -1.000
 3505.00    0.52562   0.50477   -1.000
 3506.00    0.50825   0.50182  219.483
 3507.00    0.48494   0.50033  219.510
 3508.00    0.50563   0.49920  225.006
 3509.00    0.54258   0.49704   -1.000
 3510.00    0.54172   0.49321   -1.000
 3511.00    0.51277   0.48867   -1.000
 3512.00    0.48706   0.48482  237.300
 3513.00    0.48901   0.48447  237.300
 3514.00    0.50299   0.48908   -1.000
 3515.00    0.50552   0.49801  225.146
 3516.00    0.49102   0.50831   -1.000
 3517.00    0.52010   0.51538  218.059
 3518.00    0.55905   0.51660   -1.000
 3519.00    0.54435   0.51153   -1.000
 3520.00    0.51640   0.50258   -1.000
 3521.00    0.51306   0.49253   -1.000
 3522.00    0.51149   0.48314   50.675
 3523.00    0.51092   0.47581   27.616
 3524.00    0.50865   0.47184   28.039
 3525.00    0.49288   0.47285   49.167
 3526.00    0.49911   0.47955   -1.000
 3527.00    0.50641   0.49026   -1.000
 3528.00    0.51833   0.50156   -1.000
 3529.00    0.51516   0.51014  227.798
 3530.00    0.51568   0.51490  231.052
 3531.00    0.52967   0.51721   -1.000
 3532.00    0.50304   0.51931   -1.000
 3533.00    0.48387   0.52230   -1.000
 3534.00    0.51485   0.52592  218.829
 3535.00    0.52263   0.52930  217.749
 3536.00    0.48145   0.53230   -1.000
 3537.00    0.47402   0.53526   -1.000
 3538.00    0.51856   0.53797   -1.000
 3539.00    0.56328   0.53984   -1.000
 3540.00    0.55914   0.54073   -1.000
 3541.00    0.55625   0.54188   -1.000
 3542.00    0.55935   0.54379   -1.000
 3543.00    0.53072   0.54639  215.989
 3544.00    0.52122   0.54822   -1.000
 3545.00    0.52998   0.54860   -1.000
 3546.00    0.51838   0.54798   -1.000
 3547.00    0.50611   0.54727   -1.000
 3548.00    0.50980   0.54727   -1.000
 3549.00    0.53776   0.54757  225.088
 3550.00    0.56452   0.54730   -1.000
 3551.00    0.55416   0.54539  237.163
 3552.00    0.53552   0.54207  237.300
 3553.00    0.53078   0.53849  237.300
 3554.00    0.52873   0.53608  237.300
 3555.00    0.53875   0.53510  237.115
 3556.00    0.53525   0.53472  237.300
 3557.00    0.51094   0.53420   -1.000
 3558.00    0.51298   0.53396   -1.000
 3559.00    0.52375   0.53518  237.300
 3560.00    0.52207   0.53821   -1.000
 3561.00    0.49657   0.54046   -1.000
 3562.00    0.49153   0.53841   -1.000
 3563.00    0.50568   0.52910   49.502
 3564.00    0.50886   0.51531   27.979
 3565.00    0.50275   0.50187   28.381
 3566.00    0.48691   0.49243   28.131
 3567.00    0.48478   0.48675   28.535
 3568.00    0.48586   0.48195   29.293
 3569.00    0.48679   0.47725   29.077
 3570.00    0.49558   0.47414   27.953
 3571.00    0.50453   0.47428   49.751
 3572.00    0.50692   0.47742   -1.000
 3573.00    0.51417   0.48166   -1.000
 3574.00    0.51910   0.48529   -1.000
 3575.00    0.51581   0.48766   -1.000
 3576.00    0.51647   0.48796   -1.000
 3577.00    0.51427   0.48530   50.818
 3578.00    0.50516   0.47885   29.453
 3579.00    0.50332   0.46984   31.444
 3580.00    0.50281   0.46099   32.388
 3581.00    0.48267   0.45471   32.550
 3582.00    0.48471   0.45149   33.034
 3583.00    0.49486   0.44933   34.006
 3584.00    0.48119   0.44672   34.803
 3585.00    0.46716   0.44449   34.101
 3586.00    0.47325   0.44487   32.313
 3587.00    0.47664   0.45020   30.674
 3588.00    0.45452   0.46048   28.508
 3589.00    0.45965   0.47391   49.998
 3590.00    0.49125   0.48726  237.300
 3591.00    0.52721   0.49808   -1.000
 3592.00    0.53997   0.50573   -1.000
 3593.00    0.50980   0.51163  233.818
 3594.00    0.51252   0.51803  224.230
 3595.00    0.52268   0.52573  215.582
 3596.00    0.52392   0.53409  209.648
 3597.00    0.52671   0.54143  205.234
 3598.00    0.51098   0.54571   -1.000
 3599.00    0.51980   0.54551   -1.000
 3600.00    0.53645   0.54019  222.393
 3601.00    0.53107   0.53095  233.726
 3602.00    0.52096   0.52051  237.300
 3603.00    0.51335   0.51191  237.300
 3604.00    0.51340   0.50685  237.300
 3605.00    0.51893   0.50443   -1.000
 3606.00    0.52026   0.50269   -1.000
 3607.00    0.50994   0.50046  237.300
 3608.00    0.50082   0.49849  237.300
 3609.00    0.50583   0.49896  237.300
 3610.00    0.50943   0.50218  237.300
 3611.00    0.50934   0.50734  236.507
 3612.00    0.51584   0.51298  231.615
 3613.00    0.52464   0.51807  225.124
 3614.00    0.53925   0.52131   -1.000
 3615.00    0.53136   0.52092   -1.000
 3616.00    0.53635   0.51535   -1.000
 3617.00    0.54902   0.50768   47.314
 3618.00    0.52691   0.50259   50.666
 3619.00    0.51382   0.50438  237.300
 3620.00    0.52503   0.51276   -1.000
 3621.00    0.53270   0.52458  215.425
 3622.00    0.52603   0.53644  211.654
 3623.00    0.53816   0.54740  206.211
 3624.00    0.56274   0.55835  197.956
 3625.00    0.57401   0.56898  192.529
 3626.00    0.58418   0.57687  193.117
 3627.00    0.58172   0.57785  201.082
 3628.00    0.58883   0.56912   -1.000
 3629.00    0.56957   0.55305   -1.000
 3630.00    0.51754   0.53542   -1.000
 3631.00    0.50946   0.52337  237.300
 3632.00    0.52418   0.51956  237.300
 3633.00    0.52945   0.52258  234.407
 3634.00    0.52889   0.52844  227.161
 3635.00    0.53695   0.53464  217.387
 3636.00    0.57133   0.54155   -1.000
 3637.00    0.57136   0.54936   -1.000
 3638.00    0.54696   0.55755  196.133
 3639.00    0.56065   0.56291  198.727
 3640.00    0.57540   0.56314  204.705
 3641.00    0.55815   0.55783  213.898
 3642.00    0.53264   0.54905   -1.000
 3643.00    0.53254   0.53977  227.738
 3644.00    0.53990   0.53212  231.387
 3645.00    0.52837   0.52653  235.315
 3646.00    0.52363   0.52318  237.300
 3647.00    0.52985   0.52223  233.894
 3648.00    0.52638   0.52457  225.745
 3649.00    0.52857   0.53050  215.561
 3650.00    0.55019   0.53967  205.860
 3651.00    0.57165   0.55024   -1.000
 3652.00    0.57668   0.56052   -1.000
 3653.00    0.56476   0.56917  193.925
 3654.00    0.55181   0.57608   -1.000
 3655.00    0.55265   0.58208   -1.000
 3656.00    0.55774   0.58725   -1.000
 3657.00    0.57597   0.59124  186.262
 3658.00    0.59542   0.59310  186.375
 3659.00    0.58762   0.59240  187.503
 3660.00    0.57229   0.58933  189.571
 3661.00    0.58367   0.58477  192.278
 3662.00    0.58766   0.57990  194.590
 3663.00    0.56808   0.57605  193.912
 3664.00    0.55945   0.57371  192.887
 3665.00    0.58298   0.57223  195.215
 3666.00    0.58793   0.57066   -1.000
 3667.00    0.57995   0.56842  201.969
 3668.00    0.57430   0.56711  203.506
 3669.00    0.54994   0.56825   -1.000
 3670.00    0.55817   0.57226  192.952
 3671.00    0.56855   0.57740  190.886
 3672.00    0.55983   0.58075   -1.000
 3673.00    0.57952   0.58068  190.822
 3674.00    0.59109   0.57664   -1.000
 3675.00    0.57333   0.56967  200.410
 3676.00    0.56740   0.56142  206.566
 3677.00    0.56666   0.55356   -1.000
 3678.00    0.55229   0.54803  214.326
 3679.00    0.55543   0.54560  210.828
 3680.00    0.55590   0.54637  204.922
 3681.00    0.53525   0.54892  201.249
 3682.00    0.53460   0.55090  203.188
 3683.00    0.55351   0.55018  210.109
 3684.00    0.56625   0.54567   -1.000
 3685.00    0.56603   0.53981   -1.000
 3686.00    0.55482   0.53628   -1.000
 3687.00    0.55010   0.53901  211.750
 3688.00    0.57189   0.54778   -1.000
 3689.00    0.59251   0.55974   -1.000
 3690.00    0.58796   0.57033   -1.000
 3691.00    0.58327   0.57726  190.569
 3692.00    0.58311   0.58046  194.404
 3693.00    0.58187   0.58096  195.043
 3694.00    0.57505   0.58009  193.649
 3695.00    0.56736   0.57944  191.545
 3696.00    0.57098   0.58168  186.909
 3697.00    0.59864   0.58840  181.527
 3698.00    0.63497   0.59832   -1.000
 3699.00    0.64866   0.60588   -1.000
 3700.00    0.63100   0.60479   -1.000
 3701.00    0.60107   0.59119  198.905
 3702.00    0.57456   0.56814  218.074
 3703.00    0.58338   0.54295   -1.000
 3704.00    0.56048   0.52460   -1.000
 3705.00    0.54335   0.51749   -1.000
 3706.00    0.56206   0.52027   -1.000
 3707.00    0.56990   0.52800   -1.000
 3708.00    0.56613   0.53528   -1.000
 3709.00    0.56204   0.54053   -1.000
 3710.00    0.55679   0.54572  194.389
 3711.00    0.56344   0.55497  184.316
 3712.00    0.57414   0.57014  177.977
 3713.00    0.59976   0.58954  175.823
 3714.00    0.63358   0.60767   -1.000
 3715.00    0.62515   0.61846  184.950
 3716.00    0.61612   0.61681  198.535
 3717.00    0.61406   0.60096   -1.000
 3718.00    0.59738   0.57253   -1.000
 3719.00    0.57090   0.53943   45.190
 3720.00    0.53203   0.51212   55.654
 3721.00    0.50856   0.50086  237.300
 3722.00    0.50656   0.50915  213.609
 3723.00    0.53340   0.53274  199.350
 3724.00    0.58212   0.56180   -1.000
 3725.00    0.60673   0.58702   -1.000
 3726.00    0.61794   0.60449   -1.000
 3727.00    0.61836   0.61387  203.752
 3728.00    0.62316   0.61568  203.500
 3729.00    0.63424   0.60783   -1.000
 3730.00    0.60814   0.58750   -1.000
 3731.00    0.57952   0.55543   43.708
 3732.00    0.56942   0.51749   28.842
 3733.00    0.52900   0.48402   30.976
 3734.00    0.48893   0.46529   30.528
 3735.00    0.48671   0.46754   28.176
 3736.00    0.51131   0.49022   54.888
 3737.00    0.54491   0.52701   -1.000
 3738.00    0.59729   0.56789   -1.000
 3739.00    0.63541   0.60305   -1.000
 3740.00    0.64552   0.62552   -1.000
 3741.00    0.65673   0.63293   -1.000
 3742.00    0.65210   0.62671   -1.000
 3743.00    0.63903   0.61073   -1.000
 3744.00    0.60259   0.58831   -1.000
 3745.00    0.58213   0.56160   44.239
 3746.00    0.58853   0.53202   28.445
 3747.00    0.55248   0.50263   29.404
 3748.00    0.51563   0.48038   60.669
 3749.00    0.48990   0.47333   -1.000
 3750.00    0.48487   0.48656  218.744
 3751.00    0.51572   0.51793  199.996
 3752.00    0.56916   0.55917  187.682
 3753.00    0.62359   0.59898   -1.000
 3754.00    0.65516   0.62802   -1.000
 3755.00    0.68594   0.64100   -1.000
 3756.00    0.67023   0.63918   -1.000
 3757.00    0.63813   0.62880   -1.000
 3758.00    0.64691   0.61834   -1.000
 3759.00    0.63828   0.61377   -1.000
 3760.00    0.64193   0.61596   -1.000
 3761.00    0.67208   0.62215   -1.000
 3762.00    0.68348   0.62760   -1.000
 3763.00    0.66813   0.62873   -1.000
 3764.00    0.65709   0.62312   -1.000
 3765.00    0.65621   0.61027   -1.000
 3766.00    0.64078   0.59102   -1.000
 3767.00    0.62118   0.56786   -1.000
 3768.00    0.59020   0.54507   -1.000
 3769.00    0.56741   0.52889   -1.000
 3770.00    0.55915   0.52530   -1.000
 3771.00    0.56836   0.53702   -1.000
 3772.00    0.59706   0.56079   -1.000
 3773.00    0.63258   0.59021   -1.000
 3774.00    0.63740   0.61910   -1.000
 3775.00    0.63385   0.64490  186.618
 3776.00    0.66978   0.66792  184.831
 3777.00    0.70852   0.68899   -1.000
 3778.00    0.72386   0.70829   -1.000
 3779.00    0.74148   0.72492   -1.000
 3780.00    0.76709   0.73777   -1.000
 3781.00    0.77479   0.74587   -1.000
 3782.00    0.77895   0.74821   -1.000
 3783.00    0.78300   0.74413   -1.000
 3784.00    0.74597   0.73350   -1.000
 3785.00    0.70833   0.71826  204.751
 3786.00    0.71531   0.70157   -1.000
 3787.00    0.71624   0.68695   -1.000
 3788.00    0.70555   0.67585   -1.000
 3789.00    0.70018   0.66745   -1.000
 3790.00    0.70087   0.65876   -1.000
 3791.00    0.69450   0.64634   -1.000
 3792.00    0.68071   0.62769   -1.000
 3793.00    0.66834   0.60199   -1.000
 3794.00    0.63328   0.57066   -1.000
 3795.00    0.60287   0.53756   -1.000
 3796.00    0.55771   0.50905   -1.000
 3797.00    0.52147   0.49365   -1.000
 3798.00    0.51478   0.49822   -1.000
 3799.00    0.52686   0.52336  211.399
 3800.00    0.56210   0.56335  199.231
 3801.00    0.61334   0.60730  193.227
 3802.00    0.65452   0.64607  190.938
 3803.00    0.69094   0.67416   -1.000
 3804.00    0.70171   0.69140  198.030
 3805.00    0.70696   0.70114  203.395
 3806.00    0.71081   0.70896  201.541
 3807.00    0.71896   0.71874  194.549
 3808.00    0.72309   0.73104  190.285
 3809.00    0.73378   0.74228  191.809
 3810.00    0.75738   0.74686  199.676
 3811.00    0.76197   0.74154   -1.000
 3812.00    0.76175   0.72735   -1.000
 3813.00    0.74024   0.70981   -1.000
 3814.00    0.71184   0.69564   -1.000
 3815.00    0.70671   0.68836   -1.000
 3816.00    0.70152   0.68597   -1.000
 3817.00    0.71297   0.68385   -1.000
 3818.00    0.73938   0.67823   -1.000
 3819.00    0.73244   0.67014   -1.000
 3820.00    0.70867   0.66300   -1.000
 3821.00    0.70504   0.65799   -1.000
 3822.00    0.71832   0.65305   -1.000
 3823.00    0.67858   0.64472   43.615
 3824.00    0.64199   0.63223   28.734
 3825.00    0.64607   0.61820   28.807
 3826.00    0.65818   0.60536   28.414
 3827.00    0.64588   0.59446   27.947
 3828.00    0.63994   0.58315   27.991
 3829.00    0.65727   0.56831   28.924
 3830.00    0.64851   0.54734   -1.000
 3831.00    0.61759   0.52025   -1.000
 3832.00    0.58695   0.48990   -1.000
 3833.00    0.53313   0.46207   31.279
 3834.00    0.49969   0.44329   30.373
 3835.00    0.49307   0.43788   30.535
 3836.00    0.49957   0.44671   31.258
 3837.00    0.52551   0.46727   31.183
 3838.00    0.56013   0.49642   29.821
 3839.00    0.58461   0.53139   -1.000
 3840.00    0.61730   0.56960   -1.000
 3841.00    0.65908   0.60815   -1.000
 3842.00    0.69461   0.64350   -1.000
 3843.00    0.71023   0.67297   -1.000
 3844.00    0.72301   0.69590   -1.000
 3845.00    0.73709   0.71282   -1.000
 3846.00    0.75500   0.72504   -1.000
 3847.00    0.77381   0.73289   -1.000
 3848.00    0.75962   0.73779   -1.000
 3849.00    0.75118   0.74125   -1.000
 3850.00    0.74877   0.74524  228.647
 3851.00    0.75331   0.74972  227.413
 3852.00    0.76019   0.75250  231.772
 3853.00    0.77842   0.75141   -1.000
 3854.00    0.78566   0.74583   -1.000
 3855.00    0.75809   0.73700   -1.000
 3856.00    0.75777   0.72731   40.536
 3857.00    0.77350   0.71908   27.910
 3858.00    0.74472   0.71469   28.149
 3859.00    0.70950   0.71647   62.586
 3860.00    0.72291   0.72409  233.196
 3861.00    0.76182   0.73568   -1.000
 3862.00    0.78742   0.74639   -1.000
 3863.00    0.78594   0.75386   -1.000
 3864.00    0.78817   0.75721   -1.000
 3865.00    0.80177   0.75795   -1.000
 3866.00    0.82212   0.75746   -1.000
 3867.00    0.82580   0.75518   -1.000
 3868.00    0.78308   0.74971   -1.000
 3869.00    0.76829   0.74034   40.850
 3870.00    0.75262   0.72830   62.381
 3871.00    0.71964   0.71811  237.300
 3872.00    0.70436   0.71336  224.601
 3873.00    0.71564   0.71554  212.024
 3874.00    0.75276   0.72018   -1.000
 3875.00    0.76899   0.72199   -1.000
 3876.00    0.76280   0.71743   -1.000
 3877.00    0.74480   0.70813   -1.000
 3878.00    0.72273   0.69810   -1.000
 3879.00    0.69922   0.68980   -1.000
 3880.00    0.69001   0.68253  237.300
 3881.00    0.68089   0.67359  236.621
 3882.00    0.66766   0.66018  220.048
 3883.00    0.67359   0.64036   -1.000
 3884.00    0.68306   0.61305   -1.000
 3885.00    0.66080   0.57957   -1.000
 3886.00    0.62530   0.54543   -1.000
 3887.00    0.59550   0.51852   -1.000
 3888.00    0.55001   0.50804   -1.000
 3889.00    0.53952   0.51730   -1.000
 3890.00    0.59072   0.54412   -1.000
 3891.00    0.65036   0.57965   -1.000
 3892.00    0.68388   0.61528   -1.000
 3893.00    0.70519   0.64531   -1.000
 3894.00    0.71565   0.66928   -1.000
 3895.00    0.73861   0.68891   -1.000
 3896.00    0.74804   0.70533   -1.000
 3897.00    0.74077   0.71880   -1.000
 3898.00    0.74485   0.72952   -1.000
 3899.00    0.77666   0.73851   -1.000
 3900.00    0.77694   0.74617   -1.000
 3901.00    0.77327   0.75201   -1.000
 3902.00    0.78778   0.75469   -1.000
 3903.00    0.80725   0.75476   -1.000
 3904.00    0.78927   0.75497   -1.000
 3905.00    0.78905   0.75913   -1.000
 3906.00    0.79740   0.76977   -1.000
 3907.00    0.80120   0.78593   -1.000
 3908.00    0.82784   0.80360   -1.000
 3909.00    0.86251   0.81893   -1.000
 3910.00    0.86666   0.82875   -1.000
 3911.00    0.85930   0.83290   -1.000
 3912.00    0.86738   0.83244   -1.000
 3913.00    0.86001   0.82909   -1.000
 3914.00    0.85065   0.82432   -1.000
 3915.00    0.83711   0.81910   -1.000
 3916.00    0.84371   0.81322   -1.000
 3917.00    0.83595   0.80627   -1.000
 3918.00    0.81592   0.79842   -1.000
 3919.00    0.80853   0.79075   -1.000
 3920.00    0.80042   0.78522   -1.000
 3921.00    0.80264   0.78229   -1.000
 3922.00    0.80060   0.78075   -1.000
 3923.00    0.81314   0.77719   -1.000
 3924.00    0.82992   0.76799   -1.000
 3925.00    0.83102   0.75077   -1.000
 3926.00    0.79691   0.72480   -1.000
 3927.00    0.73739   0.69118   33.229
 3928.00    0.67379   0.65103   38.912
 3929.00    0.61062   0.60581   45.858
 3930.00    0.52526   0.55851   53.888
 3931.00    0.44365   0.51407   -1.000
 3932.00    0.39697   0.48161   -1.000
 3933.00    0.38874   0.46934   -1.000
 3934.00    0.42755   0.48189   45.331
 3935.00    0.50054   0.51628   37.285
 3936.00    0.57273   0.56456   31.122
 3937.00    0.61393   0.61588   70.460
 3938.00    0.65528   0.66315  237.300
 3939.00    0.71448   0.70107   -1.000
 3940.00    0.76075   0.72823   -1.000
 3941.00    0.76702   0.74552   -1.000
 3942.00    0.77921   0.75542   -1.000
 3943.00    0.79701   0.76220   -1.000
 3944.00    0.79867   0.76905   -1.000
 3945.00    0.80589   0.77700   -1.000
 3946.00    0.82350   0.78544   -1.000
 3947.00    0.83660   0.79290   -1.000
 3948.00    0.83795   0.79870   -1.000
 3949.00    0.85190   0.80263   -1.000
 3950.00    0.85899   0.80514   -1.000
 3951.00    0.84752   0.80655   -1.000
 3952.00    0.84052   0.80710   -1.000
 3953.00    0.85229   0.80649   -1.000
 3954.00    0.87119   0.80372   -1.000
 3955.00    0.86781   0.79863   -1.000
 3956.00    0.82847   0.79156   -1.000
 3957.00    0.81904   0.78227   -1.000
 3958.00    0.83019   0.76916   -1.000
 3959.00    0.81459   0.74958   -1.000
 3960.00    0.78784   0.72258   -1.000
 3961.00    0.76043   0.69000   -1.000
 3962.00    0.70920   0.65311   40.174
 3963.00    0.65740   0.61221   31.372
 3964.00    0.59485   0.56518   38.034
 3965.00    0.49730   0.51150   46.700
 3966.00    0.41387   0.45669   53.493
 3967.00    0.36784   0.40966   52.510
 3968.00    0.34437   0.38207   44.771
 3969.00    0.34176   0.38075   36.794
 3970.00    0.37426   0.40644   30.621
 3971.00    0.45827   0.45270   71.257
 3972.00    0.53754   0.51074   -1.000
 3973.00    0.60552   0.57102   -1.000
 3974.00    0.67817   0.62779   -1.000
 3975.00    0.73383   0.67801   -1.000
 3976.00    0.76758   0.72099   -1.000
 3977.00    0.80037   0.75735   -1.000
 3978.00    0.83110   0.78644   -1.000
 3979.00    0.85320   0.80826   -1.000
 3980.00    0.85340   0.82278   -1.000
 3981.00    0.84818   0.83210  156.567
 3982.00    0.84989   0.83925  153.902
 3983.00    0.84991   0.84685  150.790
 3984.00    0.88183   0.85597   -1.000
 3985.00    0.92165   0.86630   -1.000
 3986.00    0.91537   0.87700   -1.000
 3987.00    0.90482   0.88757  143.620
 3988.00    0.91812   0.89748   -1.000
 3989.00    0.93966   0.90661   -1.000
 3990.00    0.94074   0.91461   -1.000
 3991.00    0.93593   0.92092  137.270
 3992.00    0.96418   0.92436   -1.000
 3993.00    0.95979   0.92405   -1.000
 3994.00    0.94392   0.92017   -1.000
 3995.00    0.92244   0.91482  148.066
 3996.00    0.89596   0.91143  146.053
 3997.00    0.89872   0.91248  140.256
 3998.00    0.91914   0.91833  134.970
 3999.00    0.93969   0.92711  132.117
 4000.00    0.96745   0.93479   -1.000
 4001.00    0.98721   0.93791   -1.000
 4002.00    0.97376   0.93470   -1.000
 4003.00    0.96301   0.92647   -1.000
 4004.00    0.94926   0.91754   -1.000
 4005.00    0.91698   0.91384  141.297
 4006.00    0.91322   0.91775  134.889
 4007.00    0.95573   0.92875   -1.000
 4008.00    0.97116   0.94236   -1.000
 4009.00    0.98266   0.95419   -1.000
 4010.00    1.02011   0.96242   -1.000
 4011.00    0.99775   0.96738   -1.000
 4012.00    0.96104   0.97062  130.737
 4013.00    0.97477   0.97319  129.106
 4014.00    1.00090   0.97566   -1.000
 4015.00    0.99574   0.97834  130.854
 4016.00    0.98718   0.98133  130.878
 4017.00    0.99655   0.98490  129.215
 4018.00    1.00736   0.98849  128.843
 4019.00    0.99563   0.99116  130.310
 4020.00    1.01103   0.99166  131.425
 4021.00    1.01268   0.98960   -1.000
 4022.00    0.99207   0.98555  133.241
 4023.00    0.98441   0.98171  131.149
 4024.00    1.00842   0.98032   -1.000
 4025.00    1.00230   0.98219  123.668
 4026.00    0.99830   0.98558  123.772
 4027.00    1.01280   0.98629   -1.000
 4028.00    1.01452   0.98152   -1.000
 4029.00    0.98523   0.97115  142.430
 4030.00    0.95569   0.95893  145.331
 4031.00    0.94875   0.95024  144.446
 4032.00    0.95059   0.94861  140.471
 4033.00    0.96533   0.95560  134.109
 4034.00    0.94417   0.96968   -1.000
 4035.00    0.97734   0.98801  122.471
 4036.00    1.00461   1.00603  120.948
 4037.00    1.03146   1.01950  122.709
 4038.00    1.05378   1.02582   -1.000
 4039.00    1.05202   1.02511   -1.000
 4040.00    1.03565   1.01819  128.243
 4041.00    1.02013   1.00639  132.855
 4042.00    1.00000   0.98977  144.050
 4043.00    1.00658   0.97051   -1.000
 4044.00    0.98332   0.95496   -1.000
 4045.00    0.94462   0.94886  141.717
 4046.00    0.94485   0.95614  131.658
 4047.00    0.96323   0.97358  126.788
 4048.00    0.99184   0.99363  124.768
 4049.00    1.01797   1.00920  125.015
 4050.00    1.03342   1.01639  127.776
 4051.00    1.04369   1.01549   -1.000
 4052.00    1.04185   1.00945   -1.000
 4053.00    1.00773   1.00207  134.926
 4054.00    0.99593   0.99550  135.873
 4055.00    1.00522   0.99147  137.165
 4056.00    0.98048   0.99053  136.369
 4057.00    0.98445   0.99223  132.246
 4058.00    1.00085   0.99550  129.005
 4059.00    1.02204   0.99657   -1.000
 4060.00    1.04328   0.99210   -1.000
 4061.00    1.00466   0.98109   -1.000
 4062.00    0.98383   0.96614   -1.000
 4063.00    0.97251   0.95325   -1.000
 4064.00    0.96100   0.94655  137.758
 4065.00    0.96534   0.94755  134.154
 4066.00    0.99180   0.95379   -1.000
 4067.00    1.02894   0.96122   -1.000
 4068.00    1.04020   0.96536   -1.000
 4069.00    1.00774   0.96457   -1.000
 4070.00    0.99323   0.95995   -1.000
 4071.00    0.97521   0.95452   -1.000
 4072.00    0.97294   0.95042   -1.000
 4073.00    0.99811   0.94639   -1.000
 4074.00    0.99387   0.94030   -1.000
 4075.00    0.98763   0.93155   -1.000
 4076.00    0.96493   0.92361   -1.000
 4077.00    0.93121   0.92195  141.577
 4078.00    0.93296   0.92913  131.759
 4079.00    0.95807   0.94294  126.454
 4080.00    0.99636   0.95683   -1.000
 4081.00    1.01072   0.96562   -1.000
 4082.00    1.00643   0.96733   -1.000
 4083.00    0.98252   0.96543  132.631
 4084.00    0.96072   0.96473  128.723
 4085.00    0.96841   0.96833  123.885
 4086.00    0.99027   0.97550  119.688
 4087.00    1.00907   0.98240   -1.000
 4088.00    1.02772   0.98550   -1.000
 4089.00    1.02044   0.98294   -1.000
 4090.00    1.01709   0.97565   -1.000
 4091.00    1.00348   0.96476   -1.000
 4092.00    0.96658   0.95085  127.287
 4093.00    0.95482   0.93311   -1.000
 4094.00    0.95671   0.91047   -1.000
 4095.00    0.92488   0.88270   -1.000
 4096.00    0.88810   0.84935   -1.000
 4097.00    0.86486   0.81039   -1.000
 4098.00    0.86213   0.76675   -1.000
 4099.00    0.83797   0.72300   -1.000
 4100.00    0.75663   0.68860   -1.000
 4101.00    0.68417   0.67369  160.100
 4102.00    0.68483   0.68442  147.262
 4103.00    0.72730   0.71808  138.490
 4104.00    0.80056   0.76408   -1.000
 4105.00    0.87547   0.81090   -1.000
 4106.00    0.88068   0.84982   -1.000
 4107.00    0.88690   0.87841  135.142
 4108.00    0.92479   0.89892   -1.000
 4109.00    0.94913   0.91484   -1.000
 4110.00    0.95165   0.92927   -1.000
 4111.00    0.95501   0.94402  131.226
 4112.00    0.96064   0.95932  129.155
 4113.00    0.99956   0.97406   -1.000
 4114.00    1.01619   0.98617   -1.000
 4115.00    0.99283   0.99401  130.143
 4116.00    0.99534   0.99673  134.194
 4117.00    0.99416   0.99558  136.514
 4118.00    0.98423   0.99296  135.562
 4119.00    1.01341   0.99160   -1.000
 4120.00    1.01208   0.99281  133.829
 4121.00    1.00385   0.99671  132.777
 4122.00    1.00926   1.00237  130.614
 4123.00    1.03756   1.00813   -1.000
 4124.00    1.04559   1.01213   -1.000
 4125.00    1.05781   1.01309   -1.000
 4126.00    1.05828   1.01099   -1.000
 4127.00    1.02828   1.00677   -1.000
 4128.00    1.02627   1.00164   -1.000
 4129.00    1.02480   0.99599   -1.000
 4130.00    1.01424   0.99044   -1.000
 4131.00    0.98894   0.98654  146.981
 4132.00    0.99391   0.98708  143.287
 4133.00    1.00625   0.99443  136.539
 4134.00    1.00301   1.00861  131.502
 4135.00    1.02437   1.02697  128.900
 4136.00    1.03510   1.04513  126.887
 4137.00    1.04568   1.05930  126.041
 4138.00    1.06753   1.06604  127.922
 4139.00    1.07945   1.06355  133.742
 4140.00    1.08433   1.05250   -1.000
 4141.00    1.05549   1.03641   -1.000
 4142.00    1.03518   1.02135  150.344
 4143.00    1.00403   1.01385  141.926
 4144.00    0.99684   1.01567  135.861
 4145.00    1.02221   1.02456  133.644
 4146.00    1.05565   1.03541  135.322
 4147.00    1.06623   1.04370   -1.000
 4148.00    1.04934   1.04835  141.135
 4149.00    1.03550   1.05001  140.712
 4150.00    1.03895   1.04967  139.827
 4151.00    1.03533   1.04754  140.663
 4152.00    1.02867   1.04378  142.787
 4153.00    1.10895   1.03990   -1.000
 4154.00    1.34942   1.03816   -1.000
 4155.00    1.22939   1.04032   -1.000
 4156.00    0.80352   1.04678   -1.000
 4157.00    0.88739   1.05614   -1.000
 4158.00    1.08587   1.06618  134.857
 4159.00    1.09579   1.07537  131.395
 4160.00    1.07486   1.08306  129.340
 4161.00    1.07091   1.08918  129.650
 4162.00    1.07780   1.09365  131.518
 4163.00    1.07206   1.09585   -1.000
 4164.00    1.06280   1.09497   -1.000
 4165.00    1.06521   1.09093   -1.000
 4166.00    1.06432   1.08461  138.294
 4167.00    1.05482   1.07687  136.135
 4168.00    1.05741   1.06705  136.717
 4169.00    1.06697   1.05440  143.436
 4170.00    1.06576   1.03913   -1.000
 4171.00    1.05064   1.02419   -1.000
 4172.00    1.00969   1.01443  150.225
 4173.00    1.00396   1.01252  144.735
 4174.00    1.01960   1.01785  143.513
 4175.00    1.03513   1.02688  144.208
 4176.00    1.02522   1.03628  143.907
 4177.00    1.03791   1.04451  141.966
 4178.00    1.05020   1.05133  140.400
 4179.00    1.06562   1.05676  140.212
 4180.00    1.07494   1.06067  139.054
 4181.00    1.06690   1.06323  136.499
 4182.00    1.06277   1.06521  133.999
 4183.00    1.06242   1.06649  133.661
 4184.00    1.07112   1.06652  137.312
 4185.00    1.05899   1.06488  141.458
 4186.00    1.06778   1.06209  141.295
 4187.00    1.05406   1.06036  138.421
 4188.00    1.04421   1.06139  137.089
 4189.00    1.06622   1.06570  135.483
 4190.00    1.05774   1.07235  132.750
 4191.00    1.07264   1.07877  130.748
 4192.00    1.08275   1.08204  133.433
 4193.00    1.08870   1.08000  139.909
 4194.00    1.08200   1.07154  145.156
 4195.00    1.05481   1.05795  148.151
 4196.00    1.05200   1.04235  148.912
 4197.00    1.04535   1.02818  147.642
 4198.00    1.01392   1.01849  145.391
 4199.00    1.01940   1.01455  144.604
 4200.00    1.04316   1.01611   -1.000
 4201.00    1.05649   1.02250   -1.000
 4202.00    1.04981   1.03285  140.508
 4203.00    1.05084   1.04588  138.111
 4204.00    1.03051   1.06051   -1.000
 4205.00    1.04800   1.07513   -1.000
 4206.00    1.06047   1.08771   -1.000
 4207.00    1.07751   1.09704  131.309
 4208.00    1.07627   1.10297   -1.000
 4209.00    1.10242   1.10642  130.387
 4210.00    1.07574   1.10809   -1.000
 4211.00    1.06697   1.10737   -1.000
 4212.00    1.06201   1.10309   -1.000
 4213.00    1.05788   1.09544   -1.000
 4214.00    1.06546   1.08684  141.479
 4215.00    1.06525   1.08145  133.115
 4216.00    1.05841   1.08292   -1.000
 4217.00    1.05519   1.09074   -1.000
 4218.00    1.08495   1.10110  121.095
 4219.00    1.10872   1.10852  121.755
 4220.00    1.10707   1.10751  126.056
 4221.00    1.08155   1.09496  134.270
 4222.00    1.08084   1.07127  146.877
 4223.00    1.08866   1.04035   -1.000
 4224.00    1.05303   1.00981   -1.000
 4225.00    0.99520   0.98918  174.320
 4226.00    0.95754   0.98611   -1.000
 4227.00    0.95699   1.00091   -1.000
 4228.00    1.01680   1.02682  127.784
 4229.00    1.06257   1.05384  125.797
 4230.00    1.07643   1.07247  127.985
 4231.00    1.08064   1.07950  131.315
 4232.00    1.08653   1.07748  133.013
 4233.00    1.08275   1.07136  135.799
 4234.00    1.07386   1.06566  138.424
 4235.00    1.06760   1.06307  138.020
 4236.00    1.07007   1.06468  135.127
 4237.00    1.06033   1.07017  132.968
 4238.00    1.05892   1.07862  130.527
 4239.00    1.07712   1.08855  128.626
 4240.00    1.09680   1.09832  127.869
 4241.00    1.08341   1.10679  125.958
 4242.00    1.07923   1.11286   -1.000
 4243.00    1.09091   1.11535  123.957
 4244.00    1.07889   1.11295   -1.000
 4245.00    1.09971   1.10558  134.127
 4246.00    1.06938   1.09523   -1.000
 4247.00    1.05870   1.08506   -1.000
 4248.00    1.03782   1.07856   -1.000
 4249.00    1.03177   1.07722   -1.000
 4250.00    1.04272   1.08012   -1.000
 4251.00    1.07352   1.08430  132.229
 4252.00    1.08497   1.08706  135.419
 4253.00    1.07220   1.08863  134.616
 4254.00    1.06957   1.08969  129.842
 4255.00    1.06266   1.09023   -1.000
 4256.00    1.08338   1.08928  132.017
 4257.00    1.09904   1.08548  139.042
 4258.00    1.09570   1.08006  143.434
 4259.00    1.07248   1.07691  139.494
 4260.00    1.05067   1.08064   -1.000
 4261.00    1.04940   1.09245   -1.000
 4262.00    1.07661   1.10949   -1.000
 4263.00    1.10498   1.12617  120.567
 4264.00    1.12508   1.13706  122.194
 4265.00    1.12868   1.13949  125.955
 4266.00    1.12719   1.13307  129.869
 4267.00    1.10453   1.11865  134.704
 4268.00    1.08146   1.09851  143.018
 4269.00    1.07867   1.07565  152.038
 4270.00    1.07058   1.05448  154.911
 4271.00    1.02609   1.03989  152.161
 4272.00    1.00586   1.03488   -1.000
 4273.00    1.00712   1.04045   -1.000
 4274.00    1.02456   1.05551   -1.000
 4275.00    1.04728   1.07571   -1.000
 4276.00    1.08200   1.09541  125.675
 4277.00    1.10599   1.10973  130.453
 4278.00    1.11837   1.11654  135.281
 4279.00    1.09458   1.11651  136.313
 4280.00    1.06560   1.11288   -1.000
 4281.00    1.06790   1.10841   -1.000
 4282.00    1.07799   1.10369   -1.000
 4283.00    1.09383   1.09829  138.284
 4284.00    1.09397   1.09038  141.893
 4285.00    1.08267   1.07923  144.146
 4286.00    1.05009   1.06522  149.149
 4287.00    1.03497   1.04972  156.421
 4288.00    1.03416   1.03637  157.926
 4289.00    1.01904   1.02922  151.100
 4290.00    1.00400   1.02960   -1.000
 4291.00    1.01241   1.03613   -1.000
 4292.00    1.04199   1.04408  138.737
 4293.00    1.06453   1.04826  140.921
 4294.00    1.05192   1.04497  144.024
 4295.00    1.03820   1.03326  150.737
 4296.00    1.03048   1.01402   -1.000
 4297.00    1.00506   0.99054   -1.000
 4298.00    0.96816   0.96710  179.490
 4299.00    0.92506   0.94809   -1.000
 4300.00    0.90826   0.93683   -1.000
 4301.00    0.92795   0.93420  169.438
 4302.00    0.95426   0.93829   -1.000
 4303.00    0.93970   0.94473  167.634
 4304.00    0.95385   0.94881  172.753
 4305.00    0.97061   0.94832   -1.000
 4306.00    0.97501   0.94415   -1.000
 4307.00    0.93910   0.94038  184.452
 4308.00    0.90505   0.94178   -1.000
 4309.00    0.90391   0.95074   -1.000
 4310.00    0.91915   0.96708   -1.000
 4311.00    0.95847   0.99001   -1.000
 4312.00    0.98016   1.01794   -1.000
 4313.00    0.98938   1.05101   -1.000
 4314.00    1.02227   1.08753   -1.000
 4315.00    1.07817   1.12368   -1.000
 4316.00    1.12048   1.15396   -1.000
 4317.00    1.14063   1.17324   -1.000
 4318.00    1.16166   1.17912  117.631
 4319.00    1.15609   1.17164  121.459
 4320.00    1.14332   1.15265  127.220
 4321.00    1.12817   1.12547  136.238
 4322.00    1.08611   1.09472  148.284
 4323.00    1.05116   1.06727  155.347
 4324.00    1.01161   1.05020   -1.000
 4325.00    0.99666   1.04891   -1.000
 4326.00    1.03973   1.06162  122.145
 4327.00    1.08396   1.08221  119.004
 4328.00    1.11699   1.10291  119.209
 4329.00    1.12062   1.11755  118.719
 4330.00    1.10400   1.12437  116.792
 4331.00    1.11983   1.12357  115.480
 4332.00    1.10578   1.11533  115.120
 4333.00    1.07707   1.09758  116.829
 4334.00    1.07499   1.06689  123.683
 4335.00    1.05203   1.02094   -1.000
 4336.00    1.01735   0.96319   -1.000
 4337.00    0.96478   0.90182   -1.000
 4338.00    0.88198   0.84962   -1.000
 4339.00    0.79364   0.81949   -1.000
 4340.00    0.74679   0.81919   -1.000
 4341.00    0.78689   0.84664   -1.000
 4342.00    0.87578   0.89338  126.287
 4343.00    0.94867   0.94817  122.815
 4344.00    1.00034   1.00091  120.586
 4345.00    1.02838   1.04565  119.238
 4346.00    1.07740   1.08001  117.355
 4347.00    1.09887   1.10260  117.411
 4348.00    1.09716   1.11266  123.223
 4349.00    1.12259   1.11213  132.301
 4350.00    1.09086   1.10688  135.147
 4351.00    1.05544   1.10373   -1.000
 4352.00    1.04171   1.10829   -1.000
 4353.00    1.06851   1.12141   -1.000
 4354.00    1.09281   1.13994   -1.000
 4355.00    1.11842   1.15871   -1.000
 4356.00    1.15243   1.17375  119.871
 4357.00    1.17201   1.18441  121.501
 4358.00    1.16787   1.19285   -1.000
 4359.00    1.16690   1.20164   -1.000
 4360.00    1.17823   1.21151   -1.000
 4361.00    1.18440   1.22222   -1.000
 4362.00    1.16474   1.23227   -1.000
 4363.00    1.17629   1.23889   -1.000
 4364.00    1.19614   1.23972   -1.000
 4365.00    1.18737   1.23474   -1.000
 4366.00    1.18565   1.22523   -1.000
 4367.00    1.16543   1.21339   -1.000
 4368.00    1.15037   1.20165   -1.000
 4369.00    1.16494   1.19112   -1.000
 4370.00    1.17706   1.18113  120.636
 4371.00    1.17104   1.17048  125.207
 4372.00    1.16565   1.15965  130.258
 4373.00    1.14943   1.15122  130.868
 4374.00    1.11774   1.14902   -1.000
 4375.00    1.13309   1.15435  119.672
 4376.00    1.16237   1.16550  117.152
 4377.00    1.19260   1.17726  117.601
 4378.00    1.17412   1.18281  119.592
 4379.00    1.19385   1.17608  124.915
 4380.00    1.17948   1.15592   -1.000
 4381.00    1.16408   1.12631   -1.000
 4382.00    1.13560   1.09713   -1.000
 4383.00    1.10268   1.07868   -1.000
 4384.00    1.06520   1.07587  130.169
 4385.00    1.10209   1.08750  125.157
 4386.00    1.14000   1.10720   -1.000
 4387.00    1.14910   1.12741  126.168
 4388.00    1.15135   1.14341  126.673
 4389.00    1.16672   1.15484  124.469
 4390.00    1.18629   1.16354  121.668
 4391.00    1.19600   1.17025   -1.000
 4392.00    1.19820   1.17537  124.746
 4393.00    1.19528   1.18016  124.595
 4394.00    1.19338   1.18579  119.299
 4395.00    1.18278   1.19214  115.611
 4396.00    1.18575   1.19758  116.796
 4397.00    1.20524   1.20038  120.941
 4398.00    1.19685   1.19947  124.646
 4399.00    1.18645   1.19551  123.631
 4400.00    1.18598   1.19004  121.418
 4401.00    1.19498   1.18361  125.110
 4402.00    1.20513   1.17661   -1.000
 4403.00    1.20414   1.17014   -1.000
 4404.00    1.17924   1.16575  129.880
 4405.00    1.16207   1.16558  127.744
 4406.00    1.17229   1.17128  126.563
 4407.00    1.17553   1.18339  122.009
 4408.00    1.15622   1.20054   -1.000
 4409.00    1.15602   1.21884   -1.000
 4410.00    1.20379   1.23364   -1.000
 4411.00    1.23120   1.24080  113.875
 4412.00    1.27040   1.23766   -1.000
 4413.00    1.23020   1.22617  124.826
 4414.00    1.18560   1.21291   -1.000
 4415.00    1.17175   1.20552   -1.000
 4416.00    1.15470   1.20828   -1.000
 4417.00    1.16156   1.22124   -1.000
 4418.00    1.17625   1.23885   -1.000
 4419.00    1.18486   1.25423   -1.000
 4420.00    1.18791   1.26324   -1.000
 4421.00    1.17754   1.26551   -1.000
 4422.00    1.17104   1.26329   -1.000
 4423.00    1.17328   1.25970   -1.000
 4424.00    1.18629   1.25681   -1.000
 4425.00    1.18698   1.25575   -1.000
 4426.00    1.15997   1.25636   -1.000
 4427.00    1.15647   1.25814   -1.000
 4428.00    1.17929   1.26057   -1.000
 4429.00    1.17732   1.26252   -1.000
 4430.00    1.17260   1.26234   -1.000
 4431.00    1.18620   1.25884   -1.000
 4432.00    1.20845   1.25235   -1.000
 4433.00    1.20027   1.24601   -1.000
 4434.00    1.16669   1.24424   -1.000
 4435.00    1.14391   1.24984   -1.000
 4436.00    1.19140   1.26213   -1.000
 4437.00    1.24445   1.27658   -1.000
 4438.00    1.25719   1.28672   -1.000
 4439.00    1.25701   1.28757   -1.000
 4440.00    1.24458   1.27994   -1.000
 4441.00    1.21542   1.26935   -1.000
 4442.00    1.18179   1.26309   -1.000
 4443.00    1.17399   1.26547   -1.000
 4444.00    1.18749   1.27620   -1.000
 4445.00    1.23710   1.29098   -1.000
 4446.00    1.24401   1.30474   -1.000
 4447.00    1.23771   1.31378   -1.000
 4448.00    1.25975   1.31705   -1.000
 4449.00    1.25749   1.31525   -1.000
 4450.00    1.24747   1.30904   -1.000
 4451.00    1.25765   1.29804   -1.000
 4452.00    1.26100   1.28298  123.101
 4453.00    1.25377   1.26647  125.868
 4454.00    1.24286   1.25224  124.012
 4455.00    1.21677   1.24337   -1.000
 4456.00    1.21251   1.24106   -1.000
 4457.00    1.23381   1.24425  122.329
 4458.00    1.25123   1.25047  123.581
 4459.00    1.24802   1.25752  124.701
 4460.00    1.24028   1.26473   -1.000
 4461.00    1.24665   1.27271   -1.000
 4462.00    1.26026   1.28135  114.820
 4463.00    1.27123   1.28941  114.515
 4464.00    1.27626   1.29507  114.593
 4465.00    1.26308   1.29699   -1.000
 4466.00    1.27482   1.29529  118.038
 4467.00    1.26921   1.29237  118.848
 4468.00    1.22612   1.29180   -1.000
 4469.00    1.23863   1.29654   -1.000
 4470.00    1.25864   1.30764   -1.000
 4471.00    1.28301   1.32377   -1.000
 4472.00    1.29527   1.34157   -1.000
 4473.00    1.31286   1.35749   -1.000
 4474.00    1.32673   1.36894   -1.000
 4475.00    1.33367   1.37449   -1.000
 4476.00    1.32310   1.37314   -1.000
 4477.00    1.33330   1.36461   -1.000
 4478.00    1.30438   1.35006   -1.000
 4479.00    1.30855   1.33339   -1.000
 4480.00    1.29456   1.32029   -1.000
 4481.00    1.27765   1.31587   -1.000
 4482.00    1.26566   1.32247   -1.000
 4483.00    1.26772   1.33766   -1.000
 4484.00    1.31363   1.35509   -1.000
 4485.00    1.33438   1.36783   -1.000
 4486.00    1.33867   1.37226   -1.000
 4487.00    1.33390   1.36894   -1.000
 4488.00    1.32743   1.36224   -1.000
 4489.00    1.31248   1.35692   -1.000
 4490.00    1.30486   1.35567   -1.000
 4491.00    1.31833   1.35795   -1.000
 4492.00    1.32260   1.36148   -1.000
 4493.00    1.30921   1.36465   -1.000
 4494.00    1.30806   1.36722   -1.000
 4495.00    1.30908   1.36994   -1.000
 4496.00    1.28800   1.37355   -1.000
 4497.00    1.28133   1.37805   -1.000
 4498.00    1.29940   1.38249   -1.000
 4499.00    1.30254   1.38691   -1.000
 4500.00    1.29139   1.39283   -1.000
 4501.00    1.29550   1.40154   -1.000
 4502.00    1.33716   1.41306   -1.000
 4503.00    1.36613   1.42549   -1.000
 4504.00    1.36564   1.43599   -1.000
 4505.00    1.38794   1.44207   -1.000
 4506.00    1.38045   1.44368   -1.000
 4507.00    1.35060   1.44246   -1.000
 4508.00    1.35652   1.44037   -1.000
 4509.00    1.37624   1.43812   -1.000
 4510.00    1.38215   1.43527   -1.000
 4511.00    1.37113   1.43092   -1.000
 4512.00    1.35838   1.42465   -1.000
 4513.00    1.38058   1.41722   -1.000
 4514.00    1.36297   1.41025   -1.000
 4515.00    1.33519   1.40482   -1.000
 4516.00    1.35717   1.40116   -1.000
 4517.00    1.35042   1.39921   -1.000
 4518.00    1.33387   1.39851   -1.000
 4519.00    1.32211   1.39807   -1.000
 4520.00    1.34928   1.39680   -1.000
 4521.00    1.35872   1.39384   -1.000
 4522.00    1.33529   1.38848   -1.000
 4523.00    1.33345   1.38025   -1.000
 4524.00    1.30895   1.36908   -1.000
 4525.00    1.30238   1.35566   -1.000
 4526.00    1.29716   1.34163   -1.000
 4527.00    1.30090   1.32931   -1.000
 4528.00    1.29626   1.32068  117.849
 4529.00    1.30420   1.31651  115.690
 4530.00    1.31022   1.31549  115.072
 4531.00    1.29417   1.31567  118.192
 4532.00    1.31589   1.31613  122.221
 4533.00    1.32069   1.31851  120.808
 4534.00    1.29384   1.32584   -1.000
 4535.00    1.28298   1.34020   -1.000
 4536.00    1.30724   1.36056   -1.000
 4537.00    1.34400   1.38235   -1.000
 4538.00    1.36722   1.40046   -1.000
 4539.00    1.35412   1.41163   -1.000
 4540.00    1.33651   1.41603   -1.000
 4541.00    1.39381   1.41569  106.506
 4542.00    1.11277   1.41298   -1.000
 4543.00    0.10515   1.40921   -1.000
 4544.00   -0.04566   1.40435    0.000
 4545.00    0.25842   1.39756   -1.000
 4546.00    0.96596   1.38853   -1.000
 4547.00    0.33375   1.37867   -1.000
 4548.00    1.16950   1.37060   -1.000
 4549.00    1.28450   1.36624   -1.000
 4550.00    1.29841   1.36572   -1.000
 4551.00    1.33702   1.36778   -1.000
 4552.00    1.34186   1.37095   -1.000
 4553.00    1.29570   1.37461   -1.000
 4554.00    1.30393   1.37983   -1.000
 4555.00    1.31576   1.38851   -1.000
 4556.00    1.33529   1.40166   -1.000
 4557.00    1.36228   1.41805   -1.000
 4558.00    1.37812   1.43461   -1.000
 4559.00    1.38570   1.44772   -1.000
 4560.00    1.37894   1.45456   -1.000
 4561.00    1.38658   1.45466   -1.000
 4562.00    1.38565   1.44977   -1.000
 4563.00    1.36284   1.44327   -1.000
 4564.00    1.36085   1.43886   -1.000
 4565.00    1.38622   1.43881   -1.000
 4566.00    1.39701   1.44275   -1.000
 4567.00    1.40123   1.44797   -1.000
 4568.00    1.39987   1.45095   -1.000
 4569.00    1.39941   1.45007   -1.000
 4570.00    1.37287   1.44651   -1.000
 4571.00    1.33297   1.44363   -1.000
 4572.00    1.35131   1.44401   -1.000
 4573.00    1.36619   1.44808   -1.000
 4574.00    1.38474   1.45401   -1.000
 4575.00    1.41077   1.45864   -1.000
 4576.00    1.40270   1.45884   -1.000
 4577.00    1.38800   1.45313   -1.000
 4578.00    1.38270   1.44249   -1.000
 4579.00    1.37164   1.42926   -1.000
 4580.00    1.34418   1.41636   -1.000
 4581.00    1.35787   1.40638   -1.000
 4582.00    1.36239   1.40118   -1.000
 4583.00    1.34176   1.40118   -1.000
 4584.00    1.36046   1.40592   -1.000
 4585.00    1.36263   1.41402   -1.000
 4586.00    1.36000   1.42392   -1.000
 4587.00    1.40989   1.43362  102.941
 4588.00    1.42561   1.44127  104.437
 4589.00    1.41058   1.44551   -1.000
 4590.00    1.39306   1.44635   -1.000
 4591.00    1.37984   1.44524   -1.000
 4592.00    1.37370   1.44423   -1.000
 4593.00    1.36346   1.44504   -1.000
 4594.00    1.37968   1.44827   -1.000
 4595.00    1.39432   1.45320   -1.000
 4596.00    1.38823   1.45813   -1.000
 4597.00    1.38272   1.46134   -1.000
 4598.00    1.39837   1.46206   -1.000
 4599.00    1.40258   1.46059   -1.000
 4600.00    1.41703   1.45816   -1.000
 4601.00    1.39360   1.45619   -1.000
 4602.00    1.38510   1.45608   -1.000
 4603.00    1.38633   1.45851   -1.000
 4604.00    1.40765   1.46367   -1.000
 4605.00    1.39889   1.47115   -1.000
 4606.00    1.41314   1.48017   -1.000
 4607.00    1.40059   1.48957   -1.000
 4608.00    1.43965   1.49763   -1.000
 4609.00    1.43479   1.50300   -1.000
 4610.00    1.45255   1.50514   -1.000
 4611.00    1.43690   1.50445   -1.000
 4612.00    1.42485   1.50214   -1.000
 4613.00    1.41208   1.49919   -1.000
 4614.00    1.42508   1.49650   -1.000
 4615.00    1.43330   1.49396   -1.000
 4616.00    1.44014   1.49171   -1.000
 4617.00    1.42527   1.49036   -1.000
 4618.00    1.41629   1.49101   -1.000
 4619.00    1.43622   1.49452   -1.000
 4620.00    1.44128   1.50048   -1.000
 4621.00    1.43690   1.50747   -1.000
 4622.00    1.45134   1.51367   -1.000
 4623.00    1.43682   1.51757   -1.000
 4624.00    1.42130   1.51867   -1.000
 4625.00    1.41765   1.51743   -1.000
 4626.00    1.41204   1.51507   -1.000
 4627.00    1.41869   1.51287   -1.000
 4628.00    1.40694   1.51169   -1.000
 4629.00    1.39518   1.51207   -1.000
 4630.00    1.42594   1.51331   -1.000
 4631.00    1.44748   1.51426   -1.000
 4632.00    1.44884   1.51398   -1.000
 4633.00    1.43892   1.51218   -1.000
 4634.00    1.44117   1.50916   -1.000
 4635.00    1.44864   1.50594   -1.000
 4636.00    1.45353   1.50400   -1.000
 4637.00    1.45835   1.50451   -1.000
 4638.00    1.41188   1.50783   -1.000
 4639.00    1.41440   1.51349   -1.000
 4640.00    1.45135   1.52024   -1.000
 4641.00    1.45487   1.52574   -1.000
 4642.00    1.44748   1.52768   -1.000
 4643.00    1.45626   1.52443   -1.000
 4644.00    1.46148   1.51613   -1.000
 4645.00    1.46649   1.50527   -1.000
 4646.00    1.44347   1.49566   -1.000
 4647.00    1.43360   1.49074   -1.000
 4648.00    1.43708   1.49172   -1.000
 4649.00    1.42652   1.49735   -1.000
 4650.00    1.46261   1.50496   -1.000
 4651.00    1.47313   1.51115   -1.000
 4652.00    1.45929   1.51404   -1.000
 4653.00    1.47109   1.51408   -1.000
 4654.00    1.43778   1.51382   -1.000
 4655.00    1.42599   1.51647   -1.000
 4656.00    1.42571   1.52408   -1.000
 4657.00    1.43025   1.53612   -1.000
 4658.00    1.47293   1.54982   -1.000
 4659.00    1.48680   1.56117   -1.000
 4660.00    1.50266   1.56664   -1.000
 4661.00    1.47049   1.56457   -1.000
 4662.00    1.45002   1.55516   -1.000
 4663.00    1.45831   1.54007   -1.000
 4664.00    1.46323   1.52151   -1.000
 4665.00    1.45946   1.50234   -1.000
 4666.00    1.45103   1.48614   -1.000
 4667.00    1.42207   1.47638   -1.000
 4668.00    1.39916   1.47536   -1.000
 4669.00    1.40514   1.48303   -1.000
 4670.00    1.43089   1.49702   -1.000
 4671.00    1.46588   1.51350   -1.000
 4672.00    1.48605   1.52892   -1.000
 4673.00    1.47402   1.54126   -1.000
 4674.00    1.48694   1.54921   -1.000
 4675.00    1.48381   1.55235   -1.000
 4676.00    1.48324   1.55049   -1.000
 4677.00    1.48865   1.54432   -1.000
 4678.00    1.48356   1.53549   -1.000
 4679.00    1.45309   1.52624   -1.000
 4680.00    1.42867   1.51933   -1.000
 4681.00    1.41691   1.51640   -1.000
 4682.00    1.45248   1.51754   -1.000
 4683.00    1.49397   1.52150   -1.000
 4684.00    1.49147   1.52669   -1.000
 4685.00    1.49217   1.53192   -1.000
 4686.00    1.49953   1.53636   -1.000
 4687.00    1.49187   1.53982   -1.000
 4688.00    1.49574   1.54229   -1.000
 4689.00    1.49200   1.54418   -1.000
 4690.00    1.48708   1.54612   -1.000
 4691.00    1.48111   1.54853   -1.000
 4692.00    1.48316   1.55157   -1.000
 4693.00    1.47942   1.55485   -1.000
 4694.00    1.51033   1.55730   -1.000
 4695.00    1.51608   1.55734   -1.000
 4696.00    1.52509   1.55389   -1.000
 4697.00    1.53843   1.54666  104.282
 4698.00    1.51404   1.53660  103.362
 4699.00    1.49250   1.52508   -1.000
 4700.00    1.47713   1.51401   -1.000
 4701.00    1.47674   1.50559   -1.000
 4702.00    1.48761   1.50110  104.469
 4703.00    1.46172   1.50042   -1.000
 4704.00    1.45000   1.50213   -1.000
 4705.00    1.47301   1.50460   -1.000
 4706.00    1.48020   1.50693   -1.000
 4707.00    1.48414   1.50924  106.995
 4708.00    1.47254   1.51245   -1.000
 4709.00    1.46536   1.51783   -1.000
 4710.00    1.49558   1.52523   -1.000
 4711.00    1.50229   1.53328   -1.000
 4712.00    1.49448   1.54053   -1.000
 4713.00    1.49999   1.54655   -1.000
 4714.00    1.48045   1.55237   -1.000
 4715.00    1.46233   1.55896   -1.000
 4716.00    1.48861   1.56691   -1.000
 4717.00    1.51152   1.57559   -1.000
 4718.00    1.50690   1.58362   -1.000
 4719.00    1.53413   1.58984   -1.000
 4720.00    1.53237   1.59386   -1.000
 4721.00    1.50763   1.59621   -1.000
 4722.00    1.49364   1.59723   -1.000
 4723.00    1.48381   1.59661   -1.000
 4724.00    1.51707   1.59330   -1.000
 4725.00    1.52583   1.58655   -1.000
 4726.00    1.50561   1.57673   -1.000
 4727.00    1.48888   1.56553   -1.000
 4728.00    1.45852   1.55526   -1.000
 4729.00    1.47791   1.54828   -1.000
 4730.00    1.48438   1.54584   -1.000
 4731.00    1.49493   1.54754   -1.000
 4732.00    1.50517   1.55172   -1.000
 4733.00    1.48696   1.55643   -1.000
 4734.00    1.50866   1.56039   -1.000
 4735.00    1.51120   1.56335   -1.000
 4736.00    1.49966   1.56584   -1.000
 4737.00    1.50768   1.56867   -1.000
 4738.00    1.48283   1.57232   -1.000
 4739.00    1.50425   1.57687   -1.000
 4740.00    1.51632   1.58201   -1.000
 4741.00    1.51556   1.58736   -1.000
 4742.00    1.53534   1.59261   -1.000
 4743.00    1.52320   1.59765   -1.000
 4744.00    1.51492   1.60272   -1.000
 4745.00    1.51863   1.60806   -1.000
 4746.00    1.52916   1.61366   -1.000
 4747.00    1.55174   1.61952   -1.000
 4748.00    1.53456   1.62509   -1.000
 4749.00    1.49998   1.62930   -1.000
 4750.00    1.53465   1.63091   -1.000
 4751.00    1.52944   1.62912   -1.000
 4752.00    1.52188   1.62449   -1.000
 4753.00    1.52000   1.61857   -1.000
 4754.00    1.51861   1.61348   -1.000
 4755.00    1.49328   1.61098   -1.000
 4756.00    1.51172   1.61169   -1.000
 4757.00    1.51072   1.61461   -1.000
 4758.00    1.48904   1.61734   -1.000
 4759.00    1.48370   1.61719   -1.000
 4760.00    1.49857   1.61237   -1.000
 4761.00    1.50253   1.60323   -1.000
 4762.00    1.46761   1.59175   -1.000
 4763.00    1.46043   1.58116   -1.000
 4764.00    1.47987   1.57470   -1.000
 4765.00    1.48594   1.57447   -1.000
 4766.00    1.48812   1.58067   -1.000
 4767.00    1.51263   1.59146   -1.000
 4768.00    1.53027   1.60391   -1.000
 4769.00    1.52335   1.61542   -1.000
 4770.00    1.51871   1.62457   -1.000
 4771.00    1.51307   1.63156   -1.000
 4772.00    1.52467   1.63752   -1.000
 4773.00    1.51155   1.64352   -1.000
 4774.00    1.51935   1.64976   -1.000
 4775.00    1.54292   1.65518   -1.000
 4776.00    1.53217   1.65844   -1.000
 4777.00    1.52407   1.65873   -1.000
 4778.00    1.52144   1.65636   -1.000
 4779.00    1.53174   1.65231   -1.000
 4780.00    1.54346   1.64756   -1.000
 4781.00    1.53222   1.64274   -1.000
 4782.00    1.53987   1.63796   -1.000
 4783.00    1.55900   1.63328   -1.000
 4784.00    1.53635   1.62894   -1.000
 4785.00    1.52494   1.62555   -1.000
 4786.00    1.53991   1.62393   -1.000
 4787.00    1.51047   1.62480   -1.000
 4788.00    1.50763   1.62865   -1.000
 4789.00    1.50540   1.63568   -1.000
 4790.00    1.53351   1.64569   -1.000
 4791.00    1.56096   1.65791   -1.000
 4792.00    1.55690   1.67101   -1.000
 4793.00    1.55004   1.68308   -1.000
 4794.00    1.57417   1.69213   -1.000
 4795.00    1.57620   1.69668   -1.000
 4796.00    1.55900   1.69651   -1.000
 4797.00    1.55937   1.69300   -1.000
 4798.00    1.53752   1.68862   -1.000
 4799.00    1.54045   1.68564   -1.000
 4800.00    1.53636   1.68519   -1.000
 4801.00    1.56453   1.68668   -1.000
 4802.00    1.58664   1.68846   -1.000
 4803.00    1.56551   1.68906   -1.000
 4804.00    1.55223   1.68791   -1.000
 4805.00    1.53450   1.68567   -1.000
 4806.00    1.52821   1.68375   -1.000
 4807.00    1.55490   1.68330   -1.000
 4808.00    1.58241   1.68465   -1.000
 4809.00    1.54805   1.68754   -1.000
 4810.00    1.52788   1.69145   -1.000
 4811.00    1.55695   1.69609   -1.000
 4812.00    1.57118   1.70149   -1.000
 4813.00    1.57494   1.70764   -1.000
 4814.00    1.56742   1.71430   -1.000
 4815.00    1.56716   1.72085   -1.000
 4816.00    1.58523   1.72642   -1.000
 4817.00    1.57728   1.73008   -1.000
 4818.00    1.57102   1.73084   -1.000
 4819.00    1.57951   1.72784   -1.000
 4820.00    1.57841   1.72066   -1.000
 4821.00    1.56541   1.71004   -1.000
 4822.00    1.54509   1.69825   -1.000
 4823.00    1.54381   1.68823   -1.000
 4824.00    1.52998   1.68239   -1.000
 4825.00    1.53324   1.68151   -1.000
 4826.00    1.56701   1.68427   -1.000
 4827.00    1.56280   1.68808   -1.000
 4828.00    1.55697   1.69038   -1.000
 4829.00    1.57450   1.68996   -1.000
 4830.00    1.59091   1.68738   -1.000
 4831.00    1.55290   1.68418   -1.000
 4832.00    1.55456   1.68192   -1.000
 4833.00    1.56870   1.68138   -1.000
 4834.00    1.58676   1.68217   -1.000
 4835.00    1.55329   1.68314   -1.000
 4836.00    1.56488   1.68276   -1.000
 4837.00    1.57477   1.67994   -1.000
 4838.00    1.54345   1.67478   -1.000
 4839.00    1.57612   1.66847   -1.000
 4840.00    1.55708   1.66267   -1.000
 4841.00    1.54247   1.65891   -1.000
 4842.00    1.54331   1.65791   -1.000
 4843.00    1.56562   1.65921   -1.000
 4844.00    1.57141   1.66132   -1.000
 4845.00    1.54156   1.66260   -1.000
 4846.00    1.55468   1.66188   -1.000
 4847.00    1.53686   1.65897   -1.000
 4848.00    1.53621   1.65439   -1.000
 4849.00    1.53798   1.64849   -1.000
 4850.00    1.53699   1.64062   -1.000
 4851.00    1.52114   1.62919   -1.000
 4852.00    1.52749   1.61237   -1.000
 4853.00    1.52490   1.58906   -1.000
 4854.00    1.49236   1.55931   -1.000
 4855.00    1.43327   1.52307   -1.000
 4856.00    1.41661   1.47953   -1.000
 4857.00    1.43477   1.42784  118.941
 4858.00    1.39015   1.36968  132.864
 4859.00    1.27892   1.31180   -1.000
 4860.00    1.13602   1.26524   -1.000
 4861.00    1.05293   1.24179   -1.000
 4862.00    1.09445   1.24841   -1.000
 4863.00    1.20840   1.28387   -1.000
 4864.00    1.31186   1.33892   -1.000
 4865.00    1.38439   1.40051  103.986
 4866.00    1.43818   1.45674  103.629
 4867.00    1.46320   1.49989   -1.000
 4868.00    1.46988   1.52773   -1.000
 4869.00    1.46762   1.54258   -1.000
 4870.00    1.46122   1.54949   -1.000
 4871.00    1.44290   1.55449   -1.000
 4872.00    1.42568   1.56226   -1.000
 4873.00    1.46893   1.57482   -1.000
 4874.00    1.51159   1.59129   -1.000
 4875.00    1.51258   1.60938   -1.000
 4876.00    1.50003   1.62711   -1.000
 4877.00    1.50197   1.64342   -1.000
 4878.00    1.50952   1.65793   -1.000
 4879.00    1.51847   1.67015   -1.000
 4880.00    1.51871   1.67906   -1.000
 4881.00    1.53291   1.68360   -1.000
 4882.00    1.52357   1.68356   -1.000
 4883.00    1.54669   1.67987   -1.000
 4884.00    1.53298   1.67409   -1.000
 4885.00    1.51705   1.66749   -1.000
 4886.00    1.51726   1.66068   -1.000
 4887.00    1.54420   1.65384   -1.000
 4888.00    1.54317   1.64772   -1.000
 4889.00    1.55641   1.64449   -1.000
 4890.00    1.52256   1.64740   -1.000
 4891.00    1.49691   1.65914   -1.000
 4892.00    1.52459   1.68038   -1.000
 4893.00    1.57293   1.70836   -1.000
 4894.00    1.61137   1.73778   -1.000
 4895.00    1.62479   1.76270   -1.000
 4896.00    1.60962   1.77919   -1.000
 4897.00    1.61478   1.78627   -1.000
 4898.00    1.62587   1.78555   -1.000
 4899.00    1.61593   1.78016   -1.000
 4900.00    1.59749   1.77299   -1.000
 4901.00    1.60364   1.76663   -1.000
 4902.00    1.60333   1.76279   -1.000
 4903.00    1.60239   1.76228   -1.000
 4904.00    1.61953   1.76466   -1.000
 4905.00    1.64886   1.76792   -1.000
 4906.00    1.65290   1.76916   -1.000
 4907.00    1.64397   1.76603   -1.000
 4908.00    1.65295   1.75849   -1.000
 4909.00    1.62942   1.74888   -1.000
 4910.00    1.58954   1.74109   -1.000
 4911.00    1.58235   1.73870   -1.000
 4912.00    1.61875   1.74245   -1.000
 4913.00    1.64122   1.74964   -1.000
 4914.00    1.64121   1.75495   -1.000
 4915.00    1.65217   1.75276   -1.000
 4916.00    1.65681   1.73953   -1.000
 4917.00    1.63361   1.71596   -1.000
 4918.00    1.59642   1.68696   -1.000
 4919.00    1.56518   1.65992   -1.000
 4920.00    1.52575   1.64153   -1.000
 4921.00    1.53452   1.63570   -1.000
 4922.00    1.57974   1.64242   -1.000
 4923.00    1.61110   1.65900   -1.000
 4924.00    1.59372   1.68189   -1.000
 4925.00    1.61984   1.70779   -1.000
 4926.00    1.63359   1.73401   -1.000
 4927.00    1.64910   1.75778   -1.000
 4928.00    1.67259   1.77627   -1.000
 4929.00    1.66331   1.78680   -1.000
 4930.00    1.67049   1.78808   -1.000
 4931.00    1.66504   1.78092   -1.000
 4932.00    1.65343   1.76820   -1.000
 4933.00    1.61368   1.75365   -1.000
 4934.00    1.59545   1.74030   -1.000
 4935.00    1.60281   1.72978   -1.000
 4936.00    1.64663   1.72238   -1.000
 4937.00    1.64492   1.71864   -1.000
 4938.00    1.61389   1.71979   -1.000
 4939.00    1.59314   1.72732   -1.000
 4940.00    1.62153   1.74132   -1.000
 4941.00    1.66157   1.75961   -1.000
 4942.00    1.66638   1.77842   -1.000
 4943.00    1.68162   1.79401   -1.000
 4944.00    1.69626   1.80479   -1.000
 4945.00    1.67293   1.81153   -1.000
 4946.00    1.66976   1.81627   -1.000
 4947.00    1.67979   1.82082   -1.000
 4948.00    1.67741   1.82549   -1.000
 4949.00    1.69370   1.82930   -1.000
 4950.00    1.68950   1.83071   -1.000
 4951.00    1.70388   1.82833   -1.000
 4952.00    1.70099   1.82087   -1.000
 4953.00    1.69451   1.80748   -1.000
 4954.00    1.69815   1.78851   -1.000
 4955.00    1.67987   1.76641   -1.000
 4956.00    1.64150   1.74617   -1.000
 4957.00    1.60023   1.73387   -1.000
 4958.00    1.59689   1.73391   -1.000
 4959.00    1.61729   1.74618   -1.000
 4960.00    1.65494   1.76588   -1.000
 4961.00    1.69243   1.78590   -1.000
 4962.00    1.69330   1.80007   -1.000
 4963.00    1.69743   1.80561   -1.000
 4964.00    1.69564   1.80327   -1.000
 4965.00    1.67900   1.79621   -1.000
 4966.00    1.66436   1.78826   -1.000
 4967.00    1.65552   1.78246   -1.000
 4968.00    1.67840   1.78066   -1.000
 4969.00    1.68841   1.78343   -1.000
 4970.00    1.67112   1.79025   -1.000
 4971.00    1.67148   1.79965   -1.000
 4972.00    1.67302   1.80968   -1.000
 4973.00    1.67725   1.81822   -1.000
 4974.00    1.69533   1.82344   -1.000
 4975.00    1.69819   1.82404   -1.000
 4976.00    1.69002   1.81935   -1.000
 4977.00    1.68406   1.80909   -1.000
 4978.00    1.69900   1.79324   -1.000
 4979.00    1.68022   1.77232   -1.000
 4980.00    1.66781   1.74796   -1.000
 4981.00    1.65663   1.72354   -1.000
 4982.00    1.61399   1.70389   -1.000
 4983.00    1.61957   1.69388   -1.000
 4984.00    1.63167   1.69613   -1.000
 4985.00    1.63410   1.70941   -1.000
 4986.00    1.65302   1.72900   -1.000
 4987.00    1.67250   1.74871   -1.000
 4988.00    1.67831   1.76361   -1.000
 4989.00    1.68873   1.77180   -1.000
 4990.00    1.68167   1.77462   -1.000
 4991.00    1.68657   1.77516   -1.000
 4992.00    1.68414   1.77626   -1.000
 4993.00    1.67571   1.77917   -1.000
 4994.00    1.67492   1.78319   -1.000
 4995.00    1.68880   1.78632   -1.000
 4996.00    1.70425   1.78622   -1.000
 4997.00    1.69757   1.78140   -1.000
 4998.00    1.69000   1.77199   -1.000
 4999.00    1.68568   1.75977   -1.000
 5000.00    1.66727   1.74740   -1.000
 5001.00    1.66217   1.73698   -1.000
 5002.00    1.68365   1.72920   -1.000
 5003.00    1.68691   1.72350   -1.000
 5004.00    1.68105   1.71929   -1.000
 5005.00    1.66612   1.71707   -1.000
 5006.00    1.65192   1.71812   -1.000
 5007.00    1.67476   1.72292   -1.000
 5008.00    1.69886   1.72959   -1.000
 5009.00    1.71387   1.73432  107.631
 5010.00    1.71361   1.73340  111.540
 5011.00    1.69250   1.72557   -1.000
 5012.00    1.67118   1.71290   -1.000
 5013.00    1.64358   1.69954   -1.000
 5014.00    1.63106   1.68952   -1.000
 5015.00    1.64298   1.68494   -1.000
 5016.00    1.67363   1.68578  107.781
 5017.00    1.67660   1.69092  106.556
 5018.00    1.69045   1.69911  105.848
 5019.00    1.69082   1.70933  106.331
 5020.00    1.67822   1.72072   -1.000
 5021.00    1.69338   1.73239   -1.000
 5022.00    1.70125   1.74369   -1.000
 5023.00    1.69798   1.75413   -1.000
 5024.00    1.70899   1.76318   -1.000
 5025.00    1.71354   1.77048   -1.000
 5026.00    1.70272   1.77625   -1.000
 5027.00    1.70541   1.78156   -1.000
 5028.00    1.71903   1.78784   -1.000
 5029.00    1.73155   1.79587   -1.000
 5030.00    1.74661   1.80501   -1.000
 5031.00    1.73541   1.81323   -1.000
 5032.00    1.74358   1.81763   -1.000
 5033.00    1.74975   1.81585   -1.000
 5034.00    1.72630   1.80701   -1.000
 5035.00    1.72448   1.79193   -1.000
 5036.00    1.71541   1.77250   -1.000
 5037.00    1.71268   1.75092   -1.000
 5038.00    1.70573   1.72968  117.796
 5039.00    1.68109   1.71232   -1.000
 5040.00    1.62332   1.70341   -1.000
 5041.00    1.60513   1.70703   -1.000
 5042.00    1.65044   1.72428   -1.000
 5043.00    1.64401   1.75171   -1.000
 5044.00    0.59947   1.78209   -1.000
 5045.00   -0.06576   1.80739    0.000
 5046.00    0.02205   1.82176   -1.000
 5047.00    0.46536   1.82363   -1.000
 5048.00    1.37601   1.81589   -1.000
 5049.00    1.77721   1.80438   -1.000
 5050.00    1.68983   1.79547   -1.000
 5051.00    1.70309   1.79363   -1.000
 5052.00    1.73318   1.80019   -1.000
 5053.00    1.76276   1.81339   -1.000
 5054.00    1.78553   1.82982   -1.000
 5055.00    1.77816   1.84613   -1.000
 5056.00    1.78488   1.86021   -1.000
 5057.00    1.80242   1.87123   -1.000
 5058.00    1.78283   1.87894   -1.000
 5059.00    1.78056   1.88293   -1.000
 5060.00    1.78967   1.88260   -1.000
 5061.00    1.78516   1.87724   -1.000
 5062.00    1.79330   1.86692   -1.000
 5063.00    1.77159   1.85303   -1.000
 5064.00    1.73906   1.83831   -1.000
 5065.00    1.72060   1.82584   -1.000
 5066.00    1.74491   1.81769   -1.000
 5067.00    1.77161   1.81410   -1.000
 5068.00    1.79153   1.81375  102.099
 5069.00    1.79190   1.81481  102.979
 5070.00    1.77690   1.81573   -1.000
 5071.00    1.77931   1.81603   -1.000
 5072.00    1.77761   1.81595   -1.000
 5073.00    1.77973   1.81588   -1.000
 5074.00    1.78269   1.81544   -1.000
 5075.00    1.77529   1.81321   -1.000
 5076.00    1.77191   1.80744   -1.000
 5077.00    1.78611   1.79745  111.367
 5078.00    1.75265   1.78468   -1.000
 5079.00    1.71858   1.77247   -1.000
 5080.00    1.70773   1.76474   -1.000
 5081.00    1.72114   1.76424   -1.000
 5082.00    1.75860   1.77146  103.781
 5083.00    1.75873   1.78487  102.159
 5084.00    1.77176   1.80192   -1.000
 5085.00    1.79226   1.81988   -1.000
 5086.00    1.80371   1.83658   -1.000
 5087.00    1.81899   1.85086   -1.000
 5088.00    1.83164   1.86250   -1.000
 5089.00    1.83704   1.87197   -1.000
 5090.00    1.82531   1.87970   -1.000
 5091.00    1.88629   1.88554   97.216
 5092.00    1.88234   1.88845   98.341
 5093.00    1.81592   1.88678   -1.000
 5094.00    1.82293   1.87917   -1.000
 5095.00    1.82050   1.86576   -1.000
 5096.00    1.81609   1.84891   -1.000
 5097.00    1.81025   1.83273  106.847
 5098.00    1.78448   1.82157   -1.000
 5099.00    1.76769   1.81814   -1.000
 5100.00    1.76224   1.82224   -1.000
 5101.00    1.79433   1.83083   -1.000
 5102.00    1.83382   1.83948  102.862
 5103.00    1.82966   1.84429  104.155
 5104.00    1.80448   1.84336   -1.000
 5105.00    1.79548   1.83734   -1.000
 5106.00    1.78882   1.82883   -1.000
 5107.00    1.77257   1.82128   -1.000
 5108.00    1.77405   1.81786   -1.000
 5109.00    1.78168   1.82040   -1.000
 5110.00    1.79948   1.82906   -1.000
 5111.00    1.82546   1.84245  100.685
 5112.00    1.84424   1.85835   99.848
 5113.00    1.83110   1.87446   -1.000
 5114.00    1.82580   1.88894   -1.000
 5115.00    1.84117   1.90054   -1.000
 5116.00    1.83942   1.90835   -1.000
 5117.00    1.85144   1.91156   -1.000
 5118.00    1.87100   1.90955   -1.000
 5119.00    1.85884   1.90212   -1.000
 5120.00    1.83537   1.88980   -1.000
 5121.00    1.82333   1.87395   -1.000
 5122.00    1.82150   1.85660   -1.000
 5123.00    1.82109   1.84009  107.761
 5124.00    1.80310   1.82645  107.235
 5125.00    1.80998   1.81698  106.719
 5126.00    1.81285   1.81203  106.865
 5127.00    1.82018   1.81120  106.539
 5128.00    1.78858   1.81386  105.023
 5129.00    1.79044   1.81936   -1.000
 5130.00    1.80382   1.82703  102.542
 5131.00    1.82645   1.83595  101.569
 5132.00    1.84087   1.84480  100.783
 5133.00    1.84008   1.85201  100.894
 5134.00    1.85752   1.85600  102.913
 5135.00    1.85637   1.85570  105.307
 5136.00    1.82199   1.85097   -1.000
 5137.00    1.80882   1.84292   -1.000
 5138.00    1.80883   1.83367  105.875
 5139.00    1.80163   1.82556  106.901
 5140.00    1.79558   1.82027  108.281
 5141.00    1.78677   1.81835   -1.000
 5142.00    1.78707   1.81931   -1.000
 5143.00    1.80842   1.82202  105.654
 5144.00    1.84283   1.82519  106.578
 5145.00    1.85413   1.82788  106.531
 5146.00    1.86301   1.82966   -1.000
 5147.00    1.85699   1.83054  105.045
 5148.00    1.84413   1.83063  106.542
 5149.00    1.83496   1.82988  108.302
 5150.00    1.83841   1.82841  108.736
 5151.00    1.82070   1.82710  107.856
 5152.00    1.82113   1.82771  105.604
 5153.00    1.82426   1.83239  102.887
 5154.00    1.84643   1.84247  100.395
 5155.00    1.87481   1.85760   98.748
 5156.00    1.91249   1.87561   -1.000
 5157.00    1.90474   1.89316   98.271
 5158.00    1.89953   1.90671   98.658
 5159.00    1.89489   1.91341   99.334
 5160.00    1.90287   1.91124  100.558
 5161.00    1.89000   1.89871  102.541
 5162.00    1.90844   1.87458   -1.000
 5163.00    1.89753   1.83835   -1.000
 5164.00    1.86673   1.79150   -1.000
 5165.00    1.81157   1.73887   -1.000
 5166.00    1.73511   1.68800   -1.000
 5167.00    1.68252   1.64675   -1.000
 5168.00    1.66641   1.61964   -1.000
 5169.00    1.72293   1.60658   -1.000
 5170.00    1.76257   1.60484   -1.000
 5171.00    1.75241   1.61282   -1.000
 5172.00    1.69423   1.63170   -1.000
 5173.00    1.70168   1.66338   -1.000
 5174.00    1.78635   1.70667   -1.000
 5175.00    1.86544   1.75533   -1.000
 5176.00    1.90950   1.79966   -1.000
 5177.00    1.92511   1.83004   -1.000
 5178.00    1.93744   1.83996   -1.000
 5179.00    1.93231   1.82758   -1.000
 5180.00    1.91626   1.79633   -1.000
 5181.00    1.88774   1.75487   -1.000
 5182.00    1.81119   1.71566   -1.000
 5183.00    1.71069   1.69126  116.306
 5184.00    1.69600   1.68941  107.664
 5185.00    1.78264   1.70978   -1.000
 5186.00    1.86245   1.74433   -1.000
 5187.00    1.91531   1.78167   -1.000
 5188.00    1.90739   1.81209   -1.000
 5189.00    1.87964   1.83079   -1.000
 5190.00    1.88216   1.83806   -1.000
 5191.00    1.85834   1.83771  110.180
 5192.00    1.83303   1.83475  108.286
 5193.00    1.81612   1.83362  106.704
 5194.00    1.82210   1.83708  105.028
 5195.00    1.86658   1.84594  102.946
 5196.00    1.89786   1.85938   -1.000
 5197.00    1.90892   1.87536   -1.000
 5198.00    1.89905   1.89090  100.867
 5199.00    1.91645   1.90236  101.930
 5200.00    1.93455   1.90624  103.929
 5201.00    1.92257   1.90028  106.511
 5202.00    1.91852   1.88444   -1.000
 5203.00    1.91159   1.86131   -1.000
 5204.00    1.88059   1.83545   -1.000
 5205.00    1.82479   1.81224  113.620
 5206.00    1.82868   1.79641   -1.000
 5207.00    1.85196   1.79119   -1.000
 5208.00    1.85873   1.79783   -1.000
 5209.00    1.85394   1.81547   -1.000
 5210.00    1.87983   1.84106   -1.000
 5211.00    1.92511   1.86971   -1.000
 5212.00    1.94733   1.89573   -1.000
 5213.00    1.95339   1.91476   -1.000
 5214.00    1.95301   1.92557  102.820
 5215.00    1.92945   1.93067  101.571
 5216.00    1.90339   1.93476   -1.000
 5217.00    1.90456   1.94190   -1.000
 5218.00    1.94921   1.95319   97.484
 5219.00    1.97824   1.96603   97.452
 5220.00    1.98957   1.97543   99.158
 5221.00    2.00942   1.97613   -1.000
 5222.00    2.01730   1.96490   -1.000
 5223.00    2.00284   1.94208   -1.000
 5224.00    1.97399   1.91222   -1.000
 5225.00    1.90951   1.88300  109.801
 5226.00    1.83964   1.86260  103.851
 5227.00    1.84780   1.85624  100.203
 5228.00    1.89591   1.86365   98.883
 5229.00    1.93543   1.87952   -1.000
 5230.00    1.96844   1.89659   -1.000
 5231.00    1.96332   1.90964   -1.000
 5232.00    1.94396   1.91791  101.897
 5233.00    1.94198   1.92443   99.429
 5234.00    1.94142   1.93336   97.324
 5235.00    1.95026   1.94709   96.514
 5236.00    1.99330   1.96489   96.562
 5237.00    2.00369   1.98379   96.785
 5238.00    1.99917   2.00038   96.498
 5239.00    2.00397   2.01257   96.063
 5240.00    2.01450   2.02008   96.175
 5241.00    2.00830   2.02379   95.965
 5242.00    2.00171   2.02464   96.268
 5243.00    2.00370   2.02284   98.562
 5244.00    1.99123   2.01787  101.545
 5245.00    2.00592   2.00926  103.395
 5246.00    1.98403   1.99753  103.528
 5247.00    1.96401   1.98446  103.828
 5248.00    1.96459   1.97256  104.263
 5249.00    1.95794   1.96399  103.486
 5250.00    1.94553   1.95984  102.091
 5251.00    1.93920   1.96006  101.336
 5252.00    1.96129   1.96399  101.239
 5253.00    1.98517   1.97098  100.088
 5254.00    1.99353   1.98053   97.574
 5255.00    2.00044   1.99187   95.322
 5256.00    2.01298   2.00305   94.969
 5257.00    2.03700   2.01065   96.337
 5258.00    2.05186   2.01043   -1.000
 5259.00    2.04588   1.99895   -1.000
 5260.00    2.02350   1.97525   -1.000
 5261.00    1.98652   1.94170   -1.000
 5262.00    1.95288   1.90347   -1.000
 5263.00    1.91759   1.86679   -1.000
 5264.00    1.89103   1.83678   -1.000
 5265.00    1.88093   1.81575   -1.000
 5266.00    1.89166   1.80316   -1.000
 5267.00    1.90697   1.79708   -1.000
 5268.00    1.89286   1.79625   -1.000
 5269.00    1.85962   1.80121   -1.000
 5270.00    1.85233   1.81324   -1.000
 5271.00    1.89141   1.83263   -1.000
 5272.00    1.92974   1.85759   -1.000
 5273.00    1.95874   1.88518   -1.000
 5274.00    1.98159   1.91289   -1.000
 5275.00    1.99267   1.93934   -1.000
 5276.00    2.00510   1.96358   -1.000
 5277.00    2.02126   1.98383   -1.000
 5278.00    2.07028   1.99757   -1.000
 5279.00    2.08214   2.00290   -1.000
 5280.00    2.05862   2.00042   -1.000
 5281.00    2.03784   1.99386   -1.000
 5282.00    1.95481   1.98885   -1.000
 5283.00    1.87393   1.99058   -1.000
 5284.00    2.00392   2.00146   94.016
 5285.00    2.04096   2.02032   93.723
 5286.00    2.07687   2.04315   94.160
 5287.00    2.10400   2.06524   -1.000
 5288.00    2.08131   2.08294   93.487
 5289.00    2.09005   2.09460   93.491
 5290.00    2.09294   2.10003   94.165
 5291.00    2.07723   2.09965   95.162
 5292.00    2.07270   2.09361   96.767
 5293.00    2.06394   2.08187   99.739
 5294.00    2.06298   2.06485  103.368
 5295.00    2.04756   2.04428  105.227
 5296.00    2.01724   2.02358  103.874
 5297.00    1.99611   2.00700  101.306
 5298.00    1.98995   1.99812   99.772
 5299.00    2.01412   1.99844   99.053
 5300.00    2.05879   2.00702   -1.000
 5301.00    2.04668   2.02131   94.927
 5302.00    2.04291   2.03826   93.606
 5303.00    2.06137   2.05505   93.732
 5304.00    2.08338   2.06966   94.688
 5305.00    2.09848   2.08106   95.139
 5306.00    2.09418   2.08948   94.339
 5307.00    2.08635   2.09607   93.428
 5308.00    2.09372   2.10198   93.027
 5309.00    2.11475   2.10741   93.267
 5310.00    2.11558   2.11133   93.786
 5311.00    2.12174   2.11203   94.253
 5312.00    2.13406   2.10824   95.019
 5313.00    2.12557   2.10013   95.951
 5314.00    2.11673   2.08955   96.587
 5315.00    2.08652   2.07947   96.378
 5316.00    2.06043   2.07270   95.700
 5317.00    2.05383   2.07045   95.506
 5318.00    2.06900   2.07152   95.984
 5319.00    2.09442   2.07272   96.793
 5320.00    2.10096   2.07032   98.105
 5321.00    2.10067   2.06170   -1.000
 5322.00    2.10952   2.04620   -1.000
 5323.00    2.09109   2.02485   -1.000
 5324.00    2.07640   1.99968   -1.000
 5325.00    2.05702   1.97343   -1.000
 5326.00    2.05208   1.94977   -1.000
 5327.00    2.01341   1.93329   -1.000
 5328.00    1.95395   1.92841  101.022
 5329.00    1.96868   1.93725   98.512
 5330.00    2.04265   1.95810   -1.000
 5331.00    2.09030   1.98581   -1.000
 5332.00    2.08930   2.01402   -1.000
 5333.00    2.08492   2.03753   -1.000
 5334.00    2.10073   2.05347   -1.000
 5335.00    2.12404   2.06109   -1.000
 5336.00    2.13463   2.06100   -1.000
 5337.00    2.11982   2.05485   -1.000
 5338.00    2.12066   2.04537   -1.000
 5339.00    2.08422   2.03612   -1.000
 5340.00    2.06871   2.03054   -1.000
 5341.00    2.07139   2.03054   -1.000
 5342.00    2.07781   2.03553   -1.000
 5343.00    2.10524   2.04275   -1.000
 5344.00    2.12543   2.04894   -1.000
 5345.00    2.11606   2.05217   -1.000
 5346.00    2.10438   2.05280   -1.000
 5347.00    2.10063   2.05297   -1.000
 5348.00    2.09455   2.05525   -1.000
 5349.00    2.09918   2.06140   -1.000
 5350.00    2.11418   2.07173   -1.000
 5351.00    2.14464   2.08525   -1.000
 5352.00    2.15382   2.10034   -1.000
 5353.00    2.14006   2.11545   91.969
 5354.00    2.13725   2.12937   91.521
 5355.00    2.14583   2.14116   91.664
 5356.00    2.16889   2.14986   91.859
 5357.00    2.16869   2.15445   92.412
 5358.00    2.16975   2.15404   93.672
 5359.00    2.16354   2.14822   95.220
 5360.00    2.13859   2.13739   96.402
 5361.00    2.12400   2.12285   97.003
 5362.00    2.12232   2.10664   97.568
 5363.00    2.10968   2.09087   97.909
 5364.00    2.10178   2.07699   97.635
 5365.00    2.08685   2.06513   97.931
 5366.00    2.10707   2.05418   -1.000
 5367.00    2.11475   2.04272   -1.000
 5368.00    2.11279   2.03043   -1.000
 5369.00    2.08819   2.01912   -1.000
 5370.00    2.06478   2.01251   -1.000
 5371.00    2.04732   2.01460   95.101
 5372.00    2.08143   2.02729   -1.000
 5373.00    2.13718   2.04895   -1.000
 5374.00    2.14947   2.07481   -1.000
 5375.00    2.16244   2.09899   -1.000
 5376.00    2.19254   2.11688   -1.000
 5377.00    2.19714   2.12648   -1.000
 5378.00    2.18214   2.12840   -1.000
 5379.00    2.15913   2.12489   -1.000
 5380.00    2.14410   2.11889   96.380
 5381.00    2.14288   2.11324   96.171
 5382.00    2.12696   2.11022   95.523
 5383.00    2.13496   2.11101   94.702
 5384.00    2.15246   2.11528   -1.000
 5385.00    2.16358   2.12121   -1.000
 5386.00    2.17789   2.12610   -1.000
 5387.00    2.18761   2.12747   -1.000
 5388.00    2.18926   2.12403   -1.000
 5389.00    2.18423   2.11602   -1.000
 5390.00    2.17647   2.10481   -1.000
 5391.00    2.17773   2.09206   -1.000
 5392.00    2.16110   2.07907   -1.000
 5393.00    2.13026   2.06652   -1.000
 5394.00    2.12588   2.05493   -1.000
 5395.00    2.12635   2.04524   -1.000
 5396.00    2.10256   2.03902   -1.000
 5397.00    2.09248   2.03780   -1.000
 5398.00    2.11867   2.04173   -1.000
 5399.00    2.14102   2.04875   -1.000
 5400.00    2.15255   2.05490   -1.000
 5401.00    2.16042   2.05609   -1.000
 5402.00    2.16824   2.05020   -1.000
 5403.00    2.14496   2.03836   -1.000
 5404.00    2.09170   2.02442   -1.000
 5405.00    2.07727   2.01300   -1.000
 5406.00    2.09666   2.00733   -1.000
 5407.00    2.12170   2.00815   -1.000
 5408.00    2.13991   2.01431   -1.000
 5409.00    2.13737   2.02416   -1.000
 5410.00    2.13009   2.03654   -1.000
 5411.00    2.13430   2.05077   -1.000
 5412.00    2.16693   2.06618   -1.000
 5413.00    2.18219   2.08184   -1.000
 5414.00    2.17580   2.09686   -1.000
 5415.00    2.15620   2.11054   -1.000
 5416.00    2.16400   2.12229   -1.000
 5417.00    2.18331   2.13143   -1.000
 5418.00    2.18506   2.13723   -1.000
 5419.00    2.17665   2.13925   -1.000
 5420.00    2.19093   2.13766   -1.000
 5421.00    2.20483   2.13345   -1.000
 5422.00    2.19381   2.12821   -1.000
 5423.00    2.17926   2.12358   -1.000
 5424.00    2.16222   2.12049   -1.000
 5425.00    2.16920   2.11848   -1.000
 5426.00    2.17452   2.11583   -1.000
 5427.00    2.18270   2.11080   -1.000
 5428.00    2.18265   2.10288   -1.000
 5429.00    2.14644   2.09336   -1.000
 5430.00    2.12649   2.08443   -1.000
 5431.00    2.14179   2.07799   -1.000
 5432.00    2.16931   2.07514   -1.000
 5433.00    2.16914   2.07662   -1.000
 5434.00    2.13182   2.08331   -1.000
 5435.00    2.11796   2.09600   96.412
 5436.00    2.14497   2.11434   94.654
 5437.00    2.18759   2.13625   -1.000
 5438.00    2.22242   2.15817   -1.000
 5439.00    2.23554   2.17620   -1.000
 5440.00    2.23556   2.18712   -1.000
 5441.00    2.23477   2.18898   -1.000
 5442.00    2.22866   2.18131   -1.000
 5443.00    2.20768   2.16548   -1.000
 5444.00    2.19557   2.14500   -1.000
 5445.00    2.15831   2.12514   -1.000
 5446.00    2.11050   2.11146   98.536
 5447.00    2.12333   2.10763   96.410
 5448.00    2.15178   2.11364   -1.000
 5449.00    2.21063   2.12571   -1.000
 5450.00    2.24501   2.13791   -1.000
 5451.00    2.24387   2.14489   -1.000
 5452.00    2.21954   2.14427   -1.000
 5453.00    2.20452   2.13750   -1.000
 5454.00    2.18983   2.12912   -1.000
 5455.00    2.14481   2.12431   97.928
 5456.00    2.14527   2.12625   96.010
 5457.00    2.19385   2.13445   -1.000
 5458.00    2.23996   2.14522   -1.000
 5459.00    2.25815   2.15387   -1.000
 5460.00    2.25376   2.15737   -1.000
 5461.00    2.24716   2.15589   -1.000
 5462.00    2.21955   2.15219   -1.000
 5463.00    2.20341   2.14991   -1.000
 5464.00    2.21768   2.15148   -1.000
 5465.00    2.22836   2.15719   -1.000
 5466.00    2.23148   2.16541   -1.000
 5467.00    2.23909   2.17368   -1.000
 5468.00    2.24701   2.17964   -1.000
 5469.00    2.26466   2.18171   -1.000
 5470.00    2.28515   2.17910   -1.000
 5471.00    2.27954   2.17173   -1.000
 5472.00    2.26875   2.16010   -1.000
 5473.00    2.26100   2.14551   -1.000
 5474.00    2.23853   2.13014   -1.000
 5475.00    2.21381   2.11698   -1.000
 5476.00    2.17930   2.10900   -1.000
 5477.00    2.17503   2.10797   -1.000
 5478.00    2.20514   2.11365   -1.000
 5479.00    2.21325   2.12397   -1.000
 5480.00    2.21311   2.13630   -1.000
 5481.00    2.22199   2.14864   -1.000
 5482.00    2.21239   2.16004   -1.000
 5483.00    2.20294   2.17003   96.648
 5484.00    2.20986   2.17809   97.865
 5485.00    2.21545   2.18361   99.014
 5486.00    2.22102   2.18650   -1.000
 5487.00    2.22666   2.18750   -1.000
 5488.00    2.24412   2.18797   -1.000
 5489.00    2.26250   2.18908   -1.000
 5490.00    2.27288   2.19122   -1.000
 5491.00    2.25398   2.19385   -1.000
 5492.00    2.24854   2.19598   -1.000
 5493.00    2.25938   2.19667   -1.000
 5494.00    2.27503   2.19544   -1.000
 5495.00    2.27036   2.19238   -1.000
 5496.00    2.26037   2.18806   -1.000
 5497.00    2.25407   2.18314   -1.000
 5498.00    2.25277   2.17813   -1.000
 5499.00    2.25394   2.17320   -1.000
 5500.00    2.27378   2.16837   -1.000
 5501.00    2.25894   2.16374   -1.000
 5502.00    2.22689   2.15949   -1.000
 5503.00    2.21936   2.15577   -1.000
 5504.00    2.25371   2.15273   -1.000
 5505.00    2.23623   2.15064   -1.000
 5506.00    2.21284   2.14994   -1.000
 5507.00    2.22428   2.15083   -1.000
 5508.00    2.24927   2.15282   -1.000
 5509.00    2.26018   2.15471   -1.000
 5510.00    2.27208   2.15535   -1.000
 5511.00    2.25940   2.15468   -1.000
 5512.00    2.25027   2.15406   -1.000
 5513.00    2.24418   2.15568   -1.000
 5514.00    2.24377   2.16142   -1.000
 5515.00    2.27492   2.17170   -1.000
 5516.00    2.30842   2.18537   -1.000
 5517.00    2.30886   2.20019   -1.000
 5518.00    2.29682   2.21372   -1.000
 5519.00    2.30791   2.22404   -1.000
 5520.00    2.32031   2.22995   -1.000
 5521.00    2.31400   2.23088   -1.000
 5522.00    2.29860   2.22660   -1.000
 5523.00    2.29029   2.21718   -1.000
 5524.00    2.29686   2.20339   -1.000
 5525.00    2.27680   2.18718   -1.000
 5526.00    2.23447   2.17178   -1.000
 5527.00    2.21567   2.16097   -1.000
 5528.00    2.21415   2.15751   -1.000
 5529.00    2.22687   2.16178   -1.000
 5530.00    2.24760   2.17145   -1.000
 5531.00    2.26570   2.18273   -1.000
 5532.00    2.27236   2.19228   -1.000
 5533.00    2.27429   2.19873   -1.000
 5534.00    2.28145   2.20285   -1.000
 5535.00    2.26657   2.20642   -1.000
 5536.00    2.26176   2.21097   -1.000
 5537.00    2.29088   2.21689   -1.000
 5538.00    2.31179   2.22347   -1.000
 5539.00    2.30579   2.22944   -1.000
 5540.00    2.31684   2.23365   -1.000
 5541.00    2.31893   2.23558   -1.000
 5542.00    2.31149   2.23564   -1.000
 5543.00    2.30259   2.23502   -1.000
 5544.00    2.29885   2.23525   -1.000
 5545.00    2.29145   2.23748   -1.000
 5546.00    2.29105   2.24203   -1.000
 5547.00    2.30462   2.24826   -1.000
 5548.00    2.33824   2.25489   -1.000
 5549.00    2.35021   2.26043   -1.000
 5550.00    2.33903   2.26378   -1.000
 5551.00    2.33604   2.26456   -1.000
 5552.00    2.34240   2.26330   -1.000
 5553.00    2.34233   2.26112   -1.000
 5554.00    2.33166   2.25925   -1.000
 5555.00    2.32524   2.25846   -1.000
 5556.00    2.33056   2.25877   -1.000
 5557.00    2.34218   2.25950   -1.000
 5558.00    2.34418   2.25962   -1.000
 5559.00    2.34508   2.25819   -1.000
 5560.00    2.34625   2.25476   -1.000
 5561.00    2.34386   2.24948   -1.000
 5562.00    2.32551   2.24306   -1.000
 5563.00    2.30979   2.23642   -1.000
 5564.00    2.31679   2.23031   -1.000
 5565.00    2.32230   2.22508   -1.000
 5566.00    2.31862   2.22071   -1.000
 5567.00    2.32169   2.21696   -1.000
 5568.00    2.31989   2.21360   -1.000
 5569.00    2.29620   2.21060   -1.000
 5570.00    2.27308   2.20822   -1.000
 5571.00    2.23992   2.20695   -1.000
 5572.00    2.10384   2.20740   -1.000
 5573.00    1.93155   2.21002   -1.000
 5574.00    2.10875   2.21487   -1.000
 5575.00    2.64720   2.22159   -1.000
 5576.00    2.91537   2.22941   -1.000
 5577.00    2.69596   2.23736   -1.000
 5578.00    2.41784   2.24445   -1.000
 5579.00    2.37178   2.24972   -1.000
 5580.00    2.38107   2.25233   -1.000
 5581.00    2.35360   2.25149   -1.000
 5582.00    2.33065   2.24637   -1.000
 5583.00    2.32858   2.23622   -1.000
 5584.00    2.35844   2.22089   -1.000
 5585.00    2.34186   2.20159   -1.000
 5586.00    2.29630   2.18123   -1.000
 5587.00    2.27105   2.16383   -1.000
 5588.00    2.26440   2.15305   -1.000
 5589.00    2.28205   2.15068   -1.000
 5590.00    2.29147   2.15599   -1.000
 5591.00    2.30173   2.16630   -1.000
 5592.00    2.32550   2.17838   -1.000
 5593.00    2.31980   2.18966   -1.000
 5594.00    2.30521   2.19860   -1.000
 5595.00    2.32724   2.20445   -1.000
 5596.00    2.34578   2.20689   -1.000
 5597.00    2.33665   2.20604   -1.000
 5598.00    2.32296   2.20272   -1.000
 5599.00    2.30591   2.19868   -1.000
 5600.00    2.31665   2.19645   -1.000
 5601.00    2.31563   2.19872   -1.000
 5602.00    2.29678   2.20743   -1.000
 5603.00    2.29635   2.22298   -1.000
 5604.00    2.32923   2.24381   -1.000
 5605.00    2.36593   2.26684   -1.000
 5606.00    2.37013   2.28851   -1.000
 5607.00    2.37203   2.30593   -1.000
 5608.00    2.38673   2.31736   -1.000
 5609.00    2.39631   2.32203   -1.000
 5610.00    2.39487   2.31966   -1.000
 5611.00    2.38839   2.31033   -1.000
 5612.00    2.38517   2.29496   -1.000
 5613.00    2.37576   2.27597   -1.000
 5614.00    2.34357   2.25735   -1.000
 5615.00    2.30629   2.24354   -1.000
 5616.00    2.31048   2.23767   -1.000
 5617.00    2.34548   2.24021   -1.000
 5618.00    2.35933   2.24880   -1.000
 5619.00    2.37072   2.25947   -1.000
 5620.00    2.39161   2.26844   -1.000
 5621.00    2.39665   2.27347   -1.000
 5622.00    2.39369   2.27447   -1.000
 5623.00    2.37855   2.27321   -1.000
 5624.00    2.36583   2.27243   -1.000
 5625.00    2.37110   2.27455   -1.000
 5626.00    2.38917   2.28067   -1.000
 5627.00    2.40684   2.29010   -1.000
 5628.00    2.40008   2.30078   -1.000
 5629.00    2.39814   2.31022   -1.000
 5630.00    2.41949   2.31641   -1.000
 5631.00    2.43156   2.31841   -1.000
 5632.00    2.40443   2.31647   -1.000
 5633.00    2.38903   2.31164   -1.000
 5634.00    2.39668   2.30533   -1.000
 5635.00    2.42365   2.29885   -1.000
 5636.00    2.41713   2.29314   -1.000
 5637.00    2.39636   2.28875   -1.000
 5638.00    2.38269   2.28586   -1.000
 5639.00    2.37964   2.28447   -1.000
 5640.00    2.39669   2.28450   -1.000
 5641.00    2.40418   2.28588   -1.000
 5642.00    2.38977   2.28848   -1.000
 5643.00    2.39461   2.29204   -1.000
 5644.00    2.41238   2.29610   -1.000
 5645.00    2.41962   2.30009   -1.000
 5646.00    2.41869   2.30347   -1.000
 5647.00    2.42807   2.30588   -1.000
 5648.00    2.42782   2.30724   -1.000
 5649.00    2.41967   2.30757   -1.000
 5650.00    2.42912   2.30677   -1.000
 5651.00    2.44113   2.30444   -1.000
 5652.00    2.44175   2.29988   -1.000
 5653.00    2.43791   2.29237   -1.000
 5654.00    2.43913   2.28170   -1.000
 5655.00    2.42240   2.26859   -1.000
 5656.00    2.39637   2.25486   -1.000
 5657.00    2.36919   2.24304   -1.000
 5658.00    2.33730   2.23551   -1.000
 5659.00    2.34185   2.23369   -1.000
 5660.00    2.38580   2.23752   -1.000
 5661.00    2.40878   2.24572   -1.000
 5662.00    2.40816   2.25644   -1.000
 5663.00    2.40157   2.26781   -1.000
 5664.00    2.40150   2.27833   -1.000
 5665.00    2.41676   2.28706   -1.000
 5666.00    2.41541   2.29374   -1.000
 5667.00    2.40672   2.29887   -1.000
 5668.00    2.39087   2.30343   -1.000
 5669.00    2.38028   2.30837   -1.000
 5670.00    2.40436   2.31415   -1.000
 5671.00    2.42430   2.32056   -1.000
 5672.00    2.43743   2.32689   -1.000
 5673.00    2.45185   2.33235   -1.000
 5674.00    2.45012   2.33633   -1.000
 5675.00    2.44921   2.33849   -1.000
 5676.00    2.45903   2.33857   -1.000
 5677.00    2.45824   2.33628   -1.000
 5678.00    2.46423   2.33134   -1.000
 5679.00    2.45825   2.32378   -1.000
 5680.00    2.45584   2.31419   -1.000
 5681.00    2.45231   2.30386   -1.000
 5682.00    2.43625   2.29437   -1.000
 5683.00    2.40512   2.28706   -1.000
 5684.00    2.38435   2.28255   -1.000
 5685.00    2.39905   2.28072   -1.000
 5686.00    2.40656   2.28118   -1.000
 5687.00    2.40379   2.28377   -1.000
 5688.00    2.41325   2.28863   -1.000
 5689.00    2.42759   2.29594   -1.000
 5690.00    2.44552   2.30533   -1.000
 5691.00    2.45500   2.31578   -1.000
 5692.00    2.46060   2.32582   -1.000
 5693.00    2.46491   2.33401   -1.000
 5694.00    2.46344   2.33928   -1.000
 5695.00    2.46030   2.34111   -1.000
 5696.00    2.45352   2.33947   -1.000
 5697.00    2.43351   2.33486   -1.000
 5698.00    2.42432   2.32820   -1.000
 5699.00    2.41533   2.32078   -1.000
 5700.00    2.39323   2.31384   -1.000
 5701.00    2.37297   2.30816   -1.000
 5702.00    2.36594   2.30367   -1.000
 5703.00    2.38760   2.29942   -1.000
 5704.00    2.40472   2.29404   -1.000
 5705.00    2.41653   2.28647   -1.000
 5706.00    2.43325   2.27668   -1.000
 5707.00    2.42484   2.26603   -1.000
 5708.00    2.39015   2.25695   -1.000
 5709.00    2.36541   2.25221   -1.000
 5710.00    2.35668   2.25389   -1.000
 5711.00    2.37531   2.26255   -1.000
 5712.00    2.42079   2.27701   -1.000
 5713.00    2.44287   2.29482   -1.000
 5714.00    2.44956   2.31323   -1.000
 5715.00    2.45027   2.33011   -1.000
 5716.00    2.44516   2.34447   -1.000
 5717.00    2.45328   2.35636   -1.000
 5718.00    2.45792   2.36633   -1.000
 5719.00    2.46646   2.37485   -1.000
 5720.00    2.47979   2.38202   -1.000
 5721.00    2.48541   2.38756   -1.000
 5722.00    2.47317   2.39103   -1.000
 5723.00    2.46706   2.39210   -1.000
 5724.00    2.48201   2.39088   -1.000
 5725.00    2.48423   2.38794   -1.000
 5726.00    2.46641   2.38426   -1.000
 5727.00    2.47629   2.38086   -1.000
 5728.00    2.48561   2.37853   -1.000
 5729.00    2.49362   2.37767   -1.000
 5730.00    2.48533   2.37832   -1.000
 5731.00    2.47185   2.38040   -1.000
 5732.00    2.46814   2.38370   -1.000
 5733.00    2.49021   2.38788   -1.000
 5734.00    2.50871   2.39236   -1.000
 5735.00    2.49645   2.39646   -1.000
 5736.00    2.49108   2.39963   -1.000
 5737.00    2.49969   2.40159   -1.000
 5738.00    2.50856   2.40244   -1.000
 5739.00    2.50270   2.40248   -1.000
 5740.00    2.50103   2.40212   -1.000
 5741.00    2.48837   2.40173   -1.000
 5742.00    2.48080   2.40154   -1.000
 5743.00    2.47912   2.40156   -1.000
 5744.00    2.47320   2.40162   -1.000
 5745.00    2.47807   2.40145   -1.000
 5746.00    2.48190   2.40076   -1.000
 5747.00    2.47860   2.39930   -1.000
 5748.00    2.48936   2.39680   -1.000
 5749.00    2.49855   2.39301   -1.000
 5750.00    2.50462   2.38804   -1.000
 5751.00    2.51390   2.38265   -1.000
 5752.00    2.50818   2.37830   -1.000
 5753.00    2.49031   2.37667   -1.000
 5754.00    2.47968   2.37880   -1.000
 5755.00    2.48097   2.38433   -1.000
 5756.00    2.49974   2.39154   -1.000
 5757.00    2.51946   2.39798   -1.000
 5758.00    2.51949   2.40164   -1.000
 5759.00    2.51403   2.40184   -1.000
 5760.00    2.51929   2.39956   -1.000
 5761.00    2.51898   2.39693   -1.000
 5762.00    2.50223   2.39627   -1.000
 5763.00    2.48996   2.39900   -1.000
 5764.00    2.49885   2.40505   -1.000
 5765.00    2.51943   2.41300   -1.000
 5766.00    2.53045   2.42081   -1.000
 5767.00    2.53025   2.42667   -1.000
 5768.00    2.52005   2.42960   -1.000
 5769.00    2.50741   2.42949   -1.000
 5770.00    2.49245   2.42696   -1.000
 5771.00    2.47662   2.42294   -1.000
 5772.00    2.46819   2.41844   -1.000
 5773.00    2.45933   2.41419   -1.000
 5774.00    2.45089   2.41038   -1.000
 5775.00    2.40456   2.40655   95.986
 5776.00    2.32968   2.40179   -1.000
 5777.00    2.29293   2.39522   -1.000
 5778.00    2.32195   2.38660   -1.000
 5779.00    2.36675   2.37671  101.052
 5780.00    2.41237   2.36711   -1.000
 5781.00    2.45741   2.35964   -1.000
 5782.00    2.49003   2.35566   -1.000
 5783.00    2.50100   2.35571   -1.000
 5784.00    2.48917   2.35949   -1.000
 5785.00    2.47898   2.36604   -1.000
 5786.00    2.48910   2.37403   -1.000
 5787.00    2.51452   2.38216   -1.000
 5788.00    2.53294   2.38944   -1.000
 5789.00    2.52923   2.39556   -1.000
 5790.00    2.49008   2.40084   -1.000
 5791.00    2.46432   2.40595   -1.000
 5792.00    2.46947   2.41139   -1.000
 5793.00    2.46139   2.41713   -1.000
 5794.00    2.46503   2.42266   -1.000
 5795.00    2.49869   2.42743   -1.000
 5796.00    2.51915   2.43120   -1.000
 5797.00    2.51501   2.43426   -1.000
 5798.00    2.53441   2.43708   -1.000
 5799.00    2.55788   2.43988   -1.000
 5800.00    2.56114   2.44244   -1.000
 5801.00    2.55904   2.44422   -1.000
 5802.00    2.55408   2.44477   -1.000
 5803.00    2.55434   2.44413   -1.000
 5804.00    2.55872   2.44288   -1.000
 5805.00    2.54838   2.44188   -1.000
 5806.00    2.54852   2.44185   -1.000
 5807.00    2.54318   2.44307   -1.000
 5808.00    2.54003   2.44527   -1.000
 5809.00    2.55205   2.44782   -1.000
 5810.00    2.54924   2.44995   -1.000
 5811.00    2.55435   2.45108   -1.000
 5812.00    2.57076   2.45099   -1.000
 5813.00    2.56599   2.45003   -1.000
 5814.00    2.55823   2.44897   -1.000
 5815.00    2.56696   2.44882   -1.000
 5816.00    2.57700   2.45030   -1.000
 5817.00    2.58266   2.45359   -1.000
 5818.00    2.58880   2.45821   -1.000
 5819.00    2.60207   2.46329   -1.000
 5820.00    2.60643   2.46799   -1.000
 5821.00    2.59545   2.47181   -1.000
 5822.00    2.60571   2.47465   -1.000
 5823.00    2.62815   2.47670   -1.000
 5824.00    2.62454   2.47824   -1.000
 5825.00    2.61357   2.47952   -1.000
 5826.00    2.61395   2.48065   -1.000
 5827.00    2.61440   2.48160   -1.000
 5828.00    2.60909   2.48229   -1.000
 5829.00    2.61335   2.48260   -1.000
 5830.00    2.62220   2.48246   -1.000
 5831.00    2.62097   2.48195   -1.000
 5832.00    2.62766   2.48130   -1.000
 5833.00    2.62778   2.48083   -1.000
 5834.00    2.61915   2.48089   -1.000
 5835.00    2.60464   2.48166   -1.000
 5836.00    2.59041   2.48312   -1.000
 5837.00    2.58794   2.48501   -1.000
 5838.00    2.59471   2.48693   -1.000
 5839.00    2.58853   2.48850   -1.000
 5840.00    2.58461   2.48933   -1.000
 5841.00    2.59233   2.48916   -1.000
 5842.00    2.59342   2.48780   -1.000
 5843.00    2.59443   2.48529   -1.000
 5844.00    2.59406   2.48187   -1.000
 5845.00    2.58316   2.47793   -1.000
 5846.00    2.58417   2.47383   -1.000
 5847.00    2.58598   2.46966   -1.000
 5848.00    2.58641   2.46511   -1.000
 5849.00    2.58626   2.45965   -1.000
 5850.00    2.60056   2.45274   -1.000
 5851.00    2.60201   2.44412   -1.000
 5852.00    2.57433   2.43398   -1.000
 5853.00    2.56941   2.42282   -1.000
 5854.00    2.58169   2.41152   -1.000
 5855.00    2.56306   2.40129   -1.000
 5856.00    2.54633   2.39362   -1.000
 5857.00    2.56796   2.38998   -1.000
 5858.00    2.58256   2.39124   -1.000
 5859.00    2.57323   2.39723   -1.000
 5860.00    2.57628   2.40662   -1.000
 5861.00    2.58762   2.41738   -1.000
 5862.00    2.58474   2.42749   -1.000
 5863.00    2.59596   2.43554   -1.000
 5864.00    2.61777   2.44118   -1.000
 5865.00    2.62333   2.44500   -1.000
 5866.00    2.61004   2.44815   -1.000
 5867.00    2.60431   2.45173   -1.000
 5868.00    2.60228   2.45617   -1.000
 5869.00    2.59680   2.46105   -1.000
 5870.00    2.60971   2.46531   -1.000
 5871.00    2.62145   2.46787   -1.000
 5872.00    2.62903   2.46815   -1.000
 5873.00    2.63130   2.46630   -1.000
 5874.00    2.62419   2.46298   -1.000
 5875.00    2.61986   2.45897   -1.000
 5876.00    2.61503   2.45480   -1.000
 5877.00    2.60659   2.45057   -1.000
 5878.00    2.59351   2.44601   -1.000
 5879.00    2.59069   2.44061   -1.000
 5880.00    2.59175   2.43380   -1.000
 5881.00    2.58461   2.42481   -1.000
 5882.00    2.55820   2.41248   -1.000
 5883.00    2.46695   2.39503   -1.000
 5884.00    2.28418   2.37021   -1.000
 5885.00    1.99561   2.33622   -1.000
 5886.00    1.75521   2.29321   -1.000
 5887.00    1.78372   2.24448   -1.000
 5888.00    2.00417   2.19623   -1.000
 5889.00    2.15076   2.15563  112.104
 5890.00    2.09634   2.12767   -1.000
 5891.00    1.91944   2.11326   -1.000
 5892.00    1.77781   2.10961   -1.000
 5893.00    1.84732   2.11293   -1.000
 5894.00    2.09663   2.12112  110.290
 5895.00    2.29537   2.13479   -1.000
 5896.00    2.36961   2.15603   -1.000
 5897.00    2.41946   2.18615   -1.000
 5898.00    2.49462   2.22398   -1.000
 5899.00    2.55577   2.26597   -1.000
 5900.00    2.58454   2.30756   -1.000
 5901.00    2.59728   2.34475   -1.000
 5902.00    2.61625   2.37523   -1.000
 5903.00    2.62223   2.39846   -1.000
 5904.00    2.61546   2.41529   -1.000
 5905.00    2.60967   2.42714   -1.000
 5906.00    2.60813   2.43546   -1.000
 5907.00    2.59931   2.44122   -1.000
 5908.00    2.58032   2.44483   -1.000
 5909.00    2.59030   2.44628   -1.000
 5910.00    2.61125   2.44540   -1.000
 5911.00    2.61265   2.44235   -1.000
 5912.00    2.60423   2.43782   -1.000
 5913.00    2.59761   2.43308   -1.000
 5914.00    2.58760   2.42960   -1.000
 5915.00    2.56066   2.42857   -1.000
 5916.00    2.54496   2.43043   -1.000
 5917.00    2.55543   2.43476   -1.000
 5918.00    2.56637   2.44051   -1.000
 5919.00    2.56683   2.44651   -1.000
 5920.00    2.57299   2.45189   -1.000
 5921.00    2.57834   2.45630   -1.000
 5922.00    2.58241   2.45976   -1.000
 5923.00    2.60643   2.46237   -1.000
 5924.00    2.61358   2.46403   -1.000
 5925.00    2.61218   2.46445   -1.000
 5926.00    2.63783   2.46345   -1.000
 5927.00    2.63850   2.46124   -1.000
 5928.00    2.61954   2.45855   -1.000
 5929.00    2.60855   2.45637   -1.000
 5930.00    2.59311   2.45556   -1.000
 5931.00    2.59984   2.45646   -1.000
 5932.00    2.62338   2.45893   -1.000
 5933.00    2.62929   2.46249   -1.000
 5934.00    2.61931   2.46655   -1.000
 5935.00    2.61836   2.47051   -1.000
 5936.00    2.63335   2.47377   -1.000
 5937.00    2.62965   2.47584   -1.000
 5938.00    2.61496   2.47648   -1.000
 5939.00    2.61068   2.47584   -1.000
 5940.00    2.61809   2.47450   -1.000
 5941.00    2.61286   2.47312   -1.000
 5942.00    2.59118   2.47217   -1.000
 5943.00    2.58735   2.47167   -1.000
 5944.00    2.58855   2.47129   -1.000
 5945.00    2.59692   2.47059   -1.000
 5946.00    2.61338   2.46941   -1.000
 5947.00    2.62214   2.46791   -1.000
 5948.00    2.60615   2.46646   -1.000
 5949.00    2.60062   2.46537   -1.000
 5950.00    2.63195   2.46473   -1.000
 5951.00    2.64534   2.46443   -1.000
 5952.00    2.63040   2.46430   -1.000
 5953.00    2.62733   2.46429   -1.000
 5954.00    2.61907   2.46460   -1.000
 5955.00    2.60686   2.46566   -1.000
 5956.00    2.61220   2.46799   -1.000
 5957.00    2.61146   2.47189   -1.000
 5958.00    2.61458   2.47724   -1.000
 5959.00    2.65432   2.48342   -1.000
 5960.00    2.66445   2.48944   -1.000
 5961.00    2.65306   2.49435   -1.000
 5962.00    2.66648   2.49752   -1.000
 5963.00    2.66747   2.49894   -1.000
 5964.00    2.65317   2.49914   -1.000
 5965.00    2.63020   2.49898   -1.000
 5966.00    2.61161   2.49932   -1.000
 5967.00    2.60823   2.50063   -1.000
 5968.00    2.62442   2.50289   -1.000
 5969.00    2.64135   2.50547   -1.000
 5970.00    2.63143   2.50744   -1.000
 5971.00    2.63644   2.50785   -1.000
 5972.00    2.64690   2.50613   -1.000
 5973.00    2.64116   2.50238   -1.000
 5974.00    2.63496   2.49745   -1.000
 5975.00    2.63361   2.49262   -1.000
 5976.00    2.63978   2.48913   -1.000
 5977.00    2.64263   2.48764   -1.000
 5978.00    2.65639   2.48787   -1.000
 5979.00    2.65711   2.48881   -1.000
 5980.00    2.65036   2.48917   -1.000
 5981.00    2.66640   2.48814   -1.000
 5982.00    2.67211   2.48582   -1.000
 5983.00    2.65689   2.48315   -1.000
 5984.00    2.64629   2.48142   -1.000
 5985.00    2.65435   2.48160   -1.000
 5986.00    2.66106   2.48397   -1.000
 5987.00    2.63528   2.48813   -1.000
 5988.00    2.61973   2.49330   -1.000
 5989.00    2.63951   2.49872   -1.000
 5990.00    2.65479   2.50394   -1.000
 5991.00    2.66159   2.50863   -1.000
 5992.00    2.65317   2.51253   -1.000
 5993.00    2.64571   2.51530   -1.000
 5994.00    2.66254   2.51669   -1.000
 5995.00    2.66755   2.51665   -1.000
 5996.00    2.65543   2.51546   -1.000
 5997.00    2.65395   2.51356   -1.000
 5998.00    2.66809   2.51138   -1.000
 5999.00    2.66820   2.50916   -1.000
 6000.00    2.65096   2.50686   -1.000
 6001.00    2.63617   2.50431   -1.000
 6002.00    2.64104   2.50135   -1.000
 6003.00    2.63825   2.49791   -1.000
 6004.00    2.63825   2.49411   -1.000
 6005.00    2.63915   2.49039   -1.000
 6006.00    2.60806   2.48738   -1.000
 6007.00    2.57539   2.48585   -1.000
 6008.00    2.57123   2.48622   -1.000
 6009.00    2.59695   2.48834   -1.000
 6010.00    2.62795   2.49147   -1.000
 6011.00    2.64962   2.49458   -1.000
 6012.00    2.67396   2.49682   -1.000
 6013.00    2.67229   2.49778   -1.000
 6014.00    2.67124   2.49745   -1.000
 6015.00    2.66523   2.49600   -1.000
 6016.00    2.65661   2.49373   -1.000
 6017.00    2.65661   2.49091   -1.000
 6018.00    2.65959   2.48786   -1.000
 6019.00    2.66329   2.48517   -1.000
 6020.00    2.65540   2.48364   -1.000
 6021.00    2.64615   2.48400   -1.000
 6022.00    2.64813   2.48676   -1.000
 6023.00    2.63819   2.49205   -1.000
 6024.00    2.63990   2.49955   -1.000
 6025.00    2.65253   2.50857   -1.000
 6026.00    2.64952   2.51824   -1.000
 6027.00    2.66278   2.52775   -1.000
 6028.00    2.68212   2.53649   -1.000
 6029.00    2.68864   2.54408   -1.000
 6030.00    2.66483   2.55040   -1.000
 6031.00    2.64490   2.55547   -1.000
 6032.00    2.65638   2.55937   -1.000
 6033.00    2.67845   2.56215   -1.000
 6034.00    2.67620   2.56376   -1.000
 6035.00    2.66239   2.56414   -1.000
 6036.00    2.66139   2.56329   -1.000
 6037.00    2.67393   2.56139   -1.000
 6038.00    2.68253   2.55885   -1.000
 6039.00    2.67834   2.55630   -1.000
 6040.00    2.67883   2.55445   -1.000
 6041.00    2.67810   2.55389   -1.000
 6042.00    2.68525   2.55497   -1.000
 6043.00    2.69491   2.55765   -1.000
 6044.00    2.69963   2.56159   -1.000
 6045.00    2.71299   2.56620   -1.000
 6046.00    2.70913   2.57083   -1.000
 6047.00    2.70096   2.57484   -1.000
 6048.00    2.71084   2.57767   -1.000
 6049.00    2.70294   2.57887   -1.000
 6050.00    2.69337   2.57821   -1.000
 6051.00    2.70377   2.57577   -1.000
 6052.00    2.71281   2.57198   -1.000
 6053.00    2.71417   2.56765   -1.000
 6054.00    2.70381   2.56374   -1.000
 6055.00    2.68755   2.56110   -1.000
 6056.00    2.68077   2.56013   -1.000
 6057.00    2.68316   2.56058   -1.000
 6058.00    2.78280   2.56151   -1.000
 6059.00    2.81356   2.56164   -1.000
 6060.00    2.71781   2.55984   -1.000
 6061.00    2.07562   2.55581   -1.000
 6062.00    1.02824   2.55024   -1.000
 6063.00    1.41010   2.54466   -1.000
 6064.00    2.39848   2.54102   -1.000
 6065.00    2.52296   2.54087  103.869
 6066.00    2.43410   2.54478   -1.000
 6067.00    2.04605   2.55218   -1.000
 6068.00    1.18056   2.56164   -1.000
 6069.00    1.88269   2.57146   -1.000
 6070.00    2.75758   2.58016   -1.000
 6071.00    2.71453   2.58675   -1.000
 6072.00    2.69711   2.59080   -1.000
 6073.00    2.69292   2.59214   -1.000
 6074.00    2.69122   2.59091   -1.000
 6075.00    2.69436   2.58750   -1.000
 6076.00    2.69244   2.58243   -1.000
 6077.00    2.69232   2.57640   -1.000
 6078.00    2.70905   2.57017   -1.000
 6079.00    2.70872   2.56437   -1.000
 6080.00    2.69164   2.55945   -1.000
 6081.00    2.67813   2.55573   -1.000
 6082.00    2.66455   2.55345   -1.000
 6083.00    2.68534   2.55271   -1.000
 6084.00    2.70808   2.55340   -1.000
 6085.00    2.70688   2.55523   -1.000
 6086.00    2.70966   2.55763   -1.000
 6087.00    2.71584   2.56006   -1.000
 6088.00    2.72940   2.56213   -1.000
 6089.00    2.73141   2.56383   -1.000
 6090.00    2.71884   2.56549   -1.000
 6091.00    2.71620   2.56758   -1.000
 6092.00    2.71588   2.57045   -1.000
 6093.00    2.70414   2.57401   -1.000
 6094.00    2.71033   2.57772   -1.000
 6095.00    2.71657   2.58045   -1.000
 6096.00    2.70653   2.58072   -1.000
 6097.00    2.69684   2.57714   -1.000
 6098.00    2.69912   2.56910   -1.000
 6099.00    2.69595   2.55754   -1.000
 6100.00    2.67716   2.54455   -1.000
 6101.00    2.64312   2.53307   -1.000
 6102.00    2.62982   2.52609   -1.000
 6103.00    2.64461   2.52543   -1.000
 6104.00    2.66522   2.53125   -1.000
 6105.00    2.68361   2.54203   -1.000
 6106.00    2.68871   2.55529   -1.000
 6107.00    2.70311   2.56856   -1.000
 6108.00    2.70079   2.58006   -1.000
 6109.00    2.67322   2.58902   -1.000
 6110.00    2.67189   2.59545   -1.000
 6111.00    2.70036   2.59973   -1.000
 6112.00    2.71317   2.60234   -1.000
 6113.00    2.69936   2.60355   -1.000
 6114.00    2.69528   2.60315   -1.000
 6115.00    2.69071   2.60053   -1.000
 6116.00    2.67747   2.59478   -1.000
 6117.00    2.68773   2.58527   -1.000
 6118.00    2.69950   2.57225   -1.000
 6119.00    2.68994   2.55705   -1.000
 6120.00    2.66948   2.54210   -1.000
 6121.00    2.64304   2.53019   -1.000
 6122.00    2.64544   2.52364   -1.000
 6123.00    2.66425   2.52348   -1.000
 6124.00    2.68509   2.52927   -1.000
 6125.00    2.69148   2.53945   -1.000
 6126.00    2.68175   2.55190   -1.000
 6127.00    2.68818   2.56466   -1.000
 6128.00    2.70264   2.57628   -1.000
 6129.00    2.70738   2.58544   -1.000
 6130.00    2.70538   2.59068   -1.000
 6131.00    2.70813   2.59039   -1.000
 6132.00    2.72441   2.58336   -1.000
 6133.00    2.72112   2.56987   -1.000
 6134.00    2.68726   2.55175   -1.000
 6135.00    2.64654   2.53189   -1.000
 6136.00    2.60076   2.51404   -1.000
 6137.00    2.58295   2.50169   -1.000
 6138.00    2.60781   2.49700   -1.000
 6139.00    2.64712   2.50045   -1.000
 6140.00    2.66164   2.51078   -1.000
 6141.00    2.63240   2.52559   -1.000
 6142.00    2.61779   2.54199   -1.000
 6143.00    2.66213   2.55722   -1.000
 6144.00    2.70494   2.56921   -1.000
 6145.00    2.69694   2.57687   -1.000
 6146.00    2.68383   2.58021   -1.000
 6147.00    2.68566   2.58035   -1.000
 6148.00    2.68082   2.57884   -1.000
 6149.00    2.67831   2.57695   -1.000
 6150.00    2.68979   2.57541   -1.000
 6151.00    2.68350   2.57433   -1.000
 6152.00    2.67730   2.57326   -1.000
 6153.00    2.66265   2.57145   -1.000
 6154.00    2.65403   2.56792   -1.000
 6155.00    2.66746   2.56155   -1.000
 6156.00    2.67565   2.55102   -1.000
 6157.00    2.66896   2.53545   -1.000
 6158.00    2.65065   2.51508   -1.000
 6159.00    2.62914   2.49177   -1.000
 6160.00    2.60196   2.46862   -1.000
 6161.00    2.54908   2.44926   -1.000
 6162.00    2.51965   2.43664   -1.000
 6163.00    2.54432   2.43184   -1.000
 6164.00    2.58366   2.43373   -1.000
 6165.00    2.60263   2.43988   -1.000
 6166.00    2.59198   2.44803   -1.000
 6167.00    2.58283   2.45659   -1.000
 6168.00    2.57115   2.46526   -1.000
 6169.00    2.56984   2.47473   -1.000
 6170.00    2.57059   2.48580   -1.000
 6171.00    2.58038   2.49867   -1.000
 6172.00    2.60305   2.51275   -1.000
 6173.00    2.62141   2.52696   -1.000
 6174.00    2.61491   2.54014   -1.000
 6175.00    2.60600   2.55150   -1.000
 6176.00    2.60950   2.56093   -1.000
 6177.00    2.61315   2.56874   -1.000
 6178.00    2.60321   2.57543  101.980
 6179.00    2.61387   2.58128   -1.000
 6180.00    2.63127   2.58620   -1.000
 6181.00    2.64382   2.58980   -1.000
 6182.00    2.63699   2.59148   -1.000
 6183.00    2.63887   2.59070   -1.000
 6184.00    2.65191   2.58716   -1.000
 6185.00    2.66941   2.58075   -1.000
 6186.00    2.68093   2.57162   -1.000
 6187.00    2.66685   2.56064   -1.000
 6188.00    2.63625   2.54966   -1.000
 6189.00    2.61400   2.54070   -1.000
 6190.00    2.60302   2.53542   -1.000
 6191.00    2.58311   2.53505   -1.000
 6192.00    2.57196   2.53962  102.917
 6193.00    2.60234   2.54803   -1.000
 6194.00    2.64363   2.55825   -1.000
 6195.00    2.65772   2.56809   -1.000
 6196.00    2.64998   2.57597   -1.000
 6197.00    2.63746   2.58152   -1.000
 6198.00    2.59324   2.58525  104.500
 6199.00    2.54542   2.58830   -1.000
 6200.00    2.54424   2.59185   -1.000
 6201.00    2.59077   2.59664  102.606
 6202.00    2.61842   2.60268  102.489
 6203.00    2.63175   2.60942  102.427
 6204.00    2.65087   2.61589   -1.000
 6205.00    2.66122   2.62101   -1.000
 6206.00    2.67110   2.62379   -1.000
 6207.00    2.67331   2.62340   -1.000
 6208.00    2.67461   2.61931   -1.000
 6209.00    2.67742   2.61158   -1.000
 6210.00    2.67763   2.60094   -1.000
 6211.00    2.66796   2.58865   -1.000
 6212.00    2.67044   2.57619   -1.000
 6213.00    2.66590   2.56493   -1.000
 6214.00    2.64815   2.55566   -1.000
 6215.00    2.64608   2.54889   -1.000
 6216.00    2.65735   2.54473   -1.000
 6217.00    2.66596   2.54321   -1.000
 6218.00    2.67545   2.54411   -1.000
 6219.00    2.41073   2.54693   -1.000
 6220.00    2.35640   2.55124   -1.000
 6221.00    2.58707   2.55622   -1.000
 6222.00    2.68689   2.56092   -1.000
 6223.00    2.68053   2.56415   -1.000
 6224.00    2.66801   2.56465   -1.000
 6225.00    2.68228   2.56145   -1.000
 6226.00    2.69186   2.55441   -1.000
 6227.00    2.67430   2.54456   -1.000
 6228.00    2.65465   2.53395   -1.000
 6229.00    2.62618   2.52500   -1.000
 6230.00    2.59485   2.51984   -1.000
 6231.00    2.58676   2.51935   -1.000
 6232.00    2.61231   2.52319   -1.000
 6233.00    2.65044   2.52965   -1.000
 6234.00    2.66172   2.53667   -1.000
 6235.00    2.66505   2.54227   -1.000
 6236.00    2.67149   2.54525   -1.000
 6237.00    2.66050   2.54526   -1.000
 6238.00    2.64775   2.54257   -1.000
 6239.00    2.63333   2.53768   -1.000
 6240.00    2.62199   2.53127   -1.000
 6241.00    2.62801   2.52405   -1.000
 6242.00    2.63515   2.51695   -1.000
 6243.00    2.63925   2.51138   -1.000
 6244.00    2.64123   2.50867   -1.000
 6245.00    2.62746   2.50958   -1.000
 6246.00    2.61272   2.51356   -1.000
 6247.00    2.61687   2.51911   -1.000
 6248.00    2.62312   2.52404   -1.000
 6249.00    2.63343   2.52645   -1.000
 6250.00    2.63315   2.52544   -1.000
 6251.00    2.61520   2.52117   -1.000
 6252.00    2.60030   2.51490   -1.000
 6253.00    2.59029   2.50822   -1.000
 6254.00    2.58956   2.50292   -1.000
 6255.00    2.58525   2.50031   -1.000
 6256.00    2.58721   2.50126   -1.000
 6257.00    2.58702   2.50589   -1.000
 6258.00    2.60187   2.51393   -1.000
 6259.00    2.61457   2.52458   -1.000
 6260.00    2.60951   2.53657   -1.000
 6261.00    2.62107   2.54881   -1.000
 6262.00    2.63277   2.56039   -1.000
 6263.00    2.61829   2.57068   -1.000
 6264.00    2.59593   2.57912  106.895
 6265.00    2.58505   2.58528  106.956
 6266.00    2.59170   2.58920  107.502
 6267.00    2.60969   2.59123  107.545
 6268.00    2.62599   2.59168   -1.000
 6269.00    2.63029   2.59071   -1.000
 6270.00    2.61689   2.58786  107.063
 6271.00    2.59036   2.58265  107.730
 6272.00    2.56218   2.57461  108.596
 6273.00    2.52982   2.56379   -1.000
 6274.00    2.47196   2.55089   -1.000
 6275.00    2.39486   2.53713   -1.000
 6276.00    2.35587   2.52431   -1.000
 6277.00    2.33265   2.51462   -1.000
 6278.00    2.28953   2.50974   -1.000
 6279.00    2.23733   2.51068   -1.000
 6280.00    2.21558   2.51732   -1.000
 6281.00    2.24862   2.52858   -1.000
 6282.00    2.32129   2.54264   -1.000
 6283.00    2.40624   2.55751   -1.000
 6284.00    2.47517   2.57131   -1.000
 6285.00    2.52631   2.58246   -1.000
 6286.00    2.55989   2.59012   -1.000
 6287.00    2.60045   2.59424  107.267
 6288.00    2.59785   2.59535  108.106
 6289.00    2.58662   2.59429  108.467
 6290.00    2.58854   2.59190  108.587
 6291.00    2.59130   2.58874  108.761
 6292.00    2.59078   2.58485  109.439
 6293.00    2.58192   2.58008  110.219
 6294.00    2.55493   2.57446  110.524
 6295.00    2.51654   2.56827   -1.000
 6296.00    2.44832   2.56180   -1.000
 6297.00    2.42019   2.55547   -1.000
 6298.00    2.49000   2.55030   -1.000
 6299.00    2.58049   2.54774   -1.000
 6300.00    2.58696   2.54890   -1.000
 6301.00    2.55937   2.55404  109.343
 6302.00    2.54234   2.56275  107.879
 6303.00    2.56527   2.57396  106.871
 6304.00    2.57093   2.58608  105.924
 6305.00    2.57028   2.59749   -1.000
 6306.00    2.58823   2.60698  105.875
 6307.00    2.60623   2.61371  106.552
 6308.00    2.61167   2.61737  107.050
 6309.00    2.59556   2.61794  107.472
 6310.00    2.60349   2.61567  107.662
 6311.00    2.62018   2.61118  108.418
 6312.00    2.58982   2.60515  108.998
 6313.00    2.57395   2.59835  109.017
 6314.00    2.57616   2.59180  108.907
 6315.00    2.56938   2.58681  108.995
 6316.00    2.56480   2.58467  108.744
 6317.00    2.56204   2.58604  107.637
 6318.00    2.56302   2.59075   -1.000
 6319.00    2.58824   2.59846  105.933
 6320.00    2.61888   2.60852  105.585
 6321.00    2.62128   2.61970  105.066
 6322.00    2.61077   2.63074  104.668
 6323.00    2.63783   2.64059  104.552
 6324.00    2.65839   2.64864  104.151
 6325.00    2.64870   2.65463  104.077
 6326.00    2.65495   2.65856  104.180
 6327.00    2.64889   2.66069  104.249
 6328.00    2.64304   2.66128  103.982
 6329.00    2.68458   2.66023  103.743
 6330.00    2.66104   2.65715  103.920
 6331.00    2.51337   2.65182   -1.000
 6332.00    2.57588   2.64458   -1.000
 6333.00    2.63983   2.63668  106.972
 6334.00    2.61218   2.62969  106.273
 6335.00    2.60191   2.62504  105.210
 6336.00    2.61745   2.62382  104.067
 6337.00    2.62144   2.62633  103.398
 6338.00    2.61628   2.63174  102.912
 6339.00    2.62530   2.63853  102.844
 6340.00    2.64763   2.64515  103.585
 6341.00    2.63903   2.65044  103.956
 6342.00    2.62603   2.65398   -1.000
 6343.00    2.61612   2.65624   -1.000
 6344.00    2.59731   2.65845   -1.000
 6345.00    2.59471   2.66175   -1.000
 6346.00    2.62757   2.66649   -1.000
 6347.00    2.64574   2.67240   -1.000
 6348.00    2.63429   2.67862   -1.000
 6349.00    2.62038   2.68386   -1.000
 6350.00    2.63436   2.68694   -1.000
 6351.00    2.63833   2.68724   -1.000
 6352.00    2.63845   2.68490   -1.000
 6353.00    2.62804   2.68042   -1.000
 6354.00    2.61810   2.67437   -1.000
 6355.00    2.62283   2.66760   -1.000
 6356.00    2.61324   2.66099   -1.000
 6357.00    2.58816   2.65492   -1.000
 6358.00    2.55430   2.64956   -1.000
 6359.00    2.54724   2.64515   -1.000
 6360.00    2.52833   2.64207   -1.000
 6361.00    2.55108   2.64064   -1.000
 6362.00    2.57781   2.64102   -1.000
 6363.00    2.58108   2.64327   -1.000
 6364.00    2.59545   2.64712   -1.000
 6365.00    2.60213   2.65180   -1.000
 6366.00    2.59456   2.65662   -1.000
 6367.00    2.59680   2.66123   -1.000
 6368.00    2.60587   2.66567   -1.000
 6369.00    2.61891   2.67008   -1.000
 6370.00    2.61438   2.67444   -1.000
 6371.00    2.60155   2.67857   -1.000
 6372.00    2.59201   2.68207   -1.000
 6373.00    2.58592   2.68446   -1.000
 6374.00    2.56236   2.68537   -1.000
 6375.00    2.55410   2.68473   -1.000
 6376.00    2.56983   2.68260   -1.000
 6377.00    2.57138   2.67938   -1.000
 6378.00    2.57034   2.67569   -1.000
 6379.00    2.55594   2.67227   -1.000
 6380.00    2.54073   2.66979   -1.000
 6381.00    2.54658   2.66875   -1.000
 6382.00    2.55433   2.66938   -1.000
 6383.00    2.56539   2.67138   -1.000
 6384.00    2.56226   2.67405   -1.000
 6385.00    2.54228   2.67669   -1.000
 6386.00    2.52489   2.67860   -1.000
 6387.00    2.50938   2.67904   -1.000
 6388.00    2.50813   2.67725   -1.000
 6389.00    2.50671   2.67316   -1.000
 6390.00    2.48807   2.66775   -1.000
 6391.00    2.47456   2.66250   -1.000
 6392.00    2.42851   2.65874   -1.000
 6393.00    2.39958   2.65684   -1.000
 6394.00    2.40570   2.65622   -1.000
 6395.00    2.41589   2.65582   -1.000
 6396.00    2.41445   2.65503   -1.000
 6397.00    2.40097   2.65437   -1.000
 6398.00    2.36522   2.65456   -1.000
 6399.00    2.34191   2.65637   -1.000
 6400.00    2.32664   2.66002   -1.000
 6401.00    2.32692   2.66518   -1.000
 6402.00    2.33407   2.67085   -1.000
 6403.00    2.33529   2.67568   -1.000
 6404.00    2.32637   2.67886   -1.000
 6405.00    2.31035   2.68015   -1.000
 6406.00    2.29417   2.67982   -1.000
 6407.00    2.27628   2.67811   -1.000
 6408.00    2.25029   2.67602   -1.000
 6409.00    2.22720   2.67483   -1.000
 6410.00    2.21173   2.67516   -1.000
 6411.00    2.18928   2.67684   -1.000
 6412.00    2.19617   2.67933   -1.000
 6413.00    2.20629   2.68208   -1.000
 6414.00    2.17673   2.68430   -1.000
 6415.00    2.16544   2.68519   -1.000
 6416.00    2.15753   2.68449   -1.000
 6417.00    2.12866   2.68259   -1.000
 6418.00    2.08605   2.68071   -1.000
 6419.00    2.06863   2.68076   -1.000
 6420.00    2.04079   2.68371   -1.000
 6421.00    2.00186   2.68942   -1.000
 6422.00    1.97987   2.69751   -1.000
 6423.00    1.98590   2.70659   -1.000
 6424.00    1.99574   2.71489   -1.000
 6425.00    1.96885   2.72041   -1.000
 6426.00    1.93853   2.72170   -1.000
 6427.00    1.93417   2.71869   -1.000
 6428.00    0.57083   2.71292   -1.000
