###################################################################
## OUTPUT of StarlightChains_v04.for    [Cid@UFSC - 01/Apr/2007] ##
###################################################################

## Some input info
NGC5286_b_1.cxt                          [arq_obs]
Base.BC03.N                              [arq_base]
NGC5286_b_1.msk                          [arq_masks]
StCv04.C11.config                        [arq_config]
   45                                    [N_base]
    0                                    [N_YAV_components = # of components with extra extinction!]
    0                                    [i_FitPowerLaw (1/0 = Yes/No)]
-9.99                                    [alpha_PowerLaw]
CCM                                      [red_law_option]
 1.458241                                [q_norm = A(l_norm)/A(V)]

## (Re)Sampling Parameters
 3359.00                                 [l_ini (A)]
 6428.00                                 [l_fin (A)]
    1.00                                 [dl    (A)]     (OBS: dl_cushion =    50.00 A)

## Normalization info
 4020.00                                 [l_norm (A) - for base]
 4010.00                                 [llow_norm (A) - window for f_obs]
 4060.00                                 [lupp_norm (A) - window for f_obs]
1.497078E-14                             [fobs_norm (in input units)]

## S/N
 4730.00                                 [llow_SN (A) - window for S/N]
 4780.00                                 [lupp_SN (A) - window for S/N]
 111.377                                 [S/N in S/N window]
  94.497                                 [S/N in norm. window]
  66.783                                 [S/N_err in S/N window]
  56.662                                 [S/N_err in norm. window]
  1.0000                                 [fscale_chi2]

## etc...
  2147483637                             [idum_orig]
  3067                                   [NOl_eff]
  2018                                   [Nl_eff]
  1049    NSIGMA                         [Ntot_cliped & clip_method]
   792820                                [Nglobal_steps]
   7                                     [N_chains]
  10                                     [NEX0s_base = N_base in EX0s-fits]
 0   0   1      308   2.0   8.976E+02    [Clip-Bug, RC-Crash & Burn-In warning-flags, n_censored_weights, wei_nsig_threshold & wei_limit]
    10      9.612      9.612      0.000  [idt_all, wdt_TotTime, wdt_UsrTime & wdt_SysTime (sec)]

## Synthesis Results - Best model ##

 2.40937E+00                             [chi2/Nl_eff]
     1.89930                             [adev (%)]

   102.76436                             [sum-of-x (%)]
 5.60292E-14                             [Flux_tot (units of input spectrum!)]
 4.83155E-10                             [Mini_tot (???)]
 2.58629E-10                             [Mcor_tot (???)]

 -13.25                                  [v0_min  (km/s)]
 121.74                                  [vd_min  (km/s)]
 0.9623                                  [AV_min  (mag)]
 0.0000                                  [YAV_min (mag)]

# j     x_j(%)      Mini_j(%)     Mcor_j(%)     age_j(yr)     Z_j      (L/M)_j    YAV?  Mstars   component_j        a/Fe...       SSP_chi2r SSP_adev(%)   SSP_AV   SSP_x(%)
  1      0.0000     0.0000E+00    0.0000E+00    1.000000E+06  0.00400  1.114E-02    0   1.0000   age020_m42            0.0000     2.2263E+02    14.7288   4.0000    68.9366
  2      4.3745     1.2120E-02    2.2640E-02    3.160000E+06  0.00400  4.073E-02    0   0.9999   age045_m42            0.0000     2.9703E+01     4.2122   3.1427    88.9159
  3      0.0000     0.0000E+00    0.0000E+00    5.010000E+06  0.00400  2.534E-02    0   0.9488   age055_m42            0.0000     7.0206E+01     7.5336   3.6766    78.2217
  4     10.3914     9.2260E-02    1.5274E-01    1.000000E+07  0.00400  1.271E-02    0   0.8862   age070_m42            0.0000     5.6187E+01     7.6706   2.8676    82.7270
  5      0.0000     0.0000E+00    0.0000E+00    2.512000E+07  0.00400  5.070E-03    0   0.8174   age090_m42            0.0000     5.1723E+01     7.2055   2.7251    84.7430
  6      0.0000     0.0000E+00    0.0000E+00    4.000000E+07  0.00400  3.505E-03    0   0.7851   age104_m42            0.0000     3.6790E+01     5.3556   2.3547    89.8830
  7     30.5470     1.5199E+00    2.0463E+00    1.015200E+08  0.00400  2.268E-03    0   0.7207   age116_m42            0.0000     1.1790E+02     8.7211   1.8316   121.5616
  8      0.0000     0.0000E+00    0.0000E+00    2.861200E+08  0.00400  1.079E-03    0   0.6613   age125_m42            0.0000     1.1981E+02     9.6484   1.2935   126.2674
  9      0.0000     0.0000E+00    0.0000E+00    6.405400E+08  0.00400  5.077E-04    0   0.6197   age132_m42            0.0000     1.3856E+02    10.3409   0.8912   132.9643
 10      2.0279     6.4736E-01    7.2852E-01    9.047900E+08  0.00400  3.535E-04    0   0.6024   age135_m42            0.0000     7.3177E+01     7.9168   0.7802   125.8963
 11      0.0012     6.9036E-04    7.3719E-04    1.434000E+09  0.00400  1.910E-04    0   0.5716   age139_m42            0.0000     3.0880E+01     5.6978   0.3953   117.8759
 12     29.8682     3.4330E+01    3.5036E+01    2.500000E+09  0.00400  9.818E-05    0   0.5463   age150_m42            0.0000     2.0880E+01     3.8688   0.2889   105.4149
 13     24.2295     5.7952E+01    5.6600E+01    5.000000E+09  0.00400  4.718E-05    0   0.5228   age161_m42            0.0000     3.3613E+01     3.9424   0.2053    98.5669
 14      0.0000     0.0000E+00    0.0000E+00    1.100000E+10  0.00400  2.205E-05    0   0.4980   age185_m42            0.0000     6.6892E+01     5.2401  -0.0223    95.1392
 15      0.0000     0.0000E+00    0.0000E+00    1.300000E+10  0.00400  1.883E-05    0   0.4927   age193_m42            0.0000     7.3381E+01     5.3991  -0.0318    94.6769
 16      0.0000     0.0000E+00    0.0000E+00    1.000000E+06  0.02000  1.989E-02    0   1.0000   age020_m62            0.0000     2.1161E+02    13.9362   4.0000    69.4488
 17      0.0000     0.0000E+00    0.0000E+00    3.160000E+06  0.02000  3.772E-02    0   0.9858   age045_m62            0.0000     1.4260E+02    10.7923   4.0000    71.5835
 18      0.5783     2.0221E-03    3.5291E-03    5.010000E+06  0.02000  3.227E-02    0   0.9342   age055_m62            0.0000     4.2268E+01     5.7522   3.4642    83.5288
 19      0.0000     0.0000E+00    0.0000E+00    1.000000E+07  0.02000  1.011E-02    0   0.8751   age070_m62            0.0000     1.4434E+02    12.6221   3.0303    74.4873
 20      0.0000     0.0000E+00    0.0000E+00    2.512000E+07  0.02000  4.206E-03    0   0.8099   age090_m62            0.0000     1.1920E+02    10.5575   2.9224    76.9771
 21      0.0000     0.0000E+00    0.0000E+00    4.000000E+07  0.02000  3.373E-03    0   0.7799   age104_m62            0.0000     3.3690E+01     4.5243   2.5122    93.6941
 22      0.0000     0.0000E+00    0.0000E+00    1.015200E+08  0.02000  1.878E-03    0   0.7221   age116_m62            0.0000     8.3195E+01     6.9017   1.9490   118.2449
 23      0.0000     0.0000E+00    0.0000E+00    2.861200E+08  0.02000  8.869E-04    0   0.6700   age125_m62            0.0000     2.5328E+02    13.8612   1.0848   143.0410
 24      0.0000     0.0000E+00    0.0000E+00    6.405400E+08  0.02000  3.657E-04    0   0.6322   age132_m62            0.0000     1.4022E+02    11.6584   0.5490   139.9234
 25      0.0000     0.0000E+00    0.0000E+00    9.047900E+08  0.02000  2.312E-04    0   0.6152   age135_m62            0.0000     7.3517E+01     8.6745   0.3480   130.1627
 26      0.0000     0.0000E+00    0.0000E+00    1.434000E+09  0.02000  1.168E-04    0   0.5865   age139_m62            0.0000     3.2995E+01     5.0187   0.1757   112.2801
 27      0.0000     0.0000E+00    0.0000E+00    2.500000E+09  0.02000  5.505E-05    0   0.5610   age150_m62            0.0000     6.2199E+01     5.4656  -0.1118   105.4947
 28      0.0000     0.0000E+00    0.0000E+00    5.000000E+09  0.02000  2.596E-05    0   0.5353   age161_m62            0.0000     1.2286E+02     7.1103  -0.4210   104.4736
 29      0.0000     0.0000E+00    0.0000E+00    1.100000E+10  0.02000  1.169E-05    0   0.5103   age185_m62            0.0000     1.9769E+02     8.7635  -0.7879   106.0010
 30      0.0000     0.0000E+00    0.0000E+00    1.300000E+10  0.02000  9.691E-06    0   0.5047   age193_m62            0.0000     2.1350E+02     9.0082  -0.8316   106.1563
 31      0.0000     0.0000E+00    0.0000E+00    1.000000E+06  0.05000  2.651E-02    0   0.9998   age020_m72            0.0000     2.0244E+02    13.5078   4.0000    70.5316
 32      0.0000     0.0000E+00    0.0000E+00    3.160000E+06  0.05000  4.817E-02    0   0.9577   age045_m72            0.0000     8.7414E+01     8.2056   3.9438    75.7797
 33      0.0000     0.0000E+00    0.0000E+00    5.010000E+06  0.05000  3.101E-02    0   0.9147   age055_m72            0.0000     7.9081E+01     8.1091   3.5743    78.6223
 34      0.0000     0.0000E+00    0.0000E+00    1.000000E+07  0.05000  8.954E-03    0   0.8524   age070_m72            0.0000     9.6594E+01     8.3337   3.8337    76.8081
 35      0.0000     0.0000E+00    0.0000E+00    2.512000E+07  0.05000  4.207E-03    0   0.7902   age090_m72            0.0000     4.7861E+01     5.4379   3.2816    86.4254
 36      0.0000     0.0000E+00    0.0000E+00    4.000000E+07  0.05000  3.198E-03    0   0.7618   age104_m72            0.0000     3.6604E+01     4.4457   2.4730   106.8198
 37      0.0000     0.0000E+00    0.0000E+00    1.015200E+08  0.05000  1.716E-03    0   0.7092   age116_m72            0.0000     1.0907E+02     8.1983   1.9705   121.4078
 38      0.0000     0.0000E+00    0.0000E+00    2.861200E+08  0.05000  7.047E-04    0   0.6618   age125_m72            0.0000     2.5205E+02    14.2617   0.8669   143.9944
 39      0.0000     0.0000E+00    0.0000E+00    6.405400E+08  0.05000  2.633E-04    0   0.6253   age132_m72            0.0000     1.1222E+02    10.4678   0.2446   135.3683
 40      0.0000     0.0000E+00    0.0000E+00    9.047900E+08  0.05000  1.484E-04    0   0.6088   age135_m72            0.0000     5.5968E+01     7.0472   0.0000   117.8756
 41      0.0000     0.0000E+00    0.0000E+00    1.434000E+09  0.05000  7.827E-05    0   0.5847   age139_m72            0.0000     8.5518E+01     6.8511  -0.2563   108.3765
 42      0.0000     0.0000E+00    0.0000E+00    2.500000E+09  0.05000  3.759E-05    0   0.5583   age150_m72            0.0000     1.3526E+02     7.5776  -0.5145   104.7939
 43      0.7462     5.4393E+00    5.4059E+00    5.000000E+09  0.05000  1.548E-05    0   0.5320   age161_m72            0.0000     1.9286E+02     9.0061  -0.9287   104.5404
 44      0.0002     4.1022E-03    3.8854E-03    1.100000E+10  0.05000  6.532E-06    0   0.5070   age185_m72            0.0000     3.4148E+02    14.3730  -1.0000   102.5515
 45      0.0000     0.0000E+00    0.0000E+00    1.300000E+10  0.05000  5.316E-06    0   0.5018   age193_m72            0.0000     4.5246E+02    17.4556  -1.0000   101.4406


## Synthesis Results - Average & Chains ##

# j      x_j: min, <> & last-chain-values for 1 ...  7 chains
  1      0.0000      0.0079      0.0000      0.0000      0.0047      0.0000      0.0000      0.0000      0.0000
  2      4.3745      4.1129      4.3589      4.1707      4.2034      4.3442      4.4194      4.3491      4.7200
  3      0.0000      0.0564      0.0786      0.0000      0.0221      0.1711      0.0000      0.0000      0.0607
  4     10.3914      9.2152      9.5979      9.6013      9.8437      9.4761      9.4608      9.6887      9.8677
  5      0.0000      0.3580      0.4454      0.3104      0.3581      0.2675      0.3973      0.4338      0.0000
  6      0.0000      0.0319      0.0000      0.0000      0.0307      0.0000      0.0000      0.0000      0.0000
  7     30.5470     29.5587     29.8983     30.5153     29.7056     30.9438     29.5627     30.2231     29.8108
  8      0.0000      0.0254      0.2872      0.0009      0.0000      0.0523      0.0000      0.0000      0.0000
  9      0.0000      0.1365      0.0000      0.0000      0.0742      0.2241      0.0310      0.0529      0.1082
 10      2.0279      2.6999      2.6365      2.0122      2.3184      1.6718      2.6854      2.1390      2.9537
 11      0.0012      2.9001      2.6844      1.7722      2.5420      1.2575      2.8230      2.1026      1.7094
 12     29.8682     27.1968     27.1505     27.5731     27.4451     27.6848     27.4400     27.2014     27.4519
 13     24.2295     23.0248     22.9187     23.5350     23.0033     24.0984     22.7896     23.4683     23.1949
 14      0.0000      0.0501      0.0000      0.0000      0.0000      0.0000      0.0014      0.0000      0.0000
 15      0.0000      0.0429      0.0034      0.0983      0.0000      0.0000      0.0220      0.0000      0.0000
 16      0.0000      0.0029      0.0000      0.0000      0.0000      0.0000      0.0000      0.0000      0.0000
 17      0.0000      0.0050      0.0000      0.0000      0.0000      0.0000      0.0000      0.0000      0.0000
 18      0.5783      0.5337      0.4030      0.8504      0.5862      0.4380      0.6444      0.6029      0.4959
 19      0.0000      0.1066      0.0000      0.0000      0.0000      0.0000      0.0359      0.0950      0.0000
 20      0.0000      0.0097      0.0000      0.0000      0.0000      0.0000      0.0000      0.0000      0.0000
 21      0.0000      0.0215      0.0000      0.0036      0.0000      0.0000      0.0000      0.0000      0.0000
 22      0.0000      0.0330      0.0000      0.0000      0.0000      0.0000      0.0000      0.0000      0.0000
 23      0.0000      0.0107      0.0000      0.0000      0.0000      0.0205      0.0000      0.0000      0.0000
 24      0.0000      0.0104      0.0000      0.0000      0.0000      0.0000      0.0000      0.0000      0.0641
 25      0.0000      0.0244      0.0000      0.0000      0.1895      0.0000      0.0000      0.0131      0.0181
 26      0.0000      0.0544      0.0000      0.2511      0.0777      0.0000      0.0000      0.0000      0.0240
 27      0.0000      0.2084      0.3225      0.0000      0.0179      0.1296      0.4112      0.0505      0.0000
 28      0.0000      0.0556      0.0000      0.1948      0.0000      0.0833      0.0000      0.0000      0.0000
 29      0.0000      0.2821      0.2689      0.3111      0.2864      0.1355      0.2051      0.0258      0.2143
 30      0.0000      0.3170      0.2644      0.0092      0.2106      0.0000      0.1018      0.0763      0.1369
 31      0.0000      0.0064      0.0000      0.0000      0.0042      0.0000      0.0000      0.0000      0.0000
 32      0.0000      0.0828      0.1288      0.0373      0.0848      0.0000      0.0536      0.0000      0.0000
 33      0.0000      0.1080      0.1261      0.0000      0.0511      0.0000      0.0000      0.0000      0.1663
 34      0.0000      0.0139      0.0000      0.0000      0.0000      0.0000      0.0000      0.0000      0.0274
 35      0.0000      0.0082      0.0285      0.0000      0.0074      0.0000      0.0011      0.0000      0.0000
 36      0.0000      0.0288      0.0000      0.0000      0.0000      0.0673      0.0000      0.0000      0.0595
 37      0.0000      0.0393      0.0000      0.0000      0.1199      0.0000      0.0000      0.0000      0.0000
 38      0.0000      0.0140      0.0000      0.0008      0.0000      0.0000      0.0000      0.0046      0.0000
 39      0.0000      0.0328      0.0000      0.0618      0.1727      0.0202      0.0000      0.0001      0.0000
 40      0.0000      0.0608      0.0000      0.0000      0.0000      0.0000      0.0000      0.0803      0.0000
 41      0.0000      0.2585      0.2598      0.2007      0.1109      0.3060      0.4228      0.7567      0.3886
 42      0.0000      0.3207      0.0971      0.3090      0.6059      0.3616      0.3608      0.4995      0.3484
 43      0.7462      0.4814      0.3949      0.4907      0.6178      0.3650      0.6419      0.4629      0.5584
 44      0.0002      0.4576      0.5492      0.5059      0.1853      0.7042      0.4694      0.4703      0.5028
 45      0.0000      0.3129      0.3025      0.2475      0.2785      0.3205      0.2317      0.2725      0.1892

# j      m_j: min, <> & last-chain-values for 1 ...  7 chains
  1  0.0000E+00  1.2787E-04  0.0000E+00  0.0000E+00  7.9366E-05  0.0000E+00  0.0000E+00  0.0000E+00  0.0000E+00
  2  2.2640E-02  1.8240E-02  1.9630E-02  1.8921E-02  1.9606E-02  1.9292E-02  2.0224E-02  2.0180E-02  2.1810E-02
  3  0.0000E+00  3.8147E-04  5.3953E-04  0.0000E+00  1.5755E-04  1.1591E-03  0.0000E+00  0.0000E+00  4.2766E-04
  4  1.5274E-01  1.1607E-01  1.2276E-01  1.2371E-01  1.3041E-01  1.1952E-01  1.2296E-01  1.2768E-01  1.2950E-01
  5  0.0000E+00  1.0426E-02  1.3173E-02  9.2466E-03  1.0970E-02  7.8006E-03  1.1940E-02  1.3220E-02  0.0000E+00
  6  0.0000E+00  1.2912E-03  0.0000E+00  0.0000E+00  1.3083E-03  0.0000E+00  0.0000E+00  0.0000E+00  0.0000E+00
  7  2.0463E+00  1.6968E+00  1.7428E+00  1.7920E+00  1.7935E+00  1.7788E+00  1.7511E+00  1.8152E+00  1.7830E+00
  8  0.0000E+00  2.8144E-03  3.2291E-02  1.0430E-04  0.0000E+00  5.7985E-03  0.0000E+00  0.0000E+00  0.0000E+00
  9  0.0000E+00  3.0098E-02  0.0000E+00  0.0000E+00  1.7206E-02  4.9481E-02  7.0619E-03  1.2202E-02  2.4854E-02
 10  7.2852E-01  8.3115E-01  8.2417E-01  6.3367E-01  7.5066E-01  5.1535E-01  8.5304E-01  6.8895E-01  9.4740E-01
 11  7.3719E-04  1.5679E+00  1.4737E+00  9.8007E-01  1.4454E+00  6.8078E-01  1.5748E+00  1.1893E+00  9.6290E-01
 12  3.5036E+01  2.7337E+01  2.7713E+01  2.8353E+01  2.9016E+01  2.7866E+01  2.8461E+01  2.8607E+01  2.8751E+01
 13  5.6600E+01  4.6090E+01  4.6587E+01  4.8194E+01  4.8431E+01  4.8305E+01  4.7073E+01  4.9151E+01  4.8378E+01
 14  0.0000E+00  2.0449E-01  0.0000E+00  0.0000E+00  0.0000E+00  0.0000E+00  5.7755E-03  0.0000E+00  0.0000E+00
 15  0.0000E+00  2.0299E-01  1.6265E-02  4.7515E-01  0.0000E+00  0.0000E+00  1.0727E-01  0.0000E+00  0.0000E+00
 16  0.0000E+00  2.6017E-05  0.0000E+00  0.0000E+00  0.0000E+00  0.0000E+00  0.0000E+00  0.0000E+00  0.0000E+00
 17  0.0000E+00  2.3505E-05  0.0000E+00  0.0000E+00  0.0000E+00  0.0000E+00  0.0000E+00  0.0000E+00  0.0000E+00
 18  3.5291E-03  2.7913E-03  2.1402E-03  4.5497E-03  3.2245E-03  2.2935E-03  3.4776E-03  3.2990E-03  2.7023E-03
 19  0.0000E+00  1.6662E-03  0.0000E+00  0.0000E+00  0.0000E+00  0.0000E+00  5.7861E-04  1.5549E-03  0.0000E+00
 20  0.0000E+00  3.3821E-04  0.0000E+00  0.0000E+00  0.0000E+00  0.0000E+00  0.0000E+00  0.0000E+00  0.0000E+00
 21  0.0000E+00  8.9644E-04  0.0000E+00  1.5305E-04  0.0000E+00  0.0000E+00  0.0000E+00  0.0000E+00  0.0000E+00
 22  0.0000E+00  2.2912E-03  0.0000E+00  0.0000E+00  0.0000E+00  0.0000E+00  0.0000E+00  0.0000E+00  0.0000E+00
 23  0.0000E+00  1.4633E-03  0.0000E+00  0.0000E+00  0.0000E+00  2.8011E-03  0.0000E+00  0.0000E+00  0.0000E+00
 24  0.0000E+00  3.2463E-03  0.0000E+00  0.0000E+00  0.0000E+00  0.0000E+00  0.0000E+00  0.0000E+00  2.0863E-02
 25  0.0000E+00  1.1722E-02  0.0000E+00  0.0000E+00  9.5784E-02  0.0000E+00  0.0000E+00  6.5996E-03  9.0901E-03
 26  0.0000E+00  4.9364E-02  0.0000E+00  2.3299E-01  7.4173E-02  0.0000E+00  0.0000E+00  0.0000E+00  2.2642E-02
 27  0.0000E+00  3.8370E-01  6.0280E-01  0.0000E+00  3.4595E-02  2.3896E-01  7.8115E-01  9.7231E-02  0.0000E+00
 28  0.0000E+00  2.0692E-01  0.0000E+00  7.4223E-01  0.0000E+00  3.1088E-01  0.0000E+00  0.0000E+00  0.0000E+00
 29  0.0000E+00  2.2250E+00  2.1529E+00  2.5096E+00  2.3756E+00  1.0698E+00  1.6689E+00  2.1278E-01  1.7604E+00
 30  0.0000E+00  2.9824E+00  2.5263E+00  8.8554E-02  2.0836E+00  0.0000E+00  9.8784E-01  7.5120E-01  1.3420E+00
 31  0.0000E+00  4.3662E-05  0.0000E+00  0.0000E+00  3.0359E-05  0.0000E+00  0.0000E+00  0.0000E+00  0.0000E+00
 32  0.0000E+00  2.9729E-04  4.6973E-04  1.3688E-04  3.2035E-04  0.0000E+00  1.9855E-04  0.0000E+00  0.0000E+00
 33  0.0000E+00  5.7554E-04  6.8228E-04  0.0000E+00  2.8619E-04  0.0000E+00  0.0000E+00  0.0000E+00  9.2308E-04
 34  0.0000E+00  2.3892E-04  0.0000E+00  0.0000E+00  0.0000E+00  0.0000E+00  0.0000E+00  0.0000E+00  4.9173E-04
 35  0.0000E+00  2.7976E-04  9.8236E-04  0.0000E+00  2.6410E-04  0.0000E+00  3.6793E-05  0.0000E+00  0.0000E+00
 36  0.0000E+00  1.2390E-03  0.0000E+00  0.0000E+00  0.0000E+00  2.8986E-03  0.0000E+00  0.0000E+00  2.6692E-03
 37  0.0000E+00  2.9370E-03  0.0000E+00  0.0000E+00  9.4174E-03  0.0000E+00  0.0000E+00  0.0000E+00  0.0000E+00
 38  0.0000E+00  2.3721E-03  0.0000E+00  1.4593E-04  0.0000E+00  0.0000E+00  0.0000E+00  8.1771E-04  0.0000E+00
 39  0.0000E+00  1.4064E-02  0.0000E+00  2.7110E-02  7.7914E-02  8.6984E-03  0.0000E+00  3.0383E-05  0.0000E+00
 40  0.0000E+00  4.5059E-02  0.0000E+00  0.0000E+00  0.0000E+00  0.0000E+00  0.0000E+00  6.2255E-02  0.0000E+00
 41  0.0000E+00  3.4879E-01  3.5607E-01  2.7712E-01  1.5746E-01  4.1355E-01  5.8872E-01  1.0685E+00  5.4635E-01
 42  0.0000E+00  8.6042E-01  2.6459E-01  8.4809E-01  1.7097E+00  9.7151E-01  9.9903E-01  1.4022E+00  9.7408E-01
 43  5.4059E+00  2.9887E+00  2.4899E+00  3.1166E+00  4.0344E+00  2.2690E+00  4.1122E+00  3.0065E+00  3.6121E+00
 44  3.8854E-03  6.4167E+00  7.8204E+00  7.2567E+00  2.7325E+00  9.8869E+00  6.7920E+00  6.8998E+00  7.3451E+00
 45  0.0000E+00  5.3363E+00  5.2373E+00  4.3168E+00  4.9945E+00  5.4729E+00  4.0768E+00  4.8619E+00  3.3619E+00

# AV, chi2 & Mass for <> & i_chain = 1 ...  7 solutions
AV       0.9623      0.9100      0.9308      0.9268      0.9306      0.9217      0.9186      0.9290      0.9357
chi2 2.4094E+00  2.4856E+00  2.4566E+00  2.4467E+00  2.4515E+00  2.4542E+00  2.4607E+00  2.4418E+00  2.4390E+00
Mass 2.5863E-10  2.8132E-10  2.8490E-10  2.8128E-10  2.7497E-10  2.8541E-10  2.7580E-10  2.7584E-10  2.7950E-10
 -13.25                                  [v0_min (km/s) before EX0s...]
 121.74                                  [vd_min (km/s) before EX0s...]


## Synthetic spectrum (Best Model) ##l_obs f_obs f_syn wei
 3070    [Nl_obs]
 3359.00    0.00000   0.49785   -2.000
 3360.00    0.00000   0.48607   -2.000
 3361.00    0.23162   0.48555   -1.000
 3362.00    0.28353   0.49631   -1.000
 3363.00    0.31250   0.51179   -1.000
 3364.00    0.31140   0.52303   -1.000
 3365.00    0.32200   0.52451   -1.000
 3366.00    0.31911   0.51672   -1.000
 3367.00    0.29619   0.50463   -1.000
 3368.00    0.31458   0.49379   -1.000
 3369.00    0.30489   0.48695   -1.000
 3370.00    0.29314   0.48361   -1.000
 3371.00    0.29272   0.48282   -1.000
 3372.00    0.29005   0.48575   -1.000
 3373.00    0.32252   0.49491   -1.000
 3374.00    0.33784   0.51006   -1.000
 3375.00    0.33199   0.52581   -1.000
 3376.00    0.34882   0.53442   -1.000
 3377.00    0.36521   0.53170   -1.000
 3378.00    0.35342   0.52078   -1.000
 3379.00    0.35277   0.50971   -1.000
 3380.00    0.36174   0.50560   -1.000
 3381.00    0.36950   0.51047   -1.000
 3382.00    0.35824   0.52109   -1.000
 3383.00    0.36124   0.53253   -1.000
 3384.00    0.36886   0.54157   -1.000
 3385.00    0.39931   0.54736   -1.000
 3386.00    0.40512   0.54997   -1.000
 3387.00    0.38426   0.54984   -1.000
 3388.00    0.41392   0.54809   -1.000
 3389.00    0.42758   0.54560   -1.000
 3390.00    0.41164   0.54210   -1.000
 3391.00    0.41422   0.53731   -1.000
 3392.00    0.40886   0.53290   -1.000
 3393.00    0.42260   0.53237   -1.000
 3394.00    0.42237   0.53823   -1.000
 3395.00    0.42772   0.54953   -1.000
 3396.00    0.44763   0.56228   -1.000
 3397.00    0.44618   0.57204   -1.000
 3398.00    0.48813   0.57586   -1.000
 3399.00    0.46897   0.57318   -1.000
 3400.00    0.46761   0.56562   -1.000
 3401.00    0.46533   0.55590   -1.000
 3402.00    0.46104   0.54662   -1.000
 3403.00    0.45255   0.53944   -1.000
 3404.00    0.45126   0.53458   -1.000
 3405.00    0.46573   0.53069   -1.000
 3406.00    0.46142   0.52679   -1.000
 3407.00    0.44575   0.52386   -1.000
 3408.00    0.43466   0.52388   -1.000
 3409.00    0.44239   0.52711   -1.000
 3410.00    0.45005   0.53121   -1.000
 3411.00    0.44995   0.53328   -1.000
 3412.00    0.44494   0.53245   -1.000
 3413.00    0.45794   0.53055   -1.000
 3414.00    0.44278   0.53037   -1.000
 3415.00    0.43410   0.53385   -1.000
 3416.00    0.44709   0.54128   -1.000
 3417.00    0.46048   0.55143   -1.000
 3418.00    0.47198   0.56184   -1.000
 3419.00    0.49525   0.56958   -1.000
 3420.00    0.48605   0.57245   -1.000
 3421.00    0.47436   0.57042   -1.000
 3422.00    0.46727   0.56570   -1.000
 3423.00    0.47485   0.56120   -1.000
 3424.00    0.49171   0.55886   -1.000
 3425.00    0.48616   0.55966   -1.000
 3426.00    0.48036   0.56406   -1.000
 3427.00    0.46477   0.57171   -1.000
 3428.00    0.48598   0.58032   -1.000
 3429.00    0.49005   0.58585   -1.000
 3430.00    0.50818   0.58508   -1.000
 3431.00    0.51524   0.57870   -1.000
 3432.00    0.49625   0.57085   -1.000
 3433.00    0.48820   0.56575   -1.000
 3434.00    0.49753   0.56472   -1.000
 3435.00    0.51472   0.56560   -1.000
 3436.00    0.51808   0.56462   -1.000
 3437.00    0.50852   0.55856   -1.000
 3438.00    0.49703   0.54644   -1.000
 3439.00    0.46958   0.52991   -1.000
 3440.00    0.44060   0.51320   -1.000
 3441.00    0.44331   0.50128   -1.000
 3442.00    0.46140   0.49723   -1.000
 3443.00    0.46404   0.50067   -1.000
 3444.00    0.48230   0.50934   -1.000
 3445.00    0.48744   0.52158   -1.000
 3446.00    0.48765   0.53659   -1.000
 3447.00    0.50806   0.55261   -1.000
 3448.00    0.52089   0.56577   -1.000
 3449.00    0.52840   0.57166   -1.000
 3450.00    0.51919   0.56839   -1.000
 3451.00    0.53408   0.55852   -1.000
 3452.00    0.51948   0.54789   -1.000
 3453.00    0.51697   0.54160   -1.000
 3454.00    0.51478   0.54095   -1.000
 3455.00    0.52612   0.54288   -1.000
 3456.00    0.52286   0.54295   -1.000
 3457.00    0.52487   0.53883   -1.000
 3458.00    0.52925   0.53147  897.644
 3459.00    0.52843   0.52412   -1.000
 3460.00    0.51371   0.52024  176.542
 3461.00    0.51920   0.52191  153.504
 3462.00    0.53177   0.52853  152.938
 3463.00    0.54062   0.53662   -1.000
 3464.00    0.54602   0.54248   -1.000
 3465.00    0.54356   0.54552  897.644
 3466.00    0.52774   0.54795   -1.000
 3467.00    0.54323   0.55165   -1.000
 3468.00    0.55182   0.55651  897.644
 3469.00    0.55776   0.56059  897.644
 3470.00    0.56824   0.56157   -1.000
 3471.00    0.55466   0.55775  897.644
 3472.00    0.53615   0.54880   -1.000
 3473.00    0.53318   0.53634  897.644
 3474.00    0.53148   0.52407   -1.000
 3475.00    0.51336   0.51645  897.644
 3476.00    0.49971   0.51648  178.981
 3477.00    0.52254   0.52355  157.864
 3478.00    0.53719   0.53384  155.817
 3479.00    0.54032   0.54290  612.668
 3480.00    0.56536   0.54794   -1.000
 3481.00    0.55718   0.54843   -1.000
 3482.00    0.53761   0.54617   -1.000
 3483.00    0.54494   0.54461  897.644
 3484.00    0.54078   0.54695   -1.000
 3485.00    0.55218   0.55340  897.644
 3486.00    0.57071   0.56006   -1.000
 3487.00    0.56790   0.56164   -1.000
 3488.00    0.56002   0.55593   -1.000
 3489.00    0.55013   0.54626   -1.000
 3490.00    0.53694   0.53827  897.644
 3491.00    0.52789   0.53523   -1.000
 3492.00    0.53596   0.53574   -1.000
 3493.00    0.54337   0.53583   -1.000
 3494.00    0.55715   0.53342   -1.000
 3495.00    0.52909   0.53029  897.644
 3496.00    0.52524   0.53055  897.644
 3497.00    0.53150   0.53640  897.644
 3498.00    0.53539   0.54570   -1.000
 3499.00    0.56257   0.55402   -1.000
 3500.00    0.57536   0.55880   -1.000
 3501.00    0.58683   0.56119   -1.000
 3502.00    0.57950   0.56270   -1.000
 3503.00    0.57445   0.56272   -1.000
 3504.00    0.56993   0.56022   -1.000
 3505.00    0.56897   0.55598   -1.000
 3506.00    0.55839   0.55240   -1.000
 3507.00    0.57504   0.55068   -1.000
 3508.00    0.58225   0.54959   -1.000
 3509.00    0.58492   0.54730   -1.000
 3510.00    0.56177   0.54307   -1.000
 3511.00    0.55696   0.53762   -1.000
 3512.00    0.56289   0.53252   -1.000
 3513.00    0.55530   0.53011   -1.000
 3514.00    0.56079   0.53293   -1.000
 3515.00    0.56572   0.54201   -1.000
 3516.00    0.56002   0.55443   -1.000
 3517.00    0.56993   0.56464   -1.000
 3518.00    0.56148   0.56807   -1.000
 3519.00    0.55753   0.56360   -1.000
 3520.00    0.56525   0.55375   -1.000
 3521.00    0.55603   0.54194   -1.000
 3522.00    0.54447   0.53068   -1.000
 3523.00    0.53889   0.52117   -1.000
 3524.00    0.51833   0.51501   -1.000
 3525.00    0.52255   0.51472  180.637
 3526.00    0.52174   0.52161  156.192
 3527.00    0.53090   0.53407  156.299
 3528.00    0.53614   0.54777   -1.000
 3529.00    0.55991   0.55823   -1.000
 3530.00    0.56370   0.56380  897.644
 3531.00    0.56130   0.56601  897.644
 3532.00    0.56852   0.56761  897.644
 3533.00    0.55802   0.57008   -1.000
 3534.00    0.57544   0.57319   -1.000
 3535.00    0.58434   0.57622   -1.000
 3536.00    0.57550   0.57928   -1.000
 3537.00    0.56912   0.58283   -1.000
 3538.00    0.56977   0.58654   -1.000
 3539.00    0.57820   0.58912   -1.000
 3540.00    0.58380   0.58982   -1.000
 3541.00    0.57775   0.58964   -1.000
 3542.00    0.57556   0.59042   -1.000
 3543.00    0.57901   0.59265   -1.000
 3544.00    0.58255   0.59489   -1.000
 3545.00    0.58463   0.59583   -1.000
 3546.00    0.58076   0.59538   -1.000
 3547.00    0.57911   0.59475   -1.000
 3548.00    0.56540   0.59488   -1.000
 3549.00    0.54890   0.59545   -1.000
 3550.00    0.56074   0.59524   -1.000
 3551.00    0.56987   0.59311   -1.000
 3552.00    0.57015   0.58913   -1.000
 3553.00    0.55950   0.58464   -1.000
 3554.00    0.55507   0.58154   -1.000
 3555.00    0.56450   0.58046   -1.000
 3556.00    0.57164   0.58044   -1.000
 3557.00    0.55520   0.58011   -1.000
 3558.00    0.56681   0.57927   -1.000
 3559.00    0.56217   0.57954   -1.000
 3560.00    0.56207   0.58217   -1.000
 3561.00    0.56552   0.58558   -1.000
 3562.00    0.56086   0.58508   -1.000
 3563.00    0.54295   0.57660   -1.000
 3564.00    0.53566   0.56133   -1.000
 3565.00    0.52974   0.54509   -1.000
 3566.00    0.50191   0.53388   -1.000
 3567.00    0.51247   0.52789  158.300
 3568.00    0.51121   0.52332  157.990
 3569.00    0.49946   0.51810  156.922
 3570.00    0.50514   0.51357  161.122
 3571.00    0.52149   0.51255  164.580
 3572.00    0.53059   0.51541  160.882
 3573.00    0.52498   0.51987  154.041
 3574.00    0.52363   0.52388  548.440
 3575.00    0.52716   0.52656  897.644
 3576.00    0.52591   0.52746  897.644
 3577.00    0.53106   0.52536   -1.000
 3578.00    0.54070   0.51893   -1.000
 3579.00    0.53742   0.50888   -1.000
 3580.00    0.50877   0.49823  192.197
 3581.00    0.49583   0.49053  168.429
 3582.00    0.50584   0.48661   -1.000
 3583.00    0.49151   0.48429  181.286
 3584.00    0.48776   0.48130  182.095
 3585.00    0.48534   0.47769  185.965
 3586.00    0.47475   0.47648  191.847
 3587.00    0.48191   0.48073  195.254
 3588.00    0.48517   0.49109  187.661
 3589.00    0.50000   0.50588  177.718
 3590.00    0.53281   0.52167  168.968
 3591.00    0.55315   0.53502   -1.000
 3592.00    0.55349   0.54413   -1.000
 3593.00    0.55993   0.55017   -1.000
 3594.00    0.56925   0.55589   -1.000
 3595.00    0.56001   0.56326   -1.000
 3596.00    0.56924   0.57214   -1.000
 3597.00    0.58410   0.58050  897.644
 3598.00    0.58806   0.58609  897.644
 3599.00    0.59226   0.58693   -1.000
 3600.00    0.59572   0.58180   -1.000
 3601.00    0.57667   0.57145   -1.000
 3602.00    0.56429   0.55887   -1.000
 3603.00    0.55651   0.54820   -1.000
 3604.00    0.54986   0.54202   -1.000
 3605.00    0.54820   0.53984   -1.000
 3606.00    0.54317   0.53876   -1.000
 3607.00    0.54841   0.53627   -1.000
 3608.00    0.54141   0.53309   -1.000
 3609.00    0.53484   0.53184   -1.000
 3610.00    0.55714   0.53431   -1.000
 3611.00    0.56037   0.53987   -1.000
 3612.00    0.55083   0.54637   -1.000
 3613.00    0.53588   0.55282   -1.000
 3614.00    0.54795   0.55823   -1.000
 3615.00    0.57162   0.55984   -1.000
 3616.00    0.57231   0.55537   -1.000
 3617.00    0.54191   0.54616   -1.000
 3618.00    0.51877   0.53802   -1.000
 3619.00    0.52565   0.53751   -1.000
 3620.00    0.54462   0.54558  186.108
 3621.00    0.56456   0.55832   -1.000
 3622.00    0.57864   0.57121   -1.000
 3623.00    0.58103   0.58282  897.644
 3624.00    0.58680   0.59423   -1.000
 3625.00    0.59198   0.60630   -1.000
 3626.00    0.59948   0.61683   -1.000
 3627.00    0.60321   0.62039   -1.000
 3628.00    0.60387   0.61292   -1.000
 3629.00    0.58518   0.59509   -1.000
 3630.00    0.55724   0.57359   -1.000
 3631.00    0.53863   0.55753   -1.000
 3632.00    0.54867   0.55191   -1.000
 3633.00    0.55690   0.55543  897.644
 3634.00    0.56489   0.56270   -1.000
 3635.00    0.57520   0.56986   -1.000
 3636.00    0.58199   0.57657   -1.000
 3637.00    0.58587   0.58452  897.644
 3638.00    0.59923   0.59376   -1.000
 3639.00    0.60989   0.60110   -1.000
 3640.00    0.60399   0.60287  897.644
 3641.00    0.59835   0.59751  897.644
 3642.00    0.58205   0.58722   -1.000
 3643.00    0.57582   0.57596  897.644
 3644.00    0.57739   0.56672   -1.000
 3645.00    0.56806   0.56050   -1.000
 3646.00    0.56053   0.55680   -1.000
 3647.00    0.56183   0.55541   -1.000
 3648.00    0.56440   0.55720   -1.000
 3649.00    0.57223   0.56294   -1.000
 3650.00    0.57388   0.57236  897.644
 3651.00    0.57252   0.58402   -1.000
 3652.00    0.58929   0.59571   -1.000
 3653.00    0.60380   0.60544  897.644
 3654.00    0.60919   0.61289   -1.000
 3655.00    0.61765   0.61879   -1.000
 3656.00    0.60848   0.62406   -1.000
 3657.00    0.60009   0.62860   -1.000
 3658.00    0.60643   0.63111   -1.000
 3659.00    0.61086   0.63069   -1.000
 3660.00    0.61544   0.62738   -1.000
 3661.00    0.61139   0.62213   -1.000
 3662.00    0.60512   0.61655   -1.000
 3663.00    0.60010   0.61218   -1.000
 3664.00    0.61190   0.60964  897.644
 3665.00    0.61204   0.60821  897.644
 3666.00    0.61922   0.60617   -1.000
 3667.00    0.62818   0.60293   -1.000
 3668.00    0.61592   0.60000   -1.000
 3669.00    0.60916   0.59998   -1.000
 3670.00    0.59845   0.60435   -1.000
 3671.00    0.61540   0.61110  897.644
 3672.00    0.61892   0.61656  897.644
 3673.00    0.61266   0.61771   -1.000
 3674.00    0.61080   0.61367   -1.000
 3675.00    0.61085   0.60573  897.644
 3676.00    0.60326   0.59576   -1.000
 3677.00    0.58938   0.58621  897.644
 3678.00    0.57877   0.57919  897.644
 3679.00    0.58910   0.57600   -1.000
 3680.00    0.59842   0.57684   -1.000
 3681.00    0.60365   0.58018   -1.000
 3682.00    0.60553   0.58349   -1.000
 3683.00    0.59691   0.58363   -1.000
 3684.00    0.59396   0.57913   -1.000
 3685.00    0.58051   0.57160   -1.000
 3686.00    0.56868   0.56568  897.644
 3687.00    0.57047   0.56643   -1.000
 3688.00    0.58583   0.57531   -1.000
 3689.00    0.60252   0.58904   -1.000
 3690.00    0.60830   0.60207   -1.000
 3691.00    0.60975   0.61065  897.644
 3692.00    0.61567   0.61408  897.644
 3693.00    0.62800   0.61407   -1.000
 3694.00    0.63042   0.61240   -1.000
 3695.00    0.62160   0.61082   -1.000
 3696.00    0.61201   0.61198  897.644
 3697.00    0.61713   0.61841   -1.000
 3698.00    0.64476   0.62962   -1.000
 3699.00    0.66926   0.64036   -1.000
 3700.00    0.67153   0.64269   -1.000
 3701.00    0.64211   0.63135   -1.000
 3702.00    0.61539   0.60759   -1.000
 3703.00    0.59413   0.57933   -1.000
 3704.00    0.57187   0.55704   -1.000
 3705.00    0.56156   0.54714   -1.000
 3706.00    0.57715   0.54945   -1.000
 3707.00    0.58850   0.55786   -1.000
 3708.00    0.59941   0.56552   -1.000
 3709.00    0.60042   0.56975   -1.000
 3710.00    0.59392   0.57303   -1.000
 3711.00    0.59663   0.58056   -1.000
 3712.00    0.60976   0.59578   -1.000
 3713.00    0.63708   0.61738   -1.000
 3714.00    0.65630   0.63950   -1.000
 3715.00    0.66236   0.65505   -1.000
 3716.00    0.68102   0.65789   -1.000
 3717.00    0.67393   0.64405   -1.000
 3718.00    0.64102   0.61443   -1.000
 3719.00    0.59529   0.57600   -1.000
 3720.00    0.53925   0.54105   -1.000
 3721.00    0.50523   0.52296   -1.000
 3722.00    0.52989   0.52850  197.271
 3723.00    0.58223   0.55427   -1.000
 3724.00    0.62906   0.58924   -1.000
 3725.00    0.65254   0.62168   -1.000
 3726.00    0.66159   0.64460   -1.000
 3727.00    0.65749   0.65770  897.644
 3728.00    0.66333   0.66244  897.644
 3729.00    0.67232   0.65638   -1.000
 3730.00    0.66270   0.63575   -1.000
 3731.00    0.63058   0.59997   -1.000
 3732.00    0.57958   0.55499   -1.000
 3733.00    0.53619   0.51297   -1.000
 3734.00    0.50825   0.48671   -1.000
 3735.00    0.50166   0.48434  164.594
 3736.00    0.52195   0.50717  174.212
 3737.00    0.57517   0.54905   -1.000
 3738.00    0.62949   0.59874   -1.000
 3739.00    0.66396   0.64433   -1.000
 3740.00    0.68765   0.67617   -1.000
 3741.00    0.71193   0.68971   -1.000
 3742.00    0.69328   0.68618   -1.000
 3743.00    0.68204   0.66959   -1.000
 3744.00    0.66441   0.64405   -1.000
 3745.00    0.63236   0.61249   -1.000
 3746.00    0.59741   0.57613   -1.000
 3747.00    0.56462   0.53835   -1.000
 3748.00    0.53000   0.50682   -1.000
 3749.00    0.50956   0.49152  160.679
 3750.00    0.51373   0.50019  164.584
 3751.00    0.55645   0.53247   -1.000
 3752.00    0.61405   0.57966   -1.000
 3753.00    0.66091   0.62941   -1.000
 3754.00    0.70201   0.67007   -1.000
 3755.00    0.72825   0.69377   -1.000
 3756.00    0.72407   0.69951   -1.000
 3757.00    0.68908   0.69290   -1.000
 3758.00    0.67392   0.68347   -1.000
 3759.00    0.67422   0.67883   -1.000
 3760.00    0.68490   0.68098  897.644
 3761.00    0.69749   0.68686   -1.000
 3762.00    0.71277   0.69161   -1.000
 3763.00    0.71172   0.69099   -1.000
 3764.00    0.70243   0.68221   -1.000
 3765.00    0.70523   0.66449   -1.000
 3766.00    0.67997   0.63884   -1.000
 3767.00    0.65775   0.60851   -1.000
 3768.00    0.62695   0.57819   -1.000
 3769.00    0.58003   0.55451   -1.000
 3770.00    0.56575   0.54515   -1.000
 3771.00    0.58876   0.55424   -1.000
 3772.00    0.63126   0.57973   -1.000
 3773.00    0.66242   0.61444   -1.000
 3774.00    0.68775   0.65017   -1.000
 3775.00    0.70329   0.68330   -1.000
 3776.00    0.71680   0.71394  897.644
 3777.00    0.74261   0.74272   -1.000
 3778.00    0.76889   0.76965   -1.000
 3779.00    0.78304   0.79301   -1.000
 3780.00    0.79097   0.81122   -1.000
 3781.00    0.80356   0.82329   -1.000
 3782.00    0.80606   0.82864   -1.000
 3783.00    0.80334   0.82666   -1.000
 3784.00    0.80266   0.81689   -1.000
 3785.00    0.78561   0.80052   -1.000
 3786.00    0.76596   0.78102   -1.000
 3787.00    0.74917   0.76279   -1.000
 3788.00    0.74686   0.74852   -1.000
 3789.00    0.74844   0.73767   -1.000
 3790.00    0.74517   0.72655   -1.000
 3791.00    0.73829   0.71091   -1.000
 3792.00    0.71315   0.68727   -1.000
 3793.00    0.68882   0.65465   -1.000
 3794.00    0.65889   0.61526   -1.000
 3795.00    0.62538   0.57304   -1.000
 3796.00    0.57929   0.53505   -1.000
 3797.00    0.53532   0.51078   -1.000
 3798.00    0.53827   0.50865   -1.000
 3799.00    0.57333   0.53230   -1.000
 3800.00    0.61650   0.57641   -1.000
 3801.00    0.67022   0.62904   -1.000
 3802.00    0.70779   0.67859   -1.000
 3803.00    0.74095   0.71715  110.695
 3804.00    0.75764   0.74255  107.665
 3805.00    0.76442   0.75814  106.616
 3806.00    0.76104   0.76979  107.693
 3807.00    0.75396   0.78326   -1.000
 3808.00    0.77856   0.80008   -1.000
 3809.00    0.80822   0.81599  112.226
 3810.00    0.81764   0.82435  108.170
 3811.00    0.80661   0.82063  106.186
 3812.00    0.79155   0.80592   -1.000
 3813.00    0.78082   0.78672  112.311
 3814.00    0.75902   0.77108   -1.000
 3815.00    0.75835   0.76340  126.330
 3816.00    0.77238   0.76194  132.570
 3817.00    0.78152   0.76073  132.378
 3818.00    0.77830   0.75482  127.954
 3819.00    0.75449   0.74512  128.261
 3820.00    0.74463   0.73605  135.517
 3821.00    0.75514   0.73035  143.315
 3822.00    0.75782   0.72580   -1.000
 3823.00    0.74526   0.71731  136.987
 3824.00    0.72147   0.70302  136.349
 3825.00    0.69587   0.68570  145.424
 3826.00    0.68100   0.66929   21.125
 3827.00    0.68222   0.65494   16.093
 3828.00    0.67462   0.64036   16.080
 3829.00    0.66649   0.62149   15.848
 3830.00    0.64984   0.59542   15.588
 3831.00    0.61774   0.56158   15.663
 3832.00    0.58757   0.52312   16.242
 3833.00    0.54523   0.48691   17.398
 3834.00    0.50876   0.46062   18.170
 3835.00    0.50032   0.45024   18.044
 3836.00    0.51944   0.45688   17.402
 3837.00    0.54790   0.47762   16.934
 3838.00    0.57460   0.50896   17.101
 3839.00    0.59845   0.54805   17.509
 3840.00    0.63552   0.59248   17.390
 3841.00    0.68306   0.63911   16.563
 3842.00    0.72732   0.68302   44.802
 3843.00    0.75272   0.72037   -1.000
 3844.00    0.76391   0.74956  127.337
 3845.00    0.77994   0.77135  123.482
 3846.00    0.78702   0.78724  122.899
 3847.00    0.79019   0.79793  122.860
 3848.00    0.79740   0.80434  123.012
 3849.00    0.79006   0.80830   -1.000
 3850.00    0.79004   0.81243   -1.000
 3851.00    0.79693   0.81740   -1.000
 3852.00    0.80916   0.82125   -1.000
 3853.00    0.82100   0.82147  127.442
 3854.00    0.81887   0.81692  127.159
 3855.00    0.80758   0.80885  129.808
 3856.00    0.79010   0.79946   -1.000
 3857.00    0.78572   0.79066  136.054
 3858.00    0.77278   0.78514   -1.000
 3859.00    0.75811   0.78541   20.268
 3860.00    0.76082   0.79251   15.680
 3861.00    0.78813   0.80411   15.695
 3862.00    0.82925   0.81540   42.076
 3863.00    0.84544   0.82284  129.148
 3864.00    0.84191   0.82571  121.350
 3865.00    0.83810   0.82605  120.474
 3866.00    0.83142   0.82567  122.491
 3867.00    0.82651   0.82430  124.516
 3868.00    0.82438   0.82018  126.794
 3869.00    0.80817   0.81125  131.154
 3870.00    0.78806   0.79829   -1.000
 3871.00    0.76119   0.78542   -1.000
 3872.00    0.76220   0.77826   20.675
 3873.00    0.77431   0.77936   41.352
 3874.00    0.78734   0.78508  137.196
 3875.00    0.80381   0.78828  124.624
 3876.00    0.78708   0.78351  118.146
 3877.00    0.75463   0.77183   -1.000
 3878.00    0.73768   0.75828   -1.000
 3879.00    0.74016   0.74645  137.233
 3880.00    0.72836   0.73586  140.537
 3881.00    0.70778   0.72355   -1.000
 3882.00    0.70233   0.70658  143.268
 3883.00    0.70891   0.68307  141.629
 3884.00    0.69907   0.65133   -1.000
 3885.00    0.66740   0.61196   -1.000
 3886.00    0.63356   0.56978   -1.000
 3887.00    0.59612   0.53417   -1.000
 3888.00    0.55571   0.51559   -1.000
 3889.00    0.55839   0.52013   -1.000
 3890.00    0.59681   0.54633   -1.000
 3891.00    0.64600   0.58551   -1.000
 3892.00    0.68999   0.62708   -1.000
 3893.00    0.72082   0.66359   -1.000
 3894.00    0.72904   0.69383   -1.000
 3895.00    0.74204   0.71942  103.769
 3896.00    0.76170   0.74143  104.194
 3897.00    0.77765   0.75975  102.040
 3898.00    0.78906   0.77434   99.208
 3899.00    0.79370   0.78665   99.722
 3900.00    0.80642   0.79784  101.312
 3901.00    0.80914   0.80707  100.677
 3902.00    0.81549   0.81238   99.579
 3903.00    0.82290   0.81344  100.005
 3904.00    0.82114   0.81304  103.363
 3905.00    0.80761   0.81606  106.469
 3906.00    0.80258   0.82627   -1.000
 3907.00    0.83184   0.84344  109.807
 3908.00    0.85931   0.86364  104.842
 3909.00    0.87556   0.88153   97.969
 3910.00    0.88352   0.89313   94.412
 3911.00    0.88247   0.89752   93.194
 3912.00    0.87588   0.89581   -1.000
 3913.00    0.87299   0.89030   -1.000
 3914.00    0.86531   0.88364   -1.000
 3915.00    0.86686   0.87746   93.995
 3916.00    0.86316   0.87170   96.145
 3917.00    0.85632   0.86539   97.674
 3918.00    0.85156   0.85789   98.951
 3919.00    0.83886   0.85020  101.388
 3920.00    0.83354   0.84439   -1.000
 3921.00    0.82505   0.84179   -1.000
 3922.00    0.82448   0.84141   -1.000
 3923.00    0.84114   0.83967  113.509
 3924.00    0.84869   0.83239  111.687
 3925.00    0.83171   0.81654  111.692
 3926.00    0.80041   0.79135  115.895
 3927.00    0.76224   0.75803  125.477
 3928.00    0.72166   0.71814  139.832
 3929.00    0.66583   0.67352   23.227
 3930.00    0.58641   0.62607   18.669
 3931.00    0.49417   0.58001   21.856
 3932.00    0.41338   0.54322   -1.000
 3933.00    0.37559   0.52491   -1.000
 3934.00    0.40640   0.53137   -1.000
 3935.00    0.48636   0.56159   33.728
 3936.00    0.57859   0.60780   30.090
 3937.00    0.65573   0.65969   25.198
 3938.00    0.71562   0.70869   20.726
 3939.00    0.75722   0.74911   17.312
 3940.00    0.78168   0.77859   41.660
 3941.00    0.79484   0.79720  138.021
 3942.00    0.79671   0.80751   -1.000
 3943.00    0.80039   0.81385   -1.000
 3944.00    0.81386   0.82003  128.685
 3945.00    0.83202   0.82760  124.083
 3946.00    0.84769   0.83565  114.107
 3947.00    0.85480   0.84259  106.337
 3948.00    0.85621   0.84774  103.689
 3949.00    0.86113   0.85131  102.858
 3950.00    0.86936   0.85362   99.972
 3951.00    0.86595   0.85512   96.555
 3952.00    0.86649   0.85630   95.899
 3953.00    0.87434   0.85666   97.046
 3954.00    0.86982   0.85461   96.286
 3955.00    0.85823   0.84916   94.056
 3956.00    0.84412   0.84095   94.034
 3957.00    0.83854   0.83079   96.763
 3958.00    0.84097   0.81727   98.978
 3959.00    0.82987   0.79704   98.224
 3960.00    0.79170   0.76832   99.230
 3961.00    0.75415   0.73281  107.171
 3962.00    0.72139   0.69300  120.388
 3963.00    0.68310   0.64935   -1.000
 3964.00    0.63706   0.59909   -1.000
 3965.00    0.56360   0.54074   22.248
 3966.00    0.46140   0.47851   17.547
 3967.00    0.35874   0.42259   21.277
 3968.00    0.30505   0.38565   26.121
 3969.00    0.31181   0.37629   29.902
 3970.00    0.37087   0.39602   29.334
 3971.00    0.46081   0.43944   25.005
 3972.00    0.55314   0.49757   20.553
 3973.00    0.62072   0.56112   17.108
 3974.00    0.68710   0.62337   39.837
 3975.00    0.73794   0.68017   -1.000
 3976.00    0.76867   0.72996   -1.000
 3977.00    0.80506   0.77252   -1.000
 3978.00    0.84005   0.80740   98.439
 3979.00    0.86157   0.83397   93.097
 3980.00    0.86676   0.85183   88.120
 3981.00    0.86218   0.86297   85.913
 3982.00    0.87976   0.87119   86.031
 3983.00    0.89525   0.87996   87.382
 3984.00    0.90865   0.89049   87.489
 3985.00    0.92476   0.90195   86.009
 3986.00    0.92441   0.91316   84.271
 3987.00    0.92305   0.92360   82.816
 3988.00    0.92870   0.93319   81.305
 3989.00    0.93879   0.94212   80.277
 3990.00    0.94557   0.95049   80.245
 3991.00    0.95351   0.95790   79.999
 3992.00    0.96607   0.96298   78.548
 3993.00    0.97383   0.96398   76.649
 3994.00    0.96842   0.96038   76.686
 3995.00    0.94989   0.95402   78.276
 3996.00    0.93201   0.94858   -1.000
 3997.00    0.93372   0.94754   81.756
 3998.00    0.94395   0.95218   82.721
 3999.00    0.95684   0.96079   81.645
 4000.00    0.97077   0.96947   78.442
 4001.00    0.97699   0.97396   75.468
 4002.00    0.98480   0.97141   73.846
 4003.00    0.97556   0.96217   72.763
 4004.00    0.95342   0.95055   73.404
 4005.00    0.93895   0.94319   77.274
 4006.00    0.94086   0.94479   81.749
 4007.00    0.96558   0.95512   82.649
 4008.00    0.98828   0.96921   79.073
 4009.00    0.98646   0.98171   75.448
 4010.00    0.98992   0.99007   73.837
 4011.00    0.97592   0.99475   -1.000
 4012.00    1.00378   0.99764   72.586
 4013.00    1.00487   1.00012   72.869
 4014.00    0.99395   1.00264   73.316
 4015.00    1.00366   1.00518   73.068
 4016.00    1.01165   1.00802   72.172
 4017.00    1.00634   1.01158   72.256
 4018.00    1.00991   1.01563   73.086
 4019.00    1.00979   1.01894   73.142
 4020.00    1.00596   1.01969   72.240
 4021.00    1.00491   1.01692   71.985
 4022.00    0.99890   1.01121   72.772
 4023.00    0.99357   1.00490   73.420
 4024.00    0.99283   1.00110   73.877
 4025.00    0.98560   1.00169   -1.000
 4026.00    1.00000   1.00533   73.356
 4027.00    1.00772   1.00752   70.957
 4028.00    1.00670   1.00380   69.157
 4029.00    0.99258   0.99330   69.130
 4030.00    0.96295   0.97973   71.270
 4031.00    0.95156   0.96882   -1.000
 4032.00    0.95937   0.96513   79.442
 4033.00    0.95951   0.97052   81.165
 4034.00    0.96788   0.98412   -1.000
 4035.00    0.98822   1.00321   78.611
 4036.00    1.01176   1.02339   75.114
 4037.00    1.02353   1.03958   71.386
 4038.00    1.02647   1.04797   -1.000
 4039.00    1.02516   1.04813   -1.000
 4040.00    1.01307   1.04196   -1.000
 4041.00    1.00799   1.03098   -1.000
 4042.00    1.00737   1.01494   71.164
 4043.00    0.99670   0.99459   71.640
 4044.00    0.96888   0.97518   74.042
 4045.00    0.93982   0.96481   -1.000
 4046.00    0.94323   0.96893   -1.000
 4047.00    0.98017   0.98558   86.677
 4048.00    1.01481   1.00684   79.639
 4049.00    1.02165   1.02421   73.819
 4050.00    1.01792   1.03271   70.957
 4051.00    1.01337   1.03208   69.760
 4052.00    1.00623   1.02524   69.823
 4053.00    0.99729   1.01638   -1.000
 4054.00    0.99667   1.00887   73.186
 4055.00    0.99518   1.00427   74.580
 4056.00    0.99397   1.00290   75.355
 4057.00    0.99890   1.00469   75.889
 4058.00    0.99899   1.00862   76.590
 4059.00    1.00251   1.01144   76.259
 4060.00    1.00940   1.00863   74.074
 4061.00    1.00120   0.99802   72.175
 4062.00    0.97929   0.98206   72.521
 4063.00    0.95935   0.96691   76.461
 4064.00    0.95750   0.95800   81.954
 4065.00    0.96748   0.95735   83.012
 4066.00    0.97364   0.96311   79.743
 4067.00    0.98371   0.97126   77.101
 4068.00    1.00310   0.97704   75.106
 4069.00    1.00758   0.97714   72.802
 4070.00    0.99469   0.97187   71.387
 4071.00    0.98200   0.96497   72.933
 4072.00    0.97625   0.96009   76.182
 4073.00    0.97784   0.95677   77.018
 4074.00    0.97238   0.95133   74.884
 4075.00    0.96308   0.94179   73.647
 4076.00    0.93797   0.93125   75.863
 4077.00    0.92078   0.92636   81.424
 4078.00    0.93262   0.93164   85.519
 4079.00    0.95633   0.94579   84.453
 4080.00    0.97227   0.96187   79.563
 4081.00    0.98249   0.97249   74.042
 4082.00    0.97843   0.97458   70.827
 4083.00    0.96049   0.97100   70.894
 4084.00    0.95139   0.96769   72.946
 4085.00    0.96221   0.96908   74.569
 4086.00    0.97286   0.97545   74.209
 4087.00    0.97854   0.98307   72.140
 4088.00    0.98260   0.98720   69.455
 4089.00    0.97810   0.98494   67.064
 4090.00    0.97354   0.97654   66.518
 4091.00    0.96706   0.96388   67.555
 4092.00    0.95566   0.94808   68.884
 4093.00    0.94616   0.92868   69.839
 4094.00    0.93408   0.90434   70.146
 4095.00    0.90998   0.87456   71.000
 4096.00    0.87919   0.83939   73.597
 4097.00    0.85548   0.79875   -1.000
 4098.00    0.83406   0.75296   -1.000
 4099.00    0.78635   0.70532   -1.000
 4100.00    0.71511   0.66431   -1.000
 4101.00    0.65565   0.64166   88.492
 4102.00    0.65510   0.64567   95.472
 4103.00    0.71393   0.67571   96.459
 4104.00    0.78600   0.72195   -1.000
 4105.00    0.84299   0.77134   -1.000
 4106.00    0.87812   0.81434   -1.000
 4107.00    0.89104   0.84731   74.818
 4108.00    0.89607   0.87156   73.798
 4109.00    0.90505   0.89040   74.150
 4110.00    0.91998   0.90704   75.357
 4111.00    0.93408   0.92363   76.615
 4112.00    0.95107   0.94065   76.387
 4113.00    0.96381   0.95741   74.897
 4114.00    0.97196   0.97197   73.456
 4115.00    0.98052   0.98209   72.285
 4116.00    0.98573   0.98633   71.438
 4117.00    0.97907   0.98544   71.424
 4118.00    0.96605   0.98213   72.546
 4119.00    0.96060   0.97949   74.702
 4120.00    0.96122   0.97939   76.187
 4121.00    0.96755   0.98201   75.859
 4122.00    0.97913   0.98665   74.990
 4123.00    0.98899   0.99208   74.766
 4124.00    0.99726   0.99653   74.285
 4125.00    1.00376   0.99786   73.132
 4126.00    0.99974   0.99521   72.502
 4127.00    0.99394   0.98966   73.057
 4128.00    0.98886   0.98319   74.446
 4129.00    0.98326   0.97685   75.430
 4130.00    0.97971   0.97068   75.883
 4131.00    0.97025   0.96572   76.631
 4132.00    0.95863   0.96466   78.536
 4133.00    0.96059   0.97056   81.048
 4134.00    0.97260   0.98389   82.111
 4135.00    0.99189   1.00217   80.402
 4136.00    1.01571   1.02100   76.780
 4137.00    1.02768   1.03640   73.769
 4138.00    1.03231   1.04518   72.164
 4139.00    1.03288   1.04502   71.038
 4140.00    1.02714   1.03499   70.458
 4141.00    1.01489   1.01781   71.286
 4142.00    0.98712   0.99973   74.225
 4143.00    0.96864   0.98837   -1.000
 4144.00    0.97659   0.98805   84.891
 4145.00    0.99321   0.99673   84.443
 4146.00    1.00564   1.00834   79.947
 4147.00    1.01430   1.01721   76.281
 4148.00    1.01285   1.02165   74.767
 4149.00    1.00176   1.02314   -1.000
 4150.00    0.99856   1.02318   -1.000
 4151.00    1.00567   1.02183   78.737
 4152.00    1.00441   1.01856   78.709
 4153.00    0.99125   1.01417   -1.000
 4154.00    0.97035   1.01103   -1.000
 4155.00    1.03963   1.01165   79.601
 4156.00    1.22709   1.01681   -1.000
 4157.00    1.14532   1.02533   -1.000
 4158.00    0.83102   1.03486   -1.000
 4159.00    0.85792   1.04334   -1.000
 4160.00    1.03596   1.04997   75.397
 4161.00    1.04819   1.05507   75.425
 4162.00    1.02262   1.05897   -1.000
 4163.00    1.02590   1.06133   -1.000
 4164.00    1.03650   1.06112   -1.000
 4165.00    1.03223   1.05788   -1.000
 4166.00    1.01647   1.05218   -1.000
 4167.00    1.01316   1.04503   -1.000
 4168.00    1.02007   1.03645   77.312
 4169.00    1.02268   1.02469   77.369
 4170.00    1.00697   1.00914   76.270
 4171.00    0.98281   0.99209   76.261
 4172.00    0.96108   0.97909   -1.000
 4173.00    0.95196   0.97481   -1.000
 4174.00    0.95407   0.97930   -1.000
 4175.00    0.96387   0.98830   -1.000
 4176.00    0.97116   0.99713   -1.000
 4177.00    0.97211   1.00405   -1.000
 4178.00    0.97718   1.00988   -1.000
 4179.00    0.98545   1.01518   -1.000
 4180.00    1.00133   1.01943   -1.000
 4181.00    1.00966   1.02221   78.565
 4182.00    1.00504   1.02416   -1.000
 4183.00    1.00417   1.02609   -1.000
 4184.00    1.01254   1.02723   76.521
 4185.00    1.01451   1.02633   75.085
 4186.00    1.00347   1.02341   -1.000
 4187.00    0.98585   1.02039   -1.000
 4188.00    0.98616   1.01973   -1.000
 4189.00    0.99867   1.02235   -1.000
 4190.00    1.00606   1.02757   -1.000
 4191.00    1.00941   1.03364   -1.000
 4192.00    1.01326   1.03797   -1.000
 4193.00    1.02094   1.03765   74.449
 4194.00    1.02442   1.03097   73.214
 4195.00    1.00596   1.01842   74.175
 4196.00    0.98238   1.00308   -1.000
 4197.00    0.96962   0.98879   -1.000
 4198.00    0.96049   0.97852   -1.000
 4199.00    0.96021   0.97356   83.185
 4200.00    0.96705   0.97354   82.660
 4201.00    0.96676   0.97749   81.467
 4202.00    0.97053   0.98468   80.828
 4203.00    0.98013   0.99488   80.440
 4204.00    0.98251   1.00744   -1.000
 4205.00    0.98313   1.02107   -1.000
 4206.00    0.99081   1.03368   -1.000
 4207.00    1.00121   1.04334   -1.000
 4208.00    1.01193   1.04934   -1.000
 4209.00    1.01384   1.05244   -1.000
 4210.00    1.01183   1.05387   -1.000
 4211.00    1.01500   1.05360   -1.000
 4212.00    1.01566   1.05020   -1.000
 4213.00    1.00770   1.04261   -1.000
 4214.00    0.99576   1.03270   -1.000
 4215.00    0.97704   1.02516   -1.000
 4216.00    0.97461   1.02435   -1.000
 4217.00    0.99094   1.03147   -1.000
 4218.00    1.00781   1.04277   -1.000
 4219.00    1.02091   1.05225   -1.000
 4220.00    1.03114   1.05413   68.963
 4221.00    1.02915   1.04488   67.790
 4222.00    1.01096   1.02370   67.905
 4223.00    0.98531   0.99370   69.877
 4224.00    0.95516   0.96156   74.036
 4225.00    0.91817   0.93730   -1.000
 4226.00    0.89564   0.92933   -1.000
 4227.00    0.90692   0.94093   -1.000
 4228.00    0.94963   0.96618   -1.000
 4229.00    0.99906   0.99375   87.695
 4230.00    1.02093   1.01337   77.576
 4231.00    1.01571   1.02052   72.110
 4232.00    0.99887   1.01771   70.370
 4233.00    0.98733   1.01051   -1.000
 4234.00    0.98715   1.00387   72.995
 4235.00    0.98429   1.00054   74.190
 4236.00    0.98012   1.00112   -1.000
 4237.00    0.98096   1.00563   -1.000
 4238.00    0.98946   1.01317   -1.000
 4239.00    0.99648   1.02237   -1.000
 4240.00    1.00538   1.03158   -1.000
 4241.00    1.01172   1.03954   -1.000
 4242.00    1.00729   1.04563   -1.000
 4243.00    1.01201   1.04885   -1.000
 4244.00    1.01734   1.04772   -1.000
 4245.00    1.00755   1.04125   -1.000
 4246.00    0.98946   1.03043   -1.000
 4247.00    0.97414   1.01892   -1.000
 4248.00    0.96318   1.01059   -1.000
 4249.00    0.95858   1.00786   -1.000
 4250.00    0.96302   1.00984   -1.000
 4251.00    0.97875   1.01373   -1.000
 4252.00    0.99496   1.01665   -1.000
 4253.00    1.00309   1.01740   74.335
 4254.00    1.00046   1.01756   73.767
 4255.00    0.99474   1.01822   -1.000
 4256.00    1.00224   1.01823   75.460
 4257.00    1.00734   1.01535   73.191
 4258.00    0.99706   1.00894   71.660
 4259.00    0.97422   1.00312   -1.000
 4260.00    0.95735   1.00326   -1.000
 4261.00    0.96646   1.01267   -1.000
 4262.00    0.99483   1.02893   -1.000
 4263.00    1.01537   1.04620   -1.000
 4264.00    1.02305   1.05851   -1.000
 4265.00    1.02741   1.06251   -1.000
 4266.00    1.02722   1.05776   -1.000
 4267.00    1.01839   1.04539   -1.000
 4268.00    1.00911   1.02694   69.851
 4269.00    0.99024   1.00510   72.084
 4270.00    0.96459   0.98356   74.620
 4271.00    0.93887   0.96693   -1.000
 4272.00    0.93376   0.95919   -1.000
 4273.00    0.93902   0.96191   -1.000
 4274.00    0.94417   0.97394   -1.000
 4275.00    0.96723   0.99234   -1.000
 4276.00    0.99396   1.01180   80.266
 4277.00    1.01063   1.02707   75.626
 4278.00    1.00893   1.03451   71.528
 4279.00    0.98983   1.03458   -1.000
 4280.00    0.98124   1.03062   -1.000
 4281.00    0.97435   1.02608   -1.000
 4282.00    0.97773   1.02235   -1.000
 4283.00    0.98587   1.01795   -1.000
 4284.00    0.98327   1.01164   -1.000
 4285.00    0.97456   1.00208   -1.000
 4286.00    0.96338   0.98926   -1.000
 4287.00    0.95561   0.97444   78.821
 4288.00    0.94038   0.96022   80.285
 4289.00    0.91388   0.95069   -1.000
 4290.00    0.90179   0.94925   -1.000
 4291.00    0.92002   0.95495   -1.000
 4292.00    0.94441   0.96341   85.528
 4293.00    0.95995   0.96849   80.417
 4294.00    0.96166   0.96671   77.415
 4295.00    0.95298   0.95714   77.319
 4296.00    0.94469   0.94110   78.419
 4297.00    0.92661   0.92034   80.024
 4298.00    0.89099   0.89809   83.168
 4299.00    0.86046   0.87858   89.195
 4300.00    0.84712   0.86565   -1.000
 4301.00    0.84687   0.86117  100.061
 4302.00    0.85154   0.86384   98.639
 4303.00    0.85944   0.87025   96.467
 4304.00    0.87565   0.87576   95.036
 4305.00    0.88068   0.87662   93.766
 4306.00    0.86750   0.87261   93.545
 4307.00    0.84418   0.86713   -1.000
 4308.00    0.83133   0.86540   -1.000
 4309.00    0.83721   0.87095   -1.000
 4310.00    0.85715   0.88388   -1.000
 4311.00    0.87074   0.90187   -1.000
 4312.00    0.87873   0.92437   -1.000
 4313.00    0.89356   0.95122   -1.000
 4314.00    0.92298   0.98305   -1.000
 4315.00    0.96826   1.01696   -1.000
 4316.00    1.00735   1.04718   -1.000
 4317.00    1.03017   1.06798   -1.000
 4318.00    1.03942   1.07581   -1.000
 4319.00    1.02890   1.07101   -1.000
 4320.00    1.01665   1.05552   -1.000
 4321.00    1.00792   1.03171   65.333
 4322.00    0.98683   1.00296   67.257
 4323.00    0.95374   0.97436   70.163
 4324.00    0.92369   0.95384   -1.000
 4325.00    0.90623   0.94714   -1.000
 4326.00    0.91344   0.95609   -1.000
 4327.00    0.94875   0.97468   83.901
 4328.00    0.98372   0.99388   76.154
 4329.00    0.99269   1.00695   69.567
 4330.00    0.98563   1.01133   66.786
 4331.00    0.98196   1.00895   66.508
 4332.00    0.98295   1.00045   66.447
 4333.00    0.98129   0.98467   65.586
 4334.00    0.96939   0.95766   64.696
 4335.00    0.94265   0.91708   64.354
 4336.00    0.90566   0.86332   64.952
 4337.00    0.85605   0.80366   67.861
 4338.00    0.78967   0.74968   73.607
 4339.00    0.71633   0.71432   80.671
 4340.00    0.67258   0.70631   -1.000
 4341.00    0.70048   0.72654   -1.000
 4342.00    0.77667   0.76731   88.669
 4343.00    0.84450   0.81723   80.572
 4344.00    0.88909   0.86708   74.350
 4345.00    0.92259   0.91098   71.162
 4346.00    0.94552   0.94688   69.150
 4347.00    0.95837   0.97296   67.690
 4348.00    0.97271   0.98750   66.817
 4349.00    0.97862   0.99071   65.890
 4350.00    0.96734   0.98619   65.529
 4351.00    0.95061   0.98185   67.718
 4352.00    0.94077   0.98424   -1.000
 4353.00    0.95876   0.99590   -1.000
 4354.00    0.99255   1.01367   73.786
 4355.00    1.01262   1.03173   70.464
 4356.00    1.02299   1.04606   67.863
 4357.00    1.02456   1.05551   66.196
 4358.00    1.01965   1.06222   -1.000
 4359.00    1.01814   1.06889   -1.000
 4360.00    1.02603   1.07735   -1.000
 4361.00    1.04090   1.08716   -1.000
 4362.00    1.04568   1.09654   -1.000
 4363.00    1.04283   1.10332   -1.000
 4364.00    1.04759   1.10546   -1.000
 4365.00    1.04600   1.10173   -1.000
 4366.00    1.03121   1.09307   -1.000
 4367.00    1.02264   1.08195   -1.000
 4368.00    1.02015   1.07098   -1.000
 4369.00    1.01896   1.06160   -1.000
 4370.00    1.02414   1.05307   67.583
 4371.00    1.02773   1.04381   67.021
 4372.00    1.02508   1.03314   66.821
 4373.00    1.01778   1.02326   67.189
 4374.00    1.00182   1.01785   69.063
 4375.00    0.99392   1.02053   -1.000
 4376.00    1.00977   1.03050   73.168
 4377.00    1.03133   1.04298   71.338
 4378.00    1.04271   1.05096   67.929
 4379.00    1.05010   1.04834   65.772
 4380.00    1.04895   1.03205   65.560
 4381.00    1.03712   1.00481   66.442
 4382.00    1.00395   0.97416   68.757
 4383.00    0.95728   0.95075   74.483
 4384.00    0.93994   0.94336   83.047
 4385.00    0.96274   0.95188   87.625
 4386.00    0.99334   0.97025   82.956
 4387.00    1.01823   0.98965   74.974
 4388.00    1.03002   1.00466   70.563
 4389.00    1.02786   1.01494   69.725
 4390.00    1.02669   1.02214   70.242
 4391.00    1.03284   1.02816   70.721
 4392.00    1.03859   1.03280   70.012
 4393.00    1.04141   1.03607   68.478
 4394.00    1.02789   1.03955   68.066
 4395.00    1.02052   1.04431   69.190
 4396.00    1.03474   1.04980   69.743
 4397.00    1.04230   1.05312   67.721
 4398.00    1.04732   1.05249   65.181
 4399.00    1.03989   1.04870   64.906
 4400.00    1.02400   1.04378   66.748
 4401.00    1.02674   1.03920   69.002
 4402.00    1.03859   1.03398   69.408
 4403.00    1.03638   1.02753   68.253
 4404.00    1.02261   1.02170   69.033
 4405.00    1.01271   1.01901   72.498
 4406.00    1.02696   1.02174   74.752
 4407.00    1.03524   1.03026   73.451
 4408.00    1.02985   1.04349   71.685
 4409.00    1.03185   1.05963   -1.000
 4410.00    1.04520   1.07455   -1.000
 4411.00    1.06315   1.08329   66.203
 4412.00    1.07227   1.08249   63.695
 4413.00    1.06420   1.07209   62.348
 4414.00    1.04004   1.05744   63.004
 4415.00    1.02038   1.04644   65.863
 4416.00    1.01337   1.04562   -1.000
 4417.00    1.02093   1.05556   -1.000
 4418.00    1.03963   1.07212   -1.000
 4419.00    1.05910   1.08796   65.419
 4420.00    1.07092   1.09723   63.181
 4421.00    1.06960   1.09950   62.627
 4422.00    1.05754   1.09717   -1.000
 4423.00    1.05238   1.09378   -1.000
 4424.00    1.05670   1.09134   -1.000
 4425.00    1.05471   1.08987   -1.000
 4426.00    1.04939   1.08953   -1.000
 4427.00    1.04640   1.09022   -1.000
 4428.00    1.04675   1.09153   -1.000
 4429.00    1.05023   1.09299   -1.000
 4430.00    1.05323   1.09312   -1.000
 4431.00    1.05700   1.09057   -1.000
 4432.00    1.06351   1.08503   65.279
 4433.00    1.05555   1.07791   64.620
 4434.00    1.03101   1.07328   -1.000
 4435.00    1.02015   1.07549   -1.000
 4436.00    1.04082   1.08543   -1.000
 4437.00    1.07658   1.09951   69.059
 4438.00    1.09813   1.11072   65.336
 4439.00    1.10002   1.11353   61.984
 4440.00    1.08876   1.10650   60.762
 4441.00    1.06595   1.09454   61.816
 4442.00    1.04469   1.08516   -1.000
 4443.00    1.03410   1.08425   -1.000
 4444.00    1.03295   1.09285   -1.000
 4445.00    1.04997   1.10653   -1.000
 4446.00    1.07400   1.11960   -1.000
 4447.00    1.08466   1.12802   -1.000
 4448.00    1.08165   1.13096   -1.000
 4449.00    1.07288   1.12949   -1.000
 4450.00    1.07255   1.12456   -1.000
 4451.00    1.07842   1.11632   -1.000
 4452.00    1.07629   1.10401   63.360
 4453.00    1.06619   1.08889   63.340
 4454.00    1.04937   1.07433   64.839
 4455.00    1.03289   1.06414   -1.000
 4456.00    1.03999   1.06033   69.852
 4457.00    1.06534   1.06169   69.790
 4458.00    1.07471   1.06573   68.490
 4459.00    1.06703   1.07040   67.961
 4460.00    1.06202   1.07533   68.216
 4461.00    1.06055   1.08117   68.777
 4462.00    1.06360   1.08860   69.453
 4463.00    1.07807   1.09640   68.972
 4464.00    1.08328   1.10247   66.789
 4465.00    1.07599   1.10483   64.695
 4466.00    1.07760   1.10286   63.984
 4467.00    1.07111   1.09837   64.011
 4468.00    1.05598   1.09485   -1.000
 4469.00    1.04817   1.09595   -1.000
 4470.00    1.05287   1.10335   -1.000
 4471.00    1.07526   1.11622   -1.000
 4472.00    1.09991   1.13179   -1.000
 4473.00    1.11411   1.14640   62.154
 4474.00    1.11914   1.15733   -1.000
 4475.00    1.11426   1.16323   -1.000
 4476.00    1.11132   1.16364   -1.000
 4477.00    1.12078   1.15786   -1.000
 4478.00    1.12460   1.14617   58.446
 4479.00    1.11422   1.13046   58.578
 4480.00    1.09825   1.11556   60.012
 4481.00    1.08440   1.10801   62.573
 4482.00    1.07739   1.11087   -1.000
 4483.00    1.08424   1.12331   -1.000
 4484.00    1.10550   1.13974   -1.000
 4485.00    1.12207   1.15300   60.768
 4486.00    1.12537   1.15830   59.021
 4487.00    1.12029   1.15547   58.512
 4488.00    1.10897   1.14815   -1.000
 4489.00    1.09127   1.14153   -1.000
 4490.00    1.08340   1.13919   -1.000
 4491.00    1.09683   1.14086   -1.000
 4492.00    1.10606   1.14439   -1.000
 4493.00    1.10390   1.14674   -1.000
 4494.00    1.09555   1.14780   -1.000
 4495.00    1.09095   1.14899   -1.000
 4496.00    1.09627   1.15128   -1.000
 4497.00    1.10252   1.15483   -1.000
 4498.00    1.11389   1.15837   -1.000
 4499.00    1.11571   1.16126   -1.000
 4500.00    1.10348   1.16439   -1.000
 4501.00    1.09487   1.17021   -1.000
 4502.00    1.10328   1.17931   -1.000
 4503.00    1.12817   1.19034   -1.000
 4504.00    1.14670   1.20017   -1.000
 4505.00    1.14504   1.20582   -1.000
 4506.00    1.13664   1.20678   -1.000
 4507.00    1.13051   1.20459   -1.000
 4508.00    1.13273   1.20201   -1.000
 4509.00    1.14477   1.20013   -1.000
 4510.00    1.14611   1.19835   -1.000
 4511.00    1.13448   1.19523   -1.000
 4512.00    1.12799   1.18997   -1.000
 4513.00    1.13002   1.18320   -1.000
 4514.00    1.12696   1.17624   -1.000
 4515.00    1.12174   1.17073   -1.000
 4516.00    1.12105   1.16708   -1.000
 4517.00    1.11652   1.16457   -1.000
 4518.00    1.11188   1.16308   -1.000
 4519.00    1.11494   1.16220   -1.000
 4520.00    1.11788   1.16111   -1.000
 4521.00    1.11191   1.15903   -1.000
 4522.00    1.10149   1.15490   -1.000
 4523.00    1.09756   1.14849   -1.000
 4524.00    1.10005   1.13983   -1.000
 4525.00    1.10215   1.12894   61.660
 4526.00    1.10148   1.11672   62.426
 4527.00    1.08783   1.10475   63.942
 4528.00    1.07329   1.09569   65.858
 4529.00    1.07861   1.09104   67.159
 4530.00    1.09000   1.09027   67.254
 4531.00    1.09483   1.09099   66.360
 4532.00    1.08939   1.09075   65.147
 4533.00    1.07268   1.09055   64.406
 4534.00    1.05783   1.09352   -1.000
 4535.00    1.05943   1.10314   -1.000
 4536.00    1.07775   1.11956   -1.000
 4537.00    1.10574   1.13905   65.393
 4538.00    1.13100   1.15589   61.506
 4539.00    1.13836   1.16608   58.900
 4540.00    1.13500   1.16968   58.480
 4541.00    1.13291   1.16896   -1.000
 4542.00    1.12813   1.16668   -1.000
 4543.00    1.15388   1.16371   59.940
 4544.00    1.00599   1.15962   -1.000
 4545.00    0.41844   1.15399   -1.000
 4546.00   -0.02213   1.14643    0.000
 4547.00    0.14709   1.13737   -1.000
 4548.00    0.58679   1.12857   -1.000
 4549.00    0.56004   1.12254   -1.000
 4550.00    0.65549   1.12084   -1.000
 4551.00    1.10464   1.12239   38.092
 4552.00    1.10380   1.12453   65.771
 4553.00    1.09119   1.12603   62.204
 4554.00    1.08943   1.12781   -1.000
 4555.00    1.09523   1.13243   -1.000
 4556.00    1.11066   1.14217   63.475
 4557.00    1.12820   1.15580   61.765
 4558.00    1.13651   1.17034   59.347
 4559.00    1.14158   1.18248   -1.000
 4560.00    1.14721   1.18941   -1.000
 4561.00    1.14385   1.19018   -1.000
 4562.00    1.13129   1.18553   -1.000
 4563.00    1.12031   1.17820   -1.000
 4564.00    1.11560   1.17222   -1.000
 4565.00    1.12055   1.17049   -1.000
 4566.00    1.13632   1.17387   -1.000
 4567.00    1.14627   1.17967   59.880
 4568.00    1.14717   1.18394   58.299
 4569.00    1.14135   1.18398   -1.000
 4570.00    1.12957   1.17984   -1.000
 4571.00    1.11932   1.17482   -1.000
 4572.00    1.11701   1.17282   -1.000
 4573.00    1.12680   1.17536   -1.000
 4574.00    1.13654   1.18035   -1.000
 4575.00    1.13568   1.18475   -1.000
 4576.00    1.13254   1.18567   -1.000
 4577.00    1.13547   1.18157   -1.000
 4578.00    1.13566   1.17263   58.031
 4579.00    1.13210   1.16065   58.696
 4580.00    1.12721   1.14820   60.098
 4581.00    1.11906   1.13800   61.653
 4582.00    1.11716   1.13190   62.188
 4583.00    1.11578   1.13063   61.617
 4584.00    1.11447   1.13357   60.932
 4585.00    1.12556   1.13951   60.809
 4586.00    1.13936   1.14731   61.110
 4587.00    1.14767   1.15547   60.888
 4588.00    1.14785   1.16247   59.626
 4589.00    1.14202   1.16673   58.186
 4590.00    1.13764   1.16765   57.527
 4591.00    1.12986   1.16607   57.933
 4592.00    1.12292   1.16393   -1.000
 4593.00    1.12211   1.16332   -1.000
 4594.00    1.12615   1.16500   -1.000
 4595.00    1.13401   1.16849   60.306
 4596.00    1.14055   1.17251   59.795
 4597.00    1.14268   1.17549   59.479
 4598.00    1.14609   1.17628   59.347
 4599.00    1.14240   1.17488   59.218
 4600.00    1.13128   1.17212   -1.000
 4601.00    1.12759   1.16948   -1.000
 4602.00    1.12689   1.16832   -1.000
 4603.00    1.12944   1.16924   -1.000
 4604.00    1.13527   1.17238   59.391
 4605.00    1.13794   1.17745   -1.000
 4606.00    1.14151   1.18404   -1.000
 4607.00    1.15146   1.19144   -1.000
 4608.00    1.16213   1.19844   57.836
 4609.00    1.16208   1.20362   56.628
 4610.00    1.16194   1.20551   -1.000
 4611.00    1.15985   1.20458   -1.000
 4612.00    1.15150   1.20195   -1.000
 4613.00    1.14976   1.19882   -1.000
 4614.00    1.14966   1.19608   -1.000
 4615.00    1.15231   1.19341   57.265
 4616.00    1.15539   1.19063   56.850
 4617.00    1.15525   1.18804   56.472
 4618.00    1.14918   1.18679   56.547
 4619.00    1.14164   1.18808   -1.000
 4620.00    1.15183   1.19226   57.159
 4621.00    1.16315   1.19830   56.850
 4622.00    1.16900   1.20387   56.115
 4623.00    1.17380   1.20734   55.632
 4624.00    1.16840   1.20832   55.720
 4625.00    1.15530   1.20682   -1.000
 4626.00    1.14349   1.20405   -1.000
 4627.00    1.14760   1.20111   -1.000
 4628.00    1.15573   1.19885   -1.000
 4629.00    1.15211   1.19804   -1.000
 4630.00    1.14596   1.19872   -1.000
 4631.00    1.15225   1.20000   -1.000
 4632.00    1.15926   1.20008   56.403
 4633.00    1.15735   1.19816   56.170
 4634.00    1.15868   1.19482   56.725
 4635.00    1.15447   1.19125   57.478
 4636.00    1.14767   1.18852   -1.000
 4637.00    1.14747   1.18770   -1.000
 4638.00    1.15310   1.18924   58.582
 4639.00    1.15677   1.19306   59.114
 4640.00    1.16132   1.19846   59.182
 4641.00    1.17518   1.20388   58.645
 4642.00    1.18441   1.20683   57.405
 4643.00    1.18469   1.20521   56.280
 4644.00    1.17490   1.19897   56.003
 4645.00    1.15923   1.18943   56.650
 4646.00    1.14583   1.17954   57.991
 4647.00    1.14303   1.17333   59.635
 4648.00    1.14469   1.17283   60.625
 4649.00    1.15635   1.17740   60.199
 4650.00    1.16440   1.18438   58.924
 4651.00    1.15660   1.19018   57.807
 4652.00    1.14768   1.19278   -1.000
 4653.00    1.14963   1.19194   57.274
 4654.00    1.14846   1.18952   57.530
 4655.00    1.14103   1.18863   -1.000
 4656.00    1.13764   1.19196   -1.000
 4657.00    1.14491   1.20029   -1.000
 4658.00    1.15697   1.21191   -1.000
 4659.00    1.17272   1.22255   -1.000
 4660.00    1.18636   1.22847   54.649
 4661.00    1.18306   1.22775   54.001
 4662.00    1.17213   1.22057   -1.000
 4663.00    1.16768   1.20857   55.333
 4664.00    1.16654   1.19365   56.594
 4665.00    1.16482   1.17735   57.239
 4666.00    1.15661   1.16201   57.713
 4667.00    1.13534   1.15100   59.400
 4668.00    1.12237   1.14742   61.983
 4669.00    1.13125   1.15195   63.386
 4670.00    1.14529   1.16289   62.410
 4671.00    1.15602   1.17645   60.094
 4672.00    1.15813   1.18919   57.975
 4673.00    1.15883   1.19916   57.008
 4674.00    1.16749   1.20599   56.888
 4675.00    1.17501   1.20968   56.896
 4676.00    1.18234   1.20934   56.513
 4677.00    1.18648   1.20481   55.698
 4678.00    1.16747   1.19701   55.373
 4679.00    1.14512   1.18824   -1.000
 4680.00    1.14420   1.18122   57.323
 4681.00    1.14937   1.17756   58.367
 4682.00    1.15296   1.17783   59.141
 4683.00    1.15991   1.18102   59.090
 4684.00    1.17130   1.18538   57.953
 4685.00    1.17263   1.18948   56.790
 4686.00    1.17511   1.19266   56.503
 4687.00    1.17918   1.19476   56.649
 4688.00    1.17786   1.19584   56.803
 4689.00    1.17545   1.19638   56.992
 4690.00    1.17180   1.19656   56.984
 4691.00    1.17257   1.19703   57.176
 4692.00    1.17385   1.19849   57.469
 4693.00    1.18221   1.20073   57.207
 4694.00    1.19245   1.20278   56.419
 4695.00    1.19546   1.20349   55.379
 4696.00    1.19388   1.20146   54.372
 4697.00    1.18938   1.19587   54.136
 4698.00    1.17468   1.18772   55.022
 4699.00    1.16058   1.17828   56.698
 4700.00    1.16107   1.16912   57.937
 4701.00    1.16704   1.16148   58.050
 4702.00    1.16035   1.15655   57.953
 4703.00    1.14768   1.15511   58.691
 4704.00    1.14852   1.15647   59.420
 4705.00    1.15454   1.15857   59.041
 4706.00    1.15927   1.15965   57.985
 4707.00    1.15301   1.15961   57.889
 4708.00    1.14321   1.16010   58.920
 4709.00    1.14292   1.16272   59.841
 4710.00    1.15447   1.16763   59.990
 4711.00    1.16805   1.17396   58.975
 4712.00    1.17576   1.17954   57.242
 4713.00    1.17735   1.18337   56.133
 4714.00    1.17184   1.18657   56.104
 4715.00    1.16832   1.19068   56.917
 4716.00    1.17060   1.19673   57.531
 4717.00    1.17996   1.20376   56.971
 4718.00    1.18453   1.21036   55.816
 4719.00    1.18494   1.21518   55.073
 4720.00    1.18999   1.21791   54.824
 4721.00    1.18900   1.21915   54.637
 4722.00    1.18662   1.21960   54.742
 4723.00    1.19121   1.21939   55.200
 4724.00    1.19406   1.21762   55.267
 4725.00    1.18365   1.21320   54.792
 4726.00    1.16922   1.20547   54.491
 4727.00    1.16567   1.19549   55.149
 4728.00    1.16437   1.18574   56.873
 4729.00    1.16603   1.17857   58.679
 4730.00    1.17025   1.17500   59.275
 4731.00    1.16937   1.17527   58.828
 4732.00    1.17285   1.17830   58.276
 4733.00    1.17405   1.18205   57.714
 4734.00    1.17491   1.18509   57.095
 4735.00    1.17429   1.18702   56.684
 4736.00    1.17148   1.18818   56.371
 4737.00    1.17813   1.18950   56.463
 4738.00    1.17453   1.19178   56.869
 4739.00    1.17364   1.19487   56.559
 4740.00    1.17916   1.19806   56.131
 4741.00    1.18327   1.20127   56.319
 4742.00    1.18768   1.20445   56.546
 4743.00    1.18505   1.20749   56.376
 4744.00    1.18281   1.21044   55.831
 4745.00    1.17922   1.21342   55.533
 4746.00    1.17638   1.21679   55.645
 4747.00    1.18799   1.22088   55.485
 4748.00    1.19393   1.22513   54.988
 4749.00    1.19104   1.22882   54.620
 4750.00    1.18442   1.23074   54.608
 4751.00    1.18368   1.22969   54.678
 4752.00    1.18818   1.22558   54.870
 4753.00    1.18429   1.21958   55.382
 4754.00    1.17882   1.21387   55.948
 4755.00    1.17788   1.21025   56.374
 4756.00    1.17427   1.20962   56.545
 4757.00    1.17266   1.21131   56.567
 4758.00    1.17941   1.21373   56.887
 4759.00    1.18344   1.21448   57.161
 4760.00    1.17950   1.21151   56.975
 4761.00    1.17149   1.20423   56.643
 4762.00    1.15979   1.19391   56.980
 4763.00    1.14715   1.18404   58.140
 4764.00    1.14614   1.17745   59.315
 4765.00    1.15514   1.17592   59.759
 4766.00    1.16974   1.17975   59.732
 4767.00    1.17462   1.18793   59.472
 4768.00    1.17767   1.19796   58.867
 4769.00    1.18295   1.20716   57.808
 4770.00    1.18293   1.21375   56.697
 4771.00    1.18176   1.21796   56.308
 4772.00    1.17788   1.22102   56.599
 4773.00    1.17867   1.22460   -1.000
 4774.00    1.18716   1.22884   57.105
 4775.00    1.19328   1.23270   56.157
 4776.00    1.19392   1.23498   55.286
 4777.00    1.19395   1.23477   55.119
 4778.00    1.19588   1.23239   55.227
 4779.00    1.19046   1.22880   55.479
 4780.00    1.18269   1.22514   55.961
 4781.00    1.18657   1.22151   56.474
 4782.00    1.19078   1.21776   56.714
 4783.00    1.18277   1.21397   56.907
 4784.00    1.17466   1.21014   57.268
 4785.00    1.17258   1.20670   57.531
 4786.00    1.17078   1.20433   57.581
 4787.00    1.17058   1.20387   57.946
 4788.00    1.16913   1.20559   58.435
 4789.00    1.16934   1.20967   58.595
 4790.00    1.17732   1.21610   58.424
 4791.00    1.18524   1.22447   58.098
 4792.00    1.20089   1.23401   57.632
 4793.00    1.20240   1.24329   56.874
 4794.00    1.19739   1.25080   -1.000
 4795.00    1.20174   1.25478   -1.000
 4796.00    1.20544   1.25442   -1.000
 4797.00    1.19843   1.25068   -1.000
 4798.00    1.18576   1.24548   -1.000
 4799.00    1.18336   1.24139   -1.000
 4800.00    1.19063   1.24011   -1.000
 4801.00    1.19227   1.24148   -1.000
 4802.00    1.19568   1.24353   -1.000
 4803.00    1.19547   1.24451   -1.000
 4804.00    1.19042   1.24348   -1.000
 4805.00    1.18371   1.24119   -1.000
 4806.00    1.17779   1.23894   -1.000
 4807.00    1.18208   1.23769   -1.000
 4808.00    1.18992   1.23805   -1.000
 4809.00    1.19582   1.23980   56.832
 4810.00    1.19296   1.24216   -1.000
 4811.00    1.18613   1.24476   -1.000
 4812.00    1.19033   1.24792   -1.000
 4813.00    1.19968   1.25163   -1.000
 4814.00    1.20388   1.25588   -1.000
 4815.00    1.20311   1.26040   -1.000
 4816.00    1.20301   1.26446   -1.000
 4817.00    1.20412   1.26719   -1.000
 4818.00    1.20946   1.26802   -1.000
 4819.00    1.21502   1.26650   -1.000
 4820.00    1.20470   1.26180   -1.000
 4821.00    1.19503   1.25366   -1.000
 4822.00    1.19531   1.24324   -1.000
 4823.00    1.18745   1.23321   -1.000
 4824.00    1.17990   1.22704   -1.000
 4825.00    1.18718   1.22595   56.967
 4826.00    1.20015   1.22839   56.445
 4827.00    1.20205   1.23179   55.468
 4828.00    1.19569   1.23370   55.059
 4829.00    1.19437   1.23341   55.498
 4830.00    1.19304   1.23083   56.044
 4831.00    1.18666   1.22721   56.233
 4832.00    1.18437   1.22438   56.423
 4833.00    1.18882   1.22331   56.793
 4834.00    1.19470   1.22392   56.461
 4835.00    1.19975   1.22517   55.584
 4836.00    1.19597   1.22559   55.069
 4837.00    1.19101   1.22401   55.003
 4838.00    1.18535   1.21998   55.173
 4839.00    1.17493   1.21440   55.640
 4840.00    1.17055   1.20886   56.516
 4841.00    1.17139   1.20500   57.143
 4842.00    1.17535   1.20330   57.080
 4843.00    1.17155   1.20333   56.887
 4844.00    1.17123   1.20449   56.540
 4845.00    1.17973   1.20557   56.055
 4846.00    1.18421   1.20466   55.359
 4847.00    1.17123   1.20134   54.713
 4848.00    1.15564   1.19666   55.003
 4849.00    1.15335   1.19149   56.055
 4850.00    1.15767   1.18574   56.544
 4851.00    1.15441   1.17786   56.192
 4852.00    1.14759   1.16605   55.639
 4853.00    1.14224   1.14867   55.710
 4854.00    1.13255   1.12561   56.105
 4855.00    1.10606   1.09835   57.059
 4856.00    1.08621   1.06742   58.777
 4857.00    1.07313   1.03199   59.728
 4858.00    1.04234   0.99003   59.346
 4859.00    0.97891   0.94393   59.595
 4860.00    0.89300   0.90231   62.630
 4861.00    0.81840   0.87660   -1.000
 4862.00    0.80899   0.87558   -1.000
 4863.00    0.88315   0.89866   75.412
 4864.00    0.97755   0.93894   69.701
 4865.00    1.03510   0.98589   -1.000
 4866.00    1.07256   1.03017   61.157
 4867.00    1.10264   1.06537   59.379
 4868.00    1.12450   1.08912   58.428
 4869.00    1.13166   1.10190   58.026
 4870.00    1.11724   1.10676   58.078
 4871.00    1.10077   1.10867   59.044
 4872.00    1.10006   1.11329   60.669
 4873.00    1.11498   1.12266   61.365
 4874.00    1.13388   1.13575   60.295
 4875.00    1.14058   1.14960   58.800
 4876.00    1.14456   1.16250   58.021
 4877.00    1.15120   1.17431   57.639
 4878.00    1.14890   1.18536   57.375
 4879.00    1.15331   1.19517   56.935
 4880.00    1.16808   1.20257   56.171
 4881.00    1.17191   1.20610   56.001
 4882.00    1.16476   1.20607   56.696
 4883.00    1.15935   1.20318   57.420
 4884.00    1.15973   1.19854   57.537
 4885.00    1.16266   1.19332   57.520
 4886.00    1.16407   1.18832   58.067
 4887.00    1.16441   1.18355   58.761
 4888.00    1.16719   1.17857   58.817
 4889.00    1.16373   1.17377   58.573
 4890.00    1.14629   1.17182   58.859
 4891.00    1.13268   1.17628   59.926
 4892.00    1.14633   1.18949   60.613
 4893.00    1.17379   1.21009   59.370
 4894.00    1.19905   1.23283   56.783
 4895.00    1.20967   1.25297   54.499
 4896.00    1.20615   1.26668   -1.000
 4897.00    1.20985   1.27266   -1.000
 4898.00    1.20802   1.27167   -1.000
 4899.00    1.19131   1.26658   -1.000
 4900.00    1.18705   1.26003   -1.000
 4901.00    1.18825   1.25412   -1.000
 4902.00    1.18615   1.24972   -1.000
 4903.00    1.18586   1.24787   -1.000
 4904.00    1.19318   1.24933   -1.000
 4905.00    1.20541   1.25293   55.725
 4906.00    1.21261   1.25549   54.859
 4907.00    1.21126   1.25466   53.946
 4908.00    1.21236   1.24912   53.888
 4909.00    1.20188   1.24053   54.709
 4910.00    1.19332   1.23224   56.155
 4911.00    1.18855   1.22838   57.456
 4912.00    1.19245   1.23008   57.604
 4913.00    1.20057   1.23576   56.699
 4914.00    1.20703   1.24167   55.758
 4915.00    1.21332   1.24321   55.014
 4916.00    1.21265   1.23606   54.383
 4917.00    1.20016   1.21929   54.180
 4918.00    1.17458   1.19597   55.052
 4919.00    1.14582   1.17230   57.423
 4920.00    1.13054   1.15501   60.467
 4921.00    1.13376   1.14796   62.547
 4922.00    1.14453   1.15107   62.179
 4923.00    1.16097   1.16143   60.003
 4924.00    1.17234   1.17675   58.291
 4925.00    1.17680   1.19488   57.753
 4926.00    1.19075   1.21386   57.466
 4927.00    1.20832   1.23196   56.428
 4928.00    1.22305   1.24689   55.103
 4929.00    1.22388   1.25665   54.301
 4930.00    1.22304   1.25954   53.852
 4931.00    1.22047   1.25521   53.502
 4932.00    1.20366   1.24510   53.487
 4933.00    1.18750   1.23306   54.371
 4934.00    1.17053   1.22250   -1.000
 4935.00    1.17467   1.21501   57.433
 4936.00    1.19116   1.20936   57.099
 4937.00    1.19372   1.20470   56.400
 4938.00    1.17786   1.20269   56.992
 4939.00    1.16663   1.20545   58.685
 4940.00    1.17780   1.21418   59.533
 4941.00    1.19967   1.22740   58.408
 4942.00    1.22035   1.24155   56.421
 4943.00    1.22746   1.25322   54.892
 4944.00    1.22500   1.26060   54.079
 4945.00    1.22232   1.26424   53.787
 4946.00    1.21711   1.26621   53.963
 4947.00    1.21536   1.26876   -1.000
 4948.00    1.21908   1.27223   -1.000
 4949.00    1.22753   1.27552   53.595
 4950.00    1.23116   1.27710   53.124
 4951.00    1.22989   1.27613   52.952
 4952.00    1.22414   1.27198   52.904
 4953.00    1.22449   1.26406   53.224
 4954.00    1.22402   1.25180   53.681
 4955.00    1.21010   1.23500   54.327
 4956.00    1.19212   1.21647   55.278
 4957.00    1.16413   1.20264   57.255
 4958.00    1.14955   1.19893   -1.000
 4959.00    1.16862   1.20662   61.146
 4960.00    1.20304   1.22137   58.998
 4961.00    1.22232   1.23735   56.050
 4962.00    1.22510   1.24932   54.676
 4963.00    1.23044   1.25445   54.523
 4964.00    1.23486   1.25277   54.857
 4965.00    1.22375   1.24677   55.374
 4966.00    1.21172   1.23966   56.218
 4967.00    1.21104   1.23384   57.265
 4968.00    1.21020   1.23082   57.744
 4969.00    1.20941   1.23143   57.677
 4970.00    1.21174   1.23546   57.414
 4971.00    1.21453   1.24189   56.917
 4972.00    1.21823   1.24920   56.302
 4973.00    1.22651   1.25591   55.674
 4974.00    1.22978   1.26030   55.055
 4975.00    1.22576   1.26149   54.642
 4976.00    1.23042   1.25897   54.634
 4977.00    1.22519   1.25269   55.096
 4978.00    1.21224   1.24273   55.740
 4979.00    1.20764   1.22917   56.555
 4980.00    1.19958   1.21217   57.405
 4981.00    1.18399   1.19316   58.144
 4982.00    1.16462   1.17578   59.341
 4983.00    1.15126   1.16479   61.319
 4984.00    1.15422   1.16356   62.627
 4985.00    1.16857   1.17178   62.175
 4986.00    1.18697   1.18595   60.778
 4987.00    1.20198   1.20113   58.980
 4988.00    1.21201   1.21258   57.243
 4989.00    1.20877   1.21832   56.334
 4990.00    1.19514   1.21941   56.679
 4991.00    1.19345   1.21869   57.449
 4992.00    1.19588   1.21852   57.842
 4993.00    1.19505   1.22008   57.670
 4994.00    1.19664   1.22306   57.235
 4995.00    1.20428   1.22611   57.073
 4996.00    1.21454   1.22729   56.959
 4997.00    1.21359   1.22486   56.662
 4998.00    1.20358   1.21808   56.592
 4999.00    1.19251   1.20819   57.089
 5000.00    1.18771   1.19765   57.996
 5001.00    1.18978   1.18902   59.031
 5002.00    1.19763   1.18321   59.526
 5003.00    1.20648   1.17918   59.347
 5004.00    1.20013   1.17541   58.828
 5005.00    1.18629   1.17183   58.855
 5006.00    1.16857   1.17064   59.947
 5007.00    1.16143   1.17341   61.097
 5008.00    1.18070   1.17916   60.787
 5009.00    1.20503   1.18458   59.132
 5010.00    1.20812   1.18563   57.714
 5011.00    1.19925   1.18050   57.577
 5012.00    1.18257   1.17031   58.684
 5013.00    1.16227   1.15910   60.619
 5014.00    1.15473   1.15036   62.626
 5015.00    1.15814   1.14590   63.479
 5016.00    1.16726   1.14532   62.764
 5017.00    1.17464   1.14763   61.375
 5018.00    1.17277   1.15246   60.433
 5019.00    1.17589   1.15928   60.289
 5020.00    1.19119   1.16695   60.074
 5021.00    1.19890   1.17457   59.438
 5022.00    1.19482   1.18179   59.203
 5023.00    1.19263   1.18895   59.440
 5024.00    1.19711   1.19564   59.411
 5025.00    1.21119   1.20069   58.965
 5026.00    1.21424   1.20398   58.409
 5027.00    1.20998   1.20657   58.242
 5028.00    1.21003   1.20964   58.536
 5029.00    1.20767   1.21417   58.547
 5030.00    1.21336   1.22039   57.803
 5031.00    1.22413   1.22713   56.789
 5032.00    1.22975   1.23200   55.947
 5033.00    1.23439   1.23237   55.121
 5034.00    1.22936   1.22678   54.729
 5035.00    1.21378   1.21627   55.370
 5036.00    1.19736   1.20272   57.328
 5037.00    1.18884   1.18795   59.194
 5038.00    1.18789   1.17233   59.893
 5039.00    1.17702   1.15722   60.258
 5040.00    1.15560   1.14657   61.533
 5041.00    1.13701   1.14479   64.030
 5042.00    1.15509   1.15423   65.808
 5043.00    1.18222   1.17310   64.701
 5044.00    1.20581   1.19593   61.202
 5045.00    1.23526   1.21644   57.823
 5046.00    1.01067   1.22913   -1.000
 5047.00    0.31546   1.23173   -1.000
 5048.00    0.02083   1.22556   -1.000
 5049.00    0.17604   1.21509   -1.000
 5050.00    0.75397   1.20543   -1.000
 5051.00    1.16291   1.20087   -1.000
 5052.00    1.20377   1.20337   58.288
 5053.00    1.21281   1.21186   58.635
 5054.00    1.22573   1.22295   57.236
 5055.00    1.24115   1.23414   55.917
 5056.00    1.25138   1.24391   55.064
 5057.00    1.24509   1.25174   54.663
 5058.00    1.23959   1.25754   54.584
 5059.00    1.24009   1.26126   54.692
 5060.00    1.24144   1.26240   54.754
 5061.00    1.23999   1.26018   54.616
 5062.00    1.23954   1.25364   54.362
 5063.00    1.23332   1.24319   54.626
 5064.00    1.21379   1.23135   55.652
 5065.00    1.20494   1.22093   57.416
 5066.00    1.21145   1.21407   59.041
 5067.00    1.21581   1.21084   59.236
 5068.00    1.22017   1.21036   58.422
 5069.00    1.22008   1.21122   57.754
 5070.00    1.22993   1.21195   57.560
 5071.00    1.22840   1.21168   57.249
 5072.00    1.22842   1.21091   57.133
 5073.00    1.22910   1.21065   57.617
 5074.00    1.22294   1.21092   57.702
 5075.00    1.22451   1.21058   57.040
 5076.00    1.23010   1.20784   56.718
 5077.00    1.22979   1.20142   56.663
 5078.00    1.22146   1.19151   56.805
 5079.00    1.20236   1.18095   57.817
 5080.00    1.17896   1.17331   60.109
 5081.00    1.18600   1.17085   62.329
 5082.00    1.20647   1.17410   62.339
 5083.00    1.20469   1.18205   60.963
 5084.00    1.21164   1.19321   59.813
 5085.00    1.21801   1.20535   58.919
 5086.00    1.23339   1.21651   57.828
 5087.00    1.24283   1.22578   57.021
 5088.00    1.24319   1.23315   56.733
 5089.00    1.24151   1.23902   56.599
 5090.00    1.23941   1.24396   56.268
 5091.00    1.24532   1.24824   55.887
 5092.00    1.24547   1.25136   55.588
 5093.00    1.25758   1.25183   55.190
 5094.00    1.28186   1.24790   54.585
 5095.00    1.26077   1.23892   54.403
 5096.00    1.23326   1.22628   55.127
 5097.00    1.22136   1.21305   56.314
 5098.00    1.20551   1.20293   57.577
 5099.00    1.20831   1.19856   58.922
 5100.00    1.22261   1.20056   59.830
 5101.00    1.23134   1.20674   59.469
 5102.00    1.24342   1.21347   57.875
 5103.00    1.24715   1.21769   56.549
 5104.00    1.24138   1.21770   56.342
 5105.00    1.23731   1.21359   56.825
 5106.00    1.22272   1.20701   57.580
 5107.00    1.20531   1.20060   58.299
 5108.00    1.20248   1.19680   59.018
 5109.00    1.20488   1.19709   59.507
 5110.00    1.20964   1.20184   59.300
 5111.00    1.21667   1.21022   58.897
 5112.00    1.23133   1.22045   58.342
 5113.00    1.24135   1.23096   57.527
 5114.00    1.25683   1.24051   56.827
 5115.00    1.25740   1.24843   56.189
 5116.00    1.25339   1.25412   55.751
 5117.00    1.25518   1.25696   55.370
 5118.00    1.26003   1.25631   54.812
 5119.00    1.25806   1.25175   54.545
 5120.00    1.25528   1.24353   54.893
 5121.00    1.25114   1.23252   55.664
 5122.00    1.23879   1.22009   56.530
 5123.00    1.22085   1.20786   57.623
 5124.00    1.21204   1.19764   59.204
 5125.00    1.21755   1.19044   60.591
 5126.00    1.21863   1.18635   60.674
 5127.00    1.21651   1.18485   60.176
 5128.00    1.21947   1.18559   59.872
 5129.00    1.21730   1.18838   59.644
 5130.00    1.21783   1.19304   59.704
 5131.00    1.22484   1.19903   59.426
 5132.00    1.22955   1.20545   58.553
 5133.00    1.22911   1.21124   57.702
 5134.00    1.23299   1.21510   57.227
 5135.00    1.23937   1.21585   56.690
 5136.00    1.23710   1.21287   56.298
 5137.00    1.22765   1.20688   56.505
 5138.00    1.21708   1.19953   57.673
 5139.00    1.20636   1.19295   58.950
 5140.00    1.20410   1.18843   59.619
 5141.00    1.20627   1.18633   59.486
 5142.00    1.20667   1.18634   59.216
 5143.00    1.20825   1.18777   59.848
 5144.00    1.21788   1.18962   60.453
 5145.00    1.22356   1.19087   59.853
 5146.00    1.22383   1.19119   59.056
 5147.00    1.23279   1.19127   59.103
 5148.00    1.23714   1.19137   59.565
 5149.00    1.23628   1.19083   59.436
 5150.00    1.23531   1.18930   58.790
 5151.00    1.22123   1.18713   58.782
 5152.00    1.20653   1.18551   59.652
 5153.00    1.21159   1.18630   60.554
 5154.00    1.22176   1.19108   60.720
 5155.00    1.23331   1.20025   60.134
 5156.00    1.24824   1.21228   58.840
 5157.00    1.25925   1.22473   57.331
 5158.00    1.27437   1.23498   55.986
 5159.00    1.26713   1.24106   55.137
 5160.00    1.26505   1.24174   54.869
 5161.00    1.26192   1.23617   54.930
 5162.00    1.25455   1.22359   55.159
 5163.00    1.24591   1.20299   55.569
 5164.00    1.23548   1.17363   -1.000
 5165.00    1.21637   1.13735   -1.000
 5166.00    1.17453   1.09972   -1.000
 5167.00    1.12473   1.06813   -1.000
 5168.00    1.10027   1.04801   -1.000
 5169.00    1.10886   1.03844   -1.000
 5170.00    1.14139   1.03540   -1.000
 5171.00    1.16144   1.03678   -1.000
 5172.00    1.13429   1.04421   -1.000
 5173.00    1.11791   1.06161   -1.000
 5174.00    1.14639   1.08895   -1.000
 5175.00    1.20485   1.12200   -1.000
 5176.00    1.24667   1.15414   -1.000
 5177.00    1.26379   1.17830   -1.000
 5178.00    1.26966   1.18966   -1.000
 5179.00    1.26765   1.18554   -1.000
 5180.00    1.25900   1.16635   -1.000
 5181.00    1.24281   1.13658   -1.000
 5182.00    1.20552   1.10476   -1.000
 5183.00    1.14895   1.08195   -1.000
 5184.00    1.12413   1.07595   -1.000
 5185.00    1.15274   1.08786   -1.000
 5186.00    1.20060   1.11168   -1.000
 5187.00    1.23411   1.13844   -1.000
 5188.00    1.23658   1.16110   -1.000
 5189.00    1.23388   1.17543   -1.000
 5190.00    1.23773   1.18069   -1.000
 5191.00    1.22692   1.17947   58.259
 5192.00    1.20885   1.17580   59.262
 5193.00    1.19854   1.17332   61.139
 5194.00    1.20525   1.17402   62.212
 5195.00    1.21793   1.17832   61.477
 5196.00    1.22772   1.18610   60.437
 5197.00    1.23771   1.19650   59.554
 5198.00    1.24900   1.20760   58.592
 5199.00    1.26493   1.21692   57.449
 5200.00    1.26312   1.22173   56.622
 5201.00    1.25324   1.21989   56.293
 5202.00    1.24779   1.21067   56.396
 5203.00    1.23617   1.19524   57.030
 5204.00    1.22130   1.17665   58.166
 5205.00    1.20606   1.15882   59.647
 5206.00    1.19155   1.14528   61.540
 5207.00    1.19281   1.13836   -1.000
 5208.00    1.20122   1.13931   -1.000
 5209.00    1.21132   1.14839   -1.000
 5210.00    1.22487   1.16444   -1.000
 5211.00    1.23569   1.18449   -1.000
 5212.00    1.24948   1.20397   60.013
 5213.00    1.26476   1.21855   57.596
 5214.00    1.27142   1.22615   55.638
 5215.00    1.25901   1.22831   55.011
 5216.00    1.24372   1.22903   55.891
 5217.00    1.23701   1.23215   57.075
 5218.00    1.25258   1.23923   57.418
 5219.00    1.27155   1.24876   56.676
 5220.00    1.28125   1.25736   55.516
 5221.00    1.28574   1.26096   54.806
 5222.00    1.28374   1.25650   54.458
 5223.00    1.28240   1.24289   54.495
 5224.00    1.27127   1.22187   55.501
 5225.00    1.24096   1.19881   57.405
 5226.00    1.20459   1.18079   59.893
 5227.00    1.17814   1.17333   62.417
 5228.00    1.19059   1.17731   63.255
 5229.00    1.22864   1.18860   61.158
 5230.00    1.25231   1.20116   -1.000
 5231.00    1.26471   1.21014   -1.000
 5232.00    1.26095   1.21427   55.250
 5233.00    1.24297   1.21617   55.524
 5234.00    1.23885   1.21973   56.676
 5235.00    1.24721   1.22742   57.374
 5236.00    1.26286   1.23891   56.870
 5237.00    1.27967   1.25182   55.493
 5238.00    1.28914   1.26332   54.355
 5239.00    1.29208   1.27170   53.927
 5240.00    1.28352   1.27661   53.963
 5241.00    1.28693   1.27886   54.075
 5242.00    1.28756   1.27960   53.904
 5243.00    1.28393   1.27921   53.680
 5244.00    1.28464   1.27690   53.733
 5245.00    1.28335   1.27173   53.618
 5246.00    1.27432   1.26373   53.837
 5247.00    1.26139   1.25426   55.138
 5248.00    1.26009   1.24524   56.787
 5249.00    1.25111   1.23830   57.775
 5250.00    1.24481   1.23444   57.851
 5251.00    1.24789   1.23377   58.029
 5252.00    1.25530   1.23554   58.246
 5253.00    1.26130   1.23897   57.795
 5254.00    1.26481   1.24405   57.026
 5255.00    1.26124   1.25094   56.624
 5256.00    1.26927   1.25898   56.554
 5257.00    1.28346   1.26601   55.881
 5258.00    1.28864   1.26873   54.474
 5259.00    1.29882   1.26404   53.250
 5260.00    1.28823   1.25039   53.081
 5261.00    1.27116   1.22871   53.871
 5262.00    1.25376   1.20239   55.606
 5263.00    1.23418   1.17612   -1.000
 5264.00    1.21124   1.15442   -1.000
 5265.00    1.20377   1.13969   -1.000
 5266.00    1.20429   1.13122   -1.000
 5267.00    1.20616   1.12659   -1.000
 5268.00    1.20713   1.12401   -1.000
 5269.00    1.19634   1.12441   -1.000
 5270.00    1.17927   1.13009   -1.000
 5271.00    1.18103   1.14153   65.059
 5272.00    1.21086   1.15717   -1.000
 5273.00    1.23701   1.17444   -1.000
 5274.00    1.24745   1.19151   -1.000
 5275.00    1.25570   1.20813   -1.000
 5276.00    1.25963   1.22426   57.097
 5277.00    1.26623   1.23895   56.705
 5278.00    1.28131   1.24977   55.342
 5279.00    1.28676   1.25445   53.626
 5280.00    1.28623   1.25269   53.006
 5281.00    1.28608   1.24658   53.635
 5282.00    1.26862   1.24021   55.007
 5283.00    1.25079   1.23818   56.340
 5284.00    1.24871   1.24321   57.158
 5285.00    1.25772   1.25491   57.034
 5286.00    1.27656   1.27016   55.652
 5287.00    1.30118   1.28513   53.906
 5288.00    1.31301   1.29719   52.530
 5289.00    1.31228   1.30517   52.371
 5290.00    1.30571   1.30900   52.612
 5291.00    1.30626   1.30934   52.511
 5292.00    1.30840   1.30652   52.236
 5293.00    1.29890   1.30023   52.240
 5294.00    1.29838   1.29002   52.617
 5295.00    1.29190   1.27614   53.175
 5296.00    1.28122   1.26069   54.072
 5297.00    1.26729   1.24732   55.732
 5298.00    1.25211   1.23912   57.759
 5299.00    1.24900   1.23751   58.797
 5300.00    1.26837   1.24180   58.042
 5301.00    1.28459   1.25028   56.608
 5302.00    1.28277   1.26124   55.749
 5303.00    1.28499   1.27258   55.350
 5304.00    1.29433   1.28247   54.444
 5305.00    1.30360   1.28984   53.046
 5306.00    1.30343   1.29471   52.304
 5307.00    1.29737   1.29826   52.370
 5308.00    1.30070   1.30165   52.904
 5309.00    1.29800   1.30522   53.163
 5310.00    1.30397   1.30826   52.718
 5311.00    1.31256   1.30940   52.207
 5312.00    1.31237   1.30749   51.979
 5313.00    1.30857   1.30224   52.110
 5314.00    1.30247   1.29442   52.401
 5315.00    1.29765   1.28617   52.659
 5316.00    1.28156   1.28003   53.086
 5317.00    1.27316   1.27772   53.607
 5318.00    1.27938   1.27875   53.969
 5319.00    1.28746   1.28073   53.859
 5320.00    1.30133   1.28083   53.477
 5321.00    1.29995   1.27677   53.361
 5322.00    1.29250   1.26786   53.625
 5323.00    1.28230   1.25486   54.072
 5324.00    1.26784   1.23911   54.798
 5325.00    1.26189   1.22168   55.672
 5326.00    1.26064   1.20395   -1.000
 5327.00    1.24114   1.18947   -1.000
 5328.00    1.21225   1.18239   58.465
 5329.00    1.20224   1.18553   61.941
 5330.00    1.23474   1.19805   62.733
 5331.00    1.27187   1.21599   -1.000
 5332.00    1.28802   1.23493   -1.000
 5333.00    1.28335   1.25128   55.058
 5334.00    1.28696   1.26281   54.555
 5335.00    1.29361   1.26891   54.006
 5336.00    1.29435   1.26981   53.463
 5337.00    1.28758   1.26619   53.390
 5338.00    1.28185   1.25923   53.768
 5339.00    1.27560   1.25140   54.170
 5340.00    1.26833   1.24563   54.957
 5341.00    1.26132   1.24429   56.303
 5342.00    1.26772   1.24721   56.923
 5343.00    1.28333   1.25222   56.113
 5344.00    1.29549   1.25662   54.654
 5345.00    1.30623   1.25863   53.933
 5346.00    1.29933   1.25830   54.069
 5347.00    1.28455   1.25703   54.440
 5348.00    1.28376   1.25687   54.770
 5349.00    1.28392   1.25945   55.085
 5350.00    1.28743   1.26534   55.515
 5351.00    1.30145   1.27369   55.394
 5352.00    1.30716   1.28318   54.377
 5353.00    1.30465   1.29282   53.223
 5354.00    1.30393   1.30182   52.710
 5355.00    1.31344   1.30962   52.514
 5356.00    1.32173   1.31560   52.023
 5357.00    1.32111   1.31913   51.404
 5358.00    1.31893   1.31969   51.135
 5359.00    1.32093   1.31675   51.214
 5360.00    1.32281   1.31022   51.318
 5361.00    1.31259   1.30086   51.605
 5362.00    1.29991   1.29000   52.298
 5363.00    1.29412   1.27934   53.168
 5364.00    1.29059   1.27020   53.848
 5365.00    1.29208   1.26297   54.186
 5366.00    1.29566   1.25677   54.500
 5367.00    1.29112   1.25009   54.719
 5368.00    1.29178   1.24175   -1.000
 5369.00    1.28000   1.23230   54.688
 5370.00    1.25844   1.22464   55.459
 5371.00    1.24260   1.22243   56.965
 5372.00    1.25155   1.22828   58.374
 5373.00    1.27167   1.24141   57.920
 5374.00    1.30515   1.25853   -1.000
 5375.00    1.31920   1.27523   53.210
 5376.00    1.32707   1.28793   52.187
 5377.00    1.32718   1.29494   51.973
 5378.00    1.32067   1.29647   52.132
 5379.00    1.31420   1.29397   52.159
 5380.00    1.31288   1.28935   52.312
 5381.00    1.30714   1.28451   52.676
 5382.00    1.29020   1.28122   53.212
 5383.00    1.28437   1.28069   53.678
 5384.00    1.29609   1.28309   53.857
 5385.00    1.30236   1.28718   53.754
 5386.00    1.31229   1.29099   53.414
 5387.00    1.31549   1.29255   52.920
 5388.00    1.31812   1.29072   52.924
 5389.00    1.31971   1.28561   53.245
 5390.00    1.30803   1.27821   53.844
 5391.00    1.31143   1.26977   54.644
 5392.00    1.30119   1.26148   55.160
 5393.00    1.28907   1.25355   55.333
 5394.00    1.28750   1.24572   55.377
 5395.00    1.29233   1.23834   -1.000
 5396.00    1.27625   1.23246   56.108
 5397.00    1.25791   1.23005   56.958
 5398.00    1.26033   1.23190   57.906
 5399.00    1.27462   1.23692   57.477
 5400.00    1.29050   1.24246   -1.000
 5401.00    1.29873   1.24512   -1.000
 5402.00    1.29829   1.24232   -1.000
 5403.00    1.28574   1.23426   -1.000
 5404.00    1.26658   1.22380   55.102
 5405.00    1.25074   1.21468   56.901
 5406.00    1.24435   1.20991   58.551
 5407.00    1.25507   1.20969   -1.000
 5408.00    1.27294   1.21301   -1.000
 5409.00    1.27729   1.21888   -1.000
 5410.00    1.28059   1.22655   -1.000
 5411.00    1.28405   1.23563   -1.000
 5412.00    1.28989   1.24523   -1.000
 5413.00    1.30053   1.25457   -1.000
 5414.00    1.30510   1.26339   53.957
 5415.00    1.30369   1.27132   53.568
 5416.00    1.30423   1.27817   53.640
 5417.00    1.30655   1.28356   53.572
 5418.00    1.30929   1.28699   53.149
 5419.00    1.30177   1.28827   52.934
 5420.00    1.29469   1.28738   53.258
 5421.00    1.29921   1.28450   53.767
 5422.00    1.30660   1.28059   53.959
 5423.00    1.29970   1.27682   53.701
 5424.00    1.29247   1.27462   53.686
 5425.00    1.28474   1.27399   54.463
 5426.00    1.29094   1.27297   54.712
 5427.00    1.30922   1.26997   53.976
 5428.00    1.30366   1.26424   53.260
 5429.00    1.28089   1.25716   53.777
 5430.00    1.26937   1.25060   55.417
 5431.00    1.27226   1.24545   56.870
 5432.00    1.28390   1.24224   56.604
 5433.00    1.29120   1.24120   -1.000
 5434.00    1.27919   1.24314   55.933
 5435.00    1.26396   1.24918   56.765
 5436.00    1.26788   1.25952   57.228
 5437.00    1.28627   1.27315   56.761
 5438.00    1.30456   1.28750   55.473
 5439.00    1.32035   1.30016   53.988
 5440.00    1.32258   1.30892   52.965
 5441.00    1.31764   1.31221   52.312
 5442.00    1.32298   1.30926   51.968
 5443.00    1.31866   1.30000   51.923
 5444.00    1.30700   1.28613   52.033
 5445.00    1.29190   1.27105   52.793
 5446.00    1.26634   1.25926   54.421
 5447.00    1.25515   1.25438   56.651
 5448.00    1.26372   1.25700   58.027
 5449.00    1.28475   1.26506   57.129
 5450.00    1.30729   1.27428   55.234
 5451.00    1.31575   1.28030   53.918
 5452.00    1.31485   1.28048   53.585
 5453.00    1.31476   1.27513   53.716
 5454.00    1.30580   1.26735   54.364
 5455.00    1.28462   1.26184   55.757
 5456.00    1.26957   1.26153   57.311
 5457.00    1.27826   1.26664   58.113
 5458.00    1.30980   1.27448   56.871
 5459.00    1.32529   1.28127   -1.000
 5460.00    1.31733   1.28413   53.669
 5461.00    1.31634   1.28268   53.638
 5462.00    1.31413   1.27898   54.414
 5463.00    1.30899   1.27592   55.414
 5464.00    1.30148   1.27564   56.051
 5465.00    1.30283   1.27851   56.129
 5466.00    1.31371   1.28360   55.357
 5467.00    1.30980   1.28921   54.796
 5468.00    1.31202   1.29355   54.501
 5469.00    1.32182   1.29548   53.932
 5470.00    1.33374   1.29454   53.880
 5471.00    1.33145   1.29062   54.460
 5472.00    1.31726   1.28390   54.958
 5473.00    1.31029   1.27473   55.136
 5474.00    1.30670   1.26405   55.483
 5475.00    1.29984   1.25392   -1.000
 5476.00    1.27909   1.24681   57.008
 5477.00    1.27261   1.24461   58.204
 5478.00    1.28303   1.24732   58.811
 5479.00    1.30081   1.25318   -1.000
 5480.00    1.31443   1.26038   -1.000
 5481.00    1.30995   1.26751   55.439
 5482.00    1.30475   1.27424   56.037
 5483.00    1.30917   1.28053   56.599
 5484.00    1.31365   1.28588   56.253
 5485.00    1.31415   1.28961   55.166
 5486.00    1.31169   1.29123   54.147
 5487.00    1.30732   1.29122   53.914
 5488.00    1.30444   1.29064   54.569
 5489.00    1.30846   1.29049   55.286
 5490.00    1.31129   1.29130   55.507
 5491.00    1.31291   1.29277   55.420
 5492.00    1.32047   1.29424   54.993
 5493.00    1.32338   1.29496   54.630
 5494.00    1.32040   1.29436   54.504
 5495.00    1.31658   1.29245   54.635
 5496.00    1.31345   1.28968   54.639
 5497.00    1.29851   1.28670   54.702
 5498.00    1.29141   1.28382   55.139
 5499.00    1.30114   1.28077   55.399
 5500.00    1.30819   1.27748   54.978
 5501.00    1.30188   1.27429   54.518
 5502.00    1.30048   1.27132   55.134
 5503.00    1.30338   1.26867   55.917
 5504.00    1.30855   1.26619   55.836
 5505.00    1.31302   1.26403   -1.000
 5506.00    1.30398   1.26285   55.465
 5507.00    1.29320   1.26299   56.261
 5508.00    1.29812   1.26428   56.602
 5509.00    1.30665   1.26569   55.918
 5510.00    1.31079   1.26600   -1.000
 5511.00    1.31342   1.26475   -1.000
 5512.00    1.31154   1.26281   -1.000
 5513.00    1.30975   1.26195   -1.000
 5514.00    1.30633   1.26376   57.542
 5515.00    1.30216   1.26896   57.806
 5516.00    1.30771   1.27696   56.956
 5517.00    1.32161   1.28628   55.960
 5518.00    1.32192   1.29512   55.091
 5519.00    1.33380   1.30212   54.056
 5520.00    1.33257   1.30651   53.302
 5521.00    1.33177   1.30808   53.275
 5522.00    1.33174   1.30665   53.375
 5523.00    1.32945   1.30199   53.496
 5524.00    1.32382   1.29405   53.674
 5525.00    1.31436   1.28349   53.795
 5526.00    1.30724   1.27227   54.211
 5527.00    1.29399   1.26326   55.071
 5528.00    1.27778   1.25915   56.418
 5529.00    1.28304   1.26077   57.699
 5530.00    1.30020   1.26669   57.649
 5531.00    1.31145   1.27411   56.220
 5532.00    1.31639   1.28030   54.841
 5533.00    1.30965   1.28401   54.337
 5534.00    1.30359   1.28575   54.585
 5535.00    1.30204   1.28696   55.091
 5536.00    1.30536   1.28884   55.258
 5537.00    1.32155   1.29184   54.984
 5538.00    1.32657   1.29570   54.562
 5539.00    1.32391   1.29951   54.443
 5540.00    1.32674   1.30226   54.143
 5541.00    1.33073   1.30337   53.604
 5542.00    1.33120   1.30293   53.264
 5543.00    1.32732   1.30176   53.416
 5544.00    1.31945   1.30094   54.014
 5545.00    1.31226   1.30138   54.490
 5546.00    1.32009   1.30357   54.545
 5547.00    1.32054   1.30721   54.372
 5548.00    1.32692   1.31135   54.219
 5549.00    1.33069   1.31494   53.824
 5550.00    1.32890   1.31705   53.285
 5551.00    1.33344   1.31725   52.901
 5552.00    1.33498   1.31582   52.873
 5553.00    1.32934   1.31362   53.221
 5554.00    1.32063   1.31161   53.724
 5555.00    1.32280   1.31044   54.299
 5556.00    1.32227   1.31027   54.470
 5557.00    1.32505   1.31074   54.345
 5558.00    1.32328   1.31109   54.179
 5559.00    1.33199   1.31053   54.099
 5560.00    1.33752   1.30854   54.034
 5561.00    1.33948   1.30515   54.004
 5562.00    1.33410   1.30084   54.162
 5563.00    1.32405   1.29628   54.498
 5564.00    1.31815   1.29211   55.055
 5565.00    1.31561   1.28863   55.384
 5566.00    1.32154   1.28582   55.514
 5567.00    1.31917   1.28348   55.616
 5568.00    1.30471   1.28139   55.641
 5569.00    1.30219   1.27941   55.508
 5570.00    1.30599   1.27755   55.435
 5571.00    1.30286   1.27611   55.593
 5572.00    1.30338   1.27563   55.537
 5573.00    1.27832   1.27646   55.574
 5574.00    1.22275   1.27871   55.692
 5575.00    1.07448   1.28227   -1.000
 5576.00    0.89423   1.28674   -1.000
 5577.00    1.07921   1.29149   -1.000
 5578.00    1.51833   1.29586   -1.000
 5579.00    1.68720   1.29926   -1.000
 5580.00    1.55351   1.30123   -1.000
 5581.00    1.36926   1.30142   -1.000
 5582.00    1.32134   1.29939   56.054
 5583.00    1.32525   1.29442   55.298
 5584.00    1.32177   1.28582   54.773
 5585.00    1.31435   1.27383   54.766
 5586.00    1.30191   1.26006   55.254
 5587.00    1.28757   1.24727   56.606
 5588.00    1.27696   1.23842   58.029
 5589.00    1.26627   1.23531   59.188
 5590.00    1.27336   1.23774   59.382
 5591.00    1.29201   1.24388   -1.000
 5592.00    1.30574   1.25146   -1.000
 5593.00    1.31020   1.25868   -1.000
 5594.00    1.30502   1.26458   -1.000
 5595.00    1.29730   1.26857   56.908
 5596.00    1.30691   1.27031   56.434
 5597.00    1.31575   1.26980   -1.000
 5598.00    1.31142   1.26725   -1.000
 5599.00    1.30328   1.26346   56.030
 5600.00    1.31680   1.26005   -1.000
 5601.00    1.30732   1.25903   -1.000
 5602.00    1.29411   1.26213   57.420
 5603.00    1.29220   1.27005   57.784
 5604.00    1.29898   1.28202   57.879
 5605.00    1.31216   1.29607   56.712
 5606.00    1.33218   1.30970   55.138
 5607.00    1.33904   1.32086   53.993
 5608.00    1.34239   1.32848   53.480
 5609.00    1.33276   1.33228   53.441
 5610.00    1.33891   1.33214   53.543
 5611.00    1.34081   1.32772   53.632
 5612.00    1.34457   1.31894   53.544
 5613.00    1.33950   1.30666   53.423
 5614.00    1.32442   1.29351   53.840
 5615.00    1.30445   1.28274   55.147
 5616.00    1.29205   1.27699   57.067
 5617.00    1.29835   1.27720   58.067
 5618.00    1.31838   1.28215   57.284
 5619.00    1.32656   1.28920   55.905
 5620.00    1.32306   1.29549   55.290
 5621.00    1.33368   1.29901   55.205
 5622.00    1.34061   1.29933   -1.000
 5623.00    1.32844   1.29750   54.725
 5624.00    1.31510   1.29543   55.128
 5625.00    1.31016   1.29510   56.306
 5626.00    1.31901   1.29763   57.162
 5627.00    1.33334   1.30288   56.681
 5628.00    1.33761   1.30962   55.674
 5629.00    1.33345   1.31606   54.912
 5630.00    1.33758   1.32062   54.322
 5631.00    1.34450   1.32253   53.977
 5632.00    1.34430   1.32169   53.842
 5633.00    1.34145   1.31869   53.650
 5634.00    1.33490   1.31438   53.786
 5635.00    1.33734   1.30967   54.243
 5636.00    1.32740   1.30534   54.618
 5637.00    1.32811   1.30187   54.965
 5638.00    1.33058   1.29935   55.374
 5639.00    1.33731   1.29781   55.697
 5640.00    1.32486   1.29721   55.653
 5641.00    1.32175   1.29745   55.622
 5642.00    1.32148   1.29850   55.821
 5643.00    1.32544   1.30028   55.797
 5644.00    1.33863   1.30251   55.542
 5645.00    1.33034   1.30478   55.304
 5646.00    1.33650   1.30669   55.197
 5647.00    1.34613   1.30794   54.803
 5648.00    1.33828   1.30860   54.681
 5649.00    1.34208   1.30879   54.545
 5650.00    1.34118   1.30859   54.498
 5651.00    1.33892   1.30782   54.639
 5652.00    1.33427   1.30596   54.563
 5653.00    1.34416   1.30236   -1.000
 5654.00    1.33973   1.29644   -1.000
 5655.00    1.32936   1.28826   54.327
 5656.00    1.33352   1.27892   -1.000
 5657.00    1.32168   1.27019   -1.000
 5658.00    1.30101   1.26389   56.606
 5659.00    1.28734   1.26124   58.332
 5660.00    1.28755   1.26237   58.953
 5661.00    1.30084   1.26655   57.855
 5662.00    1.31437   1.27265   -1.000
 5663.00    1.31634   1.27936   56.622
 5664.00    1.31708   1.28565   56.652
 5665.00    1.32857   1.29078   55.911
 5666.00    1.32926   1.29443   55.172
 5667.00    1.32794   1.29682   55.080
 5668.00    1.33505   1.29864   55.433
 5669.00    1.33290   1.30075   55.733
 5670.00    1.32561   1.30365   55.745
 5671.00    1.32834   1.30731   55.555
 5672.00    1.33426   1.31120   55.155
 5673.00    1.33691   1.31470   54.654
 5674.00    1.34636   1.31736   54.100
 5675.00    1.34156   1.31896   53.644
 5676.00    1.33731   1.31939   53.741
 5677.00    1.34015   1.31850   53.894
 5678.00    1.33849   1.31602   53.689
 5679.00    1.33353   1.31176   53.661
 5680.00    1.33684   1.30592   53.972
 5681.00    1.34270   1.29921   -1.000
 5682.00    1.34122   1.29281   -1.000
 5683.00    1.33569   1.28773   -1.000
 5684.00    1.32860   1.28445   -1.000
 5685.00    1.32546   1.28282   -1.000
 5686.00    1.32330   1.28245   -1.000
 5687.00    1.33123   1.28311   -1.000
 5688.00    1.32658   1.28499   -1.000
 5689.00    1.31538   1.28838   56.322
 5690.00    1.32969   1.29331   56.350
 5691.00    1.33841   1.29921   -1.000
 5692.00    1.33867   1.30516   54.565
 5693.00    1.34291   1.31014   54.134
 5694.00    1.34522   1.31345   53.829
 5695.00    1.34318   1.31471   53.779
 5696.00    1.34389   1.31385   53.860
 5697.00    1.34000   1.31107   53.909
 5698.00    1.33042   1.30684   54.119
 5699.00    1.33749   1.30193   54.713
 5700.00    1.33559   1.29724   55.340
 5701.00    1.32251   1.29349   55.818
 5702.00    1.30991   1.29083   56.400
 5703.00    1.31085   1.28877   56.538
 5704.00    1.31741   1.28636   56.017
 5705.00    1.32278   1.28261   -1.000
 5706.00    1.32881   1.27707   -1.000
 5707.00    1.32137   1.27025   -1.000
 5708.00    1.31234   1.26355   -1.000
 5709.00    1.30304   1.25884   -1.000
 5710.00    1.29251   1.25782   58.676
 5711.00    1.28559   1.26129   58.895
 5712.00    1.29752   1.26882   58.654
 5713.00    1.31387   1.27893   57.933
 5714.00    1.32081   1.28974   56.642
 5715.00    1.33125   1.29967   55.270
 5716.00    1.33712   1.30794   54.561
 5717.00    1.33425   1.31458   54.448
 5718.00    1.33485   1.32007   54.325
 5719.00    1.33734   1.32485   54.137
 5720.00    1.33940   1.32908   53.851
 5721.00    1.33849   1.33256   53.501
 5722.00    1.34335   1.33490   53.278
 5723.00    1.35554   1.33571   53.169
 5724.00    1.35132   1.33487   53.093
 5725.00    1.35195   1.33267   53.050
 5726.00    1.34265   1.32978   53.234
 5727.00    1.33126   1.32700   53.736
 5728.00    1.34232   1.32493   54.303
 5729.00    1.34660   1.32388   54.644
 5730.00    1.34976   1.32385   54.252
 5731.00    1.34296   1.32471   53.978
 5732.00    1.33474   1.32633   54.202
 5733.00    1.34061   1.32852   54.443
 5734.00    1.34120   1.33094   54.141
 5735.00    1.35055   1.33313   53.593
 5736.00    1.34809   1.33473   53.321
 5737.00    1.34613   1.33556   53.418
 5738.00    1.33892   1.33570   53.486
 5739.00    1.34281   1.33538   53.653
 5740.00    1.34370   1.33484   53.680
 5741.00    1.33506   1.33431   53.808
 5742.00    1.33588   1.33393   53.884
 5743.00    1.33782   1.33375   53.991
 5744.00    1.33919   1.33365   53.834
 5745.00    1.33841   1.33344   53.767
 5746.00    1.33824   1.33297   53.329
 5747.00    1.34375   1.33213   53.115
 5748.00    1.34798   1.33080   53.504
 5749.00    1.34829   1.32876   54.034
 5750.00    1.34970   1.32578   54.143
 5751.00    1.34064   1.32205   53.772
 5752.00    1.33555   1.31838   53.688
 5753.00    1.32341   1.31604   54.210
 5754.00    1.32030   1.31613   54.885
 5755.00    1.32828   1.31888   55.366
 5756.00    1.34388   1.32335   55.219
 5757.00    1.34335   1.32784   54.400
 5758.00    1.34443   1.33064   53.388
 5759.00    1.34912   1.33090   52.878
 5760.00    1.34267   1.32900   53.178
 5761.00    1.33787   1.32633   53.831
 5762.00    1.33357   1.32464   54.549
 5763.00    1.32795   1.32519   55.260
 5764.00    1.33784   1.32822   55.396
 5765.00    1.34533   1.33289   54.657
 5766.00    1.34091   1.33776   53.665
 5767.00    1.34254   1.34152   53.096
 5768.00    1.34922   1.34344   52.999
 5769.00    1.34825   1.34342   52.949
 5770.00    1.34165   1.34182   52.869
 5771.00    1.33921   1.33920   53.011
 5772.00    1.34116   1.33617   53.202
 5773.00    1.34559   1.33333   53.518
 5774.00    1.34091   1.33099   53.837
 5775.00    1.33797   1.32902   53.938
 5776.00    1.33295   1.32683   53.985
 5777.00    1.33014   1.32359   53.836
 5778.00    1.31868   1.31877   53.563
 5779.00    1.30104   1.31250   53.562
 5780.00    1.28740   1.30573   53.803
 5781.00    1.29963   1.29980   54.702
 5782.00    1.31299   1.29585   55.954
 5783.00    1.32104   1.29451   56.540
 5784.00    1.33163   1.29573   56.331
 5785.00    1.33293   1.29896   56.110
 5786.00    1.34618   1.30342   -1.000
 5787.00    1.33976   1.30820   55.675
 5788.00    1.33625   1.31255   54.989
 5789.00    1.33772   1.31603   54.271
 5790.00    1.34239   1.31878   53.931
 5791.00    1.34113   1.32134   54.061
 5792.00    1.33645   1.32422   54.300
 5793.00    1.34642   1.32751   54.147
 5794.00    1.34176   1.33080   53.662
 5795.00    1.34159   1.33356   53.314
 5796.00    1.34112   1.33552   53.015
 5797.00    1.33410   1.33687   53.040
 5798.00    1.33927   1.33811   53.402
 5799.00    1.34335   1.33959   53.700
 5800.00    1.35565   1.34121   53.338
 5801.00    1.36202   1.34245   52.607
 5802.00    1.35623   1.34276   51.923
 5803.00    1.35412   1.34198   51.916
 5804.00    1.35714   1.34048   52.413
 5805.00    1.34836   1.33897   52.810
 5806.00    1.34840   1.33814   53.235
 5807.00    1.35559   1.33830   53.421
 5808.00    1.34827   1.33934   53.251
 5809.00    1.34452   1.34083   53.048
 5810.00    1.35599   1.34219   52.906
 5811.00    1.35953   1.34291   52.920
 5812.00    1.35826   1.34268   52.850
 5813.00    1.36760   1.34157   52.635
 5814.00    1.36380   1.34007   52.505
 5815.00    1.35524   1.33890   52.663
 5816.00    1.35978   1.33876   53.130
 5817.00    1.35551   1.33996   53.311
 5818.00    1.35528   1.34225   52.970
 5819.00    1.36689   1.34501   52.606
 5820.00    1.37129   1.34758   52.331
 5821.00    1.36823   1.34955   52.080
 5822.00    1.36906   1.35085   51.932
 5823.00    1.37152   1.35165   52.055
 5824.00    1.36253   1.35218   52.232
 5825.00    1.36000   1.35264   52.101
 5826.00    1.36671   1.35312   52.031
 5827.00    1.36944   1.35362   51.932
 5828.00    1.36820   1.35403   51.894
 5829.00    1.37689   1.35419   51.920
 5830.00    1.36606   1.35399   52.025
 5831.00    1.36308   1.35338   51.898
 5832.00    1.36208   1.35247   51.928
 5833.00    1.36445   1.35150   51.851
 5834.00    1.36963   1.35077   51.995
 5835.00    1.37878   1.35053   52.360
 5836.00    1.37667   1.35086   52.390
 5837.00    1.35559   1.35163   52.191
 5838.00    1.36297   1.35257   52.117
 5839.00    1.37332   1.35342   52.318
 5840.00    1.37385   1.35397   52.411
 5841.00    1.37723   1.35404   52.195
 5842.00    1.37641   1.35347   51.789
 5843.00    1.36782   1.35218   51.554
 5844.00    1.36064   1.35020   51.609
 5845.00    1.36520   1.34774   51.800
 5846.00    1.37397   1.34512   52.010
 5847.00    1.37736   1.34255   52.375
 5848.00    1.36614   1.33999   52.620
 5849.00    1.35435   1.33709   52.867
 5850.00    1.36208   1.33343   52.770
 5851.00    1.37056   1.32873   -1.000
 5852.00    1.35985   1.32302   53.223
 5853.00    1.35530   1.31658   -1.000
 5854.00    1.35203   1.30981   -1.000
 5855.00    1.33842   1.30325   54.320
 5856.00    1.34642   1.29766   -1.000
 5857.00    1.33252   1.29403   54.474
 5858.00    1.32352   1.29325   55.105
 5859.00    1.34076   1.29560   -1.000
 5860.00    1.34249   1.30047   -1.000
 5861.00    1.35565   1.30657   -1.000
 5862.00    1.35822   1.31249   -1.000
 5863.00    1.35557   1.31716   -1.000
 5864.00    1.35515   1.32018   53.547
 5865.00    1.35825   1.32180   53.507
 5866.00    1.35117   1.32279   53.684
 5867.00    1.35494   1.32403   53.876
 5868.00    1.35893   1.32607   54.139
 5869.00    1.35578   1.32882   54.017
 5870.00    1.35961   1.33157   53.449
 5871.00    1.36311   1.33347   53.025
 5872.00    1.37289   1.33395   -1.000
 5873.00    1.37178   1.33298   -1.000
 5874.00    1.36774   1.33096   53.009
 5875.00    1.37131   1.32844   -1.000
 5876.00    1.36574   1.32578   -1.000
 5877.00    1.36907   1.32309   -1.000
 5878.00    1.36107   1.32027   -1.000
 5879.00    1.34645   1.31711   53.402
 5880.00    1.35182   1.31341   -1.000
 5881.00    1.34999   1.30893   -1.000
 5882.00    1.34413   1.30326   -1.000
 5883.00    1.34925   1.29562   -1.000
 5884.00    1.34994   1.28464   -1.000
 5885.00    1.33038   1.26865   -1.000
 5886.00    1.28976   1.24649   -1.000
 5887.00    1.22476   1.21885   54.522
 5888.00    1.11582   1.18902   -1.000
 5889.00    1.02616   1.16216   -1.000
 5890.00    1.03903   1.14297   -1.000
 5891.00    1.13570   1.13322   65.285
 5892.00    1.20836   1.13112   -1.000
 5893.00    1.20960   1.13305   -1.000
 5894.00    1.14965   1.13641   61.231
 5895.00    1.09215   1.14128   60.315
 5896.00    1.10201   1.14979   61.290
 5897.00    1.17811   1.16394   63.120
 5898.00    1.26031   1.18387   -1.000
 5899.00    1.30806   1.20750   -1.000
 5900.00    1.32695   1.23170   -1.000
 5901.00    1.34104   1.25361   -1.000
 5902.00    1.35176   1.27153   -1.000
 5903.00    1.34982   1.28500   -1.000
 5904.00    1.34177   1.29450   -1.000
 5905.00    1.35187   1.30098   -1.000
 5906.00    1.34892   1.30545   -1.000
 5907.00    1.35273   1.30863   -1.000
 5908.00    1.35392   1.31082   -1.000
 5909.00    1.34129   1.31196   54.309
 5910.00    1.35303   1.31178   -1.000
 5911.00    1.34733   1.31016   -1.000
 5912.00    1.34913   1.30728   -1.000
 5913.00    1.34453   1.30382   -1.000
 5914.00    1.34244   1.30077   -1.000
 5915.00    1.33032   1.29909   55.659
 5916.00    1.34447   1.29930   -1.000
 5917.00    1.32467   1.30128   55.804
 5918.00    1.32240   1.30439   55.451
 5919.00    1.32135   1.30777   55.278
 5920.00    1.32690   1.31073   55.037
 5921.00    1.34053   1.31300   54.924
 5922.00    1.33330   1.31467   54.707
 5923.00    1.33465   1.31599   54.767
 5924.00    1.34214   1.31700   54.812
 5925.00    1.34977   1.31750   54.547
 5926.00    1.35780   1.31717   -1.000
 5927.00    1.35355   1.31586   -1.000
 5928.00    1.34656   1.31386   54.275
 5929.00    1.34686   1.31186   54.406
 5930.00    1.35124   1.31058   -1.000
 5931.00    1.34394   1.31038   55.267
 5932.00    1.34264   1.31118   55.128
 5933.00    1.35146   1.31263   -1.000
 5934.00    1.34422   1.31438   54.340
 5935.00    1.33776   1.31618   54.841
 5936.00    1.34447   1.31777   55.197
 5937.00    1.35031   1.31881   55.228
 5938.00    1.35218   1.31897   54.811
 5939.00    1.35233   1.31822   54.340
 5940.00    1.33461   1.31688   54.187
 5941.00    1.32139   1.31553   54.451
 5942.00    1.32684   1.31464   55.065
 5943.00    1.33710   1.31433   55.308
 5944.00    1.33325   1.31433   55.219
 5945.00    1.33791   1.31417   54.853
 5946.00    1.34194   1.31354   54.540
 5947.00    1.34595   1.31246   54.347
 5948.00    1.33269   1.31123   54.565
 5949.00    1.32960   1.31019   55.106
 5950.00    1.33917   1.30946   55.692
 5951.00    1.34295   1.30899   55.730
 5952.00    1.34193   1.30860   55.391
 5953.00    1.33943   1.30821   55.212
 5954.00    1.34748   1.30787   -1.000
 5955.00    1.33737   1.30781   55.319
 5956.00    1.33060   1.30835   55.215
 5957.00    1.32751   1.30981   55.249
 5958.00    1.32373   1.31231   55.511
 5959.00    1.33602   1.31563   55.555
 5960.00    1.34516   1.31919   55.291
 5961.00    1.33804   1.32225   54.588
 5962.00    1.34862   1.32426   54.095
 5963.00    1.35143   1.32502   53.931
 5964.00    1.34560   1.32480   53.891
 5965.00    1.34297   1.32413   54.047
 5966.00    1.33836   1.32363   54.372
 5967.00    1.33232   1.32375   54.529
 5968.00    1.34110   1.32460   54.734
 5969.00    1.34507   1.32593   54.546
 5970.00    1.33443   1.32722   54.090
 5971.00    1.34802   1.32780   54.016
 5972.00    1.34681   1.32713   54.012
 5973.00    1.34160   1.32502   53.872
 5974.00    1.34168   1.32176   53.829
 5975.00    1.33236   1.31808   54.183
 5976.00    1.33378   1.31496   54.628
 5977.00    1.33143   1.31315   55.039
 5978.00    1.32741   1.31282   55.428
 5979.00    1.33674   1.31343   55.651
 5980.00    1.35397   1.31402   -1.000
 5981.00    1.34921   1.31374   -1.000
 5982.00    1.33709   1.31232   54.661
 5983.00    1.33416   1.31028   54.843
 5984.00    1.32748   1.30858   55.340
 5985.00    1.32459   1.30811   55.825
 5986.00    1.32939   1.30917   56.063
 5987.00    1.32820   1.31145   55.787
 5988.00    1.33207   1.31433   55.148
 5989.00    1.34126   1.31722   54.870
 5990.00    1.33549   1.31987   54.702
 5991.00    1.33085   1.32227   54.417
 5992.00    1.33232   1.32443   54.566
 5993.00    1.33328   1.32615   54.688
 5994.00    1.33594   1.32710   54.352
 5995.00    1.34055   1.32706   53.876
 5996.00    1.34032   1.32611   53.779
 5997.00    1.33129   1.32461   54.234
 5998.00    1.32449   1.32298   54.598
 5999.00    1.33087   1.32142   54.816
 6000.00    1.33962   1.31991   54.914
 6001.00    1.34080   1.31831   54.783
 6002.00    1.33866   1.31648   54.866
 6003.00    1.32518   1.31438   55.236
 6004.00    1.32795   1.31201   55.386
 6005.00    1.33116   1.30949   55.339
 6006.00    1.32550   1.30713   55.170
 6007.00    1.31895   1.30546   55.242
 6008.00    1.31521   1.30498   55.695
 6009.00    1.31528   1.30584   56.276
 6010.00    1.31232   1.30761   56.174
 6011.00    1.32772   1.30950   55.442
 6012.00    1.33089   1.31079   54.892
 6013.00    1.33023   1.31118   55.008
 6014.00    1.34326   1.31075   55.482
 6015.00    1.32409   1.30977   55.743
 6016.00    1.32875   1.30842   55.381
 6017.00    1.33613   1.30676   55.431
 6018.00    1.34095   1.30484   -1.000
 6019.00    1.31369   1.30290   55.788
 6020.00    1.31638   1.30135   55.607
 6021.00    1.31137   1.30070   55.834
 6022.00    1.31367   1.30136   56.211
 6023.00    1.32152   1.30350   55.902
 6024.00    1.30890   1.30702   55.512
 6025.00    1.31981   1.31157   55.435
 6026.00    1.32858   1.31667   55.364
 6027.00    1.31901   1.32182   54.989
 6028.00    1.32754   1.32657   54.860
 6029.00    1.32700   1.33065   54.477
 6030.00    1.33863   1.33397   54.263
 6031.00    1.33482   1.33656   54.209
 6032.00    1.34135   1.33854   54.234
 6033.00    1.33121   1.33999   54.377
 6034.00    1.32691   1.34088   54.241
 6035.00    1.32689   1.34114   53.982
 6036.00    1.32904   1.34067   53.865
 6037.00    1.32752   1.33948   53.855
 6038.00    1.32511   1.33773   53.739
 6039.00    1.32614   1.33575   53.825
 6040.00    1.32500   1.33402   54.168
 6041.00    1.33102   1.33300   54.241
 6042.00    1.33602   1.33298   54.430
 6043.00    1.32719   1.33402   54.267
 6044.00    1.33160   1.33590   54.208
 6045.00    1.33087   1.33825   53.896
 6046.00    1.32923   1.34066   53.449
 6047.00    1.32464   1.34277   53.550
 6048.00    1.32796   1.34429   53.548
 6049.00    1.33694   1.34498   53.448
 6050.00    1.33825   1.34471   53.523
 6051.00    1.33482   1.34341   53.728
 6052.00    1.33439   1.34120   53.835
 6053.00    1.33216   1.33840   53.875
 6054.00    1.32269   1.33556   53.988
 6055.00    1.32446   1.33333   54.225
 6056.00    1.31719   1.33219   54.380
 6057.00    1.32191   1.33220   54.705
 6058.00    1.32699   1.33292   54.846
 6059.00    1.32264   1.33353   54.722
 6060.00    1.32465   1.33316   54.408
 6061.00    1.33070   1.33121   54.134
 6062.00    1.32716   1.32776   54.245
 6063.00    1.29989   1.32360   54.368
 6064.00    1.37523   1.32004   -1.000
 6065.00    0.66624   1.31841   -1.000
 6066.00    0.45605   1.31949   -1.000
 6067.00    1.19141   1.32313   -1.000
 6068.00    1.29696   1.32840   16.477
 6069.00    1.28369   1.33405   58.456
 6070.00    1.37421   1.33906   -1.000
 6071.00    0.74376   1.34281   -1.000
 6072.00    0.49393   1.34512   -1.000
 6073.00    1.37473   1.34597   52.139
 6074.00    1.32496   1.34541   53.486
 6075.00    1.32231   1.34351   53.726
 6076.00    1.32235   1.34049   53.761
 6077.00    1.32870   1.33674   53.961
 6078.00    1.32581   1.33278   54.252
 6079.00    1.31216   1.32909   54.564
 6080.00    1.31716   1.32596   55.004
 6081.00    1.31630   1.32351   55.326
 6082.00    1.31601   1.32178   55.321
 6083.00    1.31109   1.32082   55.380
 6084.00    1.30577   1.32070   55.552
 6085.00    1.30712   1.32134   55.526
 6086.00    1.31008   1.32247   55.484
 6087.00    1.31673   1.32365   55.423
 6088.00    1.31994   1.32450   55.250
 6089.00    1.31179   1.32490   55.021
 6090.00    1.31303   1.32508   55.169
 6091.00    1.30638   1.32547   55.526
 6092.00    1.30382   1.32644   55.746
 6093.00    1.30924   1.32810   55.690
 6094.00    1.31209   1.33021   55.298
 6095.00    1.31234   1.33220   55.037
 6096.00    1.31640   1.33326   54.718
 6097.00    1.31583   1.33254   54.491
 6098.00    1.31732   1.32932   54.537
 6099.00    1.31465   1.32343   54.683
 6100.00    1.31085   1.31561   54.706
 6101.00    1.31011   1.30754   54.708
 6102.00    1.29268   1.30138   55.435
 6103.00    1.28186   1.29892   56.867
 6104.00    1.28595   1.30079   57.718
 6105.00    1.30059   1.30622   57.173
 6106.00    1.31227   1.31357   56.026
 6107.00    1.30583   1.32108   55.213
 6108.00    1.29868   1.32751   55.083
 6109.00    1.30303   1.33233   55.327
 6110.00    1.29509   1.33561   55.450
 6111.00    1.29758   1.33768   55.413
 6112.00    1.30783   1.33892   55.285
 6113.00    1.30494   1.33958   55.029
 6114.00    1.29980   1.33963   55.044
 6115.00    1.30449   1.33878   54.718
 6116.00    1.29973   1.33656   54.607
 6117.00    1.30099   1.33245   54.850
 6118.00    1.30924   1.32617   55.225
 6119.00    1.31197   1.31799   55.272
 6120.00    1.29687   1.30897   55.564
 6121.00    1.28772   1.30083   56.422
 6122.00    1.27664   1.29535   57.139
 6123.00    1.26785   1.29370   57.667
 6124.00    1.27347   1.29586   57.668
 6125.00    1.28329   1.30080   56.646
 6126.00    1.28815   1.30708   55.947
 6127.00    1.28939   1.31349   55.991
 6128.00    1.29001   1.31940   56.343
 6129.00    1.29748   1.32447   56.230
 6130.00    1.30197   1.32823   56.109
 6131.00    1.29297   1.32977   55.618
 6132.00    1.29324   1.32796   55.090
 6133.00    1.30165   1.32205   55.013
 6134.00    1.30079   1.31230   55.134
 6135.00    1.28259   1.30033   55.694
 6136.00    1.26499   1.28866   57.021
 6137.00    1.24517   1.27987   58.745
 6138.00    1.23279   1.27561   60.194
 6139.00    1.24464   1.27625   60.258
 6140.00    1.25646   1.28107   58.616
 6141.00    1.26327   1.28871   56.956
 6142.00    1.26297   1.29762   56.411
 6143.00    1.26634   1.30623   56.562
 6144.00    1.27669   1.31319   56.646
 6145.00    1.27981   1.31763   56.017
 6146.00    1.28418   1.31939   55.343
 6147.00    1.29176   1.31898   55.310
 6148.00    1.28733   1.31737   55.588
 6149.00    1.28075   1.31558   55.948
 6150.00    1.27836   1.31428   56.357
 6151.00    1.27935   1.31362   56.678
 6152.00    1.27988   1.31325   56.656
 6153.00    1.27601   1.31260   56.433
 6154.00    1.28149   1.31109   56.023
 6155.00    1.28541   1.30824   55.985
 6156.00    1.27693   1.30359   56.505
 6157.00    1.27859   1.29655   56.772
 6158.00    1.28247   1.28671   56.795
 6159.00    1.26931   1.27425   57.051
 6160.00    1.26635   1.26047   57.688
 6161.00    1.25689   1.24765   58.829
 6162.00    1.24187   1.23830   60.670
 6163.00    1.22881   1.23407   62.418
 6164.00    1.23191   1.23484   62.922
 6165.00    1.24757   1.23900   61.880
 6166.00    1.25655   1.24428   60.115
 6167.00    1.26125   1.24899   59.265
 6168.00    1.25826   1.25278   59.053
 6169.00    1.24939   1.25640   59.235
 6170.00    1.23926   1.26095   60.059
 6171.00    1.24581   1.26702   60.644
 6172.00    1.25345   1.27431   60.115
 6173.00    1.26715   1.28196   58.899
 6174.00    1.26092   1.28903   58.111
 6175.00    1.26680   1.29496   58.233
 6176.00    1.26407   1.29966   58.267
 6177.00    1.25708   1.30340   58.110
 6178.00    1.26456   1.30656   58.004
 6179.00    1.26825   1.30938   57.842
 6180.00    1.27162   1.31193   57.545
 6181.00    1.27040   1.31404   57.345
 6182.00    1.26750   1.31534   57.163
 6183.00    1.27011   1.31541   56.889
 6184.00    1.27754   1.31393   56.757
 6185.00    1.27599   1.31079   56.891
 6186.00    1.26900   1.30609   57.096
 6187.00    1.26665   1.30020   57.574
 6188.00    1.26518   1.29371   58.217
 6189.00    1.26897   1.28757   58.814
 6190.00    1.26461   1.28297   59.370
 6191.00    1.24996   1.28103   59.787
 6192.00    1.23983   1.28229   60.608
 6193.00    1.23711   1.28640   60.954
 6194.00    1.24655   1.29215   60.194
 6195.00    1.25504   1.29800   58.637
 6196.00    1.26018   1.30262   57.733
 6197.00    1.26403   1.30544   57.417
 6198.00    1.26443   1.30666   57.348
 6199.00    1.25829   1.30714   57.759
 6200.00    1.25447   1.30786   58.453
 6201.00    1.25183   1.30955   58.908
 6202.00    1.24238   1.31236   58.813
 6203.00    1.24542   1.31595   58.177
 6204.00    1.25414   1.31964   57.440
 6205.00    1.26353   1.32274   57.327
 6206.00    1.26697   1.32466   57.337
 6207.00    1.27436   1.32499   57.230
 6208.00    1.27017   1.32344   57.238
 6209.00    1.27010   1.31987   57.478
 6210.00    1.26638   1.31439   57.450
 6211.00    1.26110   1.30752   57.730
 6212.00    1.25615   1.30006   58.280
 6213.00    1.25151   1.29301   58.724
 6214.00    1.25259   1.28715   59.313
 6215.00    1.23951   1.28286   60.245
 6216.00    1.24408   1.28013   60.821
 6217.00    1.25320   1.27872   60.951
 6218.00    1.24663   1.27844   60.081
 6219.00    1.24032   1.27921   59.844
 6220.00    1.24155   1.28096   60.351
 6221.00    1.24749   1.28343   60.065
 6222.00    1.25089   1.28611   59.613
 6223.00    1.28269   1.28828   60.048
 6224.00    1.27386   1.28924   64.865
 6225.00    1.25614   1.28840   62.193
 6226.00    1.25401   1.28544   59.315
 6227.00    1.25454   1.28050   59.350
 6228.00    1.25509   1.27433   59.369
 6229.00    1.24959   1.26824   59.730
 6230.00    1.24224   1.26377   60.577
 6231.00    1.22429   1.26212   61.594
 6232.00    1.21810   1.26356   62.361
 6233.00    1.23735   1.26731   62.028
 6234.00    1.24458   1.27183   61.104
 6235.00    1.25244   1.27557   59.933
 6236.00    1.25736   1.27751   58.971
 6237.00    1.25367   1.27740   58.741
 6238.00    1.24767   1.27561   59.172
 6239.00    1.24383   1.27272   59.780
 6240.00    1.24222   1.26917   60.386
 6241.00    1.23603   1.26525   61.033
 6242.00    1.23243   1.26120   61.261
 6243.00    1.22630   1.25752   61.225
 6244.00    1.22298   1.25495   61.707
 6245.00    1.22834   1.25425   62.105
 6246.00    1.22281   1.25575   62.041
 6247.00    1.22185   1.25901   61.628
 6248.00    1.23001   1.26278   61.006
 6249.00    1.24233   1.26549   60.220
 6250.00    1.24584   1.26591   59.602
 6251.00    1.22928   1.26376   59.570
 6252.00    1.22550   1.25972   60.152
 6253.00    1.21528   1.25505   61.295
 6254.00    1.20040   1.25103   62.026
 6255.00    1.20603   1.24851   62.437
 6256.00    1.20860   1.24787   62.600
 6257.00    1.20961   1.24920   62.566
 6258.00    1.20936   1.25241   63.167
 6259.00    1.21232   1.25730   63.725
 6260.00    1.21585   1.26341   63.415
 6261.00    1.21928   1.27006   62.433
 6262.00    1.22654   1.27648   61.500
 6263.00    1.22724   1.28202   60.669
 6264.00    1.23157   1.28638   59.722
 6265.00    1.23111   1.28952   59.453
 6266.00    1.22417   1.29159   59.954
 6267.00    1.22520   1.29274   60.345
 6268.00    1.22808   1.29309   60.050
 6269.00    1.22272   1.29270   59.608
 6270.00    1.21718   1.29158   -1.000
 6271.00    1.21804   1.28955   60.149
 6272.00    1.22265   1.28627   60.056
 6273.00    1.22057   1.28140   59.845
 6274.00    1.21465   1.27490   59.707
 6275.00    1.21057   1.26723   59.875
 6276.00    1.19116   1.25939   60.320
 6277.00    1.16255   1.25266   -1.000
 6278.00    1.14278   1.24826   -1.000
 6279.00    1.15282   1.24700   -1.000
 6280.00    1.16399   1.24911   -1.000
 6281.00    1.15424   1.25419   -1.000
 6282.00    1.14633   1.26134   -1.000
 6283.00    1.15376   1.26935   -1.000
 6284.00    1.16707   1.27704   -1.000
 6285.00    1.18960   1.28346   -1.000
 6286.00    1.21364   1.28803   -1.000
 6287.00    1.21057   1.29058   -1.000
 6288.00    1.21280   1.29131   -1.000
 6289.00    1.21672   1.29064   59.342
 6290.00    1.21620   1.28911   59.232
 6291.00    1.20099   1.28716   -1.000
 6292.00    1.20334   1.28505   -1.000
 6293.00    1.20711   1.28272   -1.000
 6294.00    1.20218   1.28000   -1.000
 6295.00    1.20395   1.27676   60.690
 6296.00    1.21364   1.27310   60.799
 6297.00    1.21453   1.26933   61.280
 6298.00    1.21752   1.26599   61.681
 6299.00    1.23458   1.26366   61.769
 6300.00    1.27845   1.26292   61.674
 6301.00    1.28906   1.26422   61.410
 6302.00    1.26621   1.26768   61.137
 6303.00    1.23678   1.27298   61.671
 6304.00    1.21558   1.27933   62.379
 6305.00    1.21096   1.28567   -1.000
 6306.00    1.21700   1.29109   60.853
 6307.00    1.22328   1.29496   60.110
 6308.00    1.21817   1.29711   -1.000
 6309.00    1.21904   1.29763   -1.000
 6310.00    1.21318   1.29672   -1.000
 6311.00    1.21789   1.29458   -1.000
 6312.00    1.21738   1.29143   59.636
 6313.00    1.21281   1.28759   -1.000
 6314.00    1.20055   1.28354   -1.000
 6315.00    1.19790   1.27994   -1.000
 6316.00    1.20089   1.27748   -1.000
 6317.00    1.20588   1.27678   60.941
 6318.00    1.19423   1.27812   -1.000
 6319.00    1.18887   1.28141   -1.000
 6320.00    1.20075   1.28620   -1.000
 6321.00    1.20891   1.29180   -1.000
 6322.00    1.21045   1.29752   -1.000
 6323.00    1.21353   1.30276   -1.000
 6324.00    1.21519   1.30712   -1.000
 6325.00    1.21005   1.31037   -1.000
 6326.00    1.22055   1.31250   -1.000
 6327.00    1.22911   1.31366   -1.000
 6328.00    1.22442   1.31405   -1.000
 6329.00    1.22791   1.31376   -1.000
 6330.00    1.23111   1.31272   -1.000
 6331.00    1.23414   1.31069   58.218
 6332.00    1.23039   1.30750   58.259
 6333.00    1.23215   1.30331   58.047
 6334.00    1.21721   1.29878   -1.000
 6335.00    1.19109   1.29493   -1.000
 6336.00    1.20549   1.29276   -1.000
 6337.00    1.20912   1.29285   -1.000
 6338.00    1.21411   1.29504   -1.000
 6339.00    1.22153   1.29850   59.261
 6340.00    1.22302   1.30213   -1.000
 6341.00    1.23296   1.30496   58.010
 6342.00    1.22641   1.30653   -1.000
 6343.00    1.22765   1.30703   -1.000
 6344.00    1.22762   1.30717   -1.000
 6345.00    1.22412   1.30776   -1.000
 6346.00    1.22357   1.30943   -1.000
 6347.00    1.23009   1.31226   -1.000
 6348.00    1.23000   1.31577   -1.000
 6349.00    1.22922   1.31912   -1.000
 6350.00    1.23384   1.32144   -1.000
 6351.00    1.22940   1.32216   -1.000
 6352.00    1.22626   1.32116   -1.000
 6353.00    1.22587   1.31872   -1.000
 6354.00    1.22698   1.31537   -1.000
 6355.00    1.22092   1.31161   -1.000
 6356.00    1.21738   1.30781   -1.000
 6357.00    1.23027   1.30418   58.602
 6358.00    1.22453   1.30085   58.636
 6359.00    1.22163   1.29792   -1.000
 6360.00    1.22118   1.29557   59.468
 6361.00    1.21349   1.29402   -1.000
 6362.00    1.22725   1.29349   59.501
 6363.00    1.23668   1.29409   59.308
 6364.00    1.25153   1.29574   59.250
 6365.00    1.25479   1.29813   59.048
 6366.00    1.24100   1.30079   58.661
 6367.00    1.23251   1.30331   58.286
 6368.00    1.23077   1.30547   57.972
 6369.00    1.21756   1.30731   -1.000
 6370.00    1.22084   1.30909   -1.000
 6371.00    1.21695   1.31098   -1.000
 6372.00    1.21613   1.31295   -1.000
 6373.00    1.22111   1.31471   -1.000
 6374.00    1.21510   1.31582   -1.000
 6375.00    1.21446   1.31599   -1.000
 6376.00    1.21533   1.31514   -1.000
 6377.00    1.21090   1.31348   -1.000
 6378.00    1.20659   1.31138   -1.000
 6379.00    1.20634   1.30925   -1.000
 6380.00    1.20951   1.30745   -1.000
 6381.00    1.20316   1.30626   -1.000
 6382.00    1.20413   1.30583   -1.000
 6383.00    1.19913   1.30621   -1.000
 6384.00    1.19821   1.30723   -1.000
 6385.00    1.19525   1.30858   -1.000
 6386.00    1.19475   1.30975   -1.000
 6387.00    1.18775   1.31024   -1.000
 6388.00    1.18171   1.30963   -1.000
 6389.00    1.17901   1.30777   -1.000
 6390.00    1.16911   1.30487   -1.000
 6391.00    1.16160   1.30152   -1.000
 6392.00    1.15227   1.29849   -1.000
 6393.00    1.14415   1.29647   -1.000
 6394.00    1.13405   1.29565   -1.000
 6395.00    1.12444   1.29564   -1.000
 6396.00    1.12337   1.29573   -1.000
 6397.00    1.12691   1.29538   -1.000
 6398.00    1.12990   1.29465   -1.000
 6399.00    1.12867   1.29421   -1.000
 6400.00    1.11049   1.29488   -1.000
 6401.00    1.08816   1.29707   -1.000
 6402.00    1.09006   1.30043   -1.000
 6403.00    1.11148   1.30396   -1.000
 6404.00    1.11233   1.30659   -1.000
 6405.00    1.10039   1.30765   -1.000
 6406.00    1.09911   1.30716   -1.000
 6407.00    1.08787   1.30568   -1.000
 6408.00    1.08417   1.30396   -1.000
 6409.00    1.07484   1.30262   -1.000
 6410.00    1.06158   1.30197   -1.000
 6411.00    1.05606   1.30206   -1.000
 6412.00    1.05091   1.30274   -1.000
 6413.00    1.03735   1.30374   -1.000
 6414.00    1.03094   1.30465   -1.000
 6415.00    1.03701   1.30508   -1.000
 6416.00    1.02976   1.30473   -1.000
 6417.00    1.02039   1.30361   -1.000
 6418.00    1.01450   1.30209   -1.000
 6419.00    1.00578   1.30094   -1.000
 6420.00    0.99827   1.30103   -1.000
 6421.00    0.98738   1.30298   -1.000
 6422.00    0.97469   1.30682   -1.000
 6423.00    0.96389   1.31186   -1.000
 6424.00    0.95629   1.31693   -1.000
 6425.00    0.96373   1.32073   -1.000
 6426.00    0.95587   1.32229   -1.000
 6427.00    0.94495   1.32129   -1.000
 6428.00    0.93359   1.31816   -1.000
