###################################################################
## OUTPUT of StarlightChains_v04.for    [Cid@UFSC - 01/Apr/2007] ##
###################################################################

## Some input info
NGC5927_a_1.cxt                          [arq_obs]
Base.BC03.N                              [arq_base]
NGC5927_a_1.msk                          [arq_masks]
StCv04.C11.config                        [arq_config]
   45                                    [N_base]
    0                                    [N_YAV_components = # of components with extra extinction!]
    0                                    [i_FitPowerLaw (1/0 = Yes/No)]
-9.99                                    [alpha_PowerLaw]
CCM                                      [red_law_option]
 1.458241                                [q_norm = A(l_norm)/A(V)]

## (Re)Sampling Parameters
 3359.00                                 [l_ini (A)]
 6428.00                                 [l_fin (A)]
    1.00                                 [dl    (A)]     (OBS: dl_cushion =    50.00 A)

## Normalization info
 4020.00                                 [l_norm (A) - for base]
 4010.00                                 [llow_norm (A) - window for f_obs]
 4060.00                                 [lupp_norm (A) - window for f_obs]
6.245917E-15                             [fobs_norm (in input units)]

## S/N
 4730.00                                 [llow_SN (A) - window for S/N]
 4780.00                                 [lupp_SN (A) - window for S/N]
  32.311                                 [S/N in S/N window]
  18.790                                 [S/N in norm. window]
  40.662                                 [S/N_err in S/N window]
  23.646                                 [S/N_err in norm. window]
  1.0000                                 [fscale_chi2]

## etc...
  2147483633                             [idum_orig]
  3068                                   [NOl_eff]
  1604                                   [Nl_eff]
  1464    NSIGMA                         [Ntot_cliped & clip_method]
   978880                                [Nglobal_steps]
   7                                     [N_chains]
  13                                     [NEX0s_base = N_base in EX0s-fits]
 0   0   1      209   2.0   5.155E+02    [Clip-Bug, RC-Crash & Burn-In warning-flags, n_censored_weights, wei_nsig_threshold & wei_limit]
    10     10.113     10.105      0.008  [idt_all, wdt_TotTime, wdt_UsrTime & wdt_SysTime (sec)]

## Synthesis Results - Best model ##

 1.78692E+00                             [chi2/Nl_eff]
     1.86285                             [adev (%)]

   101.85921                             [sum-of-x (%)]
 3.31354E-14                             [Flux_tot (units of input spectrum!)]
 1.92780E-09                             [Mini_tot (???)]
 9.84880E-10                             [Mcor_tot (???)]

  14.56                                  [v0_min  (km/s)]
  59.79                                  [vd_min  (km/s)]
 1.2287                                  [AV_min  (mag)]
 0.0000                                  [YAV_min (mag)]

# j     x_j(%)      Mini_j(%)     Mcor_j(%)     age_j(yr)     Z_j      (L/M)_j    YAV?  Mstars   component_j        a/Fe...       SSP_chi2r SSP_adev(%)   SSP_AV   SSP_x(%)
  1      2.7573     4.1766E-03    8.1752E-03    1.000000E+06  0.00400  1.114E-02    0   1.0000   age020_m42            0.0000     1.2507E+03    35.8909   4.0000    85.2512
  2      9.7313     4.0317E-03    7.8908E-03    3.160000E+06  0.00400  4.073E-02    0   0.9999   age045_m42            0.0000     3.7149E+02    13.7577   4.0000    95.4915
  3      3.0792     2.0505E-03    3.8082E-03    5.010000E+06  0.00400  2.534E-02    0   0.9488   age055_m42            0.0000     6.4348E+02    23.3331   4.0000    91.7218
  4      6.7203     8.9222E-03    1.5477E-02    1.000000E+07  0.00400  1.271E-02    0   0.8862   age070_m42            0.0000     3.0827E+02     9.4942   4.0000    91.0617
  5      0.0000     0.0000E+00    0.0000E+00    2.512000E+07  0.00400  5.070E-03    0   0.8174   age090_m42            0.0000     2.7946E+02     9.4313   3.9941    91.5179
  6      0.0000     0.0000E+00    0.0000E+00    4.000000E+07  0.00400  3.505E-03    0   0.7851   age104_m42            0.0000     2.5549E+02     7.8529   3.6499    94.1496
  7      0.0000     0.0000E+00    0.0000E+00    1.015200E+08  0.00400  2.268E-03    0   0.7207   age116_m42            0.0000     6.0622E+02     8.9608   3.5373   100.7908
  8      0.0000     0.0000E+00    0.0000E+00    2.861200E+08  0.00400  1.079E-03    0   0.6613   age125_m42            0.0000     6.2193E+02     9.8911   3.0074   102.6884
  9      0.0000     0.0000E+00    0.0000E+00    6.405400E+08  0.00400  5.077E-04    0   0.6197   age132_m42            0.0000     6.2764E+02    10.1767   2.6520   106.4146
 10      0.0000     0.0000E+00    0.0000E+00    9.047900E+08  0.00400  3.535E-04    0   0.6024   age135_m42            0.0000     4.6489E+02     9.0086   2.4117   106.3346
 11      0.8276     7.3120E-02    8.1810E-02    1.434000E+09  0.00400  1.910E-04    0   0.5716   age139_m42            0.0000     2.5891E+02     7.3162   1.8604   106.2479
 12      0.0000     0.0000E+00    0.0000E+00    2.500000E+09  0.00400  9.818E-05    0   0.5463   age150_m42            0.0000     9.8308E+01     4.8356   1.5973   102.8570
 13      1.8019     6.4446E-01    6.5949E-01    5.000000E+09  0.00400  4.718E-05    0   0.5228   age161_m42            0.0000     4.2555E+01     3.4634   1.4434   100.2367
 14      0.0375     2.8730E-02    2.8006E-02    1.100000E+10  0.00400  2.205E-05    0   0.4980   age185_m42            0.0000     2.8606E+01     3.6521   1.1574    98.7371
 15      2.9451     2.6393E+00    2.5453E+00    1.300000E+10  0.00400  1.883E-05    0   0.4927   age193_m42            0.0000     2.8720E+01     3.6891   1.1391    98.6481
 16      0.0000     0.0000E+00    0.0000E+00    1.000000E+06  0.02000  1.989E-02    0   1.0000   age020_m62            0.0000     1.2030E+03    35.0514   4.0000    85.9560
 17      0.0000     0.0000E+00    0.0000E+00    3.160000E+06  0.02000  3.772E-02    0   0.9858   age045_m62            0.0000     1.0510E+03    32.1812   4.0000    88.0015
 18      1.7947     9.3849E-04    1.7161E-03    5.010000E+06  0.02000  3.227E-02    0   0.9342   age055_m62            0.0000     5.4052E+02    19.8723   4.0000    93.7869
 19      0.0000     0.0000E+00    0.0000E+00    1.000000E+07  0.02000  1.011E-02    0   0.8751   age070_m62            0.0000     3.9322E+02    12.4210   4.0000    88.8011
 20      0.0000     0.0000E+00    0.0000E+00    2.512000E+07  0.02000  4.206E-03    0   0.8099   age090_m62            0.0000     3.3065E+02    10.6801   4.0000    88.8681
 21      0.0000     0.0000E+00    0.0000E+00    4.000000E+07  0.02000  3.373E-03    0   0.7799   age104_m62            0.0000     3.2236E+02     8.0253   3.8470    94.9045
 22      0.0000     0.0000E+00    0.0000E+00    1.015200E+08  0.02000  1.878E-03    0   0.7221   age116_m62            0.0000     5.8079E+02     8.5777   3.5802   101.1086
 23      0.0000     0.0000E+00    0.0000E+00    2.861200E+08  0.02000  8.869E-04    0   0.6700   age125_m62            0.0000     8.7114E+02    11.6674   3.0074   106.6270
 24      0.0000     0.0000E+00    0.0000E+00    6.405400E+08  0.02000  3.657E-04    0   0.6322   age132_m62            0.0000     6.1305E+02    11.3724   2.2683   110.7889
 25      0.0000     0.0000E+00    0.0000E+00    9.047900E+08  0.02000  2.312E-04    0   0.6152   age135_m62            0.0000     3.7975E+02     9.6728   1.8906   110.9425
 26      0.0000     0.0000E+00    0.0000E+00    1.434000E+09  0.02000  1.168E-04    0   0.5865   age139_m62            0.0000     1.3358E+02     6.2877   1.4931   106.8277
 27      0.0000     0.0000E+00    0.0000E+00    2.500000E+09  0.02000  5.505E-05    0   0.5610   age150_m62            0.0000     5.1120E+01     5.1765   1.1162   105.0232
 28     16.8583     1.0958E+01    1.1482E+01    5.000000E+09  0.02000  2.596E-05    0   0.5353   age161_m62            0.0000     5.4518E+01     6.4092   0.7376   105.8076
 29     35.8200     5.1706E+01    5.1647E+01    1.100000E+10  0.02000  1.169E-05    0   0.5103   age185_m62            0.0000     1.0232E+02     8.5024   0.3070   108.0619
 30     19.4859     3.3930E+01    3.3519E+01    1.300000E+10  0.02000  9.691E-06    0   0.5047   age193_m62            0.0000     1.1432E+02     8.8818   0.2498   108.4125
 31      0.0000     0.0000E+00    0.0000E+00    1.000000E+06  0.05000  2.651E-02    0   0.9998   age020_m72            0.0000     1.1810E+03    34.7690   4.0000    86.8748
 32      0.0000     0.0000E+00    0.0000E+00    3.160000E+06  0.05000  4.817E-02    0   0.9577   age045_m72            0.0000     8.7132E+02    28.3147   4.0000    91.2133
 33      0.0000     0.0000E+00    0.0000E+00    5.010000E+06  0.05000  3.101E-02    0   0.9147   age055_m72            0.0000     6.0155E+02    20.4679   4.0000    92.7712
 34      0.0000     0.0000E+00    0.0000E+00    1.000000E+07  0.05000  8.954E-03    0   0.8524   age070_m72            0.0000     7.3596E+02    25.3705   4.0000    92.1895
 35      0.0000     0.0000E+00    0.0000E+00    2.512000E+07  0.05000  4.207E-03    0   0.7902   age090_m72            0.0000     4.1515E+02    15.2513   4.0000    95.3702
 36      0.0000     0.0000E+00    0.0000E+00    4.000000E+07  0.05000  3.198E-03    0   0.7618   age104_m72            0.0000     4.5642E+02     7.3158   3.9689    97.8414
 37      0.0000     0.0000E+00    0.0000E+00    1.015200E+08  0.05000  1.716E-03    0   0.7092   age116_m72            0.0000     6.4771E+02     9.1232   3.6594   101.0297
 38      0.0000     0.0000E+00    0.0000E+00    2.861200E+08  0.05000  7.047E-04    0   0.6618   age125_m72            0.0000     8.2391E+02    11.6199   2.7753   107.5666
 39      0.0000     0.0000E+00    0.0000E+00    6.405400E+08  0.05000  2.633E-04    0   0.6253   age132_m72            0.0000     4.6053E+02    10.7473   1.8604   111.2193
 40      0.0000     0.0000E+00    0.0000E+00    9.047900E+08  0.05000  1.484E-04    0   0.6088   age135_m72            0.0000     1.8811E+02     8.1272   1.3762   107.6216
 41      0.0000     0.0000E+00    0.0000E+00    1.434000E+09  0.05000  7.827E-05    0   0.5847   age139_m72            0.0000     8.0065E+01     6.6382   0.9829   105.5180
 42      0.0000     0.0000E+00    0.0000E+00    2.500000E+09  0.05000  3.759E-05    0   0.5583   age150_m72            0.0000     6.7812E+01     6.9351   0.6535   105.4029
 43      0.0000     0.0000E+00    0.0000E+00    5.000000E+09  0.05000  1.548E-05    0   0.5320   age161_m72            0.0000     1.0681E+02     8.7301   0.1912   105.5738
 44      0.0000     0.0000E+00    0.0000E+00    1.100000E+10  0.05000  6.532E-06    0   0.5070   age185_m72            0.0000     1.8623E+02    12.1418  -0.3239   106.7977
 45      0.0000     5.5871E-05    5.4878E-05    1.300000E+10  0.05000  5.316E-06    0   0.5018   age193_m72            0.0000     2.2631E+02    13.5268  -0.5042   107.5200


## Synthesis Results - Average & Chains ##

# j      x_j: min, <> & last-chain-values for 1 ...  7 chains
  1      2.7573      2.0772      2.2068      2.1534      2.0940      2.2130      2.3168      2.2816      2.0517
  2      9.7313      9.0824      8.9284      9.5123      9.3328      9.1268      8.6772      9.2605      9.0536
  3      3.0792      2.8744      2.8313      2.9049      2.9267      3.0701      2.8993      2.7826      2.9116
  4      6.7203      6.7157      6.7747      6.6838      6.7942      6.7142      6.8786      6.6357      6.6268
  5      0.0000      0.0737      0.0000      0.0000      0.0000      0.0000      0.0000      0.0000      0.0000
  6      0.0000      0.0266      0.0000      0.0000      0.0000      0.0000      0.0000      0.0000      0.0000
  7      0.0000      0.0162      0.0000      0.0000      0.0000      0.0000      0.0000      0.0000      0.0000
  8      0.0000      0.0225      0.0000      0.0000      0.0000      0.0000      0.0000      0.0000      0.0000
  9      0.0000      0.0471      0.0000      0.2384      0.0000      0.1330      0.1389      0.0000      0.0000
 10      0.0000      0.4682      0.3984      0.1524      0.6153      0.5580      0.6562      0.7236      0.8103
 11      0.8276      0.0953      0.0000      0.4790      0.2150      0.0000      0.0000      0.1816      0.0431
 12      0.0000      0.1330      0.7685      0.0000      0.3112      0.0102      0.3445      0.2196      0.0000
 13      1.8019      0.3469      0.9966      1.0759      0.0000      0.9409      0.4735      0.0000      0.6102
 14      0.0375      0.7696      0.0266      0.9881      0.7997      0.6633      0.2244      1.3657      0.7664
 15      2.9451      1.1236      1.6592      0.8750      1.4661      1.1559      1.7737      0.8869      2.2394
 16      0.0000      0.0841      0.2916      0.0000      0.2030      0.0834      0.0000      0.2090      0.0000
 17      0.0000      0.1926      0.2866      0.1831      0.2721      0.0723      0.2042      0.0000      0.2896
 18      1.7947      2.4425      2.5533      2.3385      2.5195      2.3523      2.3957      2.3227      2.3304
 19      0.0000      0.1420      0.0000      0.0000      0.0000      0.1746      0.2639      0.3465      0.1116
 20      0.0000      0.0086      0.0000      0.0000      0.0000      0.0000      0.0000      0.0000      0.0000
 21      0.0000      0.0227      0.0000      0.0000      0.0000      0.0000      0.0882      0.0000      0.0000
 22      0.0000      0.0075      0.0000      0.0000      0.0000      0.0000      0.0000      0.0000      0.0000
 23      0.0000      0.0115      0.0000      0.0000      0.0000      0.0000      0.0000      0.0000      0.0000
 24      0.0000      0.0114      0.0000      0.0000      0.0000      0.0000      0.0000      0.0908      0.0000
 25      0.0000      0.0271      0.1118      0.0277      0.0000      0.0677      0.0000      0.0000      0.0050
 26      0.0000      0.0331      0.0000      0.0000      0.0000      0.0000      0.0000      0.0761      0.0000
 27      0.0000      0.0768      0.0000      0.0000      0.0000      0.0000      0.0000      0.0000      0.0000
 28     16.8583     19.2931     18.6257     18.1736     18.9914     18.9898     19.5470     18.9435     18.3711
 29     35.8200     34.8087     35.0816     35.4417     34.5691     34.9892     34.7545     34.9077     34.7975
 30     19.4859     18.2590     18.8016     18.9106     18.1622     18.4485     17.9647     18.5432     18.3432
 31      0.0000      0.1880      0.0566      0.3696      0.2716      0.1861      0.1919      0.1975      0.2369
 32      0.0000      0.1654      0.1289      0.1390      0.0000      0.1944      0.1677      0.2272      0.3741
 33      0.0000      0.0820      0.0000      0.0168      0.0000      0.0514      0.0000      0.0670      0.1239
 34      0.0000      0.1064      0.0763      0.0497      0.0000      0.0000      0.0000      0.0000      0.0000
 35      0.0000      0.0295      0.0000      0.0000      0.0000      0.0039      0.0000      0.0000      0.0000
 36      0.0000      0.0195      0.0000      0.0000      0.0000      0.0000      0.0000      0.0000      0.0000
 37      0.0000      0.0111      0.0000      0.0000      0.0000      0.0000      0.0000      0.0000      0.0056
 38      0.0000      0.0123      0.0000      0.0000      0.0000      0.0000      0.0000      0.0000      0.0000
 39      0.0000      0.0170      0.0000      0.0000      0.0000      0.0710      0.0000      0.0000      0.0000
 40      0.0000      0.0212      0.0000      0.0000      0.0095      0.0000      0.0000      0.0000      0.0000
 41      0.0000      0.0326      0.0000      0.0000      0.0000      0.0000      0.0000      0.0000      0.0204
 42      0.0000      0.1435      0.1341      0.0423      0.0000      0.0000      0.0000      0.2904      0.0232
 43      0.0000      0.3749      0.0000      0.4298      0.6151      0.2408      0.6942      0.0404      0.3352
 44      0.0000      0.5440      0.4970      0.0389      1.1115      0.5975      0.4895      0.5922      0.5990
 45      0.0000      0.9340      0.7107      0.7053      0.6131      0.8600      0.8012      0.7442      0.8133

# j      m_j: min, <> & last-chain-values for 1 ...  7 chains
  1  8.1752E-03  6.0763E-03  6.4658E-03  6.3336E-03  6.1173E-03  6.4629E-03  6.8090E-03  6.6915E-03  5.9920E-03
  2  7.8908E-03  7.2658E-03  7.1543E-03  7.6515E-03  7.4563E-03  7.2892E-03  6.9744E-03  7.4275E-03  7.2311E-03
  3  3.8082E-03  3.5072E-03  3.4603E-03  3.5638E-03  3.5663E-03  3.7397E-03  3.5543E-03  3.4040E-03  3.5468E-03
  4  1.5477E-02  1.5259E-02  1.5418E-02  1.5270E-02  1.5417E-02  1.5230E-02  1.5703E-02  1.5116E-02  1.5032E-02
  5  0.0000E+00  3.8739E-04  0.0000E+00  0.0000E+00  0.0000E+00  0.0000E+00  0.0000E+00  0.0000E+00  0.0000E+00
  6  0.0000E+00  1.9419E-04  0.0000E+00  0.0000E+00  0.0000E+00  0.0000E+00  0.0000E+00  0.0000E+00  0.0000E+00
  7  0.0000E+00  1.6786E-04  0.0000E+00  0.0000E+00  0.0000E+00  0.0000E+00  0.0000E+00  0.0000E+00  0.0000E+00
  8  0.0000E+00  4.5027E-04  0.0000E+00  0.0000E+00  0.0000E+00  0.0000E+00  0.0000E+00  0.0000E+00  0.0000E+00
  9  0.0000E+00  1.8745E-03  0.0000E+00  9.5332E-03  0.0000E+00  5.2804E-03  5.5492E-03  0.0000E+00  0.0000E+00
 10  0.0000E+00  2.6002E-02  2.2161E-02  8.5115E-03  3.4124E-02  3.0936E-02  3.6610E-02  4.0289E-02  4.4924E-02
 11  8.1810E-02  9.2897E-03  0.0000E+00  4.6965E-02  2.0941E-02  0.0000E+00  0.0000E+00  1.7753E-02  4.1976E-03
 12  0.0000E+00  2.4119E-02  1.3958E-01  0.0000E+00  5.6355E-02  1.8465E-03  6.2751E-02  3.9917E-02  0.0000E+00
 13  6.5949E-01  1.2527E-01  3.6047E-01  3.9063E-01  0.0000E+00  3.3919E-01  1.7179E-01  0.0000E+00  2.2000E-01
 14  2.8006E-02  5.6639E-01  1.9607E-02  7.3122E-01  5.8780E-01  4.8735E-01  1.6592E-01  1.0077E+00  5.6314E-01
 15  2.5453E+00  9.5807E-01  1.4171E+00  7.5014E-01  1.2485E+00  9.8392E-01  1.5195E+00  7.5822E-01  1.9064E+00
 16  0.0000E+00  1.3775E-04  4.7846E-04  0.0000E+00  3.3221E-04  1.3643E-04  0.0000E+00  3.4330E-04  0.0000E+00
 17  0.0000E+00  1.6406E-04  2.4450E-04  1.5680E-04  2.3147E-04  6.1455E-05  1.7472E-04  0.0000E+00  2.4621E-04
 18  1.7161E-03  2.3042E-03  2.4127E-03  2.2181E-03  2.3736E-03  2.2154E-03  2.2707E-03  2.1969E-03  2.1949E-03
 19  0.0000E+00  4.0046E-04  0.0000E+00  0.0000E+00  0.0000E+00  4.9158E-04  7.4795E-04  9.7998E-04  3.1419E-04
 20  0.0000E+00  5.4235E-05  0.0000E+00  0.0000E+00  0.0000E+00  0.0000E+00  0.0000E+00  0.0000E+00  0.0000E+00
 21  0.0000E+00  1.7080E-04  0.0000E+00  0.0000E+00  0.0000E+00  0.0000E+00  6.6735E-04  0.0000E+00  0.0000E+00
 22  0.0000E+00  9.3924E-05  0.0000E+00  0.0000E+00  0.0000E+00  0.0000E+00  0.0000E+00  0.0000E+00  0.0000E+00
 23  0.0000E+00  2.8407E-04  0.0000E+00  0.0000E+00  0.0000E+00  0.0000E+00  0.0000E+00  0.0000E+00  0.0000E+00
 24  0.0000E+00  6.3980E-04  0.0000E+00  0.0000E+00  0.0000E+00  0.0000E+00  0.0000E+00  5.1269E-03  0.0000E+00
 25  0.0000E+00  2.3484E-03  9.7131E-03  2.4181E-03  0.0000E+00  5.8583E-03  0.0000E+00  0.0000E+00  4.2974E-04
 26  0.0000E+00  5.4221E-03  0.0000E+00  0.0000E+00  0.0000E+00  0.0000E+00  0.0000E+00  1.2491E-02  0.0000E+00
 27  0.0000E+00  2.5494E-02  0.0000E+00  0.0000E+00  0.0000E+00  0.0000E+00  0.0000E+00  0.0000E+00  0.0000E+00
 28  1.1482E+01  1.2964E+01  1.2536E+01  1.2279E+01  1.2744E+01  1.2739E+01  1.3196E+01  1.2762E+01  1.2324E+01
 29  5.1647E+01  4.9515E+01  4.9985E+01  5.0692E+01  4.9110E+01  4.9689E+01  4.9671E+01  4.9785E+01  4.9420E+01
 30  3.3519E+01  3.0987E+01  3.1960E+01  3.2269E+01  3.0782E+01  3.1257E+01  3.0632E+01  3.1551E+01  3.1080E+01
 31  0.0000E+00  2.3099E-04  6.9672E-05  4.5673E-04  3.3331E-04  2.2839E-04  2.3695E-04  2.4341E-04  2.9062E-04
 32  0.0000E+00  1.0713E-04  8.3671E-05  9.0564E-05  0.0000E+00  1.2576E-04  1.0914E-04  1.4760E-04  2.4198E-04
 33  0.0000E+00  7.8778E-05  0.0000E+00  1.6232E-05  0.0000E+00  4.9284E-05  0.0000E+00  6.4539E-05  1.1887E-04
 34  0.0000E+00  3.3016E-04  2.3709E-04  1.5493E-04  0.0000E+00  0.0000E+00  0.0000E+00  0.0000E+00  0.0000E+00
 35  0.0000E+00  1.8079E-04  0.0000E+00  0.0000E+00  0.0000E+00  2.3838E-05  0.0000E+00  0.0000E+00  0.0000E+00
 36  0.0000E+00  1.5108E-04  0.0000E+00  0.0000E+00  0.0000E+00  0.0000E+00  0.0000E+00  0.0000E+00  0.0000E+00
 37  0.0000E+00  1.4950E-04  0.0000E+00  0.0000E+00  0.0000E+00  0.0000E+00  0.0000E+00  0.0000E+00  7.5218E-05
 38  0.0000E+00  3.7671E-04  0.0000E+00  0.0000E+00  8.2191E-07  0.0000E+00  0.0000E+00  0.0000E+00  0.0000E+00
 39  0.0000E+00  1.3129E-03  0.0000E+00  0.0000E+00  0.0000E+00  5.4843E-03  0.0000E+00  0.0000E+00  0.0000E+00
 40  0.0000E+00  2.8368E-03  0.0000E+00  0.0000E+00  1.2635E-03  0.0000E+00  0.0000E+00  0.0000E+00  0.0000E+00
 41  0.0000E+00  7.9453E-03  0.0000E+00  0.0000E+00  0.0000E+00  0.0000E+00  0.0000E+00  0.0000E+00  4.9535E-03
 42  0.0000E+00  6.9435E-02  6.4994E-02  2.0608E-02  0.0000E+00  0.0000E+00  0.0000E+00  1.4091E-01  1.1225E-02
 43  0.0000E+00  4.1981E-01  0.0000E+00  4.8402E-01  6.8793E-01  2.6928E-01  7.8114E-01  4.5390E-02  3.7475E-01
 44  0.0000E+00  1.3760E+00  1.2590E+00  9.8804E-02  2.8077E+00  1.5087E+00  1.2440E+00  1.5018E+00  1.5127E+00
 45  5.4878E-05  2.8729E+00  2.1898E+00  2.1815E+00  1.8834E+00  2.6410E+00  2.4760E+00  2.2950E+00  2.4978E+00

# AV, chi2 & Mass for <> & i_chain = 1 ...  7 solutions
AV       1.2287      1.2114      1.2150      1.2209      1.2153      1.2127      1.2121      1.2184      1.2144
chi2 1.7869E+00  1.8146E+00  1.8077E+00  1.8006E+00  1.8071E+00  1.8082E+00  1.8095E+00  1.8053E+00  1.8048E+00
Mass 9.8488E-10  9.7539E-10  9.7846E-10  9.8255E-10  9.8173E-10  9.7865E-10  9.7174E-10  9.8206E-10  9.8090E-10
  14.56                                  [v0_min (km/s) before EX0s...]
  59.79                                  [vd_min (km/s) before EX0s...]


## Synthetic spectrum (Best Model) ##l_obs f_obs f_syn wei
 3070    [Nl_obs]
 3359.00    0.00000   0.44460   -2.000
 3360.00    0.00000   0.41786   -2.000
 3361.00    0.18410   0.41726   -1.000
 3362.00    0.27073   0.44191   -1.000
 3363.00    0.28523   0.47737   -1.000
 3364.00    0.28842   0.50368   -1.000
 3365.00    0.28762   0.50726   -1.000
 3366.00    0.29495   0.48867   -1.000
 3367.00    0.29689   0.46341   -1.000
 3368.00    0.27013   0.44188   -1.000
 3369.00    0.25323   0.42905   -1.000
 3370.00    0.26700   0.42411   -1.000
 3371.00    0.28538   0.42313   -1.000
 3372.00    0.28347   0.42836   -1.000
 3373.00    0.28018   0.44491   -1.000
 3374.00    0.28734   0.47160   -1.000
 3375.00    0.29574   0.50094   -1.000
 3376.00    0.30478   0.52055   -1.000
 3377.00    0.33955   0.51906   -1.000
 3378.00    0.32869   0.49797   -1.000
 3379.00    0.30448   0.47349   -1.000
 3380.00    0.28783   0.46112   -1.000
 3381.00    0.28244   0.46737   -1.000
 3382.00    0.30577   0.48368   -1.000
 3383.00    0.30980   0.50020   -1.000
 3384.00    0.31264   0.51294   -1.000
 3385.00    0.34818   0.52322   -1.000
 3386.00    0.34196   0.52918   -1.000
 3387.00    0.31924   0.52936   -1.000
 3388.00    0.32895   0.52663   -1.000
 3389.00    0.34421   0.52338   -1.000
 3390.00    0.33805   0.51656   -1.000
 3391.00    0.37549   0.50242   -1.000
 3392.00    0.35196   0.48746   -1.000
 3393.00    0.34907   0.48334   -1.000
 3394.00    0.38688   0.49406   -1.000
 3395.00    0.41273   0.51507   -1.000
 3396.00    0.41921   0.53509   -1.000
 3397.00    0.40297   0.55095   -1.000
 3398.00    0.42168   0.56309   -1.000
 3399.00    0.44697   0.56843   -1.000
 3400.00    0.45441   0.56613   -1.000
 3401.00    0.43776   0.55727   -1.000
 3402.00    0.42656   0.54309   -1.000
 3403.00    0.43347   0.52909   -1.000
 3404.00    0.42914   0.51906   -1.000
 3405.00    0.40752   0.51152   -1.000
 3406.00    0.41974   0.50404   -1.000
 3407.00    0.43450   0.49768   -1.000
 3408.00    0.44046   0.49691   -1.000
 3409.00    0.43935   0.50257   -1.000
 3410.00    0.43991   0.51065   -1.000
 3411.00    0.41222   0.51077   -1.000
 3412.00    0.41649   0.49813   -1.000
 3413.00    0.42871   0.48053   -1.000
 3414.00    0.43580   0.46896   73.922
 3415.00    0.42222   0.47284   -1.000
 3416.00    0.41125   0.49034   -1.000
 3417.00    0.43367   0.51506   -1.000
 3418.00    0.45827   0.53874   -1.000
 3419.00    0.47336   0.55677   -1.000
 3420.00    0.48331   0.56356   -1.000
 3421.00    0.50782   0.55577   -1.000
 3422.00    0.49971   0.53768   63.699
 3423.00    0.47824   0.52366   63.821
 3424.00    0.48895   0.51959   65.218
 3425.00    0.49422   0.52160   66.849
 3426.00    0.47816   0.52666   -1.000
 3427.00    0.49768   0.53584   64.205
 3428.00    0.51683   0.55208   63.427
 3429.00    0.52104   0.57034   -1.000
 3430.00    0.51643   0.57406   -1.000
 3431.00    0.51056   0.55954   -1.000
 3432.00    0.49098   0.53750   -1.000
 3433.00    0.48725   0.52464   -1.000
 3434.00    0.51445   0.52804   91.374
 3435.00    0.51778   0.53591   63.291
 3436.00    0.49379   0.53599   -1.000
 3437.00    0.48331   0.52343   -1.000
 3438.00    0.48399   0.49897   90.871
 3439.00    0.44568   0.46585   65.069
 3440.00    0.42671   0.43394   68.703
 3441.00    0.40903   0.41180   73.722
 3442.00    0.38903   0.40709   77.695
 3443.00    0.39968   0.41818   78.813
 3444.00    0.42660   0.43570   78.621
 3445.00    0.44624   0.45286   76.402
 3446.00    0.45478   0.47043   72.576
 3447.00    0.46993   0.48989   68.568
 3448.00    0.49526   0.51269   65.722
 3449.00    0.51293   0.53319  156.772
 3450.00    0.49975   0.53910   -1.000
 3451.00    0.49714   0.52808   -1.000
 3452.00    0.49046   0.51389   -1.000
 3453.00    0.50000   0.50918   -1.000
 3454.00    0.53807   0.51659   -1.000
 3455.00    0.53268   0.52482   -1.000
 3456.00    0.51914   0.52152  515.512
 3457.00    0.52554   0.50614   -1.000
 3458.00    0.51908   0.48419   -1.000
 3459.00    0.49958   0.46647   -1.000
 3460.00    0.48959   0.45755   -1.000
 3461.00    0.48756   0.46014   63.876
 3462.00    0.50979   0.47607   63.892
 3463.00    0.52598   0.49823   -1.000
 3464.00    0.52348   0.50900   -1.000
 3465.00    0.52939   0.50761   -1.000
 3466.00    0.53219   0.50600   -1.000
 3467.00    0.53049   0.51168   -1.000
 3468.00    0.51908   0.52521  515.512
 3469.00    0.53550   0.53844  515.512
 3470.00    0.55555   0.54392   -1.000
 3471.00    0.55858   0.53658   -1.000
 3472.00    0.53022   0.51722   -1.000
 3473.00    0.51048   0.49029   -1.000
 3474.00    0.49109   0.46404   -1.000
 3475.00    0.46120   0.44649   -1.000
 3476.00    0.45066   0.44660   93.554
 3477.00    0.46741   0.46329   65.385
 3478.00    0.50051   0.48637   65.295
 3479.00    0.52620   0.50490   -1.000
 3480.00    0.52863   0.51369   -1.000
 3481.00    0.54118   0.51222   -1.000
 3482.00    0.54102   0.50270   -1.000
 3483.00    0.52224   0.49247   -1.000
 3484.00    0.51528   0.49192   -1.000
 3485.00    0.50458   0.50606  515.512
 3486.00    0.52749   0.52468  515.512
 3487.00    0.53904   0.53326   -1.000
 3488.00    0.54259   0.52241   -1.000
 3489.00    0.52596   0.49742   -1.000
 3490.00    0.50639   0.47407   -1.000
 3491.00    0.48649   0.46565   -1.000
 3492.00    0.47906   0.47336   -1.000
 3493.00    0.49193   0.48647   -1.000
 3494.00    0.51054   0.49423   -1.000
 3495.00    0.52034   0.49091   -1.000
 3496.00    0.51204   0.48367   -1.000
 3497.00    0.50029   0.48708   -1.000
 3498.00    0.48849   0.50802   -1.000
 3499.00    0.50648   0.53602   -1.000
 3500.00    0.55692   0.55327  515.512
 3501.00    0.58070   0.56109   -1.000
 3502.00    0.58749   0.56861   -1.000
 3503.00    0.59254   0.57331   -1.000
 3504.00    0.58309   0.56893   -1.000
 3505.00    0.58008   0.55731   -1.000
 3506.00    0.56431   0.54706   -1.000
 3507.00    0.56356   0.54308   -1.000
 3508.00    0.55897   0.53988   -1.000
 3509.00    0.55769   0.53049   -1.000
 3510.00    0.55731   0.51757   -1.000
 3511.00    0.54734   0.50398   -1.000
 3512.00    0.51952   0.49024   -1.000
 3513.00    0.49154   0.47892   -1.000
 3514.00    0.49313   0.47723   -1.000
 3515.00    0.50083   0.49371   -1.000
 3516.00    0.52149   0.52537  515.512
 3517.00    0.54588   0.55513   -1.000
 3518.00    0.56677   0.56846  515.512
 3519.00    0.54625   0.56004   -1.000
 3520.00    0.53695   0.53700  510.701
 3521.00    0.53843   0.50889   -1.000
 3522.00    0.51628   0.48460   -1.000
 3523.00    0.50297   0.46423   -1.000
 3524.00    0.47262   0.44730   -1.000
 3525.00    0.43755   0.44142   95.250
 3526.00    0.43648   0.45385   64.707
 3527.00    0.46984   0.48186   65.299
 3528.00    0.51036   0.51557  147.292
 3529.00    0.54735   0.54027   -1.000
 3530.00    0.55716   0.54805   -1.000
 3531.00    0.53535   0.54302   -1.000
 3532.00    0.53548   0.53930  515.512
 3533.00    0.55365   0.54475   -1.000
 3534.00    0.55077   0.55615  515.512
 3535.00    0.55589   0.56602   -1.000
 3536.00    0.56027   0.56982   -1.000
 3537.00    0.55468   0.57296   -1.000
 3538.00    0.58035   0.58003  508.021
 3539.00    0.59035   0.58460  505.646
 3540.00    0.58730   0.58101   -1.000
 3541.00    0.57595   0.57217  499.780
 3542.00    0.55929   0.56885   -1.000
 3543.00    0.54966   0.57628   -1.000
 3544.00    0.55873   0.58625   -1.000
 3545.00    0.58305   0.58981   -1.000
 3546.00    0.56290   0.58505   -1.000
 3547.00    0.54572   0.57884   -1.000
 3548.00    0.54122   0.57745   -1.000
 3549.00    0.55057   0.57910   -1.000
 3550.00    0.56481   0.57785   -1.000
 3551.00    0.54419   0.56908   -1.000
 3552.00    0.51544   0.55435   -1.000
 3553.00    0.49814   0.54037   -1.000
 3554.00    0.50855   0.53523   -1.000
 3555.00    0.52437   0.53946   -1.000
 3556.00    0.52165   0.54456   -1.000
 3557.00    0.50552   0.54492   -1.000
 3558.00    0.50046   0.54091   -1.000
 3559.00    0.51237   0.53951   -1.000
 3560.00    0.49812   0.54681   -1.000
 3561.00    0.49316   0.55910   -1.000
 3562.00    0.52128   0.56556   -1.000
 3563.00    0.51712   0.55214   -1.000
 3564.00    0.49704   0.51835   -1.000
 3565.00    0.47967   0.48051  515.512
 3566.00    0.45715   0.46087   98.004
 3567.00    0.45477   0.45952   65.514
 3568.00    0.46055   0.45821   66.074
 3569.00    0.44164   0.44928   65.540
 3570.00    0.41906   0.44009   66.764
 3571.00    0.44040   0.44187   68.418
 3572.00    0.45598   0.45716   67.552
 3573.00    0.48509   0.47475   64.851
 3574.00    0.50047   0.48796  139.613
 3575.00    0.49987   0.49578  515.512
 3576.00    0.49284   0.49580  515.512
 3577.00    0.47825   0.48518  515.512
 3578.00    0.48316   0.46396   -1.000
 3579.00    0.46088   0.43471   -1.000
 3580.00    0.41349   0.40841  102.260
 3581.00    0.38857   0.39528   69.184
 3582.00    0.38844   0.39669   73.683
 3583.00    0.38899   0.40242   75.545
 3584.00    0.39155   0.40242   75.909
 3585.00    0.40043   0.39700   77.194
 3586.00    0.39077   0.39476   79.518
 3587.00    0.37765   0.40321   81.237
 3588.00    0.40874   0.42225   79.111
 3589.00    0.44179   0.45092   74.951
 3590.00    0.45844   0.48248   71.186
 3591.00    0.49597   0.50742   65.897
 3592.00    0.51877   0.51872  136.511
 3593.00    0.51228   0.52207   -1.000
 3594.00    0.51820   0.52951   -1.000
 3595.00    0.53212   0.54573   -1.000
 3596.00    0.54852   0.56615   -1.000
 3597.00    0.58394   0.58214  515.512
 3598.00    0.61027   0.59396   -1.000
 3599.00    0.60905   0.60325  487.646
 3600.00    0.61781   0.60240   -1.000
 3601.00    0.59958   0.58479   -1.000
 3602.00    0.58218   0.55614   -1.000
 3603.00    0.55402   0.52723   -1.000
 3604.00    0.52328   0.50803   -1.000
 3605.00    0.52441   0.50019   -1.000
 3606.00    0.52239   0.49573   -1.000
 3607.00    0.50947   0.48589   -1.000
 3608.00    0.48450   0.47157   -1.000
 3609.00    0.47291   0.46489   -1.000
 3610.00    0.47885   0.47455   -1.000
 3611.00    0.50525   0.49650   -1.000
 3612.00    0.53198   0.51642   -1.000
 3613.00    0.53422   0.53115  515.512
 3614.00    0.53332   0.54531   -1.000
 3615.00    0.53001   0.55467   -1.000
 3616.00    0.52895   0.54654   -1.000
 3617.00    0.52030   0.51597  515.512
 3618.00    0.48630   0.47730   -1.000
 3619.00    0.46158   0.46188  515.512
 3620.00    0.47944   0.47910   99.831
 3621.00    0.51592   0.51573  132.781
 3622.00    0.56090   0.55172   -1.000
 3623.00    0.58509   0.57745   -1.000
 3624.00    0.59106   0.59923   -1.000
 3625.00    0.60249   0.62630   -1.000
 3626.00    0.61781   0.65496   -1.000
 3627.00    0.63172   0.67040   -1.000
 3628.00    0.62069   0.65880   -1.000
 3629.00    0.59058   0.61748   -1.000
 3630.00    0.54803   0.55892   -1.000
 3631.00    0.51951   0.51315   -1.000
 3632.00    0.49530   0.49686  515.512
 3633.00    0.49061   0.50774   -1.000
 3634.00    0.51025   0.53048   -1.000
 3635.00    0.52457   0.55153   -1.000
 3636.00    0.53362   0.56739   -1.000
 3637.00    0.56049   0.58536   -1.000
 3638.00    0.59504   0.60925   -1.000
 3639.00    0.61190   0.63084   -1.000
 3640.00    0.62525   0.64075   -1.000
 3641.00    0.61878   0.63377   -1.000
 3642.00    0.58893   0.61341   -1.000
 3643.00    0.58017   0.58950   -1.000
 3644.00    0.55682   0.56750   -1.000
 3645.00    0.53187   0.54799   -1.000
 3646.00    0.53896   0.52985   -1.000
 3647.00    0.52565   0.51391   -1.000
 3648.00    0.51139   0.50887  515.512
 3649.00    0.52714   0.52082   -1.000
 3650.00    0.55607   0.54912   -1.000
 3651.00    0.57617   0.58503   -1.000
 3652.00    0.59127   0.61905   -1.000
 3653.00    0.61406   0.64071   -1.000
 3654.00    0.63930   0.65138   -1.000
 3655.00    0.64179   0.65980   -1.000
 3656.00    0.64848   0.67192   -1.000
 3657.00    0.66058   0.68798   -1.000
 3658.00    0.66915   0.70067   -1.000
 3659.00    0.67506   0.70598   -1.000
 3660.00    0.66789   0.70315   -1.000
 3661.00    0.67024   0.69195   -1.000
 3662.00    0.67114   0.67512   -1.000
 3663.00    0.64847   0.66120   -1.000
 3664.00    0.63153   0.65487   -1.000
 3665.00    0.64687   0.65476   -1.000
 3666.00    0.65377   0.65427  451.876
 3667.00    0.64136   0.64632   -1.000
 3668.00    0.62933   0.63232  455.349
 3669.00    0.61936   0.62239  462.396
 3670.00    0.60749   0.62808   -1.000
 3671.00    0.62316   0.64699   -1.000
 3672.00    0.65427   0.66524   -1.000
 3673.00    0.66513   0.67406   -1.000
 3674.00    0.67087   0.67263  444.957
 3675.00    0.66870   0.66202  444.302
 3676.00    0.63724   0.64242   -1.000
 3677.00    0.61745   0.61594  453.227
 3678.00    0.60769   0.58875   -1.000
 3679.00    0.57196   0.57023  481.814
 3680.00    0.55969   0.56909   -1.000
 3681.00    0.57562   0.58454   -1.000
 3682.00    0.60047   0.60400  491.264
 3683.00    0.61290   0.61485  477.492
 3684.00    0.60885   0.60874  469.087
 3685.00    0.58735   0.58553  473.833
 3686.00    0.56722   0.55614   -1.000
 3687.00    0.54485   0.54218  510.335
 3688.00    0.54726   0.55539   -1.000
 3689.00    0.57983   0.59175   -1.000
 3690.00    0.62562   0.63449   -1.000
 3691.00    0.66814   0.66443  460.423
 3692.00    0.66826   0.66977  439.517
 3693.00    0.64330   0.65713   -1.000
 3694.00    0.63742   0.64336   -1.000
 3695.00    0.63724   0.63674  453.227
 3696.00    0.65084   0.63992   -1.000
 3697.00    0.65520   0.65470  451.415
 3698.00    0.65809   0.67915   -1.000
 3699.00    0.68076   0.70187   -1.000
 3700.00    0.68937   0.71097   -1.000
 3701.00    0.67754   0.69869   -1.000
 3702.00    0.65982   0.66216  417.491
 3703.00    0.62667   0.60626   -1.000
 3704.00    0.57199   0.55070   -1.000
 3705.00    0.52971   0.51231   -1.000
 3706.00    0.52412   0.49991   -1.000
 3707.00    0.52628   0.50641   -1.000
 3708.00    0.52554   0.52031   -1.000
 3709.00    0.54330   0.53987  515.512
 3710.00    0.57510   0.56860   -1.000
 3711.00    0.61142   0.60406  501.093
 3712.00    0.64848   0.64234  478.331
 3713.00    0.67605   0.67615  453.389
 3714.00    0.69887   0.69471  429.880
 3715.00    0.70484   0.69384  415.001
 3716.00    0.68018   0.67447  409.888
 3717.00    0.64352   0.63540  415.460
 3718.00    0.59767   0.57846   -1.000
 3719.00    0.53565   0.51378   -1.000
 3720.00    0.48399   0.45857   -1.000
 3721.00    0.47129   0.43645   -1.000
 3722.00    0.49695   0.45441   -1.000
 3723.00    0.53783   0.50096   -1.000
 3724.00    0.57483   0.55594   -1.000
 3725.00    0.60925   0.59510   -1.000
 3726.00    0.62316   0.60459   -1.000
 3727.00    0.61511   0.59733   -1.000
 3728.00    0.60500   0.59535   -1.000
 3729.00    0.61255   0.59853   -1.000
 3730.00    0.61704   0.59102   -1.000
 3731.00    0.58476   0.55975   -1.000
 3732.00    0.52944   0.50473   -1.000
 3733.00    0.47607   0.44579   -1.000
 3734.00    0.44497   0.40047   -1.000
 3735.00    0.43014   0.38179   -1.000
 3736.00    0.41951   0.39551   72.138
 3737.00    0.42198   0.43723   71.272
 3738.00    0.46248   0.49434   65.872
 3739.00    0.52853   0.55405  121.390
 3740.00    0.58090   0.59626   -1.000
 3741.00    0.60363   0.60732  484.848
 3742.00    0.59419   0.58857   -1.000
 3743.00    0.55460   0.55413  479.928
 3744.00    0.50671   0.51742   -1.000
 3745.00    0.48375   0.48877  515.512
 3746.00    0.47575   0.46531   -1.000
 3747.00    0.45006   0.43947   -1.000
 3748.00    0.42595   0.41581  108.965
 3749.00    0.41997   0.40847   66.151
 3750.00    0.45059   0.43146   68.520
 3751.00    0.52002   0.48275   -1.000
 3752.00    0.57942   0.54317   -1.000
 3753.00    0.62025   0.59863   -1.000
 3754.00    0.65595   0.64157   -1.000
 3755.00    0.66110   0.65509  438.528
 3756.00    0.62858   0.63039  423.492
 3757.00    0.57725   0.58143  432.546
 3758.00    0.52439   0.53802   -1.000
 3759.00    0.51880   0.52422  515.512
 3760.00    0.54915   0.53567   -1.000
 3761.00    0.57211   0.55300   -1.000
 3762.00    0.57835   0.56199   -1.000
 3763.00    0.56777   0.56259   -1.000
 3764.00    0.57394   0.56026   -1.000
 3765.00    0.58947   0.55484   -1.000
 3766.00    0.56917   0.54630   -1.000
 3767.00    0.55819   0.54051   -1.000
 3768.00    0.58118   0.54066   -1.000
 3769.00    0.59483   0.54437   -1.000
 3770.00    0.59542   0.55321   -1.000
 3771.00    0.61224   0.57221   -1.000
 3772.00    0.63821   0.59905   -1.000
 3773.00    0.66715   0.62491   -1.000
 3774.00    0.67753   0.64091   -1.000
 3775.00    0.66772   0.64888   -1.000
 3776.00    0.67214   0.65624   -1.000
 3777.00    0.66941   0.66658  436.290
 3778.00    0.67009   0.68107   -1.000
 3779.00    0.69405   0.69742  431.260
 3780.00    0.70731   0.71238  420.514
 3781.00    0.71315   0.72325   -1.000
 3782.00    0.72693   0.72885  402.799
 3783.00    0.73753   0.72716   -1.000
 3784.00    0.73012   0.71196   -1.000
 3785.00    0.68827   0.67983   -1.000
 3786.00    0.63893   0.63913  420.263
 3787.00    0.59975   0.60258  447.734
 3788.00    0.57789   0.57947  475.709
 3789.00    0.57477   0.57460  491.409
 3790.00    0.58216   0.58310  495.297
 3791.00    0.59667   0.59211   -1.000
 3792.00    0.59155   0.59013  483.398
 3793.00    0.58140   0.57280   -1.000
 3794.00    0.57107   0.54776   -1.000
 3795.00    0.54119   0.52174   -1.000
 3796.00    0.52004   0.49522   -1.000
 3797.00    0.51172   0.46955   -1.000
 3798.00    0.50206   0.45628   -1.000
 3799.00    0.52076   0.47123   -1.000
 3800.00    0.56232   0.51545   -1.000
 3801.00    0.58913   0.56942   -1.000
 3802.00    0.60267   0.61734   -1.000
 3803.00    0.61737   0.64930   -1.000
 3804.00    0.64036   0.66088   -1.000
 3805.00    0.64725   0.65354  445.310
 3806.00    0.61805   0.63801   -1.000
 3807.00    0.58983   0.63041   -1.000
 3808.00    0.58530   0.64000   -1.000
 3809.00    0.59864   0.65971   -1.000
 3810.00    0.61978   0.67265   -1.000
 3811.00    0.61384   0.66502   -1.000
 3812.00    0.59603   0.63411   -1.000
 3813.00    0.57954   0.59249   -1.000
 3814.00    0.53799   0.55476   -1.000
 3815.00    0.50407   0.53399   -1.000
 3816.00    0.50135   0.53283   -1.000
 3817.00    0.50845   0.53821   -1.000
 3818.00    0.51339   0.53160   -1.000
 3819.00    0.49685   0.50972   -1.000
 3820.00    0.46279   0.49074   -1.000
 3821.00    0.45890   0.49020   -1.000
 3822.00    0.47428   0.50238   -1.000
 3823.00    0.46975   0.50419   -1.000
 3824.00    0.44356   0.48517   -1.000
 3825.00    0.41659   0.46093   -1.000
 3826.00    0.40251   0.44719   -1.000
 3827.00    0.40260   0.44720   66.842
 3828.00    0.41134   0.45523   67.219
 3829.00    0.41098   0.46274   -1.000
 3830.00    0.41302   0.46119   65.262
 3831.00    0.40777   0.44675   65.162
 3832.00    0.40088   0.42303   67.103
 3833.00    0.38670   0.39966   71.374
 3834.00    0.38371   0.38633   75.340
 3835.00    0.41100   0.38549   75.619
 3836.00    0.42019   0.39263   73.250
 3837.00    0.40838   0.40054   70.974
 3838.00    0.39555   0.40748   71.008
 3839.00    0.39955   0.41919   72.673
 3840.00    0.40962   0.44279   72.848
 3841.00    0.43924   0.48095   69.988
 3842.00    0.49242   0.52434   -1.000
 3843.00    0.52576   0.56186   -1.000
 3844.00    0.53604   0.58583   -1.000
 3845.00    0.55163   0.59758   -1.000
 3846.00    0.56191   0.60349   -1.000
 3847.00    0.55470   0.60396   -1.000
 3848.00    0.54172   0.59564   -1.000
 3849.00    0.51770   0.58287   -1.000
 3850.00    0.50810   0.57724   -1.000
 3851.00    0.52677   0.58432   -1.000
 3852.00    0.53337   0.59405   -1.000
 3853.00    0.52870   0.59398   -1.000
 3854.00    0.52930   0.58195   -1.000
 3855.00    0.51747   0.56464   -1.000
 3856.00    0.50159   0.54744   -1.000
 3857.00    0.48126   0.52961   -1.000
 3858.00    0.45768   0.51065   -1.000
 3859.00    0.43610   0.50078   -1.000
 3860.00    0.43678   0.51142   -1.000
 3861.00    0.47791   0.54235   -1.000
 3862.00    0.52334   0.57660   -1.000
 3863.00    0.54788   0.59643   -1.000
 3864.00    0.56214   0.59802   -1.000
 3865.00    0.56655   0.59060   -1.000
 3866.00    0.55428   0.58490   -1.000
 3867.00    0.53227   0.58253   -1.000
 3868.00    0.52454   0.57753   -1.000
 3869.00    0.52115   0.56449   -1.000
 3870.00    0.49874   0.54370   -1.000
 3871.00    0.47422   0.52711   -1.000
 3872.00    0.46841   0.52824   -1.000
 3873.00    0.50135   0.55133   -1.000
 3874.00    0.55568   0.58430   -1.000
 3875.00    0.58324   0.60649   -1.000
 3876.00    0.56944   0.60169   -1.000
 3877.00    0.54044   0.57662   -1.000
 3878.00    0.52033   0.55468   -1.000
 3879.00    0.51316   0.54752   -1.000
 3880.00    0.50962   0.54969   -1.000
 3881.00    0.50077   0.55228   -1.000
 3882.00    0.50578   0.55582   -1.000
 3883.00    0.54245   0.56317   -1.000
 3884.00    0.57055   0.56290   -1.000
 3885.00    0.55820   0.54154   -1.000
 3886.00    0.53274   0.50641   -1.000
 3887.00    0.53336   0.47640   -1.000
 3888.00    0.55084   0.46880   -1.000
 3889.00    0.56843   0.49116   -1.000
 3890.00    0.60071   0.53772   -1.000
 3891.00    0.65662   0.59186   -1.000
 3892.00    0.69518   0.63565   -1.000
 3893.00    0.69842   0.65638   -1.000
 3894.00    0.69413   0.65871   -1.000
 3895.00    0.68599   0.65814   -1.000
 3896.00    0.69410   0.66258   -1.000
 3897.00    0.71694   0.66863   -1.000
 3898.00    0.71143   0.66908   -1.000
 3899.00    0.68861   0.66583   -1.000
 3900.00    0.68837   0.66716   -1.000
 3901.00    0.69521   0.67147   -1.000
 3902.00    0.69379   0.66979   -1.000
 3903.00    0.68953   0.65881   -1.000
 3904.00    0.67033   0.64324   -1.000
 3905.00    0.64143   0.63491   -1.000
 3906.00    0.63431   0.64347   -1.000
 3907.00    0.67553   0.67048  459.061
 3908.00    0.72726   0.70578   -1.000
 3909.00    0.74869   0.73581   -1.000
 3910.00    0.75298   0.75364  395.854
 3911.00    0.76573   0.76216  389.544
 3912.00    0.76793   0.76433  386.007
 3913.00    0.75218   0.76043   -1.000
 3914.00    0.74758   0.75176  384.054
 3915.00    0.74704   0.74081  390.376
 3916.00    0.74304   0.72856   -1.000
 3917.00    0.73834   0.71383   -1.000
 3918.00    0.72770   0.69285   -1.000
 3919.00    0.69842   0.66499   -1.000
 3920.00    0.66835   0.63868   -1.000
 3921.00    0.63554   0.62267   -1.000
 3922.00    0.61410   0.62095  471.870
 3923.00    0.62578   0.62742  474.587
 3924.00    0.63770   0.62956   -1.000
 3925.00    0.61724   0.61764  465.109
 3926.00    0.58823   0.58812  478.236
 3927.00    0.54928   0.54802  512.833
 3928.00    0.48437   0.50469   -1.000
 3929.00    0.42452   0.46392   -1.000
 3930.00    0.36868   0.42703   -1.000
 3931.00    0.32484   0.39069   -1.000
 3932.00    0.28659   0.35644   -1.000
 3933.00    0.25394   0.33229   -1.000
 3934.00    0.24472   0.33145   -1.000
 3935.00    0.26596   0.35767   -1.000
 3936.00    0.31170   0.40093   -1.000
 3937.00    0.37982   0.44924   -1.000
 3938.00    0.44943   0.49795   -1.000
 3939.00    0.49308   0.54054   -1.000
 3940.00    0.52500   0.57170   -1.000
 3941.00    0.54296   0.58804   -1.000
 3942.00    0.55566   0.59091   -1.000
 3943.00    0.57324   0.59077   -1.000
 3944.00    0.57527   0.60165   -1.000
 3945.00    0.59853   0.62676   -1.000
 3946.00    0.64364   0.65491   -1.000
 3947.00    0.67937   0.67627  449.384
 3948.00    0.69551   0.69229  433.534
 3949.00    0.72570   0.70931   -1.000
 3950.00    0.75934   0.72576   -1.000
 3951.00    0.75779   0.73270   -1.000
 3952.00    0.75123   0.73371   -1.000
 3953.00    0.74721   0.73853   -1.000
 3954.00    0.76026   0.74473   -1.000
 3955.00    0.76235   0.74359   -1.000
 3956.00    0.74901   0.73389   -1.000
 3957.00    0.74213   0.72439   -1.000
 3958.00    0.73557   0.71807   -1.000
 3959.00    0.72216   0.69981   -1.000
 3960.00    0.67162   0.65674   -1.000
 3961.00    0.59226   0.60195   -1.000
 3962.00    0.53204   0.55360   -1.000
 3963.00    0.49994   0.52042   -1.000
 3964.00    0.47981   0.49291   -1.000
 3965.00    0.44283   0.45466  128.317
 3966.00    0.39056   0.40387   70.636
 3967.00    0.33652   0.34979   84.692
 3968.00    0.28774   0.31083  104.202
 3969.00    0.28316   0.30206  122.077
 3970.00    0.33261   0.32559  124.459
 3971.00    0.38579   0.37288  108.840
 3972.00    0.43240   0.43336   89.488
 3973.00    0.50143   0.49583   74.192
 3974.00    0.57098   0.55641  112.287
 3975.00    0.63427   0.61284   -1.000
 3976.00    0.69433   0.66345   -1.000
 3977.00    0.73615   0.71059   -1.000
 3978.00    0.79102   0.75349   -1.000
 3979.00    0.83082   0.78979   -1.000
 3980.00    0.83896   0.81109   -1.000
 3981.00    0.84734   0.81448   -1.000
 3982.00    0.84505   0.80812   -1.000
 3983.00    0.82681   0.80493   -1.000
 3984.00    0.82698   0.81215   -1.000
 3985.00    0.84510   0.82721   -1.000
 3986.00    0.86284   0.84607   -1.000
 3987.00    0.87783   0.86501   -1.000
 3988.00    0.89144   0.87807   -1.000
 3989.00    0.90683   0.88279   -1.000
 3990.00    0.91628   0.88507   -1.000
 3991.00    0.92340   0.89220   -1.000
 3992.00    0.93676   0.90355   -1.000
 3993.00    0.94948   0.91038   -1.000
 3994.00    0.95390   0.90534   -1.000
 3995.00    0.93270   0.89024   -1.000
 3996.00    0.89356   0.87373   -1.000
 3997.00    0.87787   0.86900  339.663
 3998.00    0.89605   0.88339   -1.000
 3999.00    0.93873   0.91153   -1.000
 4000.00    0.98854   0.93950   -1.000
 4001.00    1.00448   0.95811   -1.000
 4002.00    1.00351   0.96086   -1.000
 4003.00    0.99837   0.94062   -1.000
 4004.00    0.95042   0.90013   -1.000
 4005.00    0.89248   0.86292   -1.000
 4006.00    0.88848   0.85518   -1.000
 4007.00    0.92871   0.88060   -1.000
 4008.00    0.96167   0.91967   -1.000
 4009.00    0.98065   0.94922   -1.000
 4010.00    0.99317   0.96401   -1.000
 4011.00    0.99527   0.97082   -1.000
 4012.00    0.99110   0.97551   -1.000
 4013.00    0.97680   0.98158   -1.000
 4014.00    0.99830   0.98901  305.513
 4015.00    1.05449   0.99325   -1.000
 4016.00    1.04370   0.99209   -1.000
 4017.00    1.00178   0.99153  300.828
 4018.00    0.98889   0.99776   -1.000
 4019.00    1.00567   1.00759  305.522
 4020.00    1.03141   1.01296   -1.000
 4021.00    1.03460   1.00901   -1.000
 4022.00    1.00699   0.99821  302.590
 4023.00    0.99782   0.98521  305.933
 4024.00    1.00000   0.97550   -1.000
 4025.00    1.00274   0.97700   -1.000
 4026.00    1.03243   0.99372   -1.000
 4027.00    1.06674   1.01480   -1.000
 4028.00    1.06769   1.01720   -1.000
 4029.00    1.02801   0.98570   -1.000
 4030.00    0.97320   0.92899   -1.000
 4031.00    0.92505   0.87579   -1.000
 4032.00    0.89415   0.84521   -1.000
 4033.00    0.88093   0.84185   -1.000
 4034.00    0.89142   0.86630   -1.000
 4035.00    0.94881   0.91563   -1.000
 4036.00    1.01971   0.97562   -1.000
 4037.00    1.07502   1.02738   -1.000
 4038.00    1.09384   1.05220   -1.000
 4039.00    1.07232   1.04792   -1.000
 4040.00    1.05118   1.03194   -1.000
 4041.00    1.03744   1.01798   -1.000
 4042.00    1.02518   0.99491   -1.000
 4043.00    0.99044   0.94355   -1.000
 4044.00    0.90598   0.86835   -1.000
 4045.00    0.81713   0.80647  326.953
 4046.00    0.80552   0.80310  356.658
 4047.00    0.89222   0.86124   -1.000
 4048.00    0.99354   0.93826   -1.000
 4049.00    1.04964   0.99855   -1.000
 4050.00    1.07365   1.02891   -1.000
 4051.00    1.07713   1.03216   -1.000
 4052.00    1.05791   1.01722   -1.000
 4053.00    1.01768   0.99416   -1.000
 4054.00    0.98363   0.97163  303.583
 4055.00    0.97397   0.95261   -1.000
 4056.00    0.97618   0.93568   -1.000
 4057.00    0.94763   0.92435   -1.000
 4058.00    0.93614   0.92925  318.777
 4059.00    0.98204   0.94956   -1.000
 4060.00    1.03445   0.96240   -1.000
 4061.00    1.03053   0.94283   -1.000
 4062.00    0.96469   0.89339   -1.000
 4063.00    0.89534   0.84833   -1.000
 4064.00    0.87631   0.83396   -1.000
 4065.00    0.90192   0.84982   -1.000
 4066.00    0.94097   0.88246   -1.000
 4067.00    0.97664   0.91748   -1.000
 4068.00    1.01686   0.94406   -1.000
 4069.00    1.03729   0.95044   -1.000
 4070.00    1.00409   0.92942   -1.000
 4071.00    0.95109   0.89873   -1.000
 4072.00    0.93737   0.89042   -1.000
 4073.00    0.97665   0.90896   -1.000
 4074.00    1.01869   0.92591   -1.000
 4075.00    1.00159   0.91183   -1.000
 4076.00    0.93254   0.87319   -1.000
 4077.00    0.87267   0.84762   -1.000
 4078.00    0.88701   0.86243   -1.000
 4079.00    0.94935   0.91514   -1.000
 4080.00    1.01748   0.97601   -1.000
 4081.00    1.06149   1.01529   -1.000
 4082.00    1.06390   1.01976   -1.000
 4083.00    1.03364   1.00028   -1.000
 4084.00    1.00951   0.98227   -1.000
 4085.00    1.01814   0.98566   -1.000
 4086.00    1.06041   1.01306   -1.000
 4087.00    1.09209   1.04962   -1.000
 4088.00    1.13070   1.07814   -1.000
 4089.00    1.15846   1.08572   -1.000
 4090.00    1.14972   1.07249   -1.000
 4091.00    1.11395   1.05177   -1.000
 4092.00    1.09336   1.03629   -1.000
 4093.00    1.08456   1.02266   -1.000
 4094.00    1.07240   1.00006   -1.000
 4095.00    1.03710   0.96579   -1.000
 4096.00    0.98634   0.92898   -1.000
 4097.00    0.96131   0.89965   -1.000
 4098.00    0.95136   0.87209   -1.000
 4099.00    0.92024   0.83323   -1.000
 4100.00    0.85511   0.78368   -1.000
 4101.00    0.81456   0.74554   -1.000
 4102.00    0.82623   0.74527   -1.000
 4103.00    0.87579   0.78900   -1.000
 4104.00    0.93991   0.85489   -1.000
 4105.00    1.00230   0.91774   -1.000
 4106.00    1.03560   0.96181   -1.000
 4107.00    1.04878   0.98334   -1.000
 4108.00    1.04516   0.98654   -1.000
 4109.00    1.01913   0.97835   -1.000
 4110.00    0.98199   0.96902  312.974
 4111.00    0.98332   0.96881   -1.000
 4112.00    1.01111   0.98105   -1.000
 4113.00    1.03497   1.00240   -1.000
 4114.00    1.05493   1.02541   -1.000
 4115.00    1.06383   1.04090   -1.000
 4116.00    1.06356   1.04038   -1.000
 4117.00    1.06352   1.02292   -1.000
 4118.00    1.03149   0.99897   -1.000
 4119.00    0.99887   0.98320   -1.000
 4120.00    1.00358   0.98188   -1.000
 4121.00    1.01714   0.98855   -1.000
 4122.00    1.01665   0.99553   -1.000
 4123.00    1.01096   1.00296  311.825
 4124.00    1.02962   1.01290   -1.000
 4125.00    1.04565   1.02009   -1.000
 4126.00    1.04967   1.01646   -1.000
 4127.00    1.03525   1.00259   -1.000
 4128.00    1.00969   0.98688   -1.000
 4129.00    0.99637   0.97193   -1.000
 4130.00    0.97766   0.95185   -1.000
 4131.00    0.95068   0.92544   -1.000
 4132.00    0.93809   0.90277   -1.000
 4133.00    0.92334   0.90231   -1.000
 4134.00    0.94583   0.93120   -1.000
 4135.00    0.99034   0.97558   -1.000
 4136.00    1.03509   1.01696   -1.000
 4137.00    1.06661   1.04581   -1.000
 4138.00    1.07704   1.06127   -1.000
 4139.00    1.07161   1.06449  297.448
 4140.00    1.06222   1.04813   -1.000
 4141.00    1.02104   1.00320   -1.000
 4142.00    0.94494   0.94042  305.927
 4143.00    0.87770   0.89400   -1.000
 4144.00    0.88404   0.89025  350.089
 4145.00    0.93793   0.92498   -1.000
 4146.00    0.99022   0.96968   -1.000
 4147.00    1.02513   0.99530   -1.000
 4148.00    1.01949   0.99602   -1.000
 4149.00    0.99404   0.98473  313.174
 4150.00    0.96732   0.97526  320.482
 4151.00    0.96091   0.97056  327.603
 4152.00    0.96706   0.96609  328.992
 4153.00    0.96105   0.95889  326.643
 4154.00    0.94552   0.95076  326.719
 4155.00    0.95665   0.94808   -1.000
 4156.00    0.97508   0.95697   -1.000
 4157.00    0.98358   0.97745  324.396
 4158.00    1.12179   1.00555   -1.000
 4159.00    1.34715   1.03375   -1.000
 4160.00    1.09780   1.05452   -1.000
 4161.00    0.72107   1.06909   -1.000
 4162.00    0.96043   1.07949   -1.000
 4163.00    1.13029   1.08277   -1.000
 4164.00    1.07274   1.07465  301.492
 4165.00    1.03506   1.05476   -1.000
 4166.00    1.00467   1.03052   -1.000
 4167.00    0.98021   1.01595   -1.000
 4168.00    0.97583   1.01580   -1.000
 4169.00    0.99706   1.01924   -1.000
 4170.00    1.00645   1.00750  319.536
 4171.00    0.97263   0.97372  317.319
 4172.00    0.92030   0.93607   -1.000
 4173.00    0.90125   0.91728   -1.000
 4174.00    0.90538   0.92430   -1.000
 4175.00    0.92535   0.94450   -1.000
 4176.00    0.94745   0.96047   -1.000
 4177.00    0.95444   0.96916   -1.000
 4178.00    0.95571   0.97812   -1.000
 4179.00    0.96956   0.98787   -1.000
 4180.00    0.97784   0.99204   -1.000
 4181.00    0.98871   0.98971  328.496
 4182.00    0.98836   0.99236  326.702
 4183.00    1.00499   1.00967  325.590
 4184.00    1.03057   1.02992  320.795
 4185.00    1.02770   1.03365  314.556
 4186.00    1.01121   1.01662  311.313
 4187.00    0.98280   0.99624   -1.000
 4188.00    0.97042   0.99317   -1.000
 4189.00    0.99039   1.00759   -1.000
 4190.00    1.00988   1.02619   -1.000
 4191.00    1.02734   1.04128   -1.000
 4192.00    1.04593   1.05372  317.567
 4193.00    1.06366   1.05903  312.229
 4194.00    1.05352   1.04465  306.378
 4195.00    1.01312   1.00732  307.254
 4196.00    0.96979   0.96371  319.321
 4197.00    0.93371   0.93070  334.096
 4198.00    0.92202   0.91463   -1.000
 4199.00    0.93101   0.91283   -1.000
 4200.00    0.94054   0.91919   -1.000
 4201.00    0.95248   0.92869   -1.000
 4202.00    0.96925   0.94324   -1.000
 4203.00    0.99231   0.96798   -1.000
 4204.00    1.00928   1.00220  332.710
 4205.00    1.02907   1.03840  328.453
 4206.00    1.06278   1.06839  324.638
 4207.00    1.09835   1.08804  317.496
 4208.00    1.09586   1.09434  310.158
 4209.00    1.09204   1.09052  305.866
 4210.00    1.07860   1.08675   -1.000
 4211.00    1.07859   1.08820   -1.000
 4212.00    1.08291   1.08597  304.881
 4213.00    1.04955   1.06470   -1.000
 4214.00    1.00772   1.02667   -1.000
 4215.00    0.97841   0.99938   -1.000
 4216.00    0.99547   1.01094   -1.000
 4217.00    1.05839   1.06139  334.986
 4218.00    1.12417   1.11976  319.153
 4219.00    1.17859   1.16023   -1.000
 4220.00    1.19420   1.17200   -1.000
 4221.00    1.18469   1.15299   -1.000
 4222.00    1.14322   1.10440   -1.000
 4223.00    1.07771   1.02691   -1.000
 4224.00    0.98437   0.92626   -1.000
 4225.00    0.86659   0.83049   -1.000
 4226.00    0.77336   0.77744  365.654
 4227.00    0.78208   0.79549   -1.000
 4228.00    0.88743   0.88082   -1.000
 4229.00    1.01789   0.99187   -1.000
 4230.00    1.10156   1.07285   -1.000
 4231.00    1.13459   1.10269   -1.000
 4232.00    1.12507   1.09282   -1.000
 4233.00    1.09413   1.06391   -1.000
 4234.00    1.05780   1.03542   -1.000
 4235.00    1.03961   1.01910   -1.000
 4236.00    1.03813   1.01583   -1.000
 4237.00    1.04213   1.02392   -1.000
 4238.00    1.05279   1.04287  322.970
 4239.00    1.06976   1.06848  318.386
 4240.00    1.09636   1.09560  311.840
 4241.00    1.12206   1.12243  306.924
 4242.00    1.14179   1.14826   -1.000
 4243.00    1.16543   1.17483   -1.000
 4244.00    1.18227   1.19694   -1.000
 4245.00    1.18231   1.19817   -1.000
 4246.00    1.15120   1.16957   -1.000
 4247.00    1.10880   1.12060   -1.000
 4248.00    1.06883   1.06872  307.591
 4249.00    1.03158   1.03244  317.848
 4250.00    1.02698   1.02127  323.957
 4251.00    1.04552   1.03140   -1.000
 4252.00    1.07017   1.04443   -1.000
 4253.00    1.07517   1.04357   -1.000
 4254.00    1.05821   1.03623   -1.000
 4255.00    1.05622   1.04599  311.700
 4256.00    1.09554   1.07582   -1.000
 4257.00    1.12795   1.09364   -1.000
 4258.00    1.10576   1.07255   -1.000
 4259.00    1.04304   1.02743   -1.000
 4260.00    0.99671   0.99974  316.139
 4261.00    1.00455   1.02071   -1.000
 4262.00    1.06684   1.08547   -1.000
 4263.00    1.15705   1.16130  315.164
 4264.00    1.20664   1.21254   -1.000
 4265.00    1.21556   1.22851   -1.000
 4266.00    1.20978   1.21631   -1.000
 4267.00    1.18176   1.18074  282.609
 4268.00    1.13410   1.12443  289.101
 4269.00    1.07881   1.05372   -1.000
 4270.00    1.00972   0.97802   -1.000
 4271.00    0.92723   0.91840  323.413
 4272.00    0.89082   0.89222  344.709
 4273.00    0.91529   0.90085   -1.000
 4274.00    0.95282   0.93661   -1.000
 4275.00    0.99257   0.99290  349.958
 4276.00    1.05843   1.06081  338.637
 4277.00    1.13662   1.12235   -1.000
 4278.00    1.17050   1.15289   -1.000
 4279.00    1.14218   1.14609  292.731
 4280.00    1.09195   1.12214   -1.000
 4281.00    1.08034   1.10715   -1.000
 4282.00    1.09434   1.10756   -1.000
 4283.00    1.09837   1.11030   -1.000
 4284.00    1.07647   1.10410   -1.000
 4285.00    1.05070   1.08931   -1.000
 4286.00    1.05130   1.07119   -1.000
 4287.00    1.04108   1.04651  326.929
 4288.00    0.99714   1.00927   -1.000
 4289.00    0.94731   0.96780   -1.000
 4290.00    0.93112   0.94789   -1.000
 4291.00    0.95830   0.96764   -1.000
 4292.00    1.01653   1.01154  361.505
 4293.00    1.05986   1.04425   -1.000
 4294.00    1.06311   1.05025   -1.000
 4295.00    1.05601   1.03672   -1.000
 4296.00    1.02965   1.00972   -1.000
 4297.00    0.97756   0.96571   -1.000
 4298.00    0.91366   0.90751  342.794
 4299.00    0.85010   0.85191  364.647
 4300.00    0.81097   0.82123   -1.000
 4301.00    0.81887   0.82137  416.541
 4302.00    0.84064   0.83797  414.745
 4303.00    0.85446   0.85411  403.861
 4304.00    0.87179   0.86173   -1.000
 4305.00    0.86359   0.85407   -1.000
 4306.00    0.83587   0.82612   -1.000
 4307.00    0.79097   0.78976  395.656
 4308.00    0.76067   0.77007  412.439
 4309.00    0.77611   0.78438  431.127
 4310.00    0.83237   0.83021  434.795
 4311.00    0.89377   0.89306  420.252
 4312.00    0.93428   0.95840   -1.000
 4313.00    0.99153   1.02640   -1.000
 4314.00    1.07231   1.10631   -1.000
 4315.00    1.15724   1.19666   -1.000
 4316.00    1.25904   1.28468   -1.000
 4317.00    1.33526   1.34392   -1.000
 4318.00    1.34162   1.35857   -1.000
 4319.00    1.31842   1.33929   -1.000
 4320.00    1.29328   1.30319   -1.000
 4321.00    1.24742   1.25281  271.083
 4322.00    1.18747   1.18192  278.320
 4323.00    1.10567   1.08881   -1.000
 4324.00    1.00970   0.99786  306.072
 4325.00    0.94220   0.95556   -1.000
 4326.00    0.96512   0.99116   -1.000
 4327.00    1.07673   1.08922   -1.000
 4328.00    1.20667   1.20036  326.676
 4329.00    1.27171   1.27337  295.355
 4330.00    1.28325   1.29840   -1.000
 4331.00    1.27029   1.30216   -1.000
 4332.00    1.27359   1.31010   -1.000
 4333.00    1.30398   1.32491   -1.000
 4334.00    1.30879   1.32998   -1.000
 4335.00    1.29757   1.30393   -1.000
 4336.00    1.25998   1.23380   -1.000
 4337.00    1.17073   1.12706   -1.000
 4338.00    1.06521   1.01336   -1.000
 4339.00    0.97613   0.93654   -1.000
 4340.00    0.94420   0.92160   -1.000
 4341.00    0.98395   0.96533   -1.000
 4342.00    1.08051   1.04539   -1.000
 4343.00    1.17034   1.12924   -1.000
 4344.00    1.20743   1.19279   -1.000
 4345.00    1.23192   1.23773  299.071
 4346.00    1.26235   1.27444   -1.000
 4347.00    1.28361   1.30692   -1.000
 4348.00    1.29812   1.32887   -1.000
 4349.00    1.31196   1.31989   -1.000
 4350.00    1.26513   1.26776  273.121
 4351.00    1.17877   1.19710   -1.000
 4352.00    1.12017   1.15358   -1.000
 4353.00    1.13927   1.16221   -1.000
 4354.00    1.20166   1.20825  311.229
 4355.00    1.25483   1.26012  297.337
 4356.00    1.29048   1.29421  285.214
 4357.00    1.30544   1.30392  277.544
 4358.00    1.28943   1.29692   -1.000
 4359.00    1.26837   1.29149   -1.000
 4360.00    1.27091   1.30426   -1.000
 4361.00    1.31042   1.33367   -1.000
 4362.00    1.34768   1.36571   -1.000
 4363.00    1.36504   1.39022   -1.000
 4364.00    1.38608   1.40526   -1.000
 4365.00    1.39191   1.40424   -1.000
 4366.00    1.35806   1.37750   -1.000
 4367.00    1.30717   1.33370   -1.000
 4368.00    1.28017   1.29810   -1.000
 4369.00    1.27827   1.28347  281.837
 4370.00    1.28385   1.28117  282.738
 4371.00    1.28906   1.27343   -1.000
 4372.00    1.27210   1.24795   -1.000
 4373.00    1.23112   1.20689   -1.000
 4374.00    1.17900   1.16740  285.203
 4375.00    1.15545   1.15603  297.250
 4376.00    1.19601   1.18625  305.408
 4377.00    1.25322   1.23951   -1.000
 4378.00    1.29549   1.27796   -1.000
 4379.00    1.29902   1.27797   -1.000
 4380.00    1.28420   1.23342   -1.000
 4381.00    1.22528   1.14478   -1.000
 4382.00    1.10288   1.03097   -1.000
 4383.00    0.96336   0.93804   -1.000
 4384.00    0.91999   0.91204   -1.000
 4385.00    1.00360   0.96406   -1.000
 4386.00    1.11954   1.05638   -1.000
 4387.00    1.18533   1.13149   -1.000
 4388.00    1.19861   1.16316   -1.000
 4389.00    1.20446   1.16668   -1.000
 4390.00    1.20208   1.16830   -1.000
 4391.00    1.20172   1.18047   -1.000
 4392.00    1.23399   1.19814   -1.000
 4393.00    1.25668   1.21030   -1.000
 4394.00    1.24434   1.21837   -1.000
 4395.00    1.24782   1.23826  287.041
 4396.00    1.29271   1.27679   -1.000
 4397.00    1.32379   1.31231   -1.000
 4398.00    1.32582   1.31601  273.824
 4399.00    1.30314   1.28813   -1.000
 4400.00    1.26765   1.25574   -1.000
 4401.00    1.24166   1.23408  285.873
 4402.00    1.24943   1.21002   -1.000
 4403.00    1.21620   1.16347   -1.000
 4404.00    1.14247   1.10524   -1.000
 4405.00    1.09816   1.07405   -1.000
 4406.00    1.12714   1.08822   -1.000
 4407.00    1.16512   1.13043   -1.000
 4408.00    1.19198   1.18236   -1.000
 4409.00    1.23955   1.24157  296.502
 4410.00    1.30746   1.30823  291.232
 4411.00    1.37520   1.36257   -1.000
 4412.00    1.39733   1.37225   -1.000
 4413.00    1.36111   1.33049   -1.000
 4414.00    1.28379   1.26520   -1.000
 4415.00    1.21317   1.21632  270.892
 4416.00    1.19779   1.21530   -1.000
 4417.00    1.25071   1.26415   -1.000
 4418.00    1.32392   1.33315  286.857
 4419.00    1.36899   1.38278   -1.000
 4420.00    1.38928   1.39139  265.400
 4421.00    1.35635   1.36417  260.756
 4422.00    1.29307   1.32658   -1.000
 4423.00    1.26858   1.30521   -1.000
 4424.00    1.29273   1.30745   -1.000
 4425.00    1.30643   1.32042   -1.000
 4426.00    1.28941   1.33129   -1.000
 4427.00    1.29531   1.33928   -1.000
 4428.00    1.30266   1.34353   -1.000
 4429.00    1.29581   1.33951   -1.000
 4430.00    1.28325   1.32940   -1.000
 4431.00    1.28140   1.32115   -1.000
 4432.00    1.30192   1.31369  273.219
 4433.00    1.28761   1.29264  270.099
 4434.00    1.22971   1.25892   -1.000
 4435.00    1.20124   1.24332   -1.000
 4436.00    1.23262   1.27361   -1.000
 4437.00    1.30160   1.34290   -1.000
 4438.00    1.38209   1.40914   -1.000
 4439.00    1.42794   1.43320  261.269
 4440.00    1.38877   1.40618   -1.000
 4441.00    1.31730   1.35059   -1.000
 4442.00    1.27114   1.30508   -1.000
 4443.00    1.27131   1.30184   -1.000
 4444.00    1.30757   1.34523   -1.000
 4445.00    1.38444   1.40569   -1.000
 4446.00    1.43163   1.44983   -1.000
 4447.00    1.43221   1.46702   -1.000
 4448.00    1.44120   1.46703   -1.000
 4449.00    1.43013   1.46152   -1.000
 4450.00    1.39936   1.45229   -1.000
 4451.00    1.40085   1.43592   -1.000
 4452.00    1.40408   1.40678  264.927
 4453.00    1.36115   1.36002  263.746
 4454.00    1.30111   1.30299  267.958
 4455.00    1.23549   1.26068   -1.000
 4456.00    1.22365   1.24823   -1.000
 4457.00    1.25678   1.25463  292.590
 4458.00    1.26724   1.25953   -1.000
 4459.00    1.26511   1.25393   -1.000
 4460.00    1.25310   1.24613   -1.000
 4461.00    1.24773   1.25109  286.172
 4462.00    1.26378   1.27831  289.138
 4463.00    1.31768   1.32234  289.341
 4464.00    1.37729   1.36394   -1.000
 4465.00    1.38818   1.38650  271.436
 4466.00    1.38009   1.38825  266.941
 4467.00    1.37945   1.37813  267.010
 4468.00    1.37529   1.36611  267.996
 4469.00    1.34932   1.36112  271.803
 4470.00    1.35415   1.37391   -1.000
 4471.00    1.38981   1.40879   -1.000
 4472.00    1.43001   1.45386   -1.000
 4473.00    1.46932   1.49397   -1.000
 4474.00    1.49728   1.52203   -1.000
 4475.00    1.51724   1.54177   -1.000
 4476.00    1.54896   1.56017   -1.000
 4477.00    1.57727   1.56865  246.293
 4478.00    1.56075   1.54704   -1.000
 4479.00    1.49230   1.48973  243.784
 4480.00    1.41382   1.42036  247.995
 4481.00    1.35279   1.37916   -1.000
 4482.00    1.35194   1.39175   -1.000
 4483.00    1.42062   1.45047   -1.000
 4484.00    1.49602   1.52174   -1.000
 4485.00    1.55568   1.57270   -1.000
 4486.00    1.56843   1.58363   -1.000
 4487.00    1.54914   1.55124  243.930
 4488.00    1.48178   1.49376   -1.000
 4489.00    1.42361   1.44750   -1.000
 4490.00    1.42434   1.43821   -1.000
 4491.00    1.46298   1.45855  265.225
 4492.00    1.49597   1.47745   -1.000
 4493.00    1.47675   1.46887  254.302
 4494.00    1.42536   1.43958  252.475
 4495.00    1.39500   1.41904   -1.000
 4496.00    1.39877   1.43021   -1.000
 4497.00    1.42691   1.46968   -1.000
 4498.00    1.48150   1.51247   -1.000
 4499.00    1.52310   1.53717   -1.000
 4500.00    1.52666   1.54177   -1.000
 4501.00    1.49930   1.54337   -1.000
 4502.00    1.51046   1.56056   -1.000
 4503.00    1.57827   1.59556   -1.000
 4504.00    1.62443   1.63544  242.312
 4505.00    1.62428   1.66004   -1.000
 4506.00    1.61313   1.65812   -1.000
 4507.00    1.60412   1.64014   -1.000
 4508.00    1.60614   1.62548   -1.000
 4509.00    1.62284   1.62307  241.180
 4510.00    1.62019   1.62664  240.733
 4511.00    1.60234   1.62236   -1.000
 4512.00    1.57785   1.60239   -1.000
 4513.00    1.54740   1.57264   -1.000
 4514.00    1.52949   1.54621   -1.000
 4515.00    1.52641   1.53219  249.474
 4516.00    1.53167   1.53019  250.159
 4517.00    1.52345   1.53340  249.049
 4518.00    1.51099   1.53933   -1.000
 4519.00    1.53615   1.55276   -1.000
 4520.00    1.57742   1.57292  252.474
 4521.00    1.59168   1.58752  247.707
 4522.00    1.56650   1.58329   -1.000
 4523.00    1.53649   1.55875   -1.000
 4524.00    1.49868   1.52286   -1.000
 4525.00    1.47260   1.48105  256.751
 4526.00    1.42263   1.43173  259.320
 4527.00    1.36592   1.37927  264.696
 4528.00    1.33614   1.33810  272.864
 4529.00    1.33186   1.32215   -1.000
 4530.00    1.36359   1.33471   -1.000
 4531.00    1.39885   1.36395   -1.000
 4532.00    1.41072   1.38948   -1.000
 4533.00    1.38869   1.39767  268.980
 4534.00    1.34772   1.39362   -1.000
 4535.00    1.34250   1.39924   -1.000
 4536.00    1.39641   1.43376   -1.000
 4537.00    1.49577   1.49199  277.124
 4538.00    1.57647   1.54473   -1.000
 4539.00    1.58073   1.56491   -1.000
 4540.00    1.54975   1.55243  243.245
 4541.00    1.52632   1.53124  246.901
 4542.00    1.53210   1.52331   -1.000
 4543.00    1.53929   1.52816   -1.000
 4544.00    1.52836   1.53154  248.877
 4545.00    1.49976   1.52550   -1.000
 4546.00    1.49825   1.51433  241.610
 4547.00    1.16691   1.50357   -1.000
 4548.00    0.18656   1.49166   -1.000
 4549.00    0.00275   1.47961   -1.000
 4550.00    0.35319   1.47659   -1.000
 4551.00    1.09430   1.48621   -1.000
 4552.00    0.58462   1.49602   -1.000
 4553.00    1.23137   1.49238   -1.000
 4554.00    1.52588   1.48086   -1.000
 4555.00    1.46768   1.48172  265.137
 4556.00    1.50572   1.50935  265.948
 4557.00    1.56474   1.55845   84.664
 4558.00    1.61687   1.60812   25.022
 4559.00    1.63109   1.64067   24.145
 4560.00    1.63028   1.65378   23.880
 4561.00    1.62599   1.65185   24.004
 4562.00    1.59624   1.63489   23.987
 4563.00    1.56170   1.60207   24.125
 4564.00    1.51652   1.56382   24.725
 4565.00    1.51129   1.54136   25.299
 4566.00    1.53701   1.55019   25.555
 4567.00    1.58715   1.58555   25.152
 4568.00    1.63727   1.62350   24.490
 4569.00    1.63717   1.63875   23.935
 4570.00    1.59613   1.62553   23.830
 4571.00    1.55539   1.59977   24.195
 4572.00    1.54435   1.58542   24.833
 4573.00    1.57984   1.59647   25.295
 4574.00    1.63067   1.62290   24.933
 4575.00    1.63945   1.64259   24.245
 4576.00    1.61457   1.64451   24.001
 4577.00    1.60730   1.63064   24.053
 4578.00    1.59677   1.60284   24.175
 4579.00    1.54553   1.56333   24.379
 4580.00    1.49761   1.52430   24.881
 4581.00    1.49207   1.50286   25.593
 4582.00    1.51677   1.50388   25.973
 4583.00    1.53680   1.51549   25.805
 4584.00    1.54064   1.52331   25.466
 4585.00    1.53022   1.52510   25.346
 4586.00    1.52764   1.53261   25.454
 4587.00    1.55886   1.55680   25.501
 4588.00    1.60977   1.59214   25.052
 4589.00    1.63679   1.62063   24.407
 4590.00    1.62827   1.62735   24.003
 4591.00    1.58365   1.61075   24.075
 4592.00    1.53554   1.58270   24.468
 4593.00    1.51732   1.55808   24.923
 4594.00    1.53127   1.54348   25.268
 4595.00    1.53732   1.53744   25.219
 4596.00    1.54417   1.53761   24.997
 4597.00    1.54246   1.54372   24.830
 4598.00    1.56867   1.55409   24.773
 4599.00    1.57707   1.56318   24.721
 4600.00    1.56777   1.56697   24.724
 4601.00    1.55534   1.56716   24.957
 4602.00    1.56011   1.56774   25.148
 4603.00    1.57965   1.56919   25.137
 4604.00    1.59051   1.56988   24.850
 4605.00    1.59407   1.57372   24.640
 4606.00    1.59963   1.59078   24.679
 4607.00    1.62962   1.62658   24.583
 4608.00    1.69190   1.67327   24.257
 4609.00    1.72728   1.71160   23.758
 4610.00    1.73151   1.72380   23.297
 4611.00    1.69740   1.70983   23.114
 4612.00    1.64947   1.68630   23.281
 4613.00    1.64533   1.67067   23.599
 4614.00    1.66877   1.67021   23.835
 4615.00    1.69562   1.68092   23.926
 4616.00    1.69360   1.69394   23.774
 4617.00    1.67990   1.70241   23.583
 4618.00    1.66103   1.70466   23.547
 4619.00    1.65885   1.70353   23.721
 4620.00    1.65639   1.70422   23.856
 4621.00    1.68839   1.70977   23.780
 4622.00    1.71339   1.71654   23.511
 4623.00    1.69538   1.71787   23.206
 4624.00    1.70589   1.71243   23.231
 4625.00    1.69906   1.70450   23.290
 4626.00    1.68420   1.69761   23.370
 4627.00    1.68390   1.69288   23.561
 4628.00    1.68366   1.69105   23.596
 4629.00    1.68646   1.69302   23.614
 4630.00    1.69230   1.69933   23.755
 4631.00    1.70889   1.70669   23.765
 4632.00    1.70518   1.70637   23.605
 4633.00    1.66868   1.69227   23.401
 4634.00    1.64905   1.67019   23.574
 4635.00    1.64536   1.65117   23.914
 4636.00    1.63162   1.63673   24.115
 4637.00    1.61441   1.62060   24.123
 4638.00    1.58929   1.60228   24.356
 4639.00    1.58535   1.58953   24.641
 4640.00    1.60457   1.59029   24.702
 4641.00    1.65193   1.60485   24.582
 4642.00    1.70063   1.62302   24.107
 4643.00    1.70329   1.62839   23.560
 4644.00    1.67618   1.61025   23.334
 4645.00    1.61740   1.57215   23.517
 4646.00    1.55704   1.52840   24.018
 4647.00    1.52823   1.49760   24.707
 4648.00    1.55440   1.49619   25.275
 4649.00    1.59775   1.52661   25.241
 4650.00    1.62351   1.57442   24.738
 4651.00    1.65284   1.61979   24.200
 4652.00    1.66223   1.64840   23.937
 4653.00    1.64839   1.65383   23.908
 4654.00    1.63458   1.63871   23.923
 4655.00    1.60141   1.61793   24.279
 4656.00    1.59809   1.61310   24.803
 4657.00    1.64318   1.63752   24.974
 4658.00    1.70894   1.68678   24.619
 4659.00    1.75751   1.73975   23.773
 4660.00    1.78055   1.77014   22.928
 4661.00    1.76790   1.76450   22.528
 4662.00    1.73042   1.72923   22.588
 4663.00    1.68355   1.68124   22.936
 4664.00    1.65476   1.63275   23.495
 4665.00    1.61943   1.58312   23.873
 4666.00    1.54348   1.52858   23.971
 4667.00    1.46489   1.47981   24.504
 4668.00    1.45439   1.45994   25.590
 4669.00    1.51549   1.48323   26.455
 4670.00    1.59127   1.53865   26.264
 4671.00    1.65897   1.59735   25.359
 4672.00    1.66198   1.63584   24.355
 4673.00    1.65735   1.65102   23.813
 4674.00    1.66884   1.65677   23.727
 4675.00    1.68385   1.66636   23.745
 4676.00    1.71620   1.67800   23.663
 4677.00    1.72137   1.67883   23.331
 4678.00    1.69852   1.66006   23.064
 4679.00    1.64843   1.62807   23.276
 4680.00    1.60551   1.59773   23.796
 4681.00    1.59186   1.58125   24.249
 4682.00    1.59991   1.58389   24.615
 4683.00    1.65690   1.60239   24.743
 4684.00    1.68941   1.62549   24.346
 4685.00    1.69821   1.64079   23.770
 4686.00    1.69848   1.64390   23.546
 4687.00    1.68175   1.63868   23.634
 4688.00    1.67995   1.63168   23.661
 4689.00    1.68006   1.62724   23.779
 4690.00    1.67487   1.62541   23.773
 4691.00    1.66303   1.62488   23.807
 4692.00    1.67396   1.62708   23.966
 4693.00    1.68957   1.63623   23.947
 4694.00    1.72366   1.65321   23.632
 4695.00    1.76676   1.67176   23.244
 4696.00    1.75720   1.68021   22.757
 4697.00    1.71756   1.66838   22.550
 4698.00    1.67748   1.63717   22.778
 4699.00    1.64593   1.60054   23.472
 4700.00    1.63702   1.57279   24.106
 4701.00    1.62486   1.55691   24.278
 4702.00    1.60810   1.55013   24.125
 4703.00    1.59884   1.55369   24.370
 4704.00    1.62536   1.56893   24.763
 4705.00    1.66350   1.58785   24.767
 4706.00    1.67435   1.59583   24.284
 4707.00    1.64221   1.58805   24.053
 4708.00    1.60335   1.57615   24.452
 4709.00    1.60044   1.57650   24.908
 4710.00    1.63681   1.59425   25.069
 4711.00    1.69127   1.61931   24.810
 4712.00    1.70924   1.63588   24.056
 4713.00    1.70719   1.63637   23.473
 4714.00    1.67735   1.62905   23.341
 4715.00    1.67003   1.63234   23.626
 4716.00    1.70040   1.65739   24.010
 4717.00    1.74819   1.69767   23.902
 4718.00    1.78019   1.73774   23.406
 4719.00    1.79169   1.76714   23.009
 4720.00    1.78374   1.78304   22.894
 4721.00    1.77653   1.78581   22.816
 4722.00    1.75909   1.78001   22.783
 4723.00    1.74266   1.77564   22.988
 4724.00    1.77791   1.77682   23.098
 4725.00    1.80365   1.77186   22.927
 4726.00    1.75654   1.74381   22.720
 4727.00    1.67750   1.69008   22.856
 4728.00    1.60342   1.62878   23.492
 4729.00    1.57898   1.58634   24.346
 4730.00    1.60851   1.57696   24.765
 4731.00    1.63082   1.59605   24.613
 4732.00    1.66178   1.62893   24.363
 4733.00    1.68697   1.66071   24.158
 4734.00    1.70495   1.68186   23.874
 4735.00    1.72146   1.68969   23.683
 4736.00    1.71854   1.69050   23.553
 4737.00    1.70926   1.69424   23.484
 4738.00    1.72893   1.70582   23.722
 4739.00    1.74052   1.72113   23.684
 4740.00    1.74306   1.73113   23.410
 4741.00    1.72930   1.73342   23.459
 4742.00    1.71751   1.73473   23.585
 4743.00    1.74235   1.73992   23.574
 4744.00    1.75916   1.74765   23.362
 4745.00    1.75431   1.75745   23.151
 4746.00    1.76574   1.77080   23.211
 4747.00    1.78053   1.78661   23.198
 4748.00    1.77767   1.80124   23.004
 4749.00    1.77882   1.81170   22.797
 4750.00    1.77984   1.81611   22.772
 4751.00    1.76080   1.81131   22.808
 4752.00    1.74780   1.79497   22.846
 4753.00    1.74482   1.77061   23.035
 4754.00    1.72302   1.74682   23.292
 4755.00    1.70415   1.73186   23.478
 4756.00    1.71478   1.72888   23.605
 4757.00    1.72615   1.73616   23.573
 4758.00    1.72066   1.75069   23.686
 4759.00    1.72422   1.76715   23.844
 4760.00    1.73049   1.77525   23.827
 4761.00    1.70678   1.76460   23.640
 4762.00    1.65223   1.73373   23.668
 4763.00    1.61627   1.69372   24.095
 4764.00    1.60298   1.65905   24.668
 4765.00    1.59484   1.63602   24.927
 4766.00    1.59479   1.62534   24.936
 4767.00    1.62878   1.63403   24.861
 4768.00    1.70559   1.66925   24.654
 4769.00    1.73259   1.72018   24.270
 4770.00    1.72441   1.76069   23.739
 4771.00    1.71796   1.77485   23.476
 4772.00    1.71766   1.77229   23.558
 4773.00    1.74704   1.77642   23.768
 4774.00    1.75173   1.79857   23.906
 4775.00    1.78110   1.82969   23.568
 4776.00    1.79436   1.85498   23.102
 4777.00    1.78879   1.86783   22.988
 4778.00    1.78142   1.87035   23.023
 4779.00    1.77085   1.86357   23.105
 4780.00    1.75285   1.84806   23.276
 4781.00    1.73520   1.82746   23.527
 4782.00    1.72972   1.80407   23.647
 4783.00    1.70112   1.77913   23.710
 4784.00    1.70703   1.75907   23.840
 4785.00    1.70463   1.74911   24.008
 4786.00    1.69936   1.74523   24.000
 4787.00    1.68492   1.74241   24.109
 4788.00    1.69245   1.74098   24.344
 4789.00    1.69726   1.74234   24.455
 4790.00    1.69801   1.74770   24.409
 4791.00    1.71665   1.76239   24.279
 4792.00    1.74479   1.79319   24.113
 4793.00    1.79959   1.83929   23.836
 4794.00    1.83263   1.88918   23.417
 4795.00    1.86822   1.92649   22.904
 4796.00    1.85309   1.93663   22.560
 4797.00    1.80354   1.91555   22.536
 4798.00    1.75583   1.87457   22.810
 4799.00    1.71440   1.83471   23.280
 4800.00    1.72199   1.81495   23.692
 4801.00    1.76094   1.82435   23.898
 4802.00    1.81533   1.85581   23.625
 4803.00    1.83630   1.88620   23.152
 4804.00    1.80550   1.89250   22.876
 4805.00    1.77327   1.87155   22.966
 4806.00    1.75794   1.83948   23.286
 4807.00    1.73466   1.81375   23.572
 4808.00    1.72899   1.80318   23.752
 4809.00    1.74855   1.80863   23.727
 4810.00    1.76671   1.82579   23.659
 4811.00    1.78835   1.84532   23.536
 4812.00    1.80100   1.85824   23.322
 4813.00    1.81243   1.86370   23.164
 4814.00    1.80050   1.86859   23.060
 4815.00    1.81411   1.87875   23.038
 4816.00    1.82884   1.89495   22.977
 4817.00    1.82540   1.91507   22.884
 4818.00    1.83808   1.93551   22.737
 4819.00    1.85601   1.95135   22.603
 4820.00    1.84720   1.95567   22.524
 4821.00    1.83043   1.94113   22.521
 4822.00    1.79324   1.90590   22.548
 4823.00    1.76492   1.85928   22.806
 4824.00    1.75353   1.82181   23.412
 4825.00    1.77248   1.81337   23.787
 4826.00    1.80898   1.83290   23.669
 4827.00    1.81337   1.85610   23.238
 4828.00    1.79860   1.86251   22.938
 4829.00    1.80268   1.85442   23.079
 4830.00    1.77909   1.84179   23.345
 4831.00    1.75105   1.82719   23.465
 4832.00    1.73009   1.81298   23.478
 4833.00    1.76335   1.80933   23.687
 4834.00    1.79994   1.82364   23.665
 4835.00    1.82960   1.84880   23.273
 4836.00    1.82768   1.86925   22.995
 4837.00    1.81466   1.87399   22.936
 4838.00    1.78882   1.86179   22.988
 4839.00    1.76387   1.83769   23.126
 4840.00    1.74698   1.81257   23.465
 4841.00    1.74402   1.79752   23.843
 4842.00    1.74588   1.79458   23.828
 4843.00    1.76525   1.79989   23.767
 4844.00    1.77989   1.81379   23.637
 4845.00    1.81926   1.83797   23.451
 4846.00    1.84149   1.86336   23.198
 4847.00    1.82219   1.87251   22.855
 4848.00    1.80473   1.85954   22.815
 4849.00    1.78226   1.84017   23.295
 4850.00    1.79207   1.83455   23.596
 4851.00    1.80676   1.84366   23.539
 4852.00    1.82452   1.85027   23.224
 4853.00    1.80447   1.83609   23.204
 4854.00    1.74371   1.79550   23.353
 4855.00    1.70526   1.74200   23.611
 4856.00    1.68863   1.69988   24.340
 4857.00    1.67914   1.67977   24.945
 4858.00    1.66687   1.66078   24.831
 4859.00    1.59814   1.60632   24.671
 4860.00    1.46377   1.50679   25.544
 4861.00    1.36453   1.40422   27.909
 4862.00    1.38204   1.36166   31.052
 4863.00    1.49730   1.40241   -1.000
 4864.00    1.59179   1.49587   -1.000
 4865.00    1.65550   1.59387   27.261
 4866.00    1.69863   1.67074   25.759
 4867.00    1.73397   1.72206   24.913
 4868.00    1.73482   1.74850   24.433
 4869.00    1.72978   1.74670   24.236
 4870.00    1.69428   1.71405   24.170
 4871.00    1.61450   1.66153   24.443
 4872.00    1.58978   1.62069   25.148
 4873.00    1.63444   1.62378   25.673
 4874.00    1.70661   1.67031   25.362
 4875.00    1.71508   1.72719   24.645
 4876.00    1.72570   1.76978   24.255
 4877.00    1.73752   1.80009   24.082
 4878.00    1.76407   1.82897   23.958
 4879.00    1.79986   1.85779   23.853
 4880.00    1.77941   1.87605   23.502
 4881.00    1.76389   1.87357   23.302
 4882.00    1.75256   1.85388   23.547
 4883.00    1.75618   1.83148   23.921
 4884.00    1.74767   1.81106   24.030
 4885.00    1.71949   1.78460   23.960
 4886.00    1.67747   1.75355   24.122
 4887.00    1.68017   1.73222   24.483
 4888.00    1.69915   1.72366   24.578
 4889.00    1.68126   1.71191   24.445
 4890.00    1.66036   1.68557   24.454
 4891.00    1.64602   1.66159   24.851
 4892.00    1.66581   1.67553   25.343
 4893.00    1.76839   1.74666   25.061
 4894.00    1.88056   1.85449   24.006
 4895.00    1.93767   1.95405   22.920
 4896.00    1.94858   2.01200   22.283
 4897.00    1.95232   2.02801   21.903
 4898.00    1.93810   2.01635   21.823
 4899.00    1.89432   1.98970   21.915
 4900.00    1.85534   1.95922   22.414
 4901.00    1.83494   1.93400   22.922
 4902.00    1.83870   1.91602   23.130
 4903.00    1.83704   1.90367   23.016
 4904.00    1.83583   1.90245   23.078
 4905.00    1.86248   1.92153   23.325
 4906.00    1.90068   1.95371   23.027
 4907.00    1.91061   1.97007   22.551
 4908.00    1.87088   1.94752   22.422
 4909.00    1.81687   1.89363   22.674
 4910.00    1.77419   1.83753   23.246
 4911.00    1.77951   1.80850   23.893
 4912.00    1.80422   1.81914   24.127
 4913.00    1.82795   1.85998   23.776
 4914.00    1.87678   1.90987   23.349
 4915.00    1.91650   1.94866   23.035
 4916.00    1.91717   1.95827   22.743
 4917.00    1.85336   1.91849   22.572
 4918.00    1.74518   1.82350   22.747
 4919.00    1.63891   1.70148   23.609
 4920.00    1.58499   1.60603   24.914
 4921.00    1.60983   1.57840   26.023
 4922.00    1.70577   1.61931   26.192
 4923.00    1.77481   1.69011   25.293
 4924.00    1.79826   1.75078   24.414
 4925.00    1.78348   1.79374   24.098
 4926.00    1.81980   1.83751   24.063
 4927.00    1.88743   1.89176   23.719
 4928.00    1.92965   1.94787   23.102
 4929.00    1.94127   1.99453   22.712
 4930.00    1.95597   2.02293   22.509
 4931.00    1.95344   2.02383   22.358
 4932.00    1.91923   1.99313   22.252
 4933.00    1.84401   1.94234   22.514
 4934.00    1.80587   1.89664   23.160
 4935.00    1.82999   1.87408   23.953
 4936.00    1.83480   1.86425   23.947
 4937.00    1.80550   1.83957   23.531
 4938.00    1.73920   1.79368   23.583
 4939.00    1.71616   1.75845   24.303
 4940.00    1.77939   1.77192   24.906
 4941.00    1.85765   1.83608   24.611
 4942.00    1.91163   1.91677   23.753
 4943.00    1.93423   1.97850   23.016
 4944.00    1.93981   2.00765   22.617
 4945.00    1.93245   2.01108   22.434
 4946.00    1.91923   2.00413   22.468
 4947.00    1.93342   2.00289   22.626
 4948.00    1.96873   2.01494   22.652
 4949.00    1.98115   2.03446   22.435
 4950.00    1.99249   2.05047   22.180
 4951.00    1.99408   2.05685   22.118
 4952.00    1.97672   2.05233   22.038
 4953.00    1.95760   2.03685   22.163
 4954.00    1.92473   2.00801   22.324
 4955.00    1.88682   1.95575   22.589
 4956.00    1.80144   1.87036   22.893
 4957.00    1.69230   1.77017   23.556
 4958.00    1.67672   1.71071   24.781
 4959.00    1.77592   1.73672   25.669
 4960.00    1.89499   1.82858   25.036
 4961.00    1.94510   1.92413   23.609
 4962.00    1.92876   1.97849   22.854
 4963.00    1.92313   1.98624   22.716
 4964.00    1.89336   1.96220   22.836
 4965.00    1.83769   1.91985   23.027
 4966.00    1.81574   1.87544   23.317
 4967.00    1.78471   1.84649   23.809
 4968.00    1.79931   1.83978   24.092
 4969.00    1.83760   1.85085   24.084
 4970.00    1.85376   1.87354   24.004
 4971.00    1.86222   1.90457   23.818
 4972.00    1.89736   1.94053   23.560
 4973.00    1.91040   1.97370   23.305
 4974.00    1.93279   1.99468   23.029
 4975.00    1.93365   1.99904   22.821
 4976.00    1.92073   1.98672   22.748
 4977.00    1.89370   1.95965   22.919
 4978.00    1.85989   1.92338   23.168
 4979.00    1.81651   1.88586   23.489
 4980.00    1.78740   1.84826   23.870
 4981.00    1.75972   1.80170   24.164
 4982.00    1.69050   1.74114   24.534
 4983.00    1.64288   1.68346   25.359
 4984.00    1.64889   1.65857   26.136
 4985.00    1.70745   1.68295   26.082
 4986.00    1.78287   1.74642   25.562
 4987.00    1.85044   1.82236   24.831
 4988.00    1.87390   1.88147   24.049
 4989.00    1.86927   1.90657   23.492
 4990.00    1.85070   1.90193   23.549
 4991.00    1.83260   1.88919   23.901
 4992.00    1.85166   1.88564   24.131
 4993.00    1.85616   1.89235   24.122
 4994.00    1.85784   1.90181   23.906
 4995.00    1.87266   1.91119   23.813
 4996.00    1.86952   1.92169   23.799
 4997.00    1.86833   1.92587   23.673
 4998.00    1.85630   1.90964   23.569
 4999.00    1.81528   1.86970   23.729
 5000.00    1.77301   1.81998   24.061
 5001.00    1.75721   1.78084   24.545
 5002.00    1.78041   1.76364   24.832
 5003.00    1.79041   1.76006   24.828
 5004.00    1.76745   1.75004   24.588
 5005.00    1.73921   1.72276   24.453
 5006.00    1.72238   1.69267   24.834
 5007.00    1.73421   1.69054   25.455
 5008.00    1.78368   1.73057   25.544
 5009.00    1.83629   1.79004   24.888
 5010.00    1.83044   1.82805   24.147
 5011.00    1.81399   1.82085   23.930
 5012.00    1.73925   1.77296   24.280
 5013.00    1.67337   1.71063   25.033
 5014.00    1.65462   1.66670   25.965
 5015.00    1.67270   1.65940   26.526
 5016.00    1.73089   1.67923   26.355
 5017.00    1.76777   1.70233   25.758
 5018.00    1.76246   1.71691   25.239
 5019.00    1.76200   1.72898   25.150
 5020.00    1.79636   1.74472   25.146
 5021.00    1.79741   1.75787   24.854
 5022.00    1.77371   1.76418   24.667
 5023.00    1.77113   1.77418   24.784
 5024.00    1.81201   1.79838   24.829
 5025.00    1.84505   1.82915   24.675
 5026.00    1.83704   1.84596   24.414
 5027.00    1.79953   1.84063   24.264
 5028.00    1.80505   1.83015   24.389
 5029.00    1.83893   1.83827   24.493
 5030.00    1.87875   1.87160   24.248
 5031.00    1.90883   1.91959   23.787
 5032.00    1.92217   1.96676   23.450
 5033.00    1.95351   1.99710   23.071
 5034.00    1.92536   1.99411   22.820
 5035.00    1.86002   1.95407   22.893
 5036.00    1.79768   1.89683   23.659
 5037.00    1.76561   1.84822   24.589
 5038.00    1.77520   1.81061   24.966
 5039.00    1.72835   1.76361   25.052
 5040.00    1.63764   1.69853   25.393
 5041.00    1.59248   1.64397   26.419
 5042.00    1.64145   1.64542   27.463
 5043.00    1.76287   1.72036   27.391
 5044.00    1.87448   1.83929   26.009
 5045.00    1.95099   1.95022   24.406
 5046.00    1.97247   2.01256   23.444
 5047.00    1.93486   2.01446   22.952
 5048.00    1.95268   1.96708   22.107
 5049.00    1.23037   1.89806   -1.000
 5050.00    0.17426   1.84043   -1.000
 5051.00    0.05366   1.81468   -1.000
 5052.00    0.56092   1.82180   -1.000
 5053.00    1.91473   1.85530   24.626
 5054.00    1.93166   1.90501   24.054
 5055.00    1.97257   1.95365   23.448
 5056.00    1.98277   1.98765   23.033
 5057.00    1.99864   2.00743   22.825
 5058.00    2.01203   2.02190   22.760
 5059.00    1.97792   2.03936   22.806
 5060.00    1.99912   2.06168   22.847
 5061.00    2.02431   2.08119   22.832
 5062.00    2.01154   2.08210   22.675
 5063.00    1.95599   2.04910   22.702
 5064.00    1.86490   1.98471   23.029
 5065.00    1.80391   1.91552   23.720
 5066.00    1.81899   1.87094   24.559
 5067.00    1.86548   1.85941   24.805
 5068.00    1.86105   1.86951   24.481
 5069.00    1.87525   1.88840   24.114
 5070.00    1.90214   1.90741   24.047
 5071.00    1.89778   1.91748   23.930
 5072.00    1.86155   1.91346   23.778
 5073.00    1.86839   1.90417   23.985
 5074.00    1.90517   1.90362   24.164
 5075.00    1.91865   1.91379   23.849
 5076.00    1.91134   1.92365   23.671
 5077.00    1.89827   1.91915   23.645
 5078.00    1.87532   1.88762   23.632
 5079.00    1.79156   1.82784   23.884
 5080.00    1.71137   1.76431   24.751
 5081.00    1.71049   1.73242   25.931
 5082.00    1.75047   1.74400   26.176
 5083.00    1.80457   1.78107   25.591
 5084.00    1.84088   1.82393   25.048
 5085.00    1.87558   1.86508   24.717
 5086.00    1.92007   1.90248   24.245
 5087.00    1.93745   1.93243   23.835
 5088.00    1.93174   1.95304   23.677
 5089.00    1.93534   1.96720   23.648
 5090.00    1.95402   1.98026   23.524
 5091.00    1.96241   1.99722   23.353
 5092.00    1.99417   2.02086   23.226
 5093.00    2.03018   2.04557   23.103
 5094.00    2.01042   2.05550   22.831
 5095.00    1.97403   2.03594   22.634
 5096.00    1.93515   1.98647   22.862
 5097.00    1.89585   1.92026   23.353
 5098.00    1.82606   1.85633   23.860
 5099.00    1.81325   1.81807   24.441
 5100.00    1.83669   1.82371   24.945
 5101.00    1.88930   1.86927   24.997
 5102.00    1.94644   1.92480   24.351
 5103.00    1.93799   1.95800   23.645
 5104.00    1.90498   1.95863   23.463
 5105.00    1.91582   1.93871   23.618
 5106.00    1.86892   1.91164   23.937
 5107.00    1.84799   1.88335   24.240
 5108.00    1.83551   1.85757   24.536
 5109.00    1.82366   1.84121   24.842
 5110.00    1.85018   1.84273   24.787
 5111.00    1.88554   1.86612   24.623
 5112.00    1.91982   1.90475   24.444
 5113.00    1.95154   1.94476   24.084
 5114.00    1.96276   1.97675   23.792
 5115.00    1.98327   2.00312   23.502
 5116.00    1.99973   2.02925   23.294
 5117.00    2.03359   2.05367   23.173
 5118.00    2.03327   2.06829   22.922
 5119.00    2.02453   2.06481   22.734
 5120.00    1.99592   2.04064   22.814
 5121.00    1.94772   1.99858   23.125
 5122.00    1.88660   1.94393   23.475
 5123.00    1.84400   1.88500   23.866
 5124.00    1.81945   1.83569   24.492
 5125.00    1.80389   1.80991   25.237
 5126.00    1.81854   1.80934   25.384
 5127.00    1.82658   1.82061   25.139
 5128.00    1.83407   1.83047   25.022
 5129.00    1.83612   1.83916   24.871
 5130.00    1.84473   1.85521   24.916
 5131.00    1.88266   1.88182   24.891
 5132.00    1.92111   1.91239   24.551
 5133.00    1.94275   1.93913   24.127
 5134.00    1.95938   1.96052   23.942
 5135.00    1.97347   1.97575   23.711
 5136.00    1.96636   1.97542   23.503
 5137.00    1.94566   1.94855   23.450
 5138.00    1.87656   1.90293   23.896
 5139.00    1.84423   1.86540   24.487
 5140.00    1.86410   1.85281   24.867
 5141.00    1.86464   1.85590   24.885
 5142.00    1.84722   1.85831   24.650
 5143.00    1.85302   1.85851   24.852
 5144.00    1.87242   1.86428   25.269
 5145.00    1.87099   1.87084   25.096
 5146.00    1.85611   1.86484   24.660
 5147.00    1.84627   1.84922   24.590
 5148.00    1.84586   1.84195   24.835
 5149.00    1.88332   1.84992   24.888
 5150.00    1.88137   1.86075   24.566
 5151.00    1.85405   1.86014   24.435
 5152.00    1.82637   1.84850   24.758
 5153.00    1.83012   1.83825   25.218
 5154.00    1.83663   1.84219   25.371
 5155.00    1.88342   1.86807   25.230
 5156.00    1.94470   1.91414   24.732
 5157.00    1.99423   1.96717   24.097
 5158.00    2.03525   2.01021   23.484
 5159.00    2.03011   2.03405   23.051
 5160.00    2.02998   2.03832   22.892
 5161.00    2.01956   2.02465   22.895
 5162.00    1.99333   1.99212   22.975
 5163.00    1.95200   1.93954   23.109
 5164.00    1.89448   1.86696   23.376
 5165.00    1.77803   1.76869   23.743
 5166.00    1.59219   1.63897   24.674
 5167.00    1.44422   1.50468   26.763
 5168.00    1.40852   1.42462   29.595
 5169.00    1.50284   1.42854   -1.000
 5170.00    1.58447   1.47156   -1.000
 5171.00    1.51951   1.47854   28.986
 5172.00    1.38918   1.43306   28.647
 5173.00    1.36532   1.39996   30.587
 5174.00    1.51551   1.45151   32.685
 5175.00    1.71305   1.58606   -1.000
 5176.00    1.83108   1.73553   -1.000
 5177.00    1.89425   1.83779   25.486
 5178.00    1.91908   1.88392   24.569
 5179.00    1.90615   1.88896   24.310
 5180.00    1.85411   1.85431   24.269
 5181.00    1.74921   1.76491   24.520
 5182.00    1.56530   1.62171   25.402
 5183.00    1.37537   1.47222   27.281
 5184.00    1.35680   1.39837   30.512
 5185.00    1.52027   1.44984   -1.000
 5186.00    1.75610   1.59697   -1.000
 5187.00    1.89823   1.75721   -1.000
 5188.00    1.93864   1.86935   25.280
 5189.00    1.94863   1.92132   24.529
 5190.00    1.95503   1.92383   24.332
 5191.00    1.90404   1.88583   24.234
 5192.00    1.81305   1.82691   24.508
 5193.00    1.78804   1.78467   25.308
 5194.00    1.84355   1.78237   26.005
 5195.00    1.88433   1.80893   25.777
 5196.00    1.90934   1.84491   25.324
 5197.00    1.98585   1.88607   -1.000
 5198.00    2.02131   1.93230   24.588
 5199.00    2.04961   1.97630   24.088
 5200.00    2.09070   2.00634   23.682
 5201.00    2.08518   2.01313   23.494
 5202.00    2.05040   1.99348   23.477
 5203.00    1.98260   1.94596   23.673
 5204.00    1.90640   1.87299   24.111
 5205.00    1.82888   1.78871   24.667
 5206.00    1.77096   1.71776   25.453
 5207.00    1.76641   1.67749   26.236
 5208.00    1.75561   1.66968   26.309
 5209.00    1.74931   1.69109   26.452
 5210.00    1.81824   1.74442   26.613
 5211.00    1.91919   1.82730   -1.000
 5212.00    2.01699   1.91973   -1.000
 5213.00    2.08385   1.98926   -1.000
 5214.00    2.07209   2.01234   23.361
 5215.00    2.02709   1.99105   22.890
 5216.00    1.98659   1.95604   23.165
 5217.00    1.98319   1.94481   23.723
 5218.00    2.02561   1.97317   24.005
 5219.00    2.07303   2.02615   23.792
 5220.00    2.11151   2.07618   23.268
 5221.00    2.11953   2.10294   22.919
 5222.00    2.12005   2.09620   22.748
 5223.00    2.06412   2.05187   22.659
 5224.00    1.97069   1.97213   22.963
 5225.00    1.86908   1.87023   23.677
 5226.00    1.80973   1.77671   24.664
 5227.00    1.82007   1.73391   25.825
 5228.00    1.88915   1.76803   -1.000
 5229.00    1.99399   1.86265   -1.000
 5230.00    2.07962   1.96303   -1.000
 5231.00    2.09995   2.01565   23.473
 5232.00    2.05908   2.00690   23.069
 5233.00    2.00561   1.96785   23.042
 5234.00    2.00236   1.94411   23.523
 5235.00    2.01504   1.96242   23.941
 5236.00    2.10268   2.01688   23.877
 5237.00    2.14570   2.08063   23.317
 5238.00    2.16854   2.12821   22.759
 5239.00    2.16368   2.14940   22.510
 5240.00    2.15059   2.15032   22.495
 5241.00    2.17262   2.14309   22.569
 5242.00    2.16107   2.13813   22.526
 5243.00    2.15528   2.14153   22.390
 5244.00    2.17290   2.14883   22.429
 5245.00    2.15583   2.14286   22.381
 5246.00    2.10161   2.10868   22.345
 5247.00    2.00820   2.05364   22.805
 5248.00    1.98879   2.00262   23.529
 5249.00    2.00795   1.97267   24.073
 5250.00    2.01481   1.96329   24.124
 5251.00    1.99859   1.96994   24.168
 5252.00    2.01472   1.98853   24.326
 5253.00    2.04582   2.00846   24.205
 5254.00    2.04381   2.01936   23.864
 5255.00    2.04836   2.02887   23.630
 5256.00    2.08066   2.05926   23.638
 5257.00    2.16377   2.11688   23.465
 5258.00    2.23818   2.17690   22.909
 5259.00    2.22644   2.20384   22.287
 5260.00    2.16403   2.17972   22.098
 5261.00    2.07203   2.10678   22.312
 5262.00    1.97128   2.00148   22.933
 5263.00    1.88805   1.88714   23.913
 5264.00    1.80884   1.78780   25.056
 5265.00    1.77636   1.72242   25.919
 5266.00    1.80383   1.69937   -1.000
 5267.00    1.83362   1.70444   -1.000
 5268.00    1.84054   1.70264   -1.000
 5269.00    1.77710   1.67456   -1.000
 5270.00    1.72394   1.64879   26.150
 5271.00    1.81851   1.67844   -1.000
 5272.00    1.97207   1.77333   -1.000
 5273.00    2.05606   1.87903   -1.000
 5274.00    2.06352   1.94174   -1.000
 5275.00    2.04734   1.96876   23.818
 5276.00    2.08870   2.00331   23.834
 5277.00    2.15860   2.06541   -1.000
 5278.00    2.21587   2.13394   23.315
 5279.00    2.23478   2.17133   22.512
 5280.00    2.19276   2.15941   22.097
 5281.00    2.12131   2.10974   22.237
 5282.00    2.06831   2.04880   22.779
 5283.00    2.04413   2.00710   23.373
 5284.00    2.07211   2.01118   23.799
 5285.00    2.15948   2.07006   -1.000
 5286.00    2.24874   2.15920   -1.000
 5287.00    2.27311   2.23516   22.704
 5288.00    2.23289   2.27349   21.988
 5289.00    2.26011   2.28513   21.826
 5290.00    2.30348   2.29146   21.945
 5291.00    2.30121   2.29814   21.941
 5292.00    2.28345   2.29668   21.811
 5293.00    2.26725   2.28153   21.765
 5294.00    2.26073   2.25385   21.895
 5295.00    2.21790   2.20805   22.103
 5296.00    2.12156   2.13627   22.397
 5297.00    2.02556   2.05090   23.008
 5298.00    1.98638   1.98906   23.897
 5299.00    2.02285   1.98062   24.538
 5300.00    2.09090   2.01816   24.381
 5301.00    2.12770   2.06969   23.758
 5302.00    2.17091   2.11781   23.316
 5303.00    2.23610   2.16933   23.169
 5304.00    2.29072   2.22956   22.883
 5305.00    2.32746   2.28255   22.264
 5306.00    2.31480   2.30750   21.855
 5307.00    2.29228   2.30575   21.799
 5308.00    2.29373   2.29978   22.014
 5309.00    2.31476   2.30737   22.205
 5310.00    2.33868   2.32475   22.060
 5311.00    2.34798   2.33505   21.827
 5312.00    2.31595   2.32856   21.688
 5313.00    2.29443   2.30910   21.710
 5314.00    2.30030   2.28411   21.832
 5315.00    2.29185   2.25787   21.927
 5316.00    2.25622   2.23365   22.086
 5317.00    2.24909   2.21810   22.305
 5318.00    2.27390   2.21658   22.504
 5319.00    2.26792   2.22509   22.511
 5320.00    2.28491   2.23256   22.344
 5321.00    2.25140   2.22943   22.248
 5322.00    2.22924   2.20871   22.330
 5323.00    2.17827   2.16847   22.487
 5324.00    2.14219   2.11672   22.752
 5325.00    2.13014   2.06197   23.152
 5326.00    2.10917   1.99637   -1.000
 5327.00    1.99150   1.91076   23.358
 5328.00    1.86891   1.82884   23.998
 5329.00    1.88746   1.80706   25.549
 5330.00    2.02025   1.87523   -1.000
 5331.00    2.15930   1.99554   -1.000
 5332.00    2.20126   2.10204   -1.000
 5333.00    2.23892   2.16731   23.070
 5334.00    2.26149   2.20793   22.825
 5335.00    2.29873   2.24281   22.607
 5336.00    2.30968   2.26818   22.344
 5337.00    2.28266   2.26903   22.247
 5338.00    2.24733   2.23775   22.389
 5339.00    2.20025   2.17902   22.534
 5340.00    2.14430   2.11312   22.780
 5341.00    2.12310   2.07545   23.356
 5342.00    2.17124   2.08871   23.768
 5343.00    2.22793   2.13682   -1.000
 5344.00    2.25893   2.18067   22.941
 5345.00    2.26802   2.19646   22.527
 5346.00    2.23064   2.18730   22.522
 5347.00    2.22411   2.16730   22.669
 5348.00    2.22254   2.14707   22.815
 5349.00    2.19102   2.13710   22.927
 5350.00    2.21454   2.15050   23.134
 5351.00    2.27360   2.19113   23.191
 5352.00    2.31807   2.24566   22.836
 5353.00    2.33366   2.29595   22.306
 5354.00    2.34490   2.33573   22.025
 5355.00    2.39153   2.36905   21.953
 5356.00    2.42099   2.39612   21.781
 5357.00    2.42168   2.41121   21.503
 5358.00    2.41605   2.41248   21.340
 5359.00    2.38789   2.40234   21.357
 5360.00    2.38425   2.38107   21.390
 5361.00    2.33739   2.34930   21.468
 5362.00    2.30551   2.31269   21.718
 5363.00    2.28316   2.27800   22.082
 5364.00    2.26183   2.24815   22.407
 5365.00    2.24815   2.22330   22.567
 5366.00    2.23019   2.20498   22.698
 5367.00    2.23992   2.19237   22.834
 5368.00    2.23588   2.17229   22.767
 5369.00    2.16974   2.12697   22.765
 5370.00    2.08734   2.05996   22.993
 5371.00    2.05340   2.00676   23.563
 5372.00    2.11705   2.01002   -1.000
 5373.00    2.23751   2.07972   -1.000
 5374.00    2.33577   2.18150   -1.000
 5375.00    2.36201   2.26581   -1.000
 5376.00    2.36582   2.30716   21.847
 5377.00    2.35200   2.31493   21.680
 5378.00    2.35426   2.31265   21.741
 5379.00    2.36509   2.31199   21.751
 5380.00    2.34882   2.30746   21.794
 5381.00    2.32445   2.29166   21.919
 5382.00    2.30364   2.26879   22.135
 5383.00    2.29506   2.25234   22.353
 5384.00    2.30811   2.25270   22.465
 5385.00    2.34175   2.26880   22.452
 5386.00    2.35492   2.28841   22.347
 5387.00    2.34200   2.29476   22.108
 5388.00    2.33164   2.27781   22.061
 5389.00    2.29465   2.24085   22.159
 5390.00    2.24059   2.19748   22.372
 5391.00    2.21757   2.16236   22.713
 5392.00    2.22338   2.14339   22.970
 5393.00    2.23308   2.13815   -1.000
 5394.00    2.22162   2.13524   23.088
 5395.00    2.18578   2.12045   23.158
 5396.00    2.13934   2.08928   23.328
 5397.00    2.12343   2.05826   23.634
 5398.00    2.14299   2.05515   -1.000
 5399.00    2.22072   2.09066   -1.000
 5400.00    2.27100   2.14522   -1.000
 5401.00    2.29615   2.18770   -1.000
 5402.00    2.29899   2.19696   -1.000
 5403.00    2.23942   2.16447   22.650
 5404.00    2.14940   2.09354   22.828
 5405.00    2.05737   2.01141   23.512
 5406.00    2.03641   1.96426   24.281
 5407.00    2.11064   1.97478   -1.000
 5408.00    2.15322   2.01764   -1.000
 5409.00    2.15026   2.05250   -1.000
 5410.00    2.15876   2.07157   -1.000
 5411.00    2.18945   2.10010   -1.000
 5412.00    2.27099   2.15246   -1.000
 5413.00    2.33253   2.20979   -1.000
 5414.00    2.32693   2.24889   22.608
 5415.00    2.31388   2.27153   22.365
 5416.00    2.33739   2.29399   22.374
 5417.00    2.36751   2.31966   22.385
 5418.00    2.36007   2.33402   22.221
 5419.00    2.34576   2.32638   22.079
 5420.00    2.32102   2.30483   22.164
 5421.00    2.31022   2.28497   22.382
 5422.00    2.30925   2.27170   22.519
 5423.00    2.29626   2.25891   22.433
 5424.00    2.27791   2.24843   22.343
 5425.00    2.29091   2.25594   22.646
 5426.00    2.34298   2.28635   22.858
 5427.00    2.36725   2.31274   22.626
 5428.00    2.31212   2.29619   22.244
 5429.00    2.22536   2.23351   22.302
 5430.00    2.18519   2.16802   22.906
 5431.00    2.21331   2.14094   23.642
 5432.00    2.25420   2.14691   -1.000
 5433.00    2.23096   2.14937   23.290
 5434.00    2.20111   2.13108   23.266
 5435.00    2.18690   2.11359   23.591
 5436.00    2.19491   2.12835   23.867
 5437.00    2.26427   2.18407   23.790
 5438.00    2.34350   2.26391   23.326
 5439.00    2.40803   2.34133   22.685
 5440.00    2.46188   2.39656   22.206
 5441.00    2.46652   2.42509   21.891
 5442.00    2.45414   2.43225   21.706
 5443.00    2.44033   2.41868   21.665
 5444.00    2.37576   2.37537   21.663
 5445.00    2.26852   2.29702   21.885
 5446.00    2.16873   2.20346   22.460
 5447.00    2.14510   2.13857   23.381
 5448.00    2.20862   2.13750   24.162
 5449.00    2.29277   2.19458   -1.000
 5450.00    2.32471   2.26591   23.259
 5451.00    2.35521   2.30819   22.603
 5452.00    2.33660   2.30765   22.374
 5453.00    2.27825   2.27057   22.371
 5454.00    2.22914   2.20820   22.557
 5455.00    2.17154   2.14438   23.073
 5456.00    2.17739   2.11693   23.736
 5457.00    2.24758   2.15143   -1.000
 5458.00    2.32516   2.22985   -1.000
 5459.00    2.36401   2.29985   23.120
 5460.00    2.35044   2.32148   22.481
 5461.00    2.32234   2.29464   22.337
 5462.00    2.27672   2.24698   22.587
 5463.00    2.25892   2.21051   23.010
 5464.00    2.28881   2.20466   23.327
 5465.00    2.32280   2.22695   -1.000
 5466.00    2.33252   2.25973   23.184
 5467.00    2.34705   2.28673   22.911
 5468.00    2.36624   2.30093   22.797
 5469.00    2.35348   2.30115   22.549
 5470.00    2.32027   2.28940   22.448
 5471.00    2.29782   2.27105   22.648
 5472.00    2.31202   2.25214   22.886
 5473.00    2.29628   2.23287   22.974
 5474.00    2.25766   2.20523   23.089
 5475.00    2.22258   2.16282   23.321
 5476.00    2.17486   2.11533   23.650
 5477.00    2.15557   2.09089   24.151
 5478.00    2.20382   2.11074   -1.000
 5479.00    2.28206   2.15823   -1.000
 5480.00    2.27882   2.19166   -1.000
 5481.00    2.24819   2.19126   23.146
 5482.00    2.23940   2.18077   23.297
 5483.00    2.27827   2.19719   -1.000
 5484.00    2.32601   2.24584   -1.000
 5485.00    2.36271   2.29552   23.158
 5486.00    2.37147   2.31309   22.684
 5487.00    2.31533   2.29429   22.474
 5488.00    2.27023   2.26304   22.675
 5489.00    2.27088   2.24779   23.000
 5490.00    2.30188   2.25761   23.144
 5491.00    2.31811   2.27872   23.153
 5492.00    2.33993   2.29304   22.996
 5493.00    2.34837   2.29520   22.828
 5494.00    2.34417   2.29187   22.740
 5495.00    2.34030   2.28912   22.784
 5496.00    2.33729   2.28566   22.796
 5497.00    2.34163   2.28149   22.793
 5498.00    2.35346   2.28432   22.952
 5499.00    2.37170   2.29610   23.115
 5500.00    2.37236   2.30276   23.004
 5501.00    2.34777   2.28907   22.747
 5502.00    2.32263   2.25995   22.907
 5503.00    2.32578   2.23626   -1.000
 5504.00    2.34081   2.22711   -1.000
 5505.00    2.32127   2.22129   -1.000
 5506.00    2.28855   2.21116   23.089
 5507.00    2.28421   2.20790   23.386
 5508.00    2.31142   2.22478   -1.000
 5509.00    2.34233   2.25326   -1.000
 5510.00    2.33596   2.26607   23.058
 5511.00    2.29331   2.24654   22.943
 5512.00    2.24372   2.20596   23.084
 5513.00    2.21694   2.17094   23.524
 5514.00    2.22572   2.16062   23.919
 5515.00    2.26571   2.17671   -1.000
 5516.00    2.31508   2.21054   -1.000
 5517.00    2.37312   2.25421   -1.000
 5518.00    2.42153   2.30224   -1.000
 5519.00    2.45535   2.34596   -1.000
 5520.00    2.46804   2.37369   -1.000
 5521.00    2.44735   2.38154   22.224
 5522.00    2.43781   2.37826   22.255
 5523.00    2.42952   2.37355   22.300
 5524.00    2.41214   2.36598   22.376
 5525.00    2.38434   2.34434   22.416
 5526.00    2.34262   2.30011   22.545
 5527.00    2.27986   2.23988   22.843
 5528.00    2.23398   2.18974   23.360
 5529.00    2.26420   2.18036   -1.000
 5530.00    2.33954   2.21793   -1.000
 5531.00    2.38687   2.27504   -1.000
 5532.00    2.39773   2.31588   -1.000
 5533.00    2.38364   2.32627   22.699
 5534.00    2.36900   2.31643   22.726
 5535.00    2.34878   2.30307   22.933
 5536.00    2.36277   2.29661   23.053
 5537.00    2.38227   2.30110   22.985
 5538.00    2.38866   2.31615   22.801
 5539.00    2.42173   2.33889   -1.000
 5540.00    2.45250   2.36439   -1.000
 5541.00    2.46452   2.38349   22.427
 5542.00    2.45912   2.38638   22.245
 5543.00    2.42115   2.37302   22.243
 5544.00    2.40017   2.35509   22.461
 5545.00    2.39122   2.34483   22.691
 5546.00    2.40033   2.34693   22.761
 5547.00    2.42776   2.36177   22.704
 5548.00    2.45262   2.38779   22.651
 5549.00    2.49619   2.41760   22.514
 5550.00    2.50758   2.43927   22.295
 5551.00    2.49235   2.44429   22.105
 5552.00    2.47686   2.43147   22.045
 5553.00    2.44378   2.40649   22.153
 5554.00    2.43129   2.38095   22.343
 5555.00    2.43819   2.36611   22.597
 5556.00    2.44160   2.36430   22.717
 5557.00    2.44734   2.36842   22.692
 5558.00    2.45282   2.37137   22.621
 5559.00    2.44459   2.37225   22.580
 5560.00    2.44661   2.37084   22.551
 5561.00    2.44281   2.36267   22.527
 5562.00    2.40478   2.34619   22.570
 5563.00    2.37725   2.32827   22.682
 5564.00    2.36978   2.31613   22.907
 5565.00    2.37971   2.30888   23.073
 5566.00    2.38232   2.30135   -1.000
 5567.00    2.38161   2.29277   -1.000
 5568.00    2.39550   2.28772   -1.000
 5569.00    2.39396   2.28968   -1.000
 5570.00    2.39946   2.29674   -1.000
 5571.00    2.40520   2.30292   -1.000
 5572.00    2.38864   2.30322   -1.000
 5573.00    2.38638   2.30005   -1.000
 5574.00    2.39192   2.30441   -1.000
 5575.00    2.40148   2.32331   23.152
 5576.00    2.27498   2.34709   22.913
 5577.00    1.84300   2.36249   -1.000
 5578.00    0.94252   2.37081   -1.000
 5579.00    0.19459   2.37929   -1.000
 5580.00    0.21085   2.38668   -1.000
 5581.00    1.20723   2.38710   -1.000
 5582.00    2.17717   2.37902   -1.000
 5583.00    2.47034   2.36516   -1.000
 5584.00    2.44447   2.34328   -1.000
 5585.00    2.39546   2.30291   -1.000
 5586.00    2.32355   2.23974   -1.000
 5587.00    2.26365   2.16906   -1.000
 5588.00    2.22583   2.11946   -1.000
 5589.00    2.22458   2.11042   -1.000
 5590.00    2.27379   2.13776   -1.000
 5591.00    2.31827   2.18014   -1.000
 5592.00    2.33250   2.21638   -1.000
 5593.00    2.33172   2.23997   -1.000
 5594.00    2.33493   2.26076   23.659
 5595.00    2.37143   2.29023   -1.000
 5596.00    2.42617   2.32325   -1.000
 5597.00    2.42583   2.33902   -1.000
 5598.00    2.37295   2.32323   23.087
 5599.00    2.33949   2.28335   23.273
 5600.00    2.31512   2.23969   23.671
 5601.00    2.28993   2.20770   -1.000
 5602.00    2.27964   2.19584   -1.000
 5603.00    2.30647   2.21430   -1.000
 5604.00    2.37764   2.26830   -1.000
 5605.00    2.45093   2.34317   -1.000
 5606.00    2.50058   2.41116   -1.000
 5607.00    2.52189   2.45328   22.650
 5608.00    2.52624   2.46885   22.360
 5609.00    2.54568   2.46979   22.296
 5610.00    2.54139   2.47003   22.325
 5611.00    2.52515   2.47478   22.371
 5612.00    2.51760   2.47293   22.354
 5613.00    2.47402   2.44189   22.287
 5614.00    2.39243   2.37005   22.377
 5615.00    2.31203   2.27957   22.811
 5616.00    2.29057   2.21720   23.584
 5617.00    2.34136   2.21340   -1.000
 5618.00    2.40131   2.25429   -1.000
 5619.00    2.43355   2.30085   -1.000
 5620.00    2.43486   2.33233   -1.000
 5621.00    2.45093   2.35240   -1.000
 5622.00    2.45535   2.35878   -1.000
 5623.00    2.41935   2.33877   -1.000
 5624.00    2.35917   2.29537   22.917
 5625.00    2.33739   2.25664   -1.000
 5626.00    2.36590   2.25257   -1.000
 5627.00    2.42982   2.28660   -1.000
 5628.00    2.47135   2.33801   -1.000
 5629.00    2.48689   2.38686   -1.000
 5630.00    2.50668   2.42317   -1.000
 5631.00    2.53169   2.44174   -1.000
 5632.00    2.53037   2.44137   -1.000
 5633.00    2.52313   2.42601   -1.000
 5634.00    2.49990   2.40169   -1.000
 5635.00    2.47205   2.37345   -1.000
 5636.00    2.44076   2.34638   -1.000
 5637.00    2.41650   2.32683   -1.000
 5638.00    2.41533   2.31910   -1.000
 5639.00    2.42133   2.32031   -1.000
 5640.00    2.41420   2.32119   -1.000
 5641.00    2.40718   2.31550   -1.000
 5642.00    2.40611   2.30871   -1.000
 5643.00    2.40630   2.31163   -1.000
 5644.00    2.43352   2.32588   -1.000
 5645.00    2.45363   2.34402   -1.000
 5646.00    2.45388   2.35979   -1.000
 5647.00    2.47122   2.36989   -1.000
 5648.00    2.48592   2.37221   -1.000
 5649.00    2.48036   2.36894   -1.000
 5650.00    2.47328   2.36818   -1.000
 5651.00    2.49641   2.37693   -1.000
 5652.00    2.51343   2.39049   -1.000
 5653.00    2.50604   2.39430   -1.000
 5654.00    2.48654   2.38138   -1.000
 5655.00    2.45247   2.35851   -1.000
 5656.00    2.42879   2.33067   -1.000
 5657.00    2.36772   2.29378   23.016
 5658.00    2.30411   2.24964   23.437
 5659.00    2.30399   2.21844   -1.000
 5660.00    2.34970   2.22079   -1.000
 5661.00    2.39643   2.24813   -1.000
 5662.00    2.39881   2.27500   -1.000
 5663.00    2.40417   2.29637   -1.000
 5664.00    2.43310   2.32288   -1.000
 5665.00    2.45428   2.35171   -1.000
 5666.00    2.45637   2.36755   -1.000
 5667.00    2.43423   2.36406   22.977
 5668.00    2.43434   2.35203   -1.000
 5669.00    2.42984   2.34719   -1.000
 5670.00    2.43148   2.35614   -1.000
 5671.00    2.45947   2.37791   -1.000
 5672.00    2.48909   2.40938   -1.000
 5673.00    2.53007   2.44236   -1.000
 5674.00    2.56217   2.46536   -1.000
 5675.00    2.55801   2.47391   -1.000
 5676.00    2.54352   2.47375   22.405
 5677.00    2.55755   2.47197   -1.000
 5678.00    2.56062   2.46794   -1.000
 5679.00    2.53842   2.45610   -1.000
 5680.00    2.52607   2.43486   -1.000
 5681.00    2.50817   2.40656   -1.000
 5682.00    2.46516   2.37543   -1.000
 5683.00    2.44495   2.35192   -1.000
 5684.00    2.44483   2.34647   -1.000
 5685.00    2.46204   2.35367   -1.000
 5686.00    2.46738   2.35651   -1.000
 5687.00    2.42981   2.34898   -1.000
 5688.00    2.42802   2.34268   -1.000
 5689.00    2.46576   2.35239   -1.000
 5690.00    2.51226   2.38106   -1.000
 5691.00    2.54265   2.41867   -1.000
 5692.00    2.56209   2.45154   -1.000
 5693.00    2.56755   2.47090   -1.000
 5694.00    2.55683   2.47566   -1.000
 5695.00    2.55892   2.47055   -1.000
 5696.00    2.56206   2.45994   -1.000
 5697.00    2.52886   2.44338   -1.000
 5698.00    2.48113   2.41931   22.540
 5699.00    2.45831   2.39021   22.747
 5700.00    2.43401   2.36107   23.010
 5701.00    2.42505   2.33763   -1.000
 5702.00    2.42800   2.32822   -1.000
 5703.00    2.43604   2.33720   -1.000
 5704.00    2.45791   2.35366   -1.000
 5705.00    2.45052   2.35725   -1.000
 5706.00    2.40880   2.33622   -1.000
 5707.00    2.35076   2.29680   23.256
 5708.00    2.30883   2.25622   23.570
 5709.00    2.29611   2.22772   24.002
 5710.00    2.31178   2.21719   -1.000
 5711.00    2.34048   2.22806   -1.000
 5712.00    2.38583   2.26143   -1.000
 5713.00    2.43914   2.31278   -1.000
 5714.00    2.49395   2.36913   -1.000
 5715.00    2.51447   2.41500   -1.000
 5716.00    2.53342   2.44480   -1.000
 5717.00    2.55188   2.46310   -1.000
 5718.00    2.56312   2.47675   -1.000
 5719.00    2.58234   2.49141   -1.000
 5720.00    2.58695   2.50977   -1.000
 5721.00    2.61028   2.53016   -1.000
 5722.00    2.63208   2.54858   -1.000
 5723.00    2.62744   2.56070   22.196
 5724.00    2.61670   2.56116   22.161
 5725.00    2.58784   2.54572   22.133
 5726.00    2.56276   2.51783   22.177
 5727.00    2.55872   2.49179   22.350
 5728.00    2.55758   2.48275   22.584
 5729.00    2.56719   2.48974   -1.000
 5730.00    2.56716   2.49566   22.684
 5731.00    2.56289   2.49043   22.544
 5732.00    2.55767   2.48439   22.582
 5733.00    2.57314   2.49355   -1.000
 5734.00    2.60136   2.51720   -1.000
 5735.00    2.61677   2.53756   -1.000
 5736.00    2.60096   2.54144   22.272
 5737.00    2.58059   2.53242   22.275
 5738.00    2.59246   2.52253   22.303
 5739.00    2.60416   2.51909   -1.000
 5740.00    2.59626   2.51957   -1.000
 5741.00    2.58501   2.51826   22.433
 5742.00    2.58242   2.51498   22.469
 5743.00    2.58608   2.51645   22.518
 5744.00    2.60720   2.52807   -1.000
 5745.00    2.63425   2.54365   -1.000
 5746.00    2.63214   2.54794   -1.000
 5747.00    2.60012   2.53343   22.174
 5748.00    2.56307   2.51283   22.266
 5749.00    2.54551   2.50602   22.481
 5750.00    2.56556   2.51356   22.586
 5751.00    2.58735   2.51386   -1.000
 5752.00    2.56097   2.48849   22.397
 5753.00    2.50643   2.44692   22.543
 5754.00    2.50227   2.42114   -1.000
 5755.00    2.56156   2.43501   -1.000
 5756.00    2.60375   2.48262   -1.000
 5757.00    2.62589   2.53387   -1.000
 5758.00    2.65945   2.55977   -1.000
 5759.00    2.63947   2.54986   -1.000
 5760.00    2.58059   2.51085   22.138
 5761.00    2.54305   2.46122   -1.000
 5762.00    2.51397   2.42582   -1.000
 5763.00    2.52985   2.42570   -1.000
 5764.00    2.58225   2.46456   -1.000
 5765.00    2.64488   2.52257   -1.000
 5766.00    2.65516   2.57120   -1.000
 5767.00    2.65824   2.59665   22.217
 5768.00    2.65938   2.60237   22.123
 5769.00    2.66125   2.59631   22.098
 5770.00    2.65343   2.58436   22.063
 5771.00    2.63220   2.56995   22.097
 5772.00    2.60318   2.55455   22.168
 5773.00    2.59479   2.54003   22.285
 5774.00    2.57440   2.53040   22.423
 5775.00    2.57736   2.52985   22.491
 5776.00    2.59312   2.53831   22.520
 5777.00    2.58323   2.54669   22.483
 5778.00    2.56991   2.53891   22.378
 5779.00    2.53793   2.50325   22.342
 5780.00    2.44405   2.44307   22.402
 5781.00    2.34886   2.37781   22.693
 5782.00    2.30832   2.33124   23.187
 5783.00    2.31477   2.31308   23.526
 5784.00    2.34741   2.31371   23.530
 5785.00    2.40745   2.32362   -1.000
 5786.00    2.47375   2.34789   -1.000
 5787.00    2.53175   2.39066   -1.000
 5788.00    2.56462   2.43923   -1.000
 5789.00    2.58077   2.47405   -1.000
 5790.00    2.57574   2.48680   -1.000
 5791.00    2.56294   2.48724   -1.000
 5792.00    2.58415   2.49399   -1.000
 5793.00    2.60803   2.51786   -1.000
 5794.00    2.63574   2.55154   -1.000
 5795.00    2.65208   2.57565   -1.000
 5796.00    2.63017   2.57616   22.153
 5797.00    2.59048   2.55795   22.119
 5798.00    2.57431   2.54372   22.231
 5799.00    2.61333   2.55500   22.376
 5800.00    2.65942   2.59153   22.308
 5801.00    2.69320   2.63027   22.046
 5802.00    2.70441   2.64645   21.742
 5803.00    2.67416   2.63298   21.652
 5804.00    2.65058   2.60098   21.802
 5805.00    2.64683   2.56980   -1.000
 5806.00    2.65157   2.55422   -1.000
 5807.00    2.66009   2.55616   -1.000
 5808.00    2.65999   2.56825   -1.000
 5809.00    2.66676   2.58334   -1.000
 5810.00    2.67799   2.59801   -1.000
 5811.00    2.68689   2.60909   -1.000
 5812.00    2.67835   2.61171   22.061
 5813.00    2.67749   2.60178   -1.000
 5814.00    2.68642   2.57920   -1.000
 5815.00    2.64180   2.55112   -1.000
 5816.00    2.62341   2.53301   -1.000
 5817.00    2.64462   2.54004   -1.000
 5818.00    2.68900   2.57247   -1.000
 5819.00    2.72146   2.61306   -1.000
 5820.00    2.74994   2.64089   -1.000
 5821.00    2.73349   2.64738   -1.000
 5822.00    2.73454   2.63931   -1.000
 5823.00    2.71717   2.62940   -1.000
 5824.00    2.71956   2.62612   -1.000
 5825.00    2.72661   2.62952   -1.000
 5826.00    2.73126   2.63521   -1.000
 5827.00    2.73694   2.64033   -1.000
 5828.00    2.74770   2.64525   -1.000
 5829.00    2.74399   2.65084   -1.000
 5830.00    2.73286   2.65510   -1.000
 5831.00    2.74422   2.65473   -1.000
 5832.00    2.74681   2.64839   -1.000
 5833.00    2.73647   2.63694   -1.000
 5834.00    2.72440   2.62345   -1.000
 5835.00    2.71113   2.61315   -1.000
 5836.00    2.70981   2.60954   -1.000
 5837.00    2.70120   2.61048   -1.000
 5838.00    2.70429   2.61320   -1.000
 5839.00    2.72481   2.62072   -1.000
 5840.00    2.72367   2.63682   -1.000
 5841.00    2.73755   2.65777   -1.000
 5842.00    2.75767   2.67342   -1.000
 5843.00    2.75394   2.67533   -1.000
 5844.00    2.72883   2.66216   21.522
 5845.00    2.70669   2.63822   21.585
 5846.00    2.68587   2.61037   -1.000
 5847.00    2.67859   2.58666   -1.000
 5848.00    2.67725   2.57364   -1.000
 5849.00    2.67120   2.57116   -1.000
 5850.00    2.66703   2.57012   -1.000
 5851.00    2.64690   2.55942   -1.000
 5852.00    2.61596   2.53756   -1.000
 5853.00    2.59748   2.51433   -1.000
 5854.00    2.59956   2.49913   -1.000
 5855.00    2.60699   2.48799   -1.000
 5856.00    2.58591   2.46788   -1.000
 5857.00    2.53848   2.43738   -1.000
 5858.00    2.53047   2.41528   -1.000
 5859.00    2.57371   2.42206   -1.000
 5860.00    2.61615   2.45615   -1.000
 5861.00    2.63003   2.49520   -1.000
 5862.00    2.63760   2.52045   -1.000
 5863.00    2.64370   2.53066   -1.000
 5864.00    2.64997   2.53311   -1.000
 5865.00    2.65927   2.53069   -1.000
 5866.00    2.64981   2.52322   -1.000
 5867.00    2.63766   2.51844   -1.000
 5868.00    2.66588   2.52870   -1.000
 5869.00    2.69132   2.55401   -1.000
 5870.00    2.70234   2.58010   -1.000
 5871.00    2.68711   2.59357   -1.000
 5872.00    2.68092   2.59245   -1.000
 5873.00    2.67333   2.58455   -1.000
 5874.00    2.69167   2.57869   -1.000
 5875.00    2.70039   2.57626   -1.000
 5876.00    2.69067   2.57071   -1.000
 5877.00    2.66596   2.55574   -1.000
 5878.00    2.65108   2.53214   -1.000
 5879.00    2.62740   2.50686   -1.000
 5880.00    2.60920   2.48863   -1.000
 5881.00    2.61090   2.48289   -1.000
 5882.00    2.62316   2.48652   -1.000
 5883.00    2.60822   2.48944   -1.000
 5884.00    2.60241   2.48557   -1.000
 5885.00    2.60887   2.47338   -1.000
 5886.00    2.56269   2.43942   -1.000
 5887.00    2.43263   2.35451   -1.000
 5888.00    2.17274   2.20042   22.951
 5889.00    1.80626   2.00555   -1.000
 5890.00    1.43776   1.84775   -1.000
 5891.00    1.26860   1.80176   -1.000
 5892.00    1.45164   1.87016   -1.000
 5893.00    1.80530   1.97318   26.944
 5894.00    1.99092   2.02276   25.884
 5895.00    1.90005   2.00106   25.272
 5896.00    1.67360   1.96813   -1.000
 5897.00    1.58524   1.99780   -1.000
 5898.00    1.73374   2.10143   -1.000
 5899.00    2.05943   2.23104   25.529
 5900.00    2.36966   2.34064   24.626
 5901.00    2.52459   2.41586   -1.000
 5902.00    2.57111   2.46123   -1.000
 5903.00    2.58937   2.48477   -1.000
 5904.00    2.58932   2.49374   -1.000
 5905.00    2.59685   2.49474   -1.000
 5906.00    2.62532   2.49508   -1.000
 5907.00    2.64230   2.50115   -1.000
 5908.00    2.64689   2.51357   -1.000
 5909.00    2.64806   2.52801   -1.000
 5910.00    2.64619   2.54020   -1.000
 5911.00    2.64175   2.54525   -1.000
 5912.00    2.62416   2.53602   -1.000
 5913.00    2.59335   2.50879   -1.000
 5914.00    2.56079   2.47180   -1.000
 5915.00    2.54414   2.44414   -1.000
 5916.00    2.55270   2.44044   -1.000
 5917.00    2.57893   2.45948   -1.000
 5918.00    2.62134   2.48963   -1.000
 5919.00    2.63508   2.51806   -1.000
 5920.00    2.62793   2.53576   -1.000
 5921.00    2.60585   2.54028   -1.000
 5922.00    2.59320   2.53644   22.852
 5923.00    2.61007   2.53395   -1.000
 5924.00    2.63115   2.54066   -1.000
 5925.00    2.63978   2.55495   -1.000
 5926.00    2.63676   2.56624   -1.000
 5927.00    2.62967   2.56332   -1.000
 5928.00    2.62991   2.54388   -1.000
 5929.00    2.62358   2.51859   -1.000
 5930.00    2.61361   2.50439   -1.000
 5931.00    2.62796   2.50994   -1.000
 5932.00    2.64883   2.52602   -1.000
 5933.00    2.64952   2.53490   -1.000
 5934.00    2.63363   2.53073   -1.000
 5935.00    2.61888   2.52593   -1.000
 5936.00    2.63146   2.53527   -1.000
 5937.00    2.65092   2.55651   -1.000
 5938.00    2.67750   2.57378   -1.000
 5939.00    2.68895   2.57557   -1.000
 5940.00    2.66960   2.56125   -1.000
 5941.00    2.63355   2.53899   -1.000
 5942.00    2.61613   2.52294   -1.000
 5943.00    2.61732   2.52445   -1.000
 5944.00    2.63250   2.54198   -1.000
 5945.00    2.63786   2.56256   -1.000
 5946.00    2.64975   2.57178   -1.000
 5947.00    2.64657   2.56291   -1.000
 5948.00    2.60995   2.54239   -1.000
 5949.00    2.57228   2.52624   22.915
 5950.00    2.57973   2.52438   23.156
 5951.00    2.59610   2.52980   -1.000
 5952.00    2.60028   2.53037   -1.000
 5953.00    2.60770   2.52551   -1.000
 5954.00    2.61687   2.52365   -1.000
 5955.00    2.62471   2.52653   -1.000
 5956.00    2.62829   2.52584   -1.000
 5957.00    2.63175   2.51984   -1.000
 5958.00    2.64450   2.52033   -1.000
 5959.00    2.65294   2.53697   -1.000
 5960.00    2.65591   2.56567   -1.000
 5961.00    2.67033   2.59367   -1.000
 5962.00    2.69372   2.61008   -1.000
 5963.00    2.69185   2.61168   -1.000
 5964.00    2.68513   2.60177   -1.000
 5965.00    2.68366   2.58776   -1.000
 5966.00    2.67970   2.57952   -1.000
 5967.00    2.68423   2.58377   -1.000
 5968.00    2.70255   2.59833   -1.000
 5969.00    2.71259   2.61578   -1.000
 5970.00    2.71322   2.63100   -1.000
 5971.00    2.72046   2.64156   -1.000
 5972.00    2.72007   2.64492   -1.000
 5973.00    2.70226   2.63825   -1.000
 5974.00    2.67995   2.61933   22.463
 5975.00    2.66084   2.58924   -1.000
 5976.00    2.64070   2.55609   -1.000
 5977.00    2.63046   2.53278   -1.000
 5978.00    2.62650   2.52850   -1.000
 5979.00    2.63433   2.54301   -1.000
 5980.00    2.66124   2.56568   -1.000
 5981.00    2.68129   2.57883   -1.000
 5982.00    2.67140   2.56826   -1.000
 5983.00    2.63118   2.53611   -1.000
 5984.00    2.60567   2.50275   -1.000
 5985.00    2.60953   2.49146   -1.000
 5986.00    2.63345   2.50778   -1.000
 5987.00    2.65833   2.53716   -1.000
 5988.00    2.68621   2.56381   -1.000
 5989.00    2.69491   2.58205   -1.000
 5990.00    2.68405   2.59188   -1.000
 5991.00    2.67578   2.59694   -1.000
 5992.00    2.67563   2.60499   -1.000
 5993.00    2.68832   2.62070   -1.000
 5994.00    2.71638   2.63698   -1.000
 5995.00    2.72251   2.63906   -1.000
 5996.00    2.71430   2.61999   -1.000
 5997.00    2.68758   2.58976   -1.000
 5998.00    2.66690   2.56707   -1.000
 5999.00    2.67275   2.56329   -1.000
 6000.00    2.68371   2.57330   -1.000
 6001.00    2.68906   2.58274   -1.000
 6002.00    2.67851   2.58326   -1.000
 6003.00    2.65855   2.57873   -1.000
 6004.00    2.65622   2.57623   -1.000
 6005.00    2.66560   2.57208   -1.000
 6006.00    2.63682   2.55581   -1.000
 6007.00    2.60664   2.52934   -1.000
 6008.00    2.60275   2.51193   -1.000
 6009.00    2.61857   2.52129   -1.000
 6010.00    2.64812   2.55085   -1.000
 6011.00    2.65547   2.57386   -1.000
 6012.00    2.63629   2.57312   -1.000
 6013.00    2.62835   2.55677   -1.000
 6014.00    2.62911   2.54365   -1.000
 6015.00    2.64254   2.54107   -1.000
 6016.00    2.64940   2.54245   -1.000
 6017.00    2.64733   2.54229   -1.000
 6018.00    2.64972   2.54030   -1.000
 6019.00    2.63693   2.53424   -1.000
 6020.00    2.63473   2.52413   -1.000
 6021.00    2.64272   2.51812   -1.000
 6022.00    2.63972   2.52394   -1.000
 6023.00    2.65271   2.54111   -1.000
 6024.00    2.67496   2.56420   -1.000
 6025.00    2.69530   2.58783   -1.000
 6026.00    2.71143   2.60868   -1.000
 6027.00    2.72445   2.62649   -1.000
 6028.00    2.73394   2.64331   -1.000
 6029.00    2.73858   2.65953   -1.000
 6030.00    2.75405   2.67291   -1.000
 6031.00    2.76405   2.68314   -1.000
 6032.00    2.76852   2.69388   -1.000
 6033.00    2.77555   2.70943   -1.000
 6034.00    2.77981   2.72966   22.649
 6035.00    2.78439   2.74689   22.558
 6036.00    2.78198   2.75167   22.489
 6037.00    2.77155   2.74212   22.470
 6038.00    2.75903   2.72388   22.437
 6039.00    2.73703   2.70453   22.444
 6040.00    2.71349   2.69098   22.550
 6041.00    2.72343   2.68850   22.620
 6042.00    2.74033   2.69804   22.682
 6043.00    2.74932   2.71449   22.664
 6044.00    2.77974   2.72965   22.624
 6045.00    2.80251   2.73860   -1.000
 6046.00    2.80489   2.74284   -1.000
 6047.00    2.78623   2.74558   22.326
 6048.00    2.77515   2.74774   22.341
 6049.00    2.78941   2.74909   22.313
 6050.00    2.80840   2.74826   -1.000
 6051.00    2.80180   2.74188   -1.000
 6052.00    2.79009   2.72691   -1.000
 6053.00    2.77742   2.70469   -1.000
 6054.00    2.75723   2.68031   -1.000
 6055.00    2.75412   2.65926   -1.000
 6056.00    2.74035   2.64697   -1.000
 6057.00    2.72616   2.64821   -1.000
 6058.00    2.73241   2.66227   -1.000
 6059.00    2.75054   2.68104   -1.000
 6060.00    2.77037   2.69352   -1.000
 6061.00    2.77293   2.69177   -1.000
 6062.00    2.74778   2.67416   -1.000
 6063.00    2.71158   2.64549   -1.000
 6064.00    2.68822   2.61693   -1.000
 6065.00    2.65233   2.60432   23.351
 6066.00    2.61186   2.61968   22.890
 6067.00    2.63904   2.65945   31.025
 6068.00    2.65652   2.70480    9.632
 6069.00    2.75880   2.73823   12.739
 6070.00    2.79366   2.75674   23.912
 6071.00    2.78964   2.76655   22.661
 6072.00    2.83328   2.77157   -1.000
 6073.00    2.57825   2.77140   21.832
 6074.00    1.24583   2.76481   -1.000
 6075.00    1.84162   2.75087   -1.000
 6076.00    2.75615   2.72916   22.425
 6077.00    2.78881   2.70197   -1.000
 6078.00    2.72711   2.67508   22.593
 6079.00    2.72204   2.65430   -1.000
 6080.00    2.71728   2.64054   -1.000
 6081.00    2.70490   2.63067   -1.000
 6082.00    2.68882   2.62364   -1.000
 6083.00    2.69355   2.62187   -1.000
 6084.00    2.70499   2.62613   -1.000
 6085.00    2.71460   2.63439   -1.000
 6086.00    2.71535   2.64470   -1.000
 6087.00    2.71783   2.65380   -1.000
 6088.00    2.72492   2.65565   -1.000
 6089.00    2.70900   2.64622   -1.000
 6090.00    2.67808   2.62977   22.994
 6091.00    2.68432   2.61745   -1.000
 6092.00    2.69517   2.61839   -1.000
 6093.00    2.69986   2.63360   -1.000
 6094.00    2.73093   2.65680   -1.000
 6095.00    2.76663   2.67827   -1.000
 6096.00    2.78651   2.69128   -1.000
 6097.00    2.78301   2.69751   -1.000
 6098.00    2.77065   2.70159   -1.000
 6099.00    2.75444   2.69852   -1.000
 6100.00    2.73213   2.67453   -1.000
 6101.00    2.69291   2.62489   -1.000
 6102.00    2.63664   2.56870   -1.000
 6103.00    2.61173   2.53981   -1.000
 6104.00    2.65825   2.55609   -1.000
 6105.00    2.71252   2.60226   -1.000
 6106.00    2.73817   2.64830   -1.000
 6107.00    2.73051   2.67819   23.147
 6108.00    2.72571   2.69511   22.995
 6109.00    2.73983   2.70553   23.046
 6110.00    2.74589   2.71027   23.118
 6111.00    2.74063   2.71112   23.125
 6112.00    2.74227   2.71469   23.084
 6113.00    2.76177   2.72404   22.995
 6114.00    2.76869   2.73296   22.961
 6115.00    2.76032   2.73301   22.877
 6116.00    2.75251   2.72363   22.797
 6117.00    2.74797   2.70979   22.847
 6118.00    2.74004   2.69115   22.986
 6119.00    2.70829   2.66092   23.056
 6120.00    2.65990   2.61708   23.138
 6121.00    2.61713   2.57224   23.413
 6122.00    2.59964   2.54905   23.738
 6123.00    2.63290   2.56174   -1.000
 6124.00    2.69529   2.60024   -1.000
 6125.00    2.71392   2.63735   -1.000
 6126.00    2.69726   2.65439   23.438
 6127.00    2.68383   2.65444   23.349
 6128.00    2.67846   2.65321   23.455
 6129.00    2.70142   2.66447   23.479
 6130.00    2.74513   2.68984   -1.000
 6131.00    2.76615   2.71775   23.276
 6132.00    2.75955   2.73061   23.059
 6133.00    2.73761   2.71264   22.959
 6134.00    2.69906   2.65597   22.984
 6135.00    2.61804   2.56989   23.153
 6136.00    2.54158   2.48649   23.592
 6137.00    2.51255   2.44736   -1.000
 6138.00    2.54279   2.47171   -1.000
 6139.00    2.61368   2.53772   -1.000
 6140.00    2.68183   2.60178   -1.000
 6141.00    2.69607   2.63927   -1.000
 6142.00    2.67596   2.66002   23.604
 6143.00    2.67845   2.68293   23.571
 6144.00    2.71184   2.70969   23.622
 6145.00    2.73003   2.72766   23.465
 6146.00    2.73175   2.72714   23.185
 6147.00    2.72945   2.70926   23.075
 6148.00    2.70929   2.68285   23.150
 6149.00    2.67868   2.65898   23.290
 6150.00    2.67412   2.64680   23.454
 6151.00    2.69072   2.64893   23.601
 6152.00    2.69903   2.65806   23.643
 6153.00    2.69670   2.66155   23.577
 6154.00    2.67884   2.65290   23.433
 6155.00    2.66949   2.63726   23.359
 6156.00    2.66432   2.62346   23.495
 6157.00    2.64549   2.61098   23.650
 6158.00    2.62955   2.58756   23.694
 6159.00    2.57757   2.53847   23.763
 6160.00    2.49436   2.46068   23.973
 6161.00    2.41795   2.37376   24.374
 6162.00    2.36950   2.31414   -1.000
 6163.00    2.37985   2.30914   -1.000
 6164.00    2.43961   2.35467   -1.000
 6165.00    2.49586   2.42077   -1.000
 6166.00    2.53408   2.47368   -1.000
 6167.00    2.53982   2.49284   24.838
 6168.00    2.50904   2.47867   24.662
 6169.00    2.46416   2.45288   24.684
 6170.00    2.46240   2.44544   24.932
 6171.00    2.50406   2.47006   25.220
 6172.00    2.55487   2.51323   25.166
 6173.00    2.57926   2.55097   24.750
 6174.00    2.57158   2.57177   24.352
 6175.00    2.56321   2.57922   24.269
 6176.00    2.57603   2.58218   24.306
 6177.00    2.60484   2.58815   24.268
 6178.00    2.60462   2.59965   24.214
 6179.00    2.60159   2.61390   24.156
 6180.00    2.61813   2.62794   24.052
 6181.00    2.62756   2.64140   23.952
 6182.00    2.63331   2.65209   23.875
 6183.00    2.63539   2.65417   23.775
 6184.00    2.63308   2.64330   23.697
 6185.00    2.60809   2.62032   23.713
 6186.00    2.58353   2.59056   23.791
 6187.00    2.56018   2.56053   23.949
 6188.00    2.52910   2.53295   24.195
 6189.00    2.50750   2.50505   24.452
 6190.00    2.47960   2.47634   24.690
 6191.00    2.45112   2.45841   24.885
 6192.00    2.47234   2.46766   25.163
 6193.00    2.53163   2.50654   25.386
 6194.00    2.58983   2.55843   25.233
 6195.00    2.61900   2.60186   24.692
 6196.00    2.61899   2.62456   24.208
 6197.00    2.60879   2.62437   23.994
 6198.00    2.58532   2.60679   23.934
 6199.00    2.56031   2.58612   24.033
 6200.00    2.55236   2.58042   24.284
 6201.00    2.56638   2.59707   24.514
 6202.00    2.58660   2.62658   24.557
 6203.00    2.60480   2.65381   24.368
 6204.00    2.61575   2.67112   24.070
 6205.00    2.60899   2.68019   23.926
 6206.00    2.62162   2.68530   23.919
 6207.00    2.63649   2.68762   23.894
 6208.00    2.63051   2.68505   23.877
 6209.00    2.62347   2.67465   23.943
 6210.00    2.61400   2.65420   23.976
 6211.00    2.59777   2.62166   24.041
 6212.00    2.56218   2.57661   24.232
 6213.00    2.51108   2.52537   24.438
 6214.00    2.47565   2.48237   24.658
 6215.00    2.46262   2.46175   24.995
 6216.00    2.48005   2.46559   25.296
 6217.00    2.51639   2.48106   25.416
 6218.00    2.52211   2.49099   25.202
 6219.00    2.50704   2.48936   24.993
 6220.00    2.50556   2.48554   25.097
 6221.00    2.52383   2.49115   25.111
 6222.00    2.54279   2.50667   24.937
 6223.00    2.55438   2.52381   24.978
 6224.00    2.56931   2.53651   26.277
 6225.00    2.55126   2.54478   26.424
 6226.00    2.51304   2.54813   25.147
 6227.00    2.52648   2.54015   24.720
 6228.00    2.53077   2.51306   24.770
 6229.00    2.48769   2.46815   24.863
 6230.00    2.44260   2.42194   25.144
 6231.00    2.42872   2.39872   25.548
 6232.00    2.45677   2.41353   -1.000
 6233.00    2.51784   2.46180   -1.000
 6234.00    2.56785   2.52262   -1.000
 6235.00    2.60034   2.57018   25.174
 6236.00    2.59474   2.58718   24.738
 6237.00    2.56945   2.57301   24.531
 6238.00    2.54475   2.54051   24.616
 6239.00    2.49980   2.50588   24.851
 6240.00    2.46818   2.47942   25.106
 6241.00    2.46741   2.46168   25.369
 6242.00    2.47069   2.44748   25.531
 6243.00    2.45821   2.43472   25.552
 6244.00    2.45145   2.42806   25.667
 6245.00    2.46769   2.43423   25.855
 6246.00    2.49288   2.45642   25.899
 6247.00    2.52469   2.49158   25.775
 6248.00    2.55564   2.52879   25.544
 6249.00    2.56896   2.55221   25.239
 6250.00    2.56422   2.54999   24.953
 6251.00    2.52347   2.52245   24.850
 6252.00    2.48435   2.48249   25.003
 6253.00    2.46624   2.44710   25.398
 6254.00    2.45240   2.42452   25.778
 6255.00    2.43255   2.40989   25.994
 6256.00    2.41536   2.39486   26.097
 6257.00    2.40609   2.38107   26.111
 6258.00    2.40473   2.38105   26.257
 6259.00    2.42941   2.40527   26.507
 6260.00    2.48146   2.45143   26.515
 6261.00    2.53053   2.50592   26.197
 6262.00    2.56719   2.55250   25.791
 6263.00    2.60232   2.57986   25.430
 6264.00    2.60197   2.58627   25.055
 6265.00    2.58446   2.58091   24.833
 6266.00    2.57938   2.57673   24.929
 6267.00    2.58334   2.57856   25.122
 6268.00    2.58467   2.58136   25.106
 6269.00    2.56825   2.58140   24.934
 6270.00    2.57009   2.58251   24.923
 6271.00    2.57740   2.58938   25.050
 6272.00    2.58702   2.59963   25.075
 6273.00    2.60831   2.60504   25.000
 6274.00    2.61275   2.59870   24.929
 6275.00    2.59823   2.58019   24.951
 6276.00    2.58802   2.55459   25.097
 6277.00    2.56074   2.52761   25.298
 6278.00    2.50766   2.50277   25.630
 6279.00    2.44649   2.48309   26.204
 6280.00    2.39550   2.47377   26.761
 6281.00    2.36675   2.48126   27.033
 6282.00    2.36495   2.50724   27.015
 6283.00    2.36839   2.54445   26.695
 6284.00    2.37327   2.58146   -1.000
 6285.00    2.37745   2.61153   -1.000
 6286.00    2.40307   2.63534   -1.000
 6287.00    2.45965   2.65492   25.230
 6288.00    2.52041   2.66691   25.012
 6289.00    2.54922   2.66477   24.816
 6290.00    2.55900   2.64735   24.723
 6291.00    2.55904   2.62294   24.794
 6292.00    2.55540   2.60312   24.984
 6293.00    2.55738   2.59265   25.183
 6294.00    2.55850   2.58611   25.283
 6295.00    2.55895   2.57410   25.311
 6296.00    2.54992   2.55416   25.349
 6297.00    2.57414   2.53475   -1.000
 6298.00    2.65645   2.52539   -1.000
 6299.00    2.78235   2.52460   -1.000
 6300.00    2.97108   2.52292   -1.000
 6301.00    3.27327   2.51751   -1.000
 6302.00    3.64728   2.51668   -1.000
 6303.00    3.82904   2.52862   -1.000
 6304.00    3.63106   2.55257   -1.000
 6305.00    3.23515   2.58249   -1.000
 6306.00    2.89383   2.61369   -1.000
 6307.00    2.71858   2.64234   -1.000
 6308.00    2.67756   2.66175   24.936
 6309.00    2.65020   2.66521   24.719
 6310.00    2.61635   2.65340   24.606
 6311.00    2.59324   2.63445   24.667
 6312.00    2.58128   2.61574   24.819
 6313.00    2.58484   2.59800   24.945
 6314.00    2.57395   2.57825   25.041
 6315.00    2.55022   2.55629   25.096
 6316.00    2.52050   2.53537   25.243
 6317.00    2.50944   2.51956   25.401
 6318.00    2.51617   2.51524   25.417
 6319.00    2.53537   2.52918   25.391
 6320.00    2.56626   2.55930   25.403
 6321.00    2.59093   2.59406   25.364
 6322.00    2.61700   2.62430   25.133
 6323.00    2.63325   2.64932   24.854
 6324.00    2.64818   2.67081   24.705
 6325.00    2.66971   2.68711   24.624
 6326.00    2.67144   2.69616   24.510
 6327.00    2.66594   2.69974   24.409
 6328.00    2.67426   2.70128   24.374
 6329.00    2.68002   2.70235   24.297
 6330.00    2.67948   2.70423   24.256
 6331.00    2.67984   2.70823   24.284
 6332.00    2.67597   2.71006   24.300
 6333.00    2.66264   2.69901   24.254
 6334.00    2.64263   2.66874   24.189
 6335.00    2.62362   2.62830   24.215
 6336.00    2.61091   2.59819   24.283
 6337.00    2.59933   2.59328   24.645
 6338.00    2.61760   2.61199   24.940
 6339.00    2.66327   2.64149   24.806
 6340.00    2.68770   2.66688   24.561
 6341.00    2.68627   2.67637   24.297
 6342.00    2.67840   2.66650   24.118
 6343.00    2.67028   2.64627   24.007
 6344.00    2.64809   2.63252   23.970
 6345.00    2.63482   2.63723   24.113
 6346.00    2.66564   2.65913   24.233
 6347.00    2.69193   2.68842   24.197
 6348.00    2.70302   2.71616   24.088
 6349.00    2.72245   2.73747   23.931
 6350.00    2.72439   2.75009   23.807
 6351.00    2.70353   2.75225   23.777
 6352.00    2.68336   2.74197   23.753
 6353.00    2.66480   2.71978   23.741
 6354.00    2.64162   2.69182   23.814
 6355.00    2.62220   2.66642   23.925
 6356.00    2.61086   2.64566   24.132
 6357.00    2.60795   2.62375   24.379
 6358.00    2.58983   2.59622   24.468
 6359.00    2.56004   2.56628   24.504
 6360.00    2.56491   2.54071   24.702
 6361.00    2.59227   2.52422   -1.000
 6362.00    2.62721   2.52038   -1.000
 6363.00    2.70012   2.53271   -1.000
 6364.00    2.80677   2.56121   -1.000
 6365.00    2.92657   2.60024   -1.000
 6366.00    3.02321   2.64204   -1.000
 6367.00    3.03579   2.68006   -1.000
 6368.00    2.95281   2.70890   -1.000
 6369.00    2.83806   2.72620   -1.000
 6370.00    2.74556   2.73601   23.929
 6371.00    2.70164   2.74628   23.826
 6372.00    2.70908   2.76073   23.815
 6373.00    2.72038   2.77518   23.779
 6374.00    2.72263   2.78350   23.685
 6375.00    2.72396   2.78403   23.681
 6376.00    2.70959   2.77780   23.727
 6377.00    2.69356   2.76534   23.761
 6378.00    2.67336   2.74904   23.836
 6379.00    2.65378   2.73459   23.945
 6380.00    2.64699   2.72737   24.092
 6381.00    2.63575   2.72870   24.217
 6382.00    2.65010   2.73542   24.262
 6383.00    2.67310   2.74280   24.292
 6384.00    2.66810   2.74909   24.311
 6385.00    2.66155   2.75634   24.268
 6386.00    2.65353   2.76605   24.301
 6387.00    2.64402   2.77590   24.391
 6388.00    2.63806   2.78198   24.400
 6389.00    2.62775   2.78085   24.430
 6390.00    2.60956   2.76791   24.512
 6391.00    2.58806   2.73958   24.661
 6392.00    2.55347   2.70130   24.865
 6393.00    2.51219   2.67092   25.110
 6394.00    2.50407   2.66713   25.456
 6395.00    2.52556   2.69150   25.753
 6396.00    2.54631   2.72391   25.796
 6397.00    2.54608   2.73744   25.529
 6398.00    2.51722   2.71935   25.323
 6399.00    2.47368   2.68291   -1.000
 6400.00    2.44015   2.65951   -1.000
 6401.00    2.44304   2.67224   -1.000
 6402.00    2.48261   2.71535   -1.000
 6403.00    2.51622   2.76222   -1.000
 6404.00    2.52930   2.78899   -1.000
 6405.00    2.51875   2.78750   -1.000
 6406.00    2.47732   2.76509   -1.000
 6407.00    2.44675   2.73833   -1.000
 6408.00    2.42263   2.72193   -1.000
 6409.00    2.39839   2.71818   -1.000
 6410.00    2.38106   2.71841   -1.000
 6411.00    2.36809   2.71548   -1.000
 6412.00    2.35431   2.71203   -1.000
 6413.00    2.33361   2.71492   -1.000
 6414.00    2.33603   2.72577   -1.000
 6415.00    2.33615   2.73998   -1.000
 6416.00    2.31678   2.75019   -1.000
 6417.00    2.30298   2.74855   -1.000
 6418.00    2.28249   2.73087   -1.000
 6419.00    2.23975   2.70247   -1.000
 6420.00    2.20055   2.67893   -1.000
 6421.00    2.18896   2.67734   -1.000
 6422.00    2.19831   2.70215   -1.000
 6423.00    2.21430   2.74087   -1.000
 6424.00    2.21861   2.77644   -1.000
 6425.00    2.21340   2.80083   -1.000
 6426.00    2.20221   2.81398   -1.000
 6427.00    2.18153   2.81396   -1.000
 6428.00    2.15051   2.79514   -1.000
