###################################################################
## OUTPUT of StarlightChains_v04.for    [Cid@UFSC - 01/Apr/2007] ##
###################################################################

## Some input info
NGC6652_b_1.cxt                          [arq_obs]
Base.BC03.N                              [arq_base]
NGC6652_b_1.msk                          [arq_masks]
StCv04.C11.config                        [arq_config]
   45                                    [N_base]
    0                                    [N_YAV_components = # of components with extra extinction!]
    0                                    [i_FitPowerLaw (1/0 = Yes/No)]
-9.99                                    [alpha_PowerLaw]
CCM                                      [red_law_option]
 1.458241                                [q_norm = A(l_norm)/A(V)]

## (Re)Sampling Parameters
 3359.00                                 [l_ini (A)]
 6428.00                                 [l_fin (A)]
    1.00                                 [dl    (A)]     (OBS: dl_cushion =    50.00 A)

## Normalization info
 4020.00                                 [l_norm (A) - for base]
 4010.00                                 [llow_norm (A) - window for f_obs]
 4060.00                                 [lupp_norm (A) - window for f_obs]
1.611308E-14                             [fobs_norm (in input units)]

## S/N
 4730.00                                 [llow_SN (A) - window for S/N]
 4780.00                                 [lupp_SN (A) - window for S/N]
  60.034                                 [S/N in S/N window]
  49.598                                 [S/N in norm. window]
  73.857                                 [S/N_err in S/N window]
  61.019                                 [S/N_err in norm. window]
  1.0000                                 [fscale_chi2]

## etc...
  2147483591                             [idum_orig]
  3066                                   [NOl_eff]
  1938                                   [Nl_eff]
  1128    NSIGMA                         [Ntot_cliped & clip_method]
   704480                                [Nglobal_steps]
   7                                     [N_chains]
  11                                     [NEX0s_base = N_base in EX0s-fits]
 0   0   1      173   2.0   7.711E+02    [Clip-Bug, RC-Crash & Burn-In warning-flags, n_censored_weights, wei_nsig_threshold & wei_limit]
     8      8.629      8.629      0.000  [idt_all, wdt_TotTime, wdt_UsrTime & wdt_SysTime (sec)]

## Synthesis Results - Best model ##

 2.17996E+00                             [chi2/Nl_eff]
     1.79690                             [adev (%)]

   101.03499                             [sum-of-x (%)]
 1.88091E-14                             [Flux_tot (units of input spectrum!)]
 3.71673E-10                             [Mini_tot (???)]
 1.91868E-10                             [Mcor_tot (???)]

  25.42                                  [v0_min  (km/s)]
  56.38                                  [vd_min  (km/s)]
 0.1075                                  [AV_min  (mag)]
 0.0000                                  [YAV_min (mag)]

# j     x_j(%)      Mini_j(%)     Mcor_j(%)     age_j(yr)     Z_j      (L/M)_j    YAV?  Mstars   component_j        a/Fe...       SSP_chi2r SSP_adev(%)   SSP_AV   SSP_x(%)
  1      0.0000     0.0000E+00    0.0000E+00    1.000000E+06  0.00400  1.114E-02    0   1.0000   age020_m42            0.0000     2.2444E+02    14.4528   4.0000    70.4605
  2      0.0000     0.0000E+00    0.0000E+00    3.160000E+06  0.00400  4.073E-02    0   0.9999   age045_m42            0.0000     7.3428E+01     9.8477   3.0444    87.6056
  3      0.0000     0.0000E+00    0.0000E+00    5.010000E+06  0.00400  2.534E-02    0   0.9488   age055_m42            0.0000     1.2766E+02    12.9177   3.5610    78.1900
  4      0.0000     0.0000E+00    0.0000E+00    1.000000E+07  0.00400  1.271E-02    0   0.8862   age070_m42            0.0000     1.1382E+02    12.6434   2.7488    82.5082
  5      0.0000     0.0000E+00    0.0000E+00    2.512000E+07  0.00400  5.070E-03    0   0.8174   age090_m42            0.0000     1.0399E+02    12.0400   2.6141    84.0834
  6      0.0000     0.0000E+00    0.0000E+00    4.000000E+07  0.00400  3.505E-03    0   0.7851   age104_m42            0.0000     7.7472E+01    10.1742   2.2632    88.0369
  7      0.0000     0.0000E+00    0.0000E+00    1.015200E+08  0.00400  2.268E-03    0   0.7207   age116_m42            0.0000     1.1714E+02     8.1347   1.8974   110.3316
  8      0.0000     0.0000E+00    0.0000E+00    2.861200E+08  0.00400  1.079E-03    0   0.6613   age125_m42            0.0000     1.1680E+02     8.2358   1.3923   112.9138
  9      3.6096     3.5611E-01    4.2749E-01    6.405400E+08  0.00400  5.077E-04    0   0.6197   age132_m42            0.0000     1.2636E+02     8.5505   1.0025   118.3287
 10      0.9403     1.3323E-01    1.5547E-01    9.047900E+08  0.00400  3.535E-04    0   0.6024   age135_m42            0.0000     7.1723E+01     6.7709   0.8373   114.5627
 11     25.7637     6.7563E+00    7.4810E+00    1.434000E+09  0.00400  1.910E-04    0   0.5716   age139_m42            0.0000     2.2974E+01     4.1819   0.3903   109.7322
 12     30.3777     1.5498E+01    1.6400E+01    2.500000E+09  0.00400  9.818E-05    0   0.5463   age150_m42            0.0000     2.6844E+00     1.7864   0.2287   100.7087
 13      1.9469     2.0669E+00    2.0932E+00    5.000000E+09  0.00400  4.718E-05    0   0.5228   age161_m42            0.0000     7.9019E+00     2.6442   0.1230    95.2227
 14     30.5034     6.9290E+01    6.6844E+01    1.100000E+10  0.00400  2.205E-05    0   0.4980   age185_m42            0.0000     1.8804E+01     3.6895  -0.1131    92.1354
 15      0.0000     0.0000E+00    0.0000E+00    1.300000E+10  0.00400  1.883E-05    0   0.4927   age193_m42            0.0000     2.1869E+01     3.9362  -0.1233    91.7223
 16      0.0000     0.0000E+00    0.0000E+00    1.000000E+06  0.02000  1.989E-02    0   1.0000   age020_m62            0.0000     2.1738E+02    14.4484   4.0000    70.7582
 17      0.0000     0.0000E+00    0.0000E+00    3.160000E+06  0.02000  3.772E-02    0   0.9858   age045_m62            0.0000     1.9099E+02    15.1165   4.0000    71.6097
 18      0.0000     0.0000E+00    0.0000E+00    5.010000E+06  0.02000  3.227E-02    0   0.9342   age055_m62            0.0000     9.7255E+01    11.4347   3.3614    82.8235
 19      0.0000     0.0000E+00    0.0000E+00    1.000000E+07  0.02000  1.011E-02    0   0.8751   age070_m62            0.0000     2.0704E+02    16.5013   2.8928    75.2749
 20      0.0000     0.0000E+00    0.0000E+00    2.512000E+07  0.02000  4.206E-03    0   0.8099   age090_m62            0.0000     1.6966E+02    14.6851   2.8078    76.8705
 21      0.0000     0.0000E+00    0.0000E+00    4.000000E+07  0.02000  3.373E-03    0   0.7799   age104_m62            0.0000     7.2761E+01     9.8013   2.4451    90.7610
 22      0.0000     0.0000E+00    0.0000E+00    1.015200E+08  0.02000  1.878E-03    0   0.7221   age116_m62            0.0000     9.5816E+01     7.9756   1.9956   108.1634
 23      0.0000     0.0000E+00    0.0000E+00    2.861200E+08  0.02000  8.869E-04    0   0.6700   age125_m62            0.0000     2.1706E+02    10.7509   1.2822   122.6878
 24      0.0000     0.0000E+00    0.0000E+00    6.405400E+08  0.02000  3.657E-04    0   0.6322   age132_m62            0.0000     1.2410E+02     8.9435   0.6642   123.4625
 25      0.0000     0.0000E+00    0.0000E+00    9.047900E+08  0.02000  2.312E-04    0   0.6152   age135_m62            0.0000     5.6790E+01     6.3264   0.3827   118.6599
 26      0.0000     7.7689E-06    8.8264E-06    1.434000E+09  0.02000  1.168E-04    0   0.5865   age139_m62            0.0000     6.8278E+00     2.6178   0.1258   106.3756
 27      0.0010     9.1710E-04    9.9664E-04    2.500000E+09  0.02000  5.505E-05    0   0.5610   age150_m62            0.0000     8.4459E+00     3.0074  -0.1968   101.4344
 28      0.0000     0.0000E+00    0.0000E+00    5.000000E+09  0.02000  2.596E-05    0   0.5353   age161_m62            0.0000     2.5978E+01     4.7152  -0.5259   101.0167
 29      0.0000     0.0000E+00    0.0000E+00    1.100000E+10  0.02000  1.169E-05    0   0.5103   age185_m62            0.0000     5.2595E+01     6.5426  -0.9033   102.5258
 30      0.0000     0.0000E+00    0.0000E+00    1.300000E+10  0.02000  9.691E-06    0   0.5047   age193_m62            0.0000     5.8633E+01     6.8623  -0.9498   102.6887
 31      0.0000     0.0000E+00    0.0000E+00    1.000000E+06  0.05000  2.651E-02    0   0.9998   age020_m72            0.0000     2.0771E+02    13.9651   4.0000    71.6944
 32      0.0000     0.0000E+00    0.0000E+00    3.160000E+06  0.05000  4.817E-02    0   0.9577   age045_m72            0.0000     1.4990E+02    13.6252   3.8315    75.8691
 33      0.0000     0.0000E+00    0.0000E+00    5.010000E+06  0.05000  3.101E-02    0   0.9147   age055_m72            0.0000     1.4127E+02    13.3840   3.4656    78.5156
 34      0.0000     0.0000E+00    0.0000E+00    1.000000E+07  0.05000  8.954E-03    0   0.8524   age070_m72            0.0000     1.4241E+02    13.2288   3.7273    76.7039
 35      0.0000     0.0000E+00    0.0000E+00    2.512000E+07  0.05000  4.207E-03    0   0.7902   age090_m72            0.0000     8.5312E+01    10.4405   3.2012    84.7310
 36      0.0000     0.0000E+00    0.0000E+00    4.000000E+07  0.05000  3.198E-03    0   0.7618   age104_m72            0.0000     5.9766E+01     7.1857   2.4716    99.9685
 37      0.0000     0.0000E+00    0.0000E+00    1.015200E+08  0.05000  1.716E-03    0   0.7092   age116_m72            0.0000     1.1363E+02     8.3120   2.0422   109.7705
 38      0.0000     0.0000E+00    0.0000E+00    2.861200E+08  0.05000  7.047E-04    0   0.6618   age125_m72            0.0000     2.0838E+02    10.8567   1.0597   123.5633
 39      0.0000     0.0000E+00    0.0000E+00    6.405400E+08  0.05000  2.633E-04    0   0.6253   age132_m72            0.0000     8.6926E+01     7.8689   0.3105   121.4949
 40      0.0000     0.0000E+00    0.0000E+00    9.047900E+08  0.05000  1.484E-04    0   0.6088   age135_m72            0.0000     1.7952E+01     4.0069  -0.0222   110.1405
 41      6.6683     4.2673E+00    4.8333E+00    1.434000E+09  0.05000  7.827E-05    0   0.5847   age139_m72            0.0000     1.3641E+01     3.7643  -0.3338   103.4790
 42      1.2241     1.6311E+00    1.7641E+00    2.500000E+09  0.05000  3.759E-05    0   0.5583   age150_m72            0.0000     2.9677E+01     5.0490  -0.6231   101.2873
 43      0.0000     0.0000E+00    0.0000E+00    5.000000E+09  0.05000  1.548E-05    0   0.5320   age161_m72            0.0000     5.4640E+01     6.7275  -1.0000   100.0499
 44      0.0000     0.0000E+00    0.0000E+00    1.100000E+10  0.05000  6.532E-06    0   0.5070   age185_m72            0.0000     1.6217E+02    12.0541  -1.0000    93.1845
 45      0.0000     0.0000E+00    0.0000E+00    1.300000E+10  0.05000  5.316E-06    0   0.5018   age193_m72            0.0000     2.2821E+02    14.1668  -1.0000    90.8229


## Synthesis Results - Average & Chains ##

# j      x_j: min, <> & last-chain-values for 1 ...  7 chains
  1      0.0000      0.0051      0.0000      0.0000      0.0000      0.0000      0.0000      0.0000      0.0000
  2      0.0000      0.0403      0.0000      0.1094      0.0000      0.0000      0.0000      0.0000      0.1212
  3      0.0000      0.0036      0.0000      0.0000      0.1236      0.0000      0.0000      0.0000      0.0000
  4      0.0000      0.0306      0.0000      0.0000      0.0000      0.0000      0.0000      0.0000      0.0000
  5      0.0000      0.0188      0.0000      0.0000      0.0000      0.0000      0.0000      0.0000      0.0000
  6      0.0000      0.0115      0.1004      0.0000      0.0000      0.0197      0.0000      0.0967      0.0000
  7      0.0000      0.2488      0.4812      0.5238      0.5333      0.3884      0.2341      0.0916      0.3254
  8      0.0000      0.0676      0.0000      0.0000      0.0000      0.0000      0.0000      0.0115      0.4296
  9      3.6096      5.1643      4.6953      5.1893      5.3177      4.8191      4.5811      5.6985      5.1183
 10      0.9403      1.8280      1.5411      1.0674      1.4769      1.3726      2.1497      1.7732      1.5744
 11     25.7637     33.8973     33.9180     33.7157     33.3270     33.4074     33.4923     31.9021     31.9175
 12     30.3777      4.9028      8.1398      7.7571      6.2263      8.3072      7.5749      8.1249      7.6545
 13      1.9469      2.5377      2.5942      3.6801      3.0538      3.8670      3.3386      3.1682      3.7796
 14     30.5034     44.1324     41.5052     40.9287     42.6362     40.9966     42.7535     42.1860     41.2094
 15      0.0000      0.0937      0.0356      0.0782      0.0000      0.0000      0.0401      0.0000      0.0000
 16      0.0000      0.0021      0.0000      0.0000      0.0000      0.0000      0.0000      0.0000      0.0000
 17      0.0000      0.0019      0.0021      0.0000      0.0000      0.0000      0.0000      0.0000      0.0000
 18      0.0000      0.0055      0.0000      0.0000      0.0000      0.0000      0.0000      0.0000      0.0278
 19      0.0000      0.0073      0.0000      0.0000      0.0000      0.0000      0.0000      0.0000      0.0000
 20      0.0000      0.0034      0.0000      0.0000      0.0000      0.0000      0.0000      0.0000      0.0000
 21      0.0000      0.0085      0.0000      0.0000      0.0000      0.0000      0.0000      0.0000      0.0000
 22      0.0000      0.0343      0.0000      0.0000      0.0278      0.0000      0.0000      0.0000      0.2181
 23      0.0000      0.0220      0.0000      0.0000      0.0000      0.0000      0.0000      0.0000      0.0000
 24      0.0000      0.0580      0.0000      0.0000      0.0000      0.0239      0.0000      0.0000      0.0861
 25      0.0000      0.1186      0.1704      0.3270      0.0000      0.0000      0.2199      0.0000      0.0925
 26      0.0000      0.8809      1.1635      0.5860      0.3921      0.7599      0.2132      0.7389      0.5791
 27      0.0010      1.4861      1.9845      1.4427      1.8807      0.8522      1.3136      1.4877      2.0738
 28      0.0000      0.7034      0.7786      1.1813      0.4547      0.7081      0.2409      1.0144      0.7557
 29      0.0000      0.0958      0.0000      0.0000      0.0000      0.1478      0.0423      0.0000      0.0459
 30      0.0000      0.0727      0.0000      0.0000      0.0000      0.0000      0.3283      0.0000      0.1590
 31      0.0000      0.0018      0.0000      0.0168      0.0000      0.0000      0.0000      0.0000      0.0000
 32      0.0000      0.0111      0.0000      0.0000      0.0000      0.0000      0.0000      0.0000      0.0000
 33      0.0000      0.0030      0.0000      0.0000      0.0000      0.0050      0.0000      0.0000      0.0000
 34      0.0000      0.0048      0.0000      0.0000      0.0000      0.0000      0.0036      0.0000      0.0000
 35      0.0000      0.0040      0.0000      0.0000      0.0000      0.0000      0.0000      0.0000      0.0000
 36      0.0000      0.0092      0.0000      0.0000      0.0521      0.0000      0.0000      0.0000      0.0000
 37      0.0000      0.0561      0.0000      0.0744      0.0000      0.0000      0.0000      0.0000      0.0000
 38      0.0000      0.0219      0.0000      0.0000      0.0000      0.0000      0.0000      0.0000      0.0000
 39      0.0000      0.6631      0.0000      0.1877      0.6221      0.0000      0.5568      0.9808      0.2065
 40      0.0000      0.5736      0.2086      0.0371      0.0000      1.7800      0.9672      0.0000      0.8827
 41      6.6683      2.4602      2.8089      2.6844      4.2223      2.8860      2.2252      3.1092      3.1707
 42      1.2241      0.6666      0.9288      1.4141      0.6529      0.7446      0.7654      0.6787      0.5527
 43      0.0000      0.0302      0.0000      0.0000      0.0022      0.0000      0.0000      0.0000      0.0551
 44      0.0000      0.0166      0.0000      0.0000      0.0000      0.0000      0.0000      0.0000      0.0136
 45      0.0000      0.0167      0.0000      0.0000      0.0000      0.0000      0.0000      0.0000      0.0000

# j      m_j: min, <> & last-chain-values for 1 ...  7 chains
  1  0.0000E+00  3.7112E-05  0.0000E+00  0.0000E+00  0.0000E+00  0.0000E+00  0.0000E+00  0.0000E+00  0.0000E+00
  2  0.0000E+00  7.9571E-05  0.0000E+00  2.2308E-04  0.0000E+00  0.0000E+00  0.0000E+00  0.0000E+00  2.4597E-04
  3  0.0000E+00  1.0790E-05  0.0000E+00  0.0000E+00  3.8121E-04  0.0000E+00  0.0000E+00  0.0000E+00  0.0000E+00
  4  0.0000E+00  1.7145E-04  0.0000E+00  0.0000E+00  0.0000E+00  0.0000E+00  0.0000E+00  0.0000E+00  0.0000E+00
  5  0.0000E+00  2.4389E-04  0.0000E+00  0.0000E+00  0.0000E+00  0.0000E+00  0.0000E+00  0.0000E+00  0.0000E+00
  6  0.0000E+00  2.0635E-04  1.8733E-03  0.0000E+00  0.0000E+00  3.6935E-04  0.0000E+00  1.7850E-03  0.0000E+00
  7  0.0000E+00  6.3535E-03  1.2736E-02  1.3822E-02  1.3964E-02  1.0313E-02  6.0596E-03  2.3982E-03  8.5506E-03
  8  0.0000E+00  3.3290E-03  0.0000E+00  0.0000E+00  0.0000E+00  0.0000E+00  0.0000E+00  5.8221E-04  2.1770E-02
  9  4.2749E-01  5.0663E-01  4.7735E-01  5.2603E-01  5.3481E-01  4.9148E-01  4.5550E-01  5.7294E-01  5.1659E-01
 10  1.5547E-01  2.5037E-01  2.1874E-01  1.5106E-01  2.0737E-01  1.9543E-01  2.9841E-01  2.4890E-01  2.2185E-01
 11  7.4810E+00  8.1532E+00  8.4545E+00  8.3794E+00  8.2178E+00  8.3536E+00  8.1650E+00  7.8642E+00  7.8983E+00
 12  1.6400E+01  2.1926E+00  3.7724E+00  3.5845E+00  2.8545E+00  3.8622E+00  3.4335E+00  3.7239E+00  3.5219E+00
 13  2.0932E+00  2.2601E+00  2.3943E+00  3.3866E+00  2.7882E+00  3.5803E+00  3.0136E+00  2.8917E+00  3.4631E+00
 14  6.6844E+01  8.0109E+01  7.8076E+01  7.6766E+01  7.9341E+01  7.7364E+01  7.8658E+01  7.8481E+01  7.6960E+01
 15  0.0000E+00  1.9714E-01  7.7635E-02  1.6984E-01  0.0000E+00  0.0000E+00  8.5572E-02  0.0000E+00  0.0000E+00
 16  0.0000E+00  8.4362E-06  0.0000E+00  0.0000E+00  0.0000E+00  0.0000E+00  0.0000E+00  0.0000E+00  0.0000E+00
 17  0.0000E+00  3.9245E-06  4.5127E-06  0.0000E+00  0.0000E+00  0.0000E+00  0.0000E+00  0.0000E+00  0.0000E+00
 18  0.0000E+00  1.2850E-05  0.0000E+00  0.0000E+00  0.0000E+00  0.0000E+00  0.0000E+00  0.0000E+00  6.6655E-05
 19  0.0000E+00  5.0972E-05  0.0000E+00  0.0000E+00  0.0000E+00  0.0000E+00  0.0000E+00  0.0000E+00  0.0000E+00
 20  0.0000E+00  5.2382E-05  0.0000E+00  0.0000E+00  0.0000E+00  0.0000E+00  0.0000E+00  0.0000E+00  0.0000E+00
 21  0.0000E+00  1.5876E-04  0.0000E+00  0.0000E+00  0.0000E+00  0.0000E+00  0.0000E+00  0.0000E+00  0.0000E+00
 22  0.0000E+00  1.0594E-03  0.0000E+00  0.0000E+00  8.7941E-04  0.0000E+00  0.0000E+00  0.0000E+00  6.9342E-03
 23  0.0000E+00  1.3352E-03  0.0000E+00  0.0000E+00  0.0000E+00  0.0000E+00  0.0000E+00  0.0000E+00  0.0000E+00
 24  0.0000E+00  8.0576E-03  0.0000E+00  0.0000E+00  0.0000E+00  3.4576E-03  0.0000E+00  0.0000E+00  1.2312E-02
 25  0.0000E+00  2.5372E-02  3.7771E-02  7.2250E-02  0.0000E+00  0.0000E+00  4.7663E-02  0.0000E+00  2.0357E-02
 26  8.8264E-06  3.5552E-01  4.8663E-01  2.4437E-01  1.6224E-01  3.1881E-01  8.7226E-02  3.0562E-01  2.4044E-01
 27  9.9664E-04  1.2172E+00  1.6844E+00  1.2210E+00  1.5792E+00  7.2565E-01  1.0905E+00  1.2488E+00  1.7475E+00
 28  0.0000E+00  1.1657E+00  1.3373E+00  2.0228E+00  7.7246E-01  1.2200E+00  4.0460E-01  1.7229E+00  1.2885E+00
 29  0.0000E+00  3.3613E-01  0.0000E+00  0.0000E+00  0.0000E+00  5.3891E-01  1.5045E-01  0.0000E+00  1.6568E-01
 30  0.0000E+00  3.0415E-01  0.0000E+00  0.0000E+00  0.0000E+00  0.0000E+00  1.3927E+00  0.0000E+00  6.8477E-01
 31  0.0000E+00  5.5256E-06  0.0000E+00  5.2618E-05  0.0000E+00  0.0000E+00  0.0000E+00  0.0000E+00  0.0000E+00
 32  0.0000E+00  1.7668E-05  0.0000E+00  0.0000E+00  0.0000E+00  0.0000E+00  0.0000E+00  0.0000E+00  0.0000E+00
 33  0.0000E+00  7.1843E-06  0.0000E+00  0.0000E+00  0.0000E+00  1.2334E-05  0.0000E+00  0.0000E+00  0.0000E+00
 34  0.0000E+00  3.6897E-05  0.0000E+00  0.0000E+00  0.0000E+00  0.0000E+00  2.7894E-05  0.0000E+00  0.0000E+00
 35  0.0000E+00  6.1082E-05  0.0000E+00  0.0000E+00  0.0000E+00  0.0000E+00  0.0000E+00  0.0000E+00  0.0000E+00
 36  0.0000E+00  1.7705E-04  0.0000E+00  0.0000E+00  1.0226E-03  0.0000E+00  0.0000E+00  0.0000E+00  0.0000E+00
 37  0.0000E+00  1.8643E-03  0.0000E+00  2.5536E-03  0.0000E+00  0.0000E+00  0.0000E+00  0.0000E+00  0.0000E+00
 38  0.0000E+00  1.6553E-03  0.0000E+00  0.0000E+00  0.0000E+00  0.0000E+00  0.0000E+00  0.0000E+00  0.0000E+00
 39  0.0000E+00  1.2656E-01  0.0000E+00  3.7024E-02  1.2174E-01  0.0000E+00  1.0771E-01  1.9186E-01  4.0557E-02
 40  0.0000E+00  1.8914E-01  7.1292E-02  1.2636E-02  0.0000E+00  6.1013E-01  3.2322E-01  0.0000E+00  2.9943E-01
 41  4.8333E+00  1.4771E+00  1.7477E+00  1.6654E+00  2.5989E+00  1.8014E+00  1.3541E+00  1.9132E+00  1.9586E+00
 42  1.7641E+00  7.9574E-01  1.1489E+00  1.7442E+00  7.9900E-01  9.2399E-01  9.2610E-01  8.3032E-01  6.7878E-01
 43  0.0000E+00  8.3486E-02  0.0000E+00  0.0000E+00  6.1845E-03  0.0000E+00  0.0000E+00  0.0000E+00  1.5666E-01
 44  0.0000E+00  1.0327E-01  0.0000E+00  0.0000E+00  0.0000E+00  0.0000E+00  0.0000E+00  0.0000E+00  8.7179E-02
 45  0.0000E+00  1.2672E-01  0.0000E+00  0.0000E+00  0.0000E+00  0.0000E+00  0.0000E+00  0.0000E+00  0.0000E+00

# AV, chi2 & Mass for <> & i_chain = 1 ...  7 solutions
AV       0.1075      0.0939      0.0961      0.0966      0.0954      0.0952      0.0942      0.0946      0.0977
chi2 2.1800E+00  2.2384E+00  2.2219E+00  2.2220E+00  2.2271E+00  2.2209E+00  2.2287E+00  2.2263E+00  2.2264E+00
Mass 1.9187E-10  2.2743E-10  2.2012E-10  2.2092E-10  2.2229E-10  2.1914E-10  2.2448E-10  2.2213E-10  2.2220E-10
  25.42                                  [v0_min (km/s) before EX0s...]
  56.38                                  [vd_min (km/s) before EX0s...]


## Synthetic spectrum (Best Model) ##l_obs f_obs f_syn wei
 3070    [Nl_obs]
 3359.00    0.00000   0.42094   -2.000
 3360.00    0.00000   0.38066   -2.000
 3361.00    0.08722   0.36519   -1.000
 3362.00    0.19619   0.38336   -1.000
 3363.00    0.22105   0.42437   -1.000
 3364.00    0.24578   0.46454   -1.000
 3365.00    0.25644   0.48410   -1.000
 3366.00    0.25275   0.47546   -1.000
 3367.00    0.24760   0.44506   -1.000
 3368.00    0.24040   0.41341   -1.000
 3369.00    0.22535   0.39465   -1.000
 3370.00    0.21673   0.38769   -1.000
 3371.00    0.22179   0.38431   -1.000
 3372.00    0.22320   0.38238   -1.000
 3373.00    0.23372   0.39227   -1.000
 3374.00    0.25270   0.42025   -1.000
 3375.00    0.27115   0.46165   -1.000
 3376.00    0.28642   0.49599   -1.000
 3377.00    0.29945   0.50163   -1.000
 3378.00    0.30573   0.47874   -1.000
 3379.00    0.29365   0.44394   -1.000
 3380.00    0.28472   0.42005   -1.000
 3381.00    0.28157   0.41847   -1.000
 3382.00    0.29422   0.43656   -1.000
 3383.00    0.30451   0.45865   -1.000
 3384.00    0.29897   0.47392   -1.000
 3385.00    0.31210   0.48682   -1.000
 3386.00    0.32402   0.49797   -1.000
 3387.00    0.32089   0.50177   -1.000
 3388.00    0.32680   0.49976   -1.000
 3389.00    0.34781   0.49660   -1.000
 3390.00    0.37344   0.49201   -1.000
 3391.00    0.38156   0.48175   -1.000
 3392.00    0.36737   0.46375   -1.000
 3393.00    0.35382   0.44892   -1.000
 3394.00    0.35185   0.45179   -1.000
 3395.00    0.36308   0.47326   -1.000
 3396.00    0.38432   0.50346   -1.000
 3397.00    0.40383   0.53180   -1.000
 3398.00    0.42166   0.55178   -1.000
 3399.00    0.43544   0.55895   -1.000
 3400.00    0.43864   0.55246   -1.000
 3401.00    0.44029   0.53648   -1.000
 3402.00    0.43850   0.51627   -1.000
 3403.00    0.42498   0.49802   -1.000
 3404.00    0.41407   0.48811   -1.000
 3405.00    0.40950   0.48396   -1.000
 3406.00    0.39804   0.47774   -1.000
 3407.00    0.39026   0.46777   -1.000
 3408.00    0.38861   0.45984   -1.000
 3409.00    0.39119   0.46279   -1.000
 3410.00    0.40438   0.47569   -1.000
 3411.00    0.41234   0.48585   -1.000
 3412.00    0.40851   0.48298   -1.000
 3413.00    0.39924   0.46882   -1.000
 3414.00    0.38735   0.45652   -1.000
 3415.00    0.38328   0.45569   -1.000
 3416.00    0.38613   0.46714   -1.000
 3417.00    0.40112   0.48631   -1.000
 3418.00    0.42711   0.50885   -1.000
 3419.00    0.44273   0.53064   -1.000
 3420.00    0.45409   0.54511   -1.000
 3421.00    0.45805   0.54561   -1.000
 3422.00    0.44452   0.53548   -1.000
 3423.00    0.43363   0.52251   -1.000
 3424.00    0.43468   0.51336   -1.000
 3425.00    0.44126   0.51079   -1.000
 3426.00    0.44704   0.51340   -1.000
 3427.00    0.45630   0.52253   -1.000
 3428.00    0.45915   0.54323   -1.000
 3429.00    0.46529   0.56580   -1.000
 3430.00    0.48206   0.57436   -1.000
 3431.00    0.49023   0.56246   -1.000
 3432.00    0.47847   0.53892   -1.000
 3433.00    0.46434   0.52035   -1.000
 3434.00    0.46714   0.51553   -1.000
 3435.00    0.47451   0.52295   -1.000
 3436.00    0.47557   0.52949   -1.000
 3437.00    0.46832   0.52572   -1.000
 3438.00    0.44328   0.50822   -1.000
 3439.00    0.41536   0.47823   -1.000
 3440.00    0.39991   0.43964   -1.000
 3441.00    0.38827   0.40538  186.920
 3442.00    0.37912   0.39055  198.688
 3443.00    0.37810   0.39652  203.267
 3444.00    0.38339   0.41265   -1.000
 3445.00    0.40134   0.43107   -1.000
 3446.00    0.42868   0.45338   -1.000
 3447.00    0.44813   0.48336   -1.000
 3448.00    0.45579   0.51586   -1.000
 3449.00    0.47077   0.54005   -1.000
 3450.00    0.49025   0.54710   -1.000
 3451.00    0.49939   0.53540   -1.000
 3452.00    0.48636   0.51104   -1.000
 3453.00    0.46915   0.49255   -1.000
 3454.00    0.47397   0.49176   -1.000
 3455.00    0.48848   0.50344   -1.000
 3456.00    0.49892   0.51270   -1.000
 3457.00    0.49751   0.50629   -1.000
 3458.00    0.48605   0.48870  771.054
 3459.00    0.46934   0.47025  771.054
 3460.00    0.45578   0.45495  336.287
 3461.00    0.44276   0.44916  164.282
 3462.00    0.44707   0.46180  165.084
 3463.00    0.47022   0.48517   -1.000
 3464.00    0.49319   0.50234   -1.000
 3465.00    0.50987   0.50679   -1.000
 3466.00    0.50931   0.50407   -1.000
 3467.00    0.50116   0.50678   -1.000
 3468.00    0.50963   0.51757   -1.000
 3469.00    0.53016   0.53040  771.054
 3470.00    0.54114   0.53825   -1.000
 3471.00    0.53948   0.53649  771.054
 3472.00    0.52945   0.52341   -1.000
 3473.00    0.51281   0.50046   -1.000
 3474.00    0.49401   0.47015   -1.000
 3475.00    0.47276   0.44303   -1.000
 3476.00    0.44748   0.43386   -1.000
 3477.00    0.44739   0.44815  167.260
 3478.00    0.47310   0.47551  169.320
 3479.00    0.49694   0.50173  266.156
 3480.00    0.50825   0.51740   -1.000
 3481.00    0.51903   0.52035  771.054
 3482.00    0.52375   0.51422   -1.000
 3483.00    0.52024   0.50395   -1.000
 3484.00    0.50907   0.49755   -1.000
 3485.00    0.50788   0.50405  771.054
 3486.00    0.52850   0.52480   -1.000
 3487.00    0.54425   0.54046   -1.000
 3488.00    0.54792   0.53367   -1.000
 3489.00    0.53876   0.50776   -1.000
 3490.00    0.50915   0.48109   -1.000
 3491.00    0.48702   0.47065   -1.000
 3492.00    0.47908   0.47474   -1.000
 3493.00    0.48295   0.48194   -1.000
 3494.00    0.49452   0.48181   -1.000
 3495.00    0.50032   0.47272   -1.000
 3496.00    0.49056   0.46268   -1.000
 3497.00    0.48423   0.46613   -1.000
 3498.00    0.49980   0.49034   -1.000
 3499.00    0.53057   0.51835   -1.000
 3500.00    0.56142   0.53396   -1.000
 3501.00    0.58026   0.53942   -1.000
 3502.00    0.58245   0.54361   -1.000
 3503.00    0.57849   0.55037   -1.000
 3504.00    0.57158   0.55119   -1.000
 3505.00    0.55815   0.54120   -1.000
 3506.00    0.55147   0.52945   -1.000
 3507.00    0.55641   0.52407   -1.000
 3508.00    0.55900   0.52356   -1.000
 3509.00    0.56164   0.52086   -1.000
 3510.00    0.56111   0.51210   -1.000
 3511.00    0.54481   0.50083   -1.000
 3512.00    0.52892   0.49065   -1.000
 3513.00    0.52497   0.47859   -1.000
 3514.00    0.51882   0.47297   -1.000
 3515.00    0.51859   0.48562   -1.000
 3516.00    0.53985   0.51451   -1.000
 3517.00    0.56949   0.54688   -1.000
 3518.00    0.58322   0.56373   -1.000
 3519.00    0.57570   0.55777   -1.000
 3520.00    0.54850   0.53386   -1.000
 3521.00    0.53181   0.50604   -1.000
 3522.00    0.51663   0.48414   -1.000
 3523.00    0.49503   0.46343   -1.000
 3524.00    0.47571   0.44313   -1.000
 3525.00    0.45449   0.43078   -1.000
 3526.00    0.44988   0.43573  165.566
 3527.00    0.47220   0.46191  168.730
 3528.00    0.49958   0.49834  259.619
 3529.00    0.53223   0.52768   -1.000
 3530.00    0.55874   0.53991   -1.000
 3531.00    0.56346   0.53769   -1.000
 3532.00    0.55442   0.53209   -1.000
 3533.00    0.55346   0.53468   -1.000
 3534.00    0.56351   0.54572   -1.000
 3535.00    0.56126   0.55621   -1.000
 3536.00    0.56746   0.56133   -1.000
 3537.00    0.57331   0.56540   -1.000
 3538.00    0.57091   0.57424  771.054
 3539.00    0.57817   0.58495   -1.000
 3540.00    0.58304   0.58648   -1.000
 3541.00    0.57854   0.57839  771.054
 3542.00    0.57427   0.57424  771.054
 3543.00    0.56814   0.57883   -1.000
 3544.00    0.57000   0.58790   -1.000
 3545.00    0.57511   0.59279   -1.000
 3546.00    0.56429   0.58918   -1.000
 3547.00    0.55175   0.58236   -1.000
 3548.00    0.54826   0.57863   -1.000
 3549.00    0.55449   0.58039   -1.000
 3550.00    0.55456   0.58378   -1.000
 3551.00    0.55838   0.58376   -1.000
 3552.00    0.55729   0.57607   -1.000
 3553.00    0.53636   0.56381   -1.000
 3554.00    0.52271   0.55542   -1.000
 3555.00    0.52234   0.55473   -1.000
 3556.00    0.53323   0.55876   -1.000
 3557.00    0.53636   0.55934   -1.000
 3558.00    0.53549   0.55343   -1.000
 3559.00    0.52638   0.54761   -1.000
 3560.00    0.52595   0.55078   -1.000
 3561.00    0.53840   0.56580   -1.000
 3562.00    0.54559   0.58185   -1.000
 3563.00    0.55097   0.58041   -1.000
 3564.00    0.53419   0.54626   -1.000
 3565.00    0.48816   0.49807   -1.000
 3566.00    0.46165   0.46877  370.246
 3567.00    0.45751   0.46343  167.435
 3568.00    0.45554   0.46475  170.940
 3569.00    0.45336   0.45410  169.295
 3570.00    0.44724   0.43689  170.874
 3571.00    0.45079   0.43540   -1.000
 3572.00    0.46802   0.45165   -1.000
 3573.00    0.48587   0.47092   -1.000
 3574.00    0.49760   0.48177   -1.000
 3575.00    0.50297   0.48420   -1.000
 3576.00    0.50468   0.48604   -1.000
 3577.00    0.50781   0.48809   -1.000
 3578.00    0.50017   0.48229   -1.000
 3579.00    0.47911   0.46177   -1.000
 3580.00    0.45104   0.43231   -1.000
 3581.00    0.42531   0.40868   -1.000
 3582.00    0.41313   0.40087   -1.000
 3583.00    0.42021   0.40685   -1.000
 3584.00    0.41598   0.40948  195.642
 3585.00    0.39622   0.39922  197.974
 3586.00    0.38736   0.38752  203.584
 3587.00    0.39348   0.38717  208.902
 3588.00    0.41282   0.40407  206.619
 3589.00    0.43637   0.43427  195.852
 3590.00    0.46525   0.46972  185.781
 3591.00    0.50255   0.50071  173.800
 3592.00    0.53024   0.51880   -1.000
 3593.00    0.53721   0.52383   -1.000
 3594.00    0.54524   0.52618   -1.000
 3595.00    0.55246   0.53836   -1.000
 3596.00    0.56566   0.55850   -1.000
 3597.00    0.58492   0.57719   -1.000
 3598.00    0.59781   0.59134   -1.000
 3599.00    0.60191   0.59944  771.054
 3600.00    0.59471   0.59728  771.054
 3601.00    0.58348   0.58035  771.054
 3602.00    0.56583   0.55062   -1.000
 3603.00    0.54186   0.52011   -1.000
 3604.00    0.52721   0.50133   -1.000
 3605.00    0.52526   0.49891   -1.000
 3606.00    0.52678   0.50321   -1.000
 3607.00    0.52568   0.50071   -1.000
 3608.00    0.51524   0.48727   -1.000
 3609.00    0.49363   0.47287   -1.000
 3610.00    0.49557   0.47491   -1.000
 3611.00    0.51352   0.49093   -1.000
 3612.00    0.52164   0.50645   -1.000
 3613.00    0.52880   0.51844   -1.000
 3614.00    0.53804   0.53122   -1.000
 3615.00    0.54518   0.54557  771.054
 3616.00    0.55197   0.54780   -1.000
 3617.00    0.54007   0.51981   -1.000
 3618.00    0.50040   0.47916   -1.000
 3619.00    0.47294   0.45990   -1.000
 3620.00    0.48179   0.47395   -1.000
 3621.00    0.51296   0.50697  237.159
 3622.00    0.54118   0.53730   -1.000
 3623.00    0.56666   0.55580   -1.000
 3624.00    0.58775   0.56947   -1.000
 3625.00    0.60550   0.59084   -1.000
 3626.00    0.62143   0.61933   -1.000
 3627.00    0.62749   0.64335   -1.000
 3628.00    0.62941   0.64699   -1.000
 3629.00    0.60475   0.61626   -1.000
 3630.00    0.55443   0.56124   -1.000
 3631.00    0.50669   0.51022   -1.000
 3632.00    0.48469   0.48870   -1.000
 3633.00    0.49121   0.49762   -1.000
 3634.00    0.50461   0.51864   -1.000
 3635.00    0.51845   0.53557   -1.000
 3636.00    0.53747   0.54587   -1.000
 3637.00    0.56385   0.55940   -1.000
 3638.00    0.58599   0.58063   -1.000
 3639.00    0.60238   0.60518  771.054
 3640.00    0.61467   0.62019  771.054
 3641.00    0.60585   0.61556   -1.000
 3642.00    0.58293   0.59429   -1.000
 3643.00    0.56576   0.56700  771.054
 3644.00    0.55019   0.54582   -1.000
 3645.00    0.53269   0.53450  771.054
 3646.00    0.52384   0.52578  771.054
 3647.00    0.51596   0.51710  771.054
 3648.00    0.52014   0.51349   -1.000
 3649.00    0.53193   0.51880   -1.000
 3650.00    0.55002   0.53396   -1.000
 3651.00    0.57032   0.55826   -1.000
 3652.00    0.59074   0.58498   -1.000
 3653.00    0.60880   0.60715  302.323
 3654.00    0.62096   0.62107  120.386
 3655.00    0.62366   0.62852  117.896
 3656.00    0.63255   0.63754  116.699
 3657.00    0.63654   0.64934  115.990
 3658.00    0.64700   0.65825  114.682
 3659.00    0.64700   0.66193  113.229
 3660.00    0.65283   0.66065  111.983
 3661.00    0.65130   0.65334  112.088
 3662.00    0.64322   0.64121  112.501
 3663.00    0.62749   0.62748  113.756
 3664.00    0.61751   0.61865  115.223
 3665.00    0.61847   0.61806  116.844
 3666.00    0.62426   0.62026  116.928
 3667.00    0.62363   0.61785  115.978
 3668.00    0.62109   0.60638  116.871
 3669.00    0.61202   0.59561  118.984
 3670.00    0.60438   0.59802  120.822
 3671.00    0.61029   0.61330  122.573
 3672.00    0.63067   0.63124  120.409
 3673.00    0.64243   0.64063  116.540
 3674.00    0.64607   0.63993  114.877
 3675.00    0.63869   0.63029  114.625
 3676.00    0.62900   0.61256  114.700
 3677.00    0.60957   0.59147  116.052
 3678.00    0.59327   0.57174  119.716
 3679.00    0.59001   0.55888   -1.000
 3680.00    0.59244   0.55522   -1.000
 3681.00    0.59842   0.56007   -1.000
 3682.00    0.60163   0.57193   -1.000
 3683.00    0.60365   0.58318   -1.000
 3684.00    0.60335   0.58331  121.273
 3685.00    0.59335   0.56568   -1.000
 3686.00    0.57167   0.54035   -1.000
 3687.00    0.55489   0.52526   -1.000
 3688.00    0.56309   0.53193   -1.000
 3689.00    0.58710   0.55858   -1.000
 3690.00    0.61448   0.59425   -1.000
 3691.00    0.64340   0.62195   -1.000
 3692.00    0.64281   0.63000  114.207
 3693.00    0.63321   0.62505  112.214
 3694.00    0.63293   0.61750  113.861
 3695.00    0.63055   0.61127  116.550
 3696.00    0.63511   0.60839   -1.000
 3697.00    0.64395   0.61415   -1.000
 3698.00    0.65087   0.63364  115.534
 3699.00    0.67093   0.66078  113.321
 3700.00    0.69434   0.67886  109.838
 3701.00    0.69813   0.67409  107.495
 3702.00    0.66782   0.63977   -1.000
 3703.00    0.62270   0.58706   -1.000
 3704.00    0.56882   0.53450   -1.000
 3705.00    0.53664   0.50128   -1.000
 3706.00    0.53520   0.49404   -1.000
 3707.00    0.54254   0.50171   -1.000
 3708.00    0.56255   0.51395   -1.000
 3709.00    0.57533   0.52672   -1.000
 3710.00    0.58599   0.53960   -1.000
 3711.00    0.59718   0.55799   -1.000
 3712.00    0.62810   0.58925   -1.000
 3713.00    0.66501   0.62809   -1.000
 3714.00    0.69508   0.66161   -1.000
 3715.00    0.71035   0.67919   -1.000
 3716.00    0.71219   0.67704   -1.000
 3717.00    0.69776   0.65463   -1.000
 3718.00    0.65482   0.61155   -1.000
 3719.00    0.58114   0.54660   -1.000
 3720.00    0.51802   0.47964   -1.000
 3721.00    0.48064   0.44025   -1.000
 3722.00    0.47912   0.44421   43.819
 3723.00    0.52065   0.48673   22.809
 3724.00    0.58330   0.54666   -1.000
 3725.00    0.63358   0.59319   -1.000
 3726.00    0.65392   0.60917   -1.000
 3727.00    0.63936   0.60814   -1.000
 3728.00    0.62930   0.60987  119.989
 3729.00    0.63720   0.61574  123.082
 3730.00    0.64225   0.61255   -1.000
 3731.00    0.61971   0.58455   -1.000
 3732.00    0.57329   0.53086   -1.000
 3733.00    0.51625   0.46581   -1.000
 3734.00    0.46032   0.41026   42.728
 3735.00    0.42492   0.38185   16.820
 3736.00    0.42228   0.38994   18.448
 3737.00    0.45720   0.43079   18.622
 3738.00    0.51816   0.49463   17.413
 3739.00    0.58093   0.56226   22.119
 3740.00    0.63143   0.61286   -1.000
 3741.00    0.65385   0.63431   -1.000
 3742.00    0.64719   0.62685  121.614
 3743.00    0.61994   0.59750  122.625
 3744.00    0.58574   0.55974   -1.000
 3745.00    0.55227   0.52604   -1.000
 3746.00    0.52253   0.49722   -1.000
 3747.00    0.49625   0.46575   -1.000
 3748.00    0.46252   0.42771   44.764
 3749.00    0.43269   0.40128   16.806
 3750.00    0.44242   0.40915   17.633
 3751.00    0.50280   0.45490   24.032
 3752.00    0.57487   0.52221   -1.000
 3753.00    0.63368   0.59173   -1.000
 3754.00    0.68353   0.64786   -1.000
 3755.00    0.71710   0.67791   -1.000
 3756.00    0.70472   0.67015   -1.000
 3757.00    0.66619   0.63112   -1.000
 3758.00    0.60994   0.58691  118.718
 3759.00    0.57300   0.56358  134.039
 3760.00    0.58645   0.56936  144.574
 3761.00    0.61854   0.58785   -1.000
 3762.00    0.64245   0.60203   -1.000
 3763.00    0.65209   0.60963   -1.000
 3764.00    0.65119   0.61127   -1.000
 3765.00    0.64953   0.60431   -1.000
 3766.00    0.64814   0.58932   -1.000
 3767.00    0.62105   0.57085   -1.000
 3768.00    0.60362   0.55242   -1.000
 3769.00    0.59908   0.53547   -1.000
 3770.00    0.59188   0.52443   -1.000
 3771.00    0.59173   0.53065   -1.000
 3772.00    0.61317   0.55982   -1.000
 3773.00    0.66193   0.59794   -1.000
 3774.00    0.68497   0.62835   -1.000
 3775.00    0.68644   0.64792   -1.000
 3776.00    0.70871   0.66294   -1.000
 3777.00    0.72341   0.68005   -1.000
 3778.00    0.73253   0.70135   -1.000
 3779.00    0.74036   0.72529  111.650
 3780.00    0.76046   0.74704  109.419
 3781.00    0.78268   0.76277  106.026
 3782.00    0.78853   0.77266  104.077
 3783.00    0.78976   0.77653  103.423
 3784.00    0.78987   0.76851  102.991
 3785.00    0.76527   0.74159  103.714
 3786.00    0.72380   0.70219  107.022
 3787.00    0.69186   0.66535  113.450
 3788.00    0.66546   0.64112  121.280
 3789.00    0.65827   0.63160   -1.000
 3790.00    0.66430   0.63236   -1.000
 3791.00    0.66251   0.63424   -1.000
 3792.00    0.65602   0.62608   -1.000
 3793.00    0.63983   0.60379   -1.000
 3794.00    0.60652   0.57248   -1.000
 3795.00    0.58573   0.53929   -1.000
 3796.00    0.55710   0.50590   -1.000
 3797.00    0.51838   0.47171   -1.000
 3798.00    0.49698   0.45017   -1.000
 3799.00    0.51302   0.46374   -1.000
 3800.00    0.57142   0.51135   -1.000
 3801.00    0.63016   0.57602   -1.000
 3802.00    0.67510   0.63689   -1.000
 3803.00    0.71176   0.67951   -1.000
 3804.00    0.73344   0.70014   -1.000
 3805.00    0.72904   0.70001   -1.000
 3806.00    0.70788   0.68677  115.071
 3807.00    0.69551   0.68061  117.595
 3808.00    0.70255   0.69636  121.552
 3809.00    0.73217   0.72652  122.334
 3810.00    0.74219   0.75337  118.592
 3811.00    0.74571   0.75956  114.843
 3812.00    0.72965   0.73862  114.569
 3813.00    0.69283   0.69755  117.927
 3814.00    0.65220   0.65302  124.661
 3815.00    0.62596   0.62570  132.375
 3816.00    0.62859   0.62685  139.811
 3817.00    0.64260   0.64250  143.736
 3818.00    0.65645   0.64799  140.247
 3819.00    0.64172   0.63106  136.891
 3820.00    0.60788   0.60353  141.246
 3821.00    0.59591   0.59153  150.717
 3822.00    0.60986   0.59684  155.418
 3823.00    0.61968   0.59728   -1.000
 3824.00    0.59227   0.57835  145.987
 3825.00    0.54896   0.54626  150.439
 3826.00    0.53275   0.51976   50.471
 3827.00    0.52713   0.50726   17.154
 3828.00    0.52666   0.50498   17.382
 3829.00    0.52297   0.50366   17.188
 3830.00    0.51601   0.49496   16.906
 3831.00    0.50194   0.47436   16.756
 3832.00    0.46344   0.44293   17.116
 3833.00    0.43281   0.40786   18.059
 3834.00    0.42018   0.38164   19.296
 3835.00    0.41934   0.37328   19.612
 3836.00    0.43012   0.38050   19.097
 3837.00    0.43807   0.39352   18.409
 3838.00    0.42980   0.40572   18.217
 3839.00    0.43748   0.42212   18.636
 3840.00    0.47407   0.45346   18.883
 3841.00    0.51650   0.50097   18.330
 3842.00    0.57150   0.55706   22.597
 3843.00    0.61858   0.60863  154.776
 3844.00    0.65121   0.64410  141.238
 3845.00    0.66737   0.66502  133.999
 3846.00    0.66852   0.68145  132.251
 3847.00    0.66995   0.69744   -1.000
 3848.00    0.67398   0.70455   -1.000
 3849.00    0.66612   0.70116   -1.000
 3850.00    0.64871   0.69787   -1.000
 3851.00    0.65317   0.70340   -1.000
 3852.00    0.67347   0.71743   -1.000
 3853.00    0.68577   0.72738   -1.000
 3854.00    0.67241   0.72194   -1.000
 3855.00    0.66076   0.70591   -1.000
 3856.00    0.64602   0.68761   -1.000
 3857.00    0.63139   0.66688   -1.000
 3858.00    0.61474   0.64363   -1.000
 3859.00    0.57743   0.62556   49.745
 3860.00    0.56279   0.62770   16.396
 3861.00    0.59528   0.65428   17.087
 3862.00    0.65634   0.69527   21.390
 3863.00    0.70745   0.72794  146.178
 3864.00    0.71983   0.73719  133.377
 3865.00    0.70649   0.73273   -1.000
 3866.00    0.69424   0.72701   -1.000
 3867.00    0.69410   0.72425   -1.000
 3868.00    0.68996   0.72238   -1.000
 3869.00    0.66497   0.71275   -1.000
 3870.00    0.62938   0.68972   -1.000
 3871.00    0.60141   0.65768   -1.000
 3872.00    0.58864   0.63354   51.785
 3873.00    0.60999   0.63160   20.800
 3874.00    0.65162   0.65496  154.729
 3875.00    0.68154   0.68347  140.217
 3876.00    0.68560   0.68889  129.391
 3877.00    0.65578   0.66746  126.753
 3878.00    0.61229   0.63938   -1.000
 3879.00    0.60296   0.62466  143.296
 3880.00    0.61247   0.62378  150.849
 3881.00    0.60473   0.62503  151.508
 3882.00    0.58571   0.62121   -1.000
 3883.00    0.59176   0.61224  154.396
 3884.00    0.62250   0.59756   -1.000
 3885.00    0.62168   0.57095   -1.000
 3886.00    0.59039   0.52914   -1.000
 3887.00    0.54384   0.48702   -1.000
 3888.00    0.53012   0.46169   -1.000
 3889.00    0.53855   0.46469   -1.000
 3890.00    0.57764   0.49733   -1.000
 3891.00    0.63477   0.54895   -1.000
 3892.00    0.67682   0.59647   -1.000
 3893.00    0.69849   0.62243   -1.000
 3894.00    0.69564   0.63116   -1.000
 3895.00    0.70263   0.63949   -1.000
 3896.00    0.71120   0.65751   -1.000
 3897.00    0.72931   0.67742   -1.000
 3898.00    0.74693   0.68876   -1.000
 3899.00    0.74231   0.69412   -1.000
 3900.00    0.74308   0.70263   -1.000
 3901.00    0.75207   0.71431   -1.000
 3902.00    0.75147   0.72133   -1.000
 3903.00    0.74062   0.71661  107.124
 3904.00    0.73582   0.70198   -1.000
 3905.00    0.71688   0.69039  113.339
 3906.00    0.70830   0.69418  116.192
 3907.00    0.72745   0.71685  118.712
 3908.00    0.77136   0.75311  116.196
 3909.00    0.80232   0.78657  109.004
 3910.00    0.81583   0.80712  102.720
 3911.00    0.83128   0.81824  100.715
 3912.00    0.84415   0.82311   99.826
 3913.00    0.83164   0.82132   98.952
 3914.00    0.81981   0.81419   98.768
 3915.00    0.81345   0.80407  100.175
 3916.00    0.79744   0.79391  102.344
 3917.00    0.78837   0.78386  104.518
 3918.00    0.77881   0.76946  105.834
 3919.00    0.75229   0.74991  107.621
 3920.00    0.72784   0.72890  111.170
 3921.00    0.71718   0.71552  116.234
 3922.00    0.72118   0.71654  121.126
 3923.00    0.72926   0.72640  122.744
 3924.00    0.73022   0.73051  121.295
 3925.00    0.71693   0.71719  119.724
 3926.00    0.68053   0.68506  121.815
 3927.00    0.62242   0.63664  129.213
 3928.00    0.56297   0.57820   -1.000
 3929.00    0.47421   0.51631   -1.000
 3930.00    0.39106   0.44998   18.645
 3931.00    0.33665   0.38034   21.854
 3932.00    0.27656   0.31473   25.619
 3933.00    0.22848   0.26875   30.261
 3934.00    0.21854   0.25796   34.923
 3935.00    0.24224   0.28785   37.082
 3936.00    0.29917   0.34819   34.681
 3937.00    0.37518   0.42409   29.715
 3938.00    0.46779   0.50020   24.517
 3939.00    0.54252   0.56611   20.245
 3940.00    0.59645   0.61733   21.683
 3941.00    0.63661   0.64948  153.965
 3942.00    0.65034   0.66397  143.987
 3943.00    0.65397   0.66878  139.482
 3944.00    0.66772   0.67530  138.524
 3945.00    0.69451   0.69287  136.965
 3946.00    0.73867   0.71695   -1.000
 3947.00    0.76244   0.73442   -1.000
 3948.00    0.75442   0.74362  112.127
 3949.00    0.75900   0.75306  111.086
 3950.00    0.78905   0.76333  109.584
 3951.00    0.80185   0.76791   -1.000
 3952.00    0.78656   0.76755  102.946
 3953.00    0.77612   0.76943  103.709
 3954.00    0.79424   0.77451  104.561
 3955.00    0.81290   0.77228   -1.000
 3956.00    0.79088   0.75865   -1.000
 3957.00    0.76931   0.74631  102.335
 3958.00    0.77399   0.74142   -1.000
 3959.00    0.78058   0.73097   -1.000
 3960.00    0.74600   0.69935   -1.000
 3961.00    0.66957   0.64629   -1.000
 3962.00    0.60488   0.59121  122.242
 3963.00    0.56128   0.54748  137.681
 3964.00    0.52270   0.50809  150.764
 3965.00    0.46633   0.45817   59.985
 3966.00    0.38706   0.38741   17.502
 3967.00    0.30507   0.31122   20.732
 3968.00    0.25144   0.25619   25.567
 3969.00    0.23643   0.23981   30.720
 3970.00    0.27032   0.26422   32.759
 3971.00    0.33694   0.31912   29.577
 3972.00    0.41440   0.38775   24.331
 3973.00    0.49082   0.45954   20.071
 3974.00    0.56495   0.52909   20.985
 3975.00    0.63141   0.59150   -1.000
 3976.00    0.68642   0.64678   -1.000
 3977.00    0.73721   0.69530   -1.000
 3978.00    0.77742   0.74100   -1.000
 3979.00    0.82595   0.78122   -1.000
 3980.00    0.86412   0.80676   -1.000
 3981.00    0.85916   0.81416   -1.000
 3982.00    0.84354   0.81143   -1.000
 3983.00    0.84144   0.81221   93.167
 3984.00    0.85608   0.82224   -1.000
 3985.00    0.88103   0.83699   -1.000
 3986.00    0.88722   0.85189   -1.000
 3987.00    0.89444   0.86726   89.833
 3988.00    0.90237   0.88236   88.336
 3989.00    0.91270   0.89482   86.793
 3990.00    0.92553   0.90452   86.198
 3991.00    0.94903   0.91493   86.380
 3992.00    0.96220   0.92755   85.528
 3993.00    0.96309   0.93570   83.486
 3994.00    0.96271   0.93227   82.018
 3995.00    0.94663   0.91727   83.267
 3996.00    0.91427   0.89840   85.295
 3997.00    0.90676   0.88718   87.197
 3998.00    0.91113   0.89215   88.688
 3999.00    0.93239   0.91081   88.889
 4000.00    0.96955   0.93612   -1.000
 4001.00    0.99012   0.95873   82.577
 4002.00    0.98697   0.96787   80.080
 4003.00    0.99040   0.95683   78.861
 4004.00    0.96017   0.92683   78.223
 4005.00    0.90832   0.89038   80.503
 4006.00    0.89119   0.87413   85.894
 4007.00    0.91807   0.89161   89.367
 4008.00    0.96804   0.92712   -1.000
 4009.00    0.99039   0.95888   82.788
 4010.00    1.00000   0.97641   79.951
 4011.00    1.00795   0.98223   78.985
 4012.00    0.99779   0.98364   78.242
 4013.00    0.98948   0.98575   78.144
 4014.00    1.00088   0.98914   78.705
 4015.00    1.00465   0.99063   78.947
 4016.00    1.00415   0.98920   78.232
 4017.00    0.99182   0.98758   77.417
 4018.00    0.99166   0.99073   78.188
 4019.00    1.00561   0.99853   78.929
 4020.00    1.02117   1.00573   78.361
 4021.00    1.01918   1.00772   77.365
 4022.00    1.00257   1.00487   77.755
 4023.00    0.99096   0.99966   78.809
 4024.00    0.98962   0.99446   79.262
 4025.00    0.99689   0.99605   79.801
 4026.00    1.01468   1.00917   79.967
 4027.00    1.04059   1.02766   77.755
 4028.00    1.04307   1.03205   75.160
 4029.00    1.01925   1.00841   74.046
 4030.00    0.97940   0.96620   75.175
 4031.00    0.93224   0.92453   78.699
 4032.00    0.91268   0.90048   83.843
 4033.00    0.92211   0.89914   86.891
 4034.00    0.93774   0.91638   87.499
 4035.00    0.96598   0.94665   86.025
 4036.00    1.00070   0.98655   82.905
 4037.00    1.04537   1.02786   78.759
 4038.00    1.06761   1.05360   75.065
 4039.00    1.05204   1.05341   72.846
 4040.00    1.03578   1.03849   72.932
 4041.00    1.02917   1.02509   74.573
 4042.00    1.02043   1.01260   76.206
 4043.00    0.99740   0.98553   76.933
 4044.00    0.94606   0.93284   77.825
 4045.00    0.88782   0.88159   82.293
 4046.00    0.87248   0.86942   90.256
 4047.00    0.91783   0.90129   95.397
 4048.00    0.99024   0.95653   -1.000
 4049.00    1.03114   1.00537   81.888
 4050.00    1.03230   1.03092   77.427
 4051.00    1.03219   1.03451   75.491
 4052.00    1.03035   1.02273   74.876
 4053.00    1.00255   1.00236   75.676
 4054.00    0.98591   0.98436   77.794
 4055.00    0.98062   0.97343   79.681
 4056.00    0.97350   0.96400   80.800
 4057.00    0.96849   0.95661   81.412
 4058.00    0.96918   0.95879   82.008
 4059.00    0.98203   0.97492   82.587
 4060.00    1.00346   0.99443   81.229
 4061.00    1.01898   0.99231   78.429
 4062.00    0.98557   0.96010   77.358
 4063.00    0.92070   0.91612   79.419
 4064.00    0.89280   0.88926   85.370
 4065.00    0.92040   0.89119   90.155
 4066.00    0.95039   0.90935   -1.000
 4067.00    0.96243   0.93138   83.962
 4068.00    0.97609   0.95385   81.940
 4069.00    1.01343   0.96671   -1.000
 4070.00    1.00935   0.95759   -1.000
 4071.00    0.95965   0.93333   76.951
 4072.00    0.94369   0.91657   80.200
 4073.00    0.96530   0.92146   -1.000
 4074.00    0.98467   0.93266   -1.000
 4075.00    0.96921   0.92456   -1.000
 4076.00    0.91983   0.89559   79.701
 4077.00    0.86219   0.86570   84.133
 4078.00    0.85390   0.85887   90.784
 4079.00    0.89908   0.88286   92.514
 4080.00    0.95811   0.92633   -1.000
 4081.00    0.99898   0.96245   -1.000
 4082.00    1.00246   0.97079   77.353
 4083.00    0.97943   0.95510   75.616
 4084.00    0.96054   0.93524   77.193
 4085.00    0.95635   0.93163   79.685
 4086.00    0.97347   0.94917   80.506
 4087.00    1.00139   0.97838   79.008
 4088.00    1.03136   1.00218   76.230
 4089.00    1.04788   1.00836   -1.000
 4090.00    1.03170   0.99719   71.390
 4091.00    1.01940   0.97898   -1.000
 4092.00    1.00505   0.96412   -1.000
 4093.00    0.98684   0.95170   74.762
 4094.00    0.98678   0.93464   -1.000
 4095.00    0.94854   0.90840   -1.000
 4096.00    0.92246   0.87694   -1.000
 4097.00    0.89849   0.84679   -1.000
 4098.00    0.87689   0.81496   -1.000
 4099.00    0.85722   0.77145   -1.000
 4100.00    0.79938   0.71312   -1.000
 4101.00    0.73345   0.65992   -1.000
 4102.00    0.69799   0.64179   -1.000
 4103.00    0.74246   0.66980   -1.000
 4104.00    0.83047   0.73155   -1.000
 4105.00    0.89104   0.79728   -1.000
 4106.00    0.93602   0.84483   -1.000
 4107.00    0.94698   0.87321   -1.000
 4108.00    0.95057   0.88754   -1.000
 4109.00    0.93823   0.89328   -1.000
 4110.00    0.91888   0.89861   80.315
 4111.00    0.93161   0.90863   81.869
 4112.00    0.95368   0.92356   82.769
 4113.00    0.97460   0.94232   81.553
 4114.00    0.99576   0.96408   79.737
 4115.00    1.00654   0.98316   78.400
 4116.00    1.02078   0.99173   77.258
 4117.00    1.01493   0.98701   76.665
 4118.00    0.99039   0.97454   77.242
 4119.00    0.96755   0.96335   79.063
 4120.00    0.96765   0.95999   81.560
 4121.00    0.97644   0.96437   82.198
 4122.00    0.97195   0.97102   81.128
 4123.00    0.98427   0.97831   80.412
 4124.00    0.99432   0.98759   80.403
 4125.00    1.00135   0.99557   79.433
 4126.00    1.00809   0.99541   78.145
 4127.00    0.99850   0.98712   78.083
 4128.00    0.97284   0.97857   79.263
 4129.00    0.96743   0.97458   80.873
 4130.00    0.96771   0.96847   81.474
 4131.00    0.94771   0.95152   81.952
 4132.00    0.92689   0.92942   83.199
 4133.00    0.92058   0.91775   85.890
 4134.00    0.93228   0.92829   88.305
 4135.00    0.96013   0.95823   88.059
 4136.00    1.00334   0.99521   84.859
 4137.00    1.02418   1.02671   80.699
 4138.00    1.03436   1.04829   78.281
 4139.00    1.04181   1.05961   77.063
 4140.00    1.03435   1.05390   75.968
 4141.00    1.01818   1.02436   75.917
 4142.00    0.98159   0.98006   77.821
 4143.00    0.92363   0.94076   82.311
 4144.00    0.91111   0.92831   89.105
 4145.00    0.94972   0.94945   92.756
 4146.00    0.99204   0.98335   88.837
 4147.00    1.01833   1.00582   83.651
 4148.00    1.01821   1.00977   80.856
 4149.00    0.99431   1.00560   80.357
 4150.00    0.97845   1.00537   82.057
 4151.00    0.98279   1.00792   84.246
 4152.00    0.98131   1.00496   85.058
 4153.00    0.97092   0.99231   84.397
 4154.00    0.95227   0.97635   84.061
 4155.00    0.94569   0.96846   84.961
 4156.00    0.95799   0.97398   85.980
 4157.00    0.96061   0.98938   83.865
 4158.00    0.98322   1.00863   83.406
 4159.00    1.12408   1.02674   -1.000
 4160.00    1.11024   1.04016   -1.000
 4161.00    1.00432   1.04975   -1.000
 4162.00    0.98802   1.05864   -1.000
 4163.00    1.02606   1.06687   -1.000
 4164.00    1.04335   1.07026   77.639
 4165.00    1.02253   1.06324   -1.000
 4166.00    1.00256   1.04712   -1.000
 4167.00    0.99713   1.03142   80.799
 4168.00    0.99542   1.02421   82.589
 4169.00    1.00745   1.02167   83.630
 4170.00    1.00553   1.00882   82.840
 4171.00    0.96443   0.97869   81.606
 4172.00    0.91574   0.94096   82.948
 4173.00    0.89111   0.91875   -1.000
 4174.00    0.90569   0.92570   92.950
 4175.00    0.93461   0.94986   92.647
 4176.00    0.94447   0.97021   89.182
 4177.00    0.94156   0.98066   -1.000
 4178.00    0.94114   0.99044   -1.000
 4179.00    0.95389   1.00400   -1.000
 4180.00    0.96914   1.01300   -1.000
 4181.00    0.96813   1.01003   -1.000
 4182.00    0.96916   1.00147   84.254
 4183.00    0.97202   1.00073   84.255
 4184.00    0.98482   1.00955   83.230
 4185.00    0.99622   1.01397   81.544
 4186.00    0.97713   1.00494   80.263
 4187.00    0.95157   0.98972   80.688
 4188.00    0.95221   0.98211   83.498
 4189.00    0.96767   0.98811   85.568
 4190.00    0.97962   1.00121   84.574
 4191.00    0.99149   1.01525   82.741
 4192.00    0.99446   1.03027   82.234
 4193.00    1.00852   1.04163   81.045
 4194.00    1.01322   1.03964   79.321
 4195.00    0.98255   1.02061   78.609
 4196.00    0.95176   0.99009   -1.000
 4197.00    0.92761   0.96033   -1.000
 4198.00    0.91591   0.94033   88.090
 4199.00    0.92507   0.93044   89.463
 4200.00    0.94016   0.92921   89.493
 4201.00    0.95023   0.93454   88.421
 4202.00    0.94788   0.94261   87.087
 4203.00    0.95301   0.95402   86.871
 4204.00    0.95579   0.97203   86.220
 4205.00    0.96295   0.99464   84.891
 4206.00    0.99120   1.01739   84.220
 4207.00    1.01103   1.03606   82.488
 4208.00    1.01589   1.04654   80.443
 4209.00    1.01876   1.04820   79.000
 4210.00    1.01805   1.04644   78.720
 4211.00    1.01668   1.04894   79.036
 4212.00    1.01901   1.05447   78.811
 4213.00    1.01294   1.05060   78.324
 4214.00    0.99145   1.03011   79.006
 4215.00    0.95078   1.00354   -1.000
 4216.00    0.92921   0.98800   -1.000
 4217.00    0.96072   0.99352   87.318
 4218.00    1.01401   1.01777   83.903
 4219.00    1.05039   1.04516   78.585
 4220.00    1.05678   1.06167   75.276
 4221.00    1.06343   1.06159   73.339
 4222.00    1.05274   1.04080   72.719
 4223.00    0.99829   0.99552   73.625
 4224.00    0.94197   0.93037   76.945
 4225.00    0.88036   0.86019   82.640
 4226.00    0.80909   0.81048   91.171
 4227.00    0.78987   0.80729  103.283
 4228.00    0.86318   0.85784  110.204
 4229.00    0.96722   0.93185   -1.000
 4230.00    1.02291   0.98901   -1.000
 4231.00    1.02863   1.01372   79.689
 4232.00    1.02269   1.01161   75.966
 4233.00    1.01109   0.99736   75.688
 4234.00    1.00024   0.98176   77.524
 4235.00    0.98535   0.96862   79.485
 4236.00    0.96083   0.95953   80.289
 4237.00    0.95696   0.95755   82.208
 4238.00    0.95996   0.96601   83.520
 4239.00    0.97058   0.98230   82.701
 4240.00    0.99583   0.99998   80.755
 4241.00    1.01495   1.01467   79.617
 4242.00    1.02145   1.02605   78.091
 4243.00    1.02469   1.03620   77.114
 4244.00    1.02548   1.04476   76.738
 4245.00    1.03156   1.04583   75.345
 4246.00    1.02781   1.03134   73.906
 4247.00    0.97921   1.00268   74.975
 4248.00    0.93754   0.97437   78.554
 4249.00    0.93152   0.95958   81.444
 4250.00    0.93856   0.96264   83.383
 4251.00    0.96186   0.97702   84.021
 4252.00    1.00007   0.99069   83.721
 4253.00    1.00787   0.99197   81.195
 4254.00    0.97782   0.98069   79.093
 4255.00    0.96780   0.97574   79.791
 4256.00    0.98122   0.98787   81.854
 4257.00    1.01457   1.00229   80.485
 4258.00    1.01270   0.99677   77.388
 4259.00    0.96925   0.96822   77.104
 4260.00    0.93153   0.94232   80.341
 4261.00    0.92202   0.94540   84.734
 4262.00    0.95912   0.97906   86.483
 4263.00    1.01035   1.02183   82.839
 4264.00    1.03932   1.05284   77.638
 4265.00    1.06234   1.06513   74.136
 4266.00    1.04968   1.06161   72.582
 4267.00    1.03442   1.04788   72.560
 4268.00    1.00375   1.02473   73.894
 4269.00    0.97217   0.99009   76.411
 4270.00    0.93529   0.94769   78.757
 4271.00    0.89807   0.90706   81.951
 4272.00    0.86777   0.88107   87.490
 4273.00    0.88062   0.87784   92.620
 4274.00    0.90455   0.89318   93.184
 4275.00    0.92631   0.92113   90.932
 4276.00    0.95816   0.96095   88.528
 4277.00    0.99698   1.00269   84.364
 4278.00    1.01859   1.02703   78.876
 4279.00    1.00328   1.02411   75.481
 4280.00    0.97493   1.00538   75.788
 4281.00    0.95613   0.99072   79.336
 4282.00    0.95193   0.98880   81.920
 4283.00    0.97252   0.99143   81.928
 4284.00    0.98235   0.98604   80.721
 4285.00    0.95559   0.97325   80.104
 4286.00    0.92648   0.95747   81.301
 4287.00    0.91468   0.93875   83.767
 4288.00    0.89990   0.91414   85.810
 4289.00    0.87309   0.88494   87.085
 4290.00    0.85846   0.86720   90.613
 4291.00    0.86241   0.87628   95.010
 4292.00    0.91405   0.90471   94.718
 4293.00    0.94548   0.93202   89.639
 4294.00    0.93998   0.94190   84.052
 4295.00    0.93123   0.93260   82.760
 4296.00    0.90660   0.91073   83.673
 4297.00    0.87351   0.87861   85.114
 4298.00    0.81322   0.83556   87.200
 4299.00    0.75950   0.79124   91.898
 4300.00    0.72957   0.76116  100.060
 4301.00    0.73678   0.75184  107.180
 4302.00    0.74275   0.75853  107.983
 4303.00    0.75871   0.77241  104.612
 4304.00    0.77404   0.78726  103.108
 4305.00    0.78229   0.79495  101.553
 4306.00    0.77567   0.78645  100.412
 4307.00    0.75512   0.76381  101.056
 4308.00    0.72304   0.74149  104.830
 4309.00    0.69849   0.73716   -1.000
 4310.00    0.71372   0.75731   -1.000
 4311.00    0.74412   0.79094   -1.000
 4312.00    0.78974   0.82689  104.014
 4313.00    0.82673   0.86766   97.209
 4314.00    0.87953   0.91811   92.414
 4315.00    0.94080   0.97912   88.683
 4316.00    1.02295   1.04107   83.357
 4317.00    1.08237   1.08791   75.974
 4318.00    1.09862   1.10883   70.422
 4319.00    1.08455   1.10540   68.178
 4320.00    1.06592   1.08752   68.338
 4321.00    1.05057   1.05769   69.488
 4322.00    1.01509   1.01112   71.121
 4323.00    0.94434   0.94996   73.625
 4324.00    0.88363   0.89027   77.387
 4325.00    0.83341   0.85651   83.285
 4326.00    0.84738   0.86485   90.763
 4327.00    0.91657   0.91314   93.837
 4328.00    0.99854   0.97333   -1.000
 4329.00    1.04374   1.01493   -1.000
 4330.00    1.03245   1.03078   72.499
 4331.00    1.03802   1.03180   71.372
 4332.00    1.05030   1.03271   71.751
 4333.00    1.05397   1.03525   71.280
 4334.00    1.02942   1.03110   69.990
 4335.00    1.03964   1.00985   69.325
 4336.00    1.01106   0.96314   -1.000
 4337.00    0.93989   0.88988   -1.000
 4338.00    0.85763   0.80613   -1.000
 4339.00    0.77644   0.73697   82.964
 4340.00    0.71724   0.70469   90.631
 4341.00    0.74167   0.72094   97.944
 4342.00    0.84578   0.77770   -1.000
 4343.00    0.92140   0.84604   -1.000
 4344.00    0.93478   0.90193   -1.000
 4345.00    0.98230   0.94348   -1.000
 4346.00    1.01693   0.97677   -1.000
 4347.00    1.02101   1.00526   73.488
 4348.00    1.03303   1.02686   72.300
 4349.00    1.04005   1.03235   71.558
 4350.00    1.02107   1.01265   70.378
 4351.00    0.95778   0.97525   70.741
 4352.00    0.90492   0.94733   -1.000
 4353.00    0.93082   0.94946   80.619
 4354.00    0.98380   0.97883   81.346
 4355.00    1.00278   1.01481   77.744
 4356.00    1.02407   1.04013   74.220
 4357.00    1.04928   1.05252   72.019
 4358.00    1.05193   1.05593   70.590
 4359.00    1.02833   1.05644   70.744
 4360.00    1.03011   1.06280   72.385
 4361.00    1.06535   1.07914   73.186
 4362.00    1.09105   1.09788   71.614
 4363.00    1.08539   1.11205   69.393
 4364.00    1.08716   1.12228   68.726
 4365.00    1.10587   1.12522   68.467
 4366.00    1.09253   1.11403   67.668
 4367.00    1.05736   1.09267   67.687
 4368.00    1.03251   1.07236   69.946
 4369.00    1.02510   1.05889   72.516
 4370.00    1.03400   1.05120   73.175
 4371.00    1.04688   1.04395   72.359
 4372.00    1.03868   1.03093   71.939
 4373.00    1.01822   1.00993   71.910
 4374.00    0.99043   0.98693   72.705
 4375.00    0.96551   0.97565   75.851
 4376.00    0.98026   0.98838   78.833
 4377.00    1.03062   1.01885   78.646
 4378.00    1.06274   1.04868   75.181
 4379.00    1.06469   1.06320   71.378
 4380.00    1.07031   1.05363   70.285
 4381.00    1.05658   1.01489   -1.000
 4382.00    0.99275   0.95159   -1.000
 4383.00    0.89824   0.88406   75.755
 4384.00    0.84896   0.84837   84.547
 4385.00    0.87455   0.86716   94.124
 4386.00    0.94329   0.91996   -1.000
 4387.00    1.00851   0.96840   -1.000
 4388.00    1.02352   0.99189   -1.000
 4389.00    1.01907   0.99640   74.937
 4390.00    1.00667   0.99791   75.142
 4391.00    1.01119   1.00541   76.013
 4392.00    1.03336   1.01799   76.207
 4393.00    1.03809   1.02661   74.612
 4394.00    1.02024   1.02714   72.917
 4395.00    1.00654   1.02907   73.565
 4396.00    1.02880   1.04270   75.288
 4397.00    1.07177   1.06162   74.867
 4398.00    1.08318   1.06773   71.220
 4399.00    1.04893   1.05611   69.239
 4400.00    1.01466   1.03918   70.419
 4401.00    1.02349   1.02944   73.150
 4402.00    1.05210   1.02540   75.284
 4403.00    1.04911   1.01341   -1.000
 4404.00    1.00773   0.98973   72.824
 4405.00    0.98220   0.97024   75.667
 4406.00    0.99588   0.96908   80.245
 4407.00    1.01447   0.98380   -1.000
 4408.00    1.01412   1.00414   77.706
 4409.00    1.01183   1.03004   76.683
 4410.00    1.06207   1.06627   76.023
 4411.00    1.10363   1.10167   72.964
 4412.00    1.12011   1.11682   69.815
 4413.00    1.12330   1.10403   67.487
 4414.00    1.08842   1.06932   66.783
 4415.00    1.03226   1.03075   68.761
 4416.00    1.00850   1.01293   72.887
 4417.00    1.04306   1.02850   75.415
 4418.00    1.07767   1.06637   74.798
 4419.00    1.10715   1.10618   72.050
 4420.00    1.13124   1.12891   69.029
 4421.00    1.10924   1.12697   67.136
 4422.00    1.08194   1.11135   67.666
 4423.00    1.07145   1.09775   69.549
 4424.00    1.08402   1.09290   70.766
 4425.00    1.07982   1.09185   70.272
 4426.00    1.06521   1.08885   69.934
 4427.00    1.07227   1.08783   70.235
 4428.00    1.08222   1.09188   70.566
 4429.00    1.08749   1.09744   70.031
 4430.00    1.06965   1.10177   69.759
 4431.00    1.07094   1.10349   70.524
 4432.00    1.08417   1.09968   70.732
 4433.00    1.07145   1.08536   69.838
 4434.00    1.03669   1.06062   69.306
 4435.00    1.02095   1.04132   71.778
 4436.00    1.02778   1.04757   75.375
 4437.00    1.07496   1.08072   76.059
 4438.00    1.13164   1.12127   72.828
 4439.00    1.15026   1.14533   68.255
 4440.00    1.13800   1.14106   65.453
 4441.00    1.10603   1.11190   65.396
 4442.00    1.07038   1.07711   67.595
 4443.00    1.03861   1.06053   70.913
 4444.00    1.04409   1.07314   73.893
 4445.00    1.08662   1.10486   74.008
 4446.00    1.11345   1.13470   71.092
 4447.00    1.12156   1.14991   68.045
 4448.00    1.11872   1.15236   66.828
 4449.00    1.11498   1.15030   66.917
 4450.00    1.10365   1.14720   67.046
 4451.00    1.11316   1.14115   67.825
 4452.00    1.12530   1.12799   68.490
 4453.00    1.10177   1.10137   67.915
 4454.00    1.05697   1.06375   68.423
 4455.00    1.03128   1.03089   71.056
 4456.00    1.03417   1.01780   74.378
 4457.00    1.05401   1.02413   75.837
 4458.00    1.05870   1.03656   74.438
 4459.00    1.05011   1.04495   73.110
 4460.00    1.05510   1.04949   73.214
 4461.00    1.05061   1.05475   73.606
 4462.00    1.05381   1.06445   74.398
 4463.00    1.07767   1.08116   75.056
 4464.00    1.10226   1.10096   73.486
 4465.00    1.11285   1.11458   70.529
 4466.00    1.11256   1.11664   68.912
 4467.00    1.11050   1.10918   68.869
 4468.00    1.08812   1.09870   68.920
 4469.00    1.06791   1.09366   69.736
 4470.00    1.06815   1.10137   71.112
 4471.00    1.10153   1.12236   71.505
 4472.00    1.14759   1.15015   70.456
 4473.00    1.16321   1.17491   68.192
 4474.00    1.17858   1.18933   65.824
 4475.00    1.18184   1.19408   64.051
 4476.00    1.17495   1.19474   63.548
 4477.00    1.19157   1.19405   63.689
 4478.00    1.19162   1.18738   63.107
 4479.00    1.16790   1.16758   62.744
 4480.00    1.12181   1.13518   63.341
 4481.00    1.08193   1.10475   65.757
 4482.00    1.07817   1.09424   68.773
 4483.00    1.09375   1.10907   70.683
 4484.00    1.13453   1.14188   69.815
 4485.00    1.17460   1.17623   66.794
 4486.00    1.18441   1.19533   64.280
 4487.00    1.17268   1.19227   62.932
 4488.00    1.14564   1.17330   63.065
 4489.00    1.11400   1.15115   64.545
 4490.00    1.10692   1.13931   67.067
 4491.00    1.12172   1.14403   68.585
 4492.00    1.15355   1.15746   67.784
 4493.00    1.15459   1.16540   65.935
 4494.00    1.13842   1.15996   64.903
 4495.00    1.11518   1.14989   65.925
 4496.00    1.11177   1.14858   67.986
 4497.00    1.13160   1.15787   69.438
 4498.00    1.15403   1.17093   68.635
 4499.00    1.17401   1.18073   66.225
 4500.00    1.17240   1.18413   64.366
 4501.00    1.15676   1.18513   63.739
 4502.00    1.15637   1.19403   64.524
 4503.00    1.19279   1.21364   64.868
 4504.00    1.21062   1.23627   63.152
 4505.00    1.22377   1.25146   60.959
 4506.00    1.22519   1.25377   59.903
 4507.00    1.21442   1.24639   60.334
 4508.00    1.19629   1.23790   61.593
 4509.00    1.19555   1.23483   62.188
 4510.00    1.21745   1.23609   62.228
 4511.00    1.21204   1.23546   61.741
 4512.00    1.19794   1.22760   61.311
 4513.00    1.18079   1.21404   61.846
 4514.00    1.16495   1.20092   63.087
 4515.00    1.16657   1.19237   64.215
 4516.00    1.17213   1.18924   64.605
 4517.00    1.16170   1.18800   64.275
 4518.00    1.15049   1.18480   64.231
 4519.00    1.15330   1.18288   65.028
 4520.00    1.15987   1.18640   65.405
 4521.00    1.17956   1.19172   64.279
 4522.00    1.16541   1.19101   63.003
 4523.00    1.14228   1.18058   63.207
 4524.00    1.13827   1.16436   64.725
 4525.00    1.13656   1.14678   66.039
 4526.00    1.11206   1.12645   66.599
 4527.00    1.08695   1.10159   67.721
 4528.00    1.06495   1.07726   69.810
 4529.00    1.06031   1.06462   71.783
 4530.00    1.07462   1.06797   72.641
 4531.00    1.09228   1.08029   72.106
 4532.00    1.10118   1.08888   70.830
 4533.00    1.09092   1.08464   69.535
 4534.00    1.07061   1.07240   69.195
 4535.00    1.05655   1.06790   71.147
 4536.00    1.07971   1.08529   73.577
 4537.00    1.13593   1.12363   72.619
 4538.00    1.18833   1.16657   68.470
 4539.00    1.18943   1.19427   64.419
 4540.00    1.16346   1.19994   62.682
 4541.00    1.15866   1.19396   63.286
 4542.00    1.16506   1.18910   64.823
 4543.00    1.16190   1.18827   64.765
 4544.00    1.14856   1.18506   64.289
 4545.00    1.13735   1.17527   64.047
 4546.00    1.13367   1.16292   91.659
 4547.00    1.19372   1.15100   30.305
 4548.00    0.61891   1.13717   -1.000
 4549.00   -0.00749   1.12290    0.000
 4550.00   -0.06087   1.11666    0.000
 4551.00    0.53450   1.12376   -1.000
 4552.00    0.63859   1.13603   -1.000
 4553.00    0.41247   1.14007   -1.000
 4554.00    1.10881   1.13466   67.142
 4555.00    1.09238   1.12985   68.186
 4556.00    1.11202   1.13657   68.823
 4557.00    1.15122   1.15820   67.808
 4558.00    1.18626   1.18592   65.340
 4559.00    1.19374   1.20865   62.706
 4560.00    1.19904   1.22224   61.583
 4561.00    1.20784   1.22648   61.907
 4562.00    1.20027   1.22156   61.878
 4563.00    1.17952   1.20754   61.901
 4564.00    1.14788   1.18848   63.322
 4565.00    1.14509   1.17465   64.908
 4566.00    1.15319   1.17524   66.028
 4567.00    1.17663   1.19051   65.335
 4568.00    1.19924   1.20904   63.686
 4569.00    1.19107   1.21693   61.998
 4570.00    1.17492   1.20890   61.356
 4571.00    1.14243   1.19126   62.008
 4572.00    1.13656   1.17789   63.571
 4573.00    1.15982   1.17976   65.250
 4574.00    1.19078   1.19503   64.827
 4575.00    1.20220   1.21084   62.889
 4576.00    1.19585   1.21820   61.964
 4577.00    1.18366   1.21618   61.980
 4578.00    1.18009   1.20535   62.263
 4579.00    1.16623   1.18599   62.624
 4580.00    1.14027   1.16246   63.680
 4581.00    1.12305   1.14255   65.576
 4582.00    1.12430   1.13294   66.952
 4583.00    1.14024   1.13437   66.808
 4584.00    1.13884   1.14054   65.878
 4585.00    1.13856   1.14483   65.377
 4586.00    1.15052   1.14870   65.554
 4587.00    1.16485   1.15803   65.964
 4588.00    1.18607   1.17377   65.092
 4589.00    1.19053   1.18962   63.400
 4590.00    1.17927   1.19645   62.039
 4591.00    1.16460   1.19049   61.908
 4592.00    1.14893   1.17691   62.788
 4593.00    1.14792   1.16574   63.958
 4594.00    1.15195   1.16345   65.084
 4595.00    1.16037   1.16816   65.183
 4596.00    1.16676   1.17501   64.645
 4597.00    1.17033   1.18148   64.133
 4598.00    1.17402   1.18587   63.950
 4599.00    1.16793   1.18574   63.816
 4600.00    1.16040   1.18051   63.672
 4601.00    1.15129   1.17292   64.208
 4602.00    1.15348   1.16780   64.788
 4603.00    1.15815   1.16796   64.986
 4604.00    1.16502   1.17206   64.328
 4605.00    1.18002   1.17804   63.602
 4606.00    1.18261   1.18554   63.675
 4607.00    1.18044   1.19550   63.581
 4608.00    1.20138   1.20853   62.911
 4609.00    1.22494   1.22266   61.685
 4610.00    1.22757   1.23176   60.364
 4611.00    1.21449   1.22987   59.629
 4612.00    1.20044   1.22049   59.856
 4613.00    1.19110   1.21161   60.663
 4614.00    1.19038   1.20750   61.347
 4615.00    1.20581   1.20809   61.756
 4616.00    1.20523   1.20952   61.481
 4617.00    1.19827   1.20812   60.940
 4618.00    1.19363   1.20407   60.681
 4619.00    1.18165   1.20150   61.060
 4620.00    1.19490   1.20472   61.515
 4621.00    1.21346   1.21422   61.481
 4622.00    1.21893   1.22485   60.915
 4623.00    1.21380   1.22977   59.959
 4624.00    1.21108   1.22816   59.895
 4625.00    1.21356   1.22416   60.043
 4626.00    1.21274   1.21970   60.163
 4627.00    1.21794   1.21597   60.697
 4628.00    1.21870   1.21413   60.867
 4629.00    1.20592   1.21376   60.842
 4630.00    1.19675   1.21456   61.215
 4631.00    1.20982   1.21744   61.361
 4632.00    1.22184   1.22085   61.075
 4633.00    1.19510   1.21942   60.384
 4634.00    1.16768   1.21208   60.602
 4635.00    1.19691   1.20336   61.464
 4636.00    1.19711   1.19621   62.158
 4637.00    1.19055   1.18999   62.140
 4638.00    1.18191   1.18500   62.611
 4639.00    1.17671   1.18366   63.429
 4640.00    1.19261   1.18837   63.723
 4641.00    1.21651   1.19914   63.650
 4642.00    1.22156   1.21190   62.620
 4643.00    1.22286   1.21893   61.104
 4644.00    1.21851   1.21413   60.226
 4645.00    1.19516   1.19829   60.413
 4646.00    1.17260   1.17619   61.497
 4647.00    1.15850   1.15564   63.206
 4648.00    1.16845   1.14771   64.964
 4649.00    1.18811   1.15683   65.331
 4650.00    1.20262   1.17575   64.249
 4651.00    1.20462   1.19255   62.757
 4652.00    1.20128   1.20008   61.859
 4653.00    1.20237   1.19854   61.710
 4654.00    1.17897   1.19036   61.587
 4655.00    1.16560   1.17987   62.268
 4656.00    1.16036   1.17490   63.679
 4657.00    1.17323   1.18284   64.463
 4658.00    1.19977   1.20461   63.988
 4659.00    1.23151   1.23263   62.031
 4660.00    1.24786   1.25299   59.666
 4661.00    1.24241   1.25666   58.264
 4662.00    1.22014   1.24594   58.129
 4663.00    1.20443   1.22829   58.809
 4664.00    1.19885   1.20865   60.215
 4665.00    1.18653   1.18711   61.428
 4666.00    1.15450   1.16094   61.640
 4667.00    1.12039   1.13217   62.590
 4668.00    1.10229   1.11241   65.182
 4669.00    1.12688   1.11376   67.917
 4670.00    1.16544   1.13522   68.177
 4671.00    1.19009   1.16387   66.212
 4672.00    1.20065   1.18628   63.469
 4673.00    1.20285   1.19813   61.685
 4674.00    1.20837   1.20401   61.234
 4675.00    1.21363   1.21040   61.260
 4676.00    1.22467   1.21803   61.206
 4677.00    1.22289   1.21910   60.459
 4678.00    1.20572   1.20799   59.550
 4679.00    1.19627   1.18871   59.763
 4680.00    1.18477   1.17076   61.000
 4681.00    1.17242   1.16090   62.224
 4682.00    1.17526   1.15991   63.266
 4683.00    1.19545   1.16676   63.910
 4684.00    1.20884   1.17845   63.214
 4685.00    1.21265   1.18928   61.664
 4686.00    1.21527   1.19520   60.795
 4687.00    1.21064   1.19650   60.932
 4688.00    1.20458   1.19524   60.976
 4689.00    1.20424   1.19293   61.299
 4690.00    1.20187   1.19059   61.331
 4691.00    1.19774   1.18824   61.335
 4692.00    1.19566   1.18775   61.744
 4693.00    1.21053   1.19221   61.901
 4694.00    1.23327   1.20027   61.231
 4695.00    1.24443   1.20710   60.326
 4696.00    1.23611   1.20956   59.012
 4697.00    1.22756   1.20540   58.212
 4698.00    1.20592   1.19294   58.420
 4699.00    1.17723   1.17577   60.001
 4700.00    1.17573   1.15916   61.823
 4701.00    1.18891   1.14544   62.639
 4702.00    1.17158   1.13411   62.228
 4703.00    1.14374   1.12707   62.605
 4704.00    1.15747   1.12968   63.672
 4705.00    1.17425   1.14097   64.075
 4706.00    1.18267   1.15013   62.981
 4707.00    1.16506   1.14878   62.019
 4708.00    1.15556   1.14096   62.733
 4709.00    1.14534   1.13781   63.976
 4710.00    1.15877   1.14508   64.656
 4711.00    1.19399   1.15949   64.395
 4712.00    1.21320   1.17466   62.622
 4713.00    1.20886   1.18303   60.881
 4714.00    1.19671   1.18179   60.187
 4715.00    1.18701   1.17838   60.667
 4716.00    1.19936   1.18210   61.776
 4717.00    1.22389   1.19497   61.888
 4718.00    1.22646   1.21029   60.759
 4719.00    1.24195   1.22102   59.577
 4720.00    1.24740   1.22516   59.139
 4721.00    1.23358   1.22455   58.921
 4722.00    1.23246   1.22255   58.720
 4723.00    1.23698   1.22204   59.156
 4724.00    1.23096   1.22370   59.590
 4725.00    1.23175   1.22410   59.312
 4726.00    1.23644   1.21735   58.689
 4727.00    1.21160   1.20007   58.709
 4728.00    1.17861   1.17703   60.015
 4729.00    1.17830   1.15931   62.235
 4730.00    1.17811   1.15349   63.735
 4731.00    1.17641   1.15660   63.652
 4732.00    1.18657   1.16390   63.028
 4733.00    1.20253   1.17280   62.516
 4734.00    1.21236   1.17987   61.787
 4735.00    1.21034   1.18238   61.229
 4736.00    1.20526   1.18118   60.865
 4737.00    1.20053   1.17933   60.527
 4738.00    1.21013   1.18044   61.079
 4739.00    1.21709   1.18610   61.224
 4740.00    1.21702   1.19269   60.512
 4741.00    1.21213   1.19612   60.449
 4742.00    1.21298   1.19825   60.776
 4743.00    1.22470   1.20208   60.886
 4744.00    1.22803   1.20690   60.453
 4745.00    1.22712   1.21074   59.805
 4746.00    1.23030   1.21322   59.844
 4747.00    1.23041   1.21662   59.911
 4748.00    1.22935   1.22240   59.514
 4749.00    1.23194   1.22825   58.923
 4750.00    1.22927   1.23254   58.748
 4751.00    1.22706   1.23434   58.819
 4752.00    1.22061   1.23069   58.865
 4753.00    1.21922   1.22026   59.252
 4754.00    1.21313   1.20665   59.903
 4755.00    1.20283   1.19679   60.427
 4756.00    1.19619   1.19462   60.850
 4757.00    1.19487   1.19886   60.799
 4758.00    1.20051   1.20622   60.995
 4759.00    1.21399   1.21414   61.428
 4760.00    1.21662   1.21874   61.540
 4761.00    1.20273   1.21457   61.089
 4762.00    1.18212   1.19933   60.929
 4763.00    1.17089   1.17736   61.764
 4764.00    1.16367   1.15836   63.258
 4765.00    1.15891   1.14800   64.167
 4766.00    1.16865   1.14626   64.341
 4767.00    1.19218   1.15329   64.227
 4768.00    1.20683   1.16949   63.810
 4769.00    1.21975   1.19026   62.973
 4770.00    1.22587   1.20623   61.600
 4771.00    1.22486   1.21125   60.677
 4772.00    1.21329   1.20916   60.673
 4773.00    1.20427   1.20863   61.148
 4774.00    1.22411   1.21533   61.691
 4775.00    1.23117   1.22667   61.126
 4776.00    1.23681   1.23536   59.875
 4777.00    1.23881   1.23787   59.355
 4778.00    1.23833   1.23495   59.355
 4779.00    1.23330   1.22921   59.519
 4780.00    1.21611   1.22310   59.883
 4781.00    1.22121   1.21759   60.526
 4782.00    1.21374   1.21146   60.926
 4783.00    1.20265   1.20396   61.101
 4784.00    1.21002   1.19709   61.380
 4785.00    1.20573   1.19178   61.854
 4786.00    1.19575   1.18710   61.896
 4787.00    1.17970   1.18321   62.070
 4788.00    1.18151   1.18225   62.641
 4789.00    1.19267   1.18516   63.039
 4790.00    1.19483   1.19161   63.028
 4791.00    1.20742   1.20178   62.745
 4792.00    1.21424   1.21545   62.366
 4793.00    1.22781   1.23160   61.748
 4794.00    1.24292   1.24812   60.778
 4795.00    1.25313   1.26150   59.464
 4796.00    1.25073   1.26641   58.401
 4797.00    1.24093   1.26036   58.086
 4798.00    1.22326   1.24699   58.573
 4799.00    1.21031   1.23258   59.687
 4800.00    1.20553   1.22392   60.823
 4801.00    1.21113   1.22553   61.602
 4802.00    1.23064   1.23526   61.228
 4803.00    1.23261   1.24479   60.067
 4804.00    1.22952   1.24731   59.151
 4805.00    1.21274   1.24181   59.115
 4806.00    1.20648   1.23297   59.819
 4807.00    1.21245   1.22584   60.598
 4808.00    1.22040   1.22220   61.179
 4809.00    1.21443   1.22332   61.241
 4810.00    1.21323   1.22886   61.100
 4811.00    1.22103   1.23489   60.841
 4812.00    1.22430   1.23849   60.326
 4813.00    1.22702   1.24087   59.875
 4814.00    1.22912   1.24415   59.553
 4815.00    1.24039   1.24955   59.460
 4816.00    1.24830   1.25698   59.330
 4817.00    1.24718   1.26426   59.125
 4818.00    1.24734   1.26856   58.774
 4819.00    1.24611   1.26957   58.407
 4820.00    1.24876   1.26861   58.152
 4821.00    1.23933   1.26362   58.102
 4822.00    1.22480   1.25014   58.103
 4823.00    1.20139   1.22906   58.541
 4824.00    1.19154   1.20922   59.944
 4825.00    1.20015   1.20280   61.165
 4826.00    1.21417   1.21173   61.234
 4827.00    1.23000   1.22472   60.279
 4828.00    1.22621   1.23120   59.317
 4829.00    1.21331   1.22979   59.391
 4830.00    1.21592   1.22519   60.039
 4831.00    1.20815   1.21891   60.468
 4832.00    1.19973   1.21073   60.508
 4833.00    1.21258   1.20523   60.978
 4834.00    1.22581   1.20670   61.158
 4835.00    1.22639   1.21370   60.335
 4836.00    1.22828   1.22079   59.498
 4837.00    1.22753   1.22250   59.193
 4838.00    1.21568   1.21713   59.247
 4839.00    1.19388   1.20604   59.505
 4840.00    1.18282   1.19296   60.239
 4841.00    1.18563   1.18274   61.287
 4842.00    1.18731   1.17867   61.493
 4843.00    1.19303   1.18003   61.378
 4844.00    1.19383   1.18442   61.096
 4845.00    1.20288   1.19191   60.661
 4846.00    1.21371   1.20118   60.077
 4847.00    1.20747   1.20484   59.184
 4848.00    1.18150   1.19901   58.776
 4849.00    1.18071   1.19057   59.734
 4850.00    1.19120   1.18733   60.696
 4851.00    1.19334   1.18878   60.835
 4852.00    1.19293   1.18768   60.107
 4853.00    1.18891   1.17796   59.843
 4854.00    1.16213   1.15748   60.114
 4855.00    1.12658   1.12919   60.603
 4856.00    1.10975   1.10186   62.201
 4857.00    1.11179   1.08161   64.000
 4858.00    1.09599   1.06151   64.183
 4859.00    1.03104   1.02132   63.594
 4860.00    0.92193   0.95337   64.921
 4861.00    0.83330   0.88260   -1.000
 4862.00    0.83690   0.84761   77.769
 4863.00    0.92857   0.86863   -1.000
 4864.00    1.01104   0.92849   -1.000
 4865.00    1.07048   0.99508   -1.000
 4866.00    1.10864   1.04875   -1.000
 4867.00    1.13088   1.08622   -1.000
 4868.00    1.14140   1.11006   63.367
 4869.00    1.13859   1.12005   62.664
 4870.00    1.12885   1.11411   62.349
 4871.00    1.10429   1.09480   62.750
 4872.00    1.08432   1.07578   64.314
 4873.00    1.10616   1.07618   65.949
 4874.00    1.14159   1.09889   -1.000
 4875.00    1.15560   1.12818   64.099
 4876.00    1.15460   1.14747   62.847
 4877.00    1.15561   1.15478   62.260
 4878.00    1.16451   1.16091   61.900
 4879.00    1.18554   1.17358   61.671
 4880.00    1.19678   1.18914   60.895
 4881.00    1.18675   1.19841   60.196
 4882.00    1.17055   1.19701   60.517
 4883.00    1.16780   1.19055   61.447
 4884.00    1.17121   1.18354   61.940
 4885.00    1.16456   1.17392   61.830
 4886.00    1.15652   1.16227   62.057
 4887.00    1.15350   1.15297   62.908
 4888.00    1.15258   1.14762   63.371
 4889.00    1.14772   1.14139   63.152
 4890.00    1.13106   1.12882   63.012
 4891.00    1.11754   1.11587   63.754
 4892.00    1.13362   1.11796   65.095
 4893.00    1.18013   1.14602   65.026
 4894.00    1.22546   1.19327   62.801
 4895.00    1.24592   1.23765   59.926
 4896.00    1.25626   1.26462   57.962
 4897.00    1.25240   1.27406   56.763
 4898.00    1.24357   1.27118   56.341
 4899.00    1.23088   1.26086   56.393
 4900.00    1.21413   1.24852   57.404
 4901.00    1.21008   1.23872   58.757
 4902.00    1.21174   1.23157   59.557
 4903.00    1.21097   1.22386   59.444
 4904.00    1.20325   1.21720   59.445
 4905.00    1.21388   1.22013   60.057
 4906.00    1.23062   1.23387   59.686
 4907.00    1.24467   1.24587   58.513
 4908.00    1.22743   1.24446   57.891
 4909.00    1.19223   1.22788   58.235
 4910.00    1.16988   1.20472   59.478
 4911.00    1.16922   1.18743   61.156
 4912.00    1.18121   1.18515   62.143
 4913.00    1.20658   1.19735   61.640
 4914.00    1.22529   1.21590   60.567
 4915.00    1.23129   1.23244   59.681
 4916.00    1.23657   1.23939   58.897
 4917.00    1.22454   1.22731   58.325
 4918.00    1.17908   1.19210   58.440
 4919.00    1.12901   1.14194   60.122
 4920.00    1.09402   1.09691   63.191
 4921.00    1.10504   1.07695   66.327
 4922.00    1.13870   1.08681   -1.000
 4923.00    1.15840   1.11352   -1.000
 4924.00    1.16617   1.13896   63.614
 4925.00    1.18122   1.15758   62.380
 4926.00    1.20198   1.17579   62.149
 4927.00    1.21687   1.19824   61.518
 4928.00    1.23244   1.22251   60.070
 4929.00    1.23849   1.24225   58.883
 4930.00    1.23866   1.25340   58.228
 4931.00    1.24736   1.25373   57.802
 4932.00    1.23382   1.24072   57.443
 4933.00    1.19313   1.21626   57.813
 4934.00    1.16611   1.19185   59.180
 4935.00    1.17670   1.17938   61.233
 4936.00    1.19399   1.17902   61.847
 4937.00    1.18220   1.17681   60.986
 4938.00    1.15382   1.16221   60.703
 4939.00    1.14403   1.14620   62.099
 4940.00    1.17115   1.14691   63.863
 4941.00    1.20829   1.16996   -1.000
 4942.00    1.23391   1.20408   61.965
 4943.00    1.24111   1.23192   59.934
 4944.00    1.24077   1.24492   58.648
 4945.00    1.23336   1.24529   57.998
 4946.00    1.22855   1.24037   57.916
 4947.00    1.23417   1.23812   58.253
 4948.00    1.24576   1.24381   58.448
 4949.00    1.25219   1.25515   58.063
 4950.00    1.25198   1.26420   57.404
 4951.00    1.25850   1.26568   57.115
 4952.00    1.25423   1.26090   56.894
 4953.00    1.24532   1.25358   57.069
 4954.00    1.23263   1.24475   57.445
 4955.00    1.22840   1.22929   58.051
 4956.00    1.19824   1.19760   58.765
 4957.00    1.14732   1.15229   60.145
 4958.00    1.13239   1.11817   62.913
 4959.00    1.16953   1.11939   -1.000
 4960.00    1.22411   1.15533   -1.000
 4961.00    1.25014   1.19965   -1.000
 4962.00    1.24787   1.22831   59.501
 4963.00    1.24734   1.23759   58.686
 4964.00    1.23740   1.23354   58.804
 4965.00    1.21934   1.22104   59.234
 4966.00    1.20469   1.20519   59.885
 4967.00    1.20082   1.19182   61.029
 4968.00    1.20423   1.18409   61.949
 4969.00    1.20877   1.18226   62.145
 4970.00    1.21049   1.18645   62.003
 4971.00    1.21577   1.19591   61.608
 4972.00    1.22481   1.20840   60.993
 4973.00    1.22967   1.22111   60.338
 4974.00    1.23852   1.23171   59.633
 4975.00    1.23998   1.23740   59.034
 4976.00    1.23652   1.23659   58.719
 4977.00    1.23099   1.22940   58.975
 4978.00    1.21585   1.21747   59.552
 4979.00    1.20427   1.20307   60.321
 4980.00    1.19328   1.18651   61.268
 4981.00    1.17377   1.16369   62.085
 4982.00    1.14202   1.13107   62.934
 4983.00    1.11509   1.09624   64.721
 4984.00    1.11389   1.07619   66.846
 4985.00    1.13408   1.08298   -1.000
 4986.00    1.17304   1.11210   -1.000
 4987.00    1.20412   1.14798   -1.000
 4988.00    1.21869   1.17659   -1.000
 4989.00    1.21443   1.18941   61.003
 4990.00    1.19825   1.18652   60.673
 4991.00    1.19204   1.17652   61.373
 4992.00    1.19722   1.17012   62.082
 4993.00    1.20086   1.17130   62.259
 4994.00    1.20197   1.17697   61.841
 4995.00    1.20893   1.18347   61.503
 4996.00    1.21685   1.18943   61.419
 4997.00    1.21560   1.19315   61.175
 4998.00    1.21204   1.19040   60.865
 4999.00    1.18443   1.17722   61.066
 5000.00    1.17067   1.15603   61.778
 5001.00    1.16280   1.13556   62.926
 5002.00    1.17132   1.12511   -1.000
 5003.00    1.17866   1.12627   -1.000
 5004.00    1.17653   1.12964   -1.000
 5005.00    1.15703   1.12367   63.153
 5006.00    1.12839   1.10798   63.722
 5007.00    1.13571   1.09766   65.182
 5008.00    1.16301   1.10629   -1.000
 5009.00    1.19279   1.12955   -1.000
 5010.00    1.20041   1.15041   -1.000
 5011.00    1.18286   1.15295   61.870
 5012.00    1.15343   1.13446   62.309
 5013.00    1.12398   1.10569   63.922
 5014.00    1.11476   1.08326   66.211
 5015.00    1.13252   1.07633   -1.000
 5016.00    1.14698   1.08188   -1.000
 5017.00    1.14773   1.09088   -1.000
 5018.00    1.14165   1.09763   -1.000
 5019.00    1.15131   1.10463   -1.000
 5020.00    1.16983   1.11466   -1.000
 5021.00    1.17539   1.12376   -1.000
 5022.00    1.17397   1.12776   -1.000
 5023.00    1.17729   1.12865   -1.000
 5024.00    1.18914   1.13403   -1.000
 5025.00    1.19608   1.14596   -1.000
 5026.00    1.18903   1.15482   -1.000
 5027.00    1.18473   1.15420   62.702
 5028.00    1.18810   1.15002   -1.000
 5029.00    1.19620   1.15090   -1.000
 5030.00    1.20912   1.16012   -1.000
 5031.00    1.21890   1.17536   -1.000
 5032.00    1.22956   1.19160   -1.000
 5033.00    1.23939   1.20320   -1.000
 5034.00    1.23248   1.20331   59.061
 5035.00    1.19703   1.18770   58.953
 5036.00    1.16278   1.16316   60.365
 5037.00    1.15911   1.14177   62.665
 5038.00    1.15794   1.12822   64.104
 5039.00    1.14590   1.11238   -1.000
 5040.00    1.10699   1.08405   65.177
 5041.00    1.07360   1.05493   67.267
 5042.00    1.09575   1.04815   -1.000
 5043.00    1.14819   1.07436   -1.000
 5044.00    1.19315   1.12226   -1.000
 5045.00    1.22040   1.16917   -1.000
 5046.00    1.23435   1.20006   -1.000
 5047.00    1.22518   1.21028   59.648
 5048.00    1.22517   1.20053   57.642
 5049.00    1.15322   1.17635   58.305
 5050.00    0.46001   1.14937   -1.000
 5051.00    0.04195   1.13191   -1.000
 5052.00    0.00687   1.13114   -1.000
 5053.00    0.39174   1.14602   -1.000
 5054.00    0.97579   1.16876   -1.000
 5055.00    1.23334   1.18835   -1.000
 5056.00    1.24682   1.20056   -1.000
 5057.00    1.24541   1.20821   -1.000
 5058.00    1.24682   1.21427   58.765
 5059.00    1.24355   1.21955   58.795
 5060.00    1.24352   1.22361   58.907
 5061.00    1.23828   1.22570   58.921
 5062.00    1.23811   1.22438   58.621
 5063.00    1.23535   1.21436   58.530
 5064.00    1.20787   1.19198   59.114
 5065.00    1.17982   1.16565   60.589
 5066.00    1.17801   1.14823   62.654
 5067.00    1.19671   1.14509   -1.000
 5068.00    1.20351   1.15014   -1.000
 5069.00    1.20315   1.15553   -1.000
 5070.00    1.21412   1.15958   -1.000
 5071.00    1.21493   1.16192   -1.000
 5072.00    1.20436   1.15962   -1.000
 5073.00    1.19915   1.15392   -1.000
 5074.00    1.20589   1.15155   -1.000
 5075.00    1.21374   1.15541   -1.000
 5076.00    1.21365   1.16084   -1.000
 5077.00    1.21014   1.16031   -1.000
 5078.00    1.18923   1.14829   -1.000
 5079.00    1.14831   1.12432   61.380
 5080.00    1.12460   1.09876   63.089
 5081.00    1.13933   1.08580   -1.000
 5082.00    1.15535   1.08900   -1.000
 5083.00    1.16536   1.10198   -1.000
 5084.00    1.18756   1.11769   -1.000
 5085.00    1.20655   1.13491   -1.000
 5086.00    1.21956   1.15337   -1.000
 5087.00    1.21811   1.16883   -1.000
 5088.00    1.21904   1.17829   -1.000
 5089.00    1.21790   1.18337   -1.000
 5090.00    1.22351   1.18721   -1.000
 5091.00    1.22918   1.19169   -1.000
 5092.00    1.23588   1.19797   -1.000
 5093.00    1.24674   1.20576   -1.000
 5094.00    1.25937   1.21090   -1.000
 5095.00    1.24535   1.20667   -1.000
 5096.00    1.22044   1.18899   58.778
 5097.00    1.21017   1.16184   -1.000
 5098.00    1.18097   1.13461   -1.000
 5099.00    1.15540   1.11730   -1.000
 5100.00    1.17558   1.11600   -1.000
 5101.00    1.20186   1.13065   -1.000
 5102.00    1.21692   1.15221   -1.000
 5103.00    1.22783   1.16746   -1.000
 5104.00    1.22111   1.17075   -1.000
 5105.00    1.20547   1.16433   -1.000
 5106.00    1.19641   1.15206   -1.000
 5107.00    1.18402   1.13720   -1.000
 5108.00    1.17328   1.12414   -1.000
 5109.00    1.17720   1.11766   -1.000
 5110.00    1.18347   1.12021   -1.000
 5111.00    1.19700   1.13126   -1.000
 5112.00    1.21698   1.14787   -1.000
 5113.00    1.22706   1.16449   -1.000
 5114.00    1.22936   1.17774   -1.000
 5115.00    1.22755   1.18809   -1.000
 5116.00    1.22778   1.19711   60.270
 5117.00    1.23914   1.20469   -1.000
 5118.00    1.25619   1.20911   -1.000
 5119.00    1.25591   1.20811   -1.000
 5120.00    1.23674   1.19977   -1.000
 5121.00    1.22471   1.18510   -1.000
 5122.00    1.20759   1.16693   -1.000
 5123.00    1.17838   1.14755   61.229
 5124.00    1.15769   1.12858   62.636
 5125.00    1.16036   1.11447   -1.000
 5126.00    1.16819   1.10886   -1.000
 5127.00    1.17587   1.11018   -1.000
 5128.00    1.17643   1.11300   -1.000
 5129.00    1.17664   1.11478   -1.000
 5130.00    1.17665   1.11737   -1.000
 5131.00    1.18491   1.12353   -1.000
 5132.00    1.19646   1.13339   -1.000
 5133.00    1.20218   1.14392   -1.000
 5134.00    1.21068   1.15244   -1.000
 5135.00    1.21927   1.15781   -1.000
 5136.00    1.21661   1.15824   -1.000
 5137.00    1.19831   1.15062   -1.000
 5138.00    1.16994   1.13605   61.256
 5139.00    1.14955   1.12023   62.652
 5140.00    1.14895   1.10996   -1.000
 5141.00    1.16124   1.10716   -1.000
 5142.00    1.15839   1.10809   -1.000
 5143.00    1.15188   1.11012   -1.000
 5144.00    1.16341   1.11426   -1.000
 5145.00    1.17960   1.11997   -1.000
 5146.00    1.18042   1.12260   -1.000
 5147.00    1.17251   1.11914   -1.000
 5148.00    1.17869   1.11526   -1.000
 5149.00    1.18930   1.11782   -1.000
 5150.00    1.18416   1.12230   -1.000
 5151.00    1.16759   1.12074   -1.000
 5152.00    1.16004   1.11325   -1.000
 5153.00    1.16384   1.10556   -1.000
 5154.00    1.17250   1.10350   -1.000
 5155.00    1.18719   1.11072   -1.000
 5156.00    1.20632   1.12787   -1.000
 5157.00    1.22023   1.14997   -1.000
 5158.00    1.22811   1.17002   -1.000
 5159.00    1.23515   1.18321   -1.000
 5160.00    1.23560   1.18877   -1.000
 5161.00    1.22784   1.18746   -1.000
 5162.00    1.21686   1.17942   -1.000
 5163.00    1.20760   1.16455   -1.000
 5164.00    1.19037   1.14164   -1.000
 5165.00    1.14537   1.10411   -1.000
 5166.00    1.06875   1.04557   62.816
 5167.00    0.99618   0.97736   67.117
 5168.00    0.97233   0.92671   -1.000
 5169.00    1.00895   0.91733   -1.000
 5170.00    1.05153   0.93705   -1.000
 5171.00    1.04351   0.94620   -1.000
 5172.00    0.98501   0.92895   -1.000
 5173.00    0.96373   0.90887   -1.000
 5174.00    1.02993   0.92410   -1.000
 5175.00    1.12540   0.98247   -1.000
 5176.00    1.18987   1.05380   -1.000
 5177.00    1.21629   1.10759   -1.000
 5178.00    1.22945   1.13481   -1.000
 5179.00    1.23071   1.14087   -1.000
 5180.00    1.20859   1.12867   -1.000
 5181.00    1.16398   1.09212   -1.000
 5182.00    1.07796   1.02984   -1.000
 5183.00    0.97723   0.95740   68.651
 5184.00    0.94847   0.91041   -1.000
 5185.00    1.01590   0.91719   -1.000
 5186.00    1.11112   0.97254   -1.000
 5187.00    1.17101   1.04296   -1.000
 5188.00    1.18460   1.09422   -1.000
 5189.00    1.18158   1.11842   -1.000
 5190.00    1.18120   1.12488   -1.000
 5191.00    1.16742   1.11862   -1.000
 5192.00    1.14353   1.10228   -1.000
 5193.00    1.13598   1.08643   -1.000
 5194.00    1.15114   1.08108   -1.000
 5195.00    1.16606   1.08762   -1.000
 5196.00    1.17557   1.09994   -1.000
 5197.00    1.18577   1.11435   -1.000
 5198.00    1.19859   1.13200   -1.000
 5199.00    1.20930   1.15160   -1.000
 5200.00    1.21582   1.16726   -1.000
 5201.00    1.22078   1.17368   -1.000
 5202.00    1.21260   1.16772   -1.000
 5203.00    1.19392   1.14861   -1.000
 5204.00    1.16849   1.11883   -1.000
 5205.00    1.14319   1.08474   -1.000
 5206.00    1.13465   1.05520   -1.000
 5207.00    1.13176   1.03691   -1.000
 5208.00    1.13178   1.03016   -1.000
 5209.00    1.13749   1.03322   -1.000
 5210.00    1.15685   1.04856   -1.000
 5211.00    1.18797   1.07845   -1.000
 5212.00    1.21599   1.11899   -1.000
 5213.00    1.23058   1.15665   -1.000
 5214.00    1.22649   1.17708   -1.000
 5215.00    1.20768   1.17476   59.445
 5216.00    1.18847   1.15859   59.496
 5217.00    1.18783   1.14634   60.697
 5218.00    1.20668   1.15037   -1.000
 5219.00    1.23277   1.17002   -1.000
 5220.00    1.24689   1.19410   -1.000
 5221.00    1.25265   1.21222   -1.000
 5222.00    1.25426   1.21880   58.830
 5223.00    1.23861   1.21166   58.531
 5224.00    1.20587   1.18883   58.957
 5225.00    1.15935   1.14961   60.430
 5226.00    1.11617   1.10159   62.731
 5227.00    1.09752   1.06571   65.571
 5228.00    1.12932   1.06128   -1.000
 5229.00    1.17813   1.08993   -1.000
 5230.00    1.21110   1.12999   -1.000
 5231.00    1.22063   1.15716   -1.000
 5232.00    1.20925   1.16221   -1.000
 5233.00    1.19441   1.15150   -1.000
 5234.00    1.18671   1.13990   -1.000
 5235.00    1.19541   1.14150   -1.000
 5236.00    1.21993   1.15979   -1.000
 5237.00    1.24148   1.18594   -1.000
 5238.00    1.24822   1.20839   -1.000
 5239.00    1.24594   1.22058   58.278
 5240.00    1.24259   1.22354   58.037
 5241.00    1.24001   1.22143   58.154
 5242.00    1.24136   1.21791   58.155
 5243.00    1.24261   1.21632   57.885
 5244.00    1.24768   1.21874   57.820
 5245.00    1.25612   1.22093   57.783
 5246.00    1.24056   1.21448   57.676
 5247.00    1.21498   1.19782   58.402
 5248.00    1.20731   1.17818   60.038
 5249.00    1.20937   1.16432   -1.000
 5250.00    1.21027   1.15806   -1.000
 5251.00    1.20656   1.15677   -1.000
 5252.00    1.20557   1.15936   -1.000
 5253.00    1.20849   1.16483   -1.000
 5254.00    1.21152   1.16946   -1.000
 5255.00    1.21594   1.17278   -1.000
 5256.00    1.22853   1.18078   -1.000
 5257.00    1.24984   1.19655   -1.000
 5258.00    1.26563   1.21518   -1.000
 5259.00    1.26310   1.22603   -1.000
 5260.00    1.24687   1.22049   57.155
 5261.00    1.20997   1.19621   57.352
 5262.00    1.17256   1.15709   58.585
 5263.00    1.13781   1.11154   60.785
 5264.00    1.11084   1.06978   63.595
 5265.00    1.10277   1.04095   -1.000
 5266.00    1.10523   1.03089   -1.000
 5267.00    1.11820   1.03528   -1.000
 5268.00    1.12242   1.03917   -1.000
 5269.00    1.10126   1.03103   -1.000
 5270.00    1.08348   1.01607   -1.000
 5271.00    1.11453   1.01683   -1.000
 5272.00    1.16669   1.04437   -1.000
 5273.00    1.18583   1.08268   -1.000
 5274.00    1.18073   1.11191   -1.000
 5275.00    1.18131   1.12805   -1.000
 5276.00    1.19477   1.14098   -1.000
 5277.00    1.22022   1.16086   -1.000
 5278.00    1.24633   1.18690   -1.000
 5279.00    1.25703   1.20759   -1.000
 5280.00    1.24354   1.21010   57.349
 5281.00    1.21851   1.19388   57.212
 5282.00    1.20114   1.16959   58.254
 5283.00    1.19203   1.14972   59.761
 5284.00    1.19709   1.14363   -1.000
 5285.00    1.22185   1.15714   -1.000
 5286.00    1.25147   1.18615   -1.000
 5287.00    1.27281   1.21772   -1.000
 5288.00    1.25389   1.23936   57.347
 5289.00    1.22885   1.24891   56.419
 5290.00    1.25708   1.25243   56.493
 5291.00    1.27474   1.25364   56.614
 5292.00    1.27263   1.25238   56.389
 5293.00    1.26686   1.24923   56.185
 5294.00    1.25897   1.24313   56.358
 5295.00    1.25021   1.23011   56.830
 5296.00    1.22549   1.20647   57.511
 5297.00    1.19152   1.17422   58.784
 5298.00    1.17537   1.14627   60.825
 5299.00    1.18538   1.13666   -1.000
 5300.00    1.20931   1.14573   -1.000
 5301.00    1.21884   1.16286   -1.000
 5302.00    1.21821   1.17849   -1.000
 5303.00    1.23388   1.19323   -1.000
 5304.00    1.25596   1.21142   -1.000
 5305.00    1.26437   1.22882   -1.000
 5306.00    1.26420   1.23783   56.728
 5307.00    1.25874   1.23736   56.266
 5308.00    1.25499   1.23401   56.582
 5309.00    1.26452   1.23610   57.116
 5310.00    1.28101   1.24458   57.061
 5311.00    1.28308   1.25365   56.520
 5312.00    1.27663   1.25737   56.067
 5313.00    1.26990   1.25375   55.976
 5314.00    1.26355   1.24429   56.207
 5315.00    1.25649   1.23124   56.484
 5316.00    1.24215   1.21688   56.830
 5317.00    1.23486   1.20667   57.342
 5318.00    1.24421   1.20638   57.878
 5319.00    1.25985   1.21543   -1.000
 5320.00    1.26056   1.22514   57.802
 5321.00    1.24994   1.22637   57.475
 5322.00    1.23450   1.21670   57.521
 5323.00    1.21611   1.19881   57.866
 5324.00    1.20513   1.17838   58.450
 5325.00    1.20471   1.15994   -1.000
 5326.00    1.19689   1.14157   -1.000
 5327.00    1.15837   1.11519   -1.000
 5328.00    1.11399   1.08088   61.278
 5329.00    1.11416   1.05914   -1.000
 5330.00    1.16266   1.06921   -1.000
 5331.00    1.21024   1.10756   -1.000
 5332.00    1.22528   1.15032   -1.000
 5333.00    1.23197   1.17883   -1.000
 5334.00    1.24389   1.19471   -1.000
 5335.00    1.25088   1.20612   -1.000
 5336.00    1.25219   1.21350   -1.000
 5337.00    1.24232   1.21369   57.466
 5338.00    1.23139   1.20546   57.612
 5339.00    1.21912   1.18908   58.003
 5340.00    1.19756   1.16771   58.538
 5341.00    1.18652   1.15135   59.703
 5342.00    1.20459   1.15070   -1.000
 5343.00    1.22829   1.16679   -1.000
 5344.00    1.24460   1.18651   -1.000
 5345.00    1.24410   1.19584   -1.000
 5346.00    1.23407   1.19257   -1.000
 5347.00    1.22917   1.18319   -1.000
 5348.00    1.22138   1.17475   -1.000
 5349.00    1.21326   1.17108   -1.000
 5350.00    1.21845   1.17443   -1.000
 5351.00    1.23896   1.18572   -1.000
 5352.00    1.25062   1.20226   -1.000
 5353.00    1.25144   1.21743   58.026
 5354.00    1.25651   1.22809   57.049
 5355.00    1.26913   1.23776   56.682
 5356.00    1.27806   1.24850   56.354
 5357.00    1.28396   1.25788   55.730
 5358.00    1.28596   1.26259   55.188
 5359.00    1.28153   1.26200   55.067
 5360.00    1.27570   1.25715   55.152
 5361.00    1.26531   1.24762   55.309
 5362.00    1.24929   1.23327   55.786
 5363.00    1.23737   1.21659   56.628
 5364.00    1.22763   1.20083   57.515
 5365.00    1.22015   1.18877   58.088
 5366.00    1.21990   1.18238   58.438
 5367.00    1.22111   1.18067   -1.000
 5368.00    1.21636   1.17772   -1.000
 5369.00    1.20373   1.16649   58.722
 5370.00    1.18375   1.14481   59.089
 5371.00    1.16612   1.12081   -1.000
 5372.00    1.17468   1.11026   -1.000
 5373.00    1.21107   1.12400   -1.000
 5374.00    1.24691   1.15861   -1.000
 5375.00    1.26908   1.19662   -1.000
 5376.00    1.27863   1.22274   -1.000
 5377.00    1.27446   1.23358   -1.000
 5378.00    1.27087   1.23426   56.014
 5379.00    1.26531   1.23046   56.112
 5380.00    1.25029   1.22449   56.181
 5381.00    1.23728   1.21662   56.424
 5382.00    1.22915   1.20754   56.899
 5383.00    1.22566   1.19965   57.469
 5384.00    1.23200   1.19722   57.864
 5385.00    1.24663   1.20331   -1.000
 5386.00    1.25923   1.21557   -1.000
 5387.00    1.25932   1.22607   57.262
 5388.00    1.25273   1.22847   56.935
 5389.00    1.24597   1.22183   57.063
 5390.00    1.23608   1.20940   57.510
 5391.00    1.23388   1.19571   58.272
 5392.00    1.23576   1.18381   -1.000
 5393.00    1.22561   1.17475   -1.000
 5394.00    1.21579   1.16880   -1.000
 5395.00    1.21377   1.16281   -1.000
 5396.00    1.20289   1.15187   -1.000
 5397.00    1.18646   1.13759   -1.000
 5398.00    1.18783   1.12906   -1.000
 5399.00    1.20764   1.13592   -1.000
 5400.00    1.22581   1.15578   -1.000
 5401.00    1.22996   1.17558   -1.000
 5402.00    1.22614   1.18433   -1.000
 5403.00    1.20984   1.17704   58.383
 5404.00    1.18020   1.15369   58.716
 5405.00    1.16146   1.12401   59.971
 5406.00    1.16508   1.10427   -1.000
 5407.00    1.18627   1.10355   -1.000
 5408.00    1.20736   1.11705   -1.000
 5409.00    1.20594   1.12990   -1.000
 5410.00    1.19381   1.13490   -1.000
 5411.00    1.20062   1.14025   -1.000
 5412.00    1.22323   1.15411   -1.000
 5413.00    1.23823   1.17349   -1.000
 5414.00    1.23645   1.18837   -1.000
 5415.00    1.22879   1.19484   57.887
 5416.00    1.23657   1.19965   57.687
 5417.00    1.25054   1.20761   -1.000
 5418.00    1.24917   1.21579   57.493
 5419.00    1.24261   1.21947   57.082
 5420.00    1.23809   1.21769   57.074
 5421.00    1.23656   1.21328   57.529
 5422.00    1.23593   1.20779   57.980
 5423.00    1.22646   1.19974   57.975
 5424.00    1.21471   1.19059   57.720
 5425.00    1.22021   1.18643   58.097
 5426.00    1.24038   1.19294   -1.000
 5427.00    1.24766   1.20456   -1.000
 5428.00    1.22965   1.20470   57.742
 5429.00    1.20213   1.18716   57.427
 5430.00    1.19042   1.16362   58.472
 5431.00    1.20234   1.15127   -1.000
 5432.00    1.21770   1.15381   -1.000
 5433.00    1.21482   1.15788   -1.000
 5434.00    1.19645   1.15384   -1.000
 5435.00    1.19059   1.14687   -1.000
 5436.00    1.20353   1.14904   -1.000
 5437.00    1.22575   1.16699   -1.000
 5438.00    1.25154   1.19505   -1.000
 5439.00    1.27265   1.22167   -1.000
 5440.00    1.28301   1.23894   -1.000
 5441.00    1.27520   1.24763   56.743
 5442.00    1.26260   1.25100   56.152
 5443.00    1.25548   1.24805   55.912
 5444.00    1.23874   1.23441   55.886
 5445.00    1.21113   1.20727   56.226
 5446.00    1.18872   1.17300   57.366
 5447.00    1.18614   1.14591   59.418
 5448.00    1.20981   1.13983   -1.000
 5449.00    1.23986   1.15722   -1.000
 5450.00    1.25577   1.18502   -1.000
 5451.00    1.26308   1.20792   -1.000
 5452.00    1.26355   1.21768   -1.000
 5453.00    1.24690   1.21192   57.693
 5454.00    1.21760   1.19221   58.000
 5455.00    1.19534   1.16604   59.004
 5456.00    1.19571   1.14735   -1.000
 5457.00    1.22101   1.15048   -1.000
 5458.00    1.25215   1.17392   -1.000
 5459.00    1.26513   1.20109   -1.000
 5460.00    1.26036   1.21568   -1.000
 5461.00    1.24611   1.21249   57.695
 5462.00    1.22445   1.19713   57.994
 5463.00    1.21043   1.18037   58.952
 5464.00    1.21394   1.17238   -1.000
 5465.00    1.22780   1.17671   -1.000
 5466.00    1.23807   1.18895   -1.000
 5467.00    1.24336   1.20149   -1.000
 5468.00    1.24771   1.21041   -1.000
 5469.00    1.25012   1.21548   58.421
 5470.00    1.25312   1.21615   57.980
 5471.00    1.24950   1.21243   58.204
 5472.00    1.24107   1.20607   58.822
 5473.00    1.23299   1.19785   59.207
 5474.00    1.22062   1.18645   59.451
 5475.00    1.19817   1.17004   59.933
 5476.00    1.17301   1.15007   60.696
 5477.00    1.16920   1.13501   61.816
 5478.00    1.19142   1.13430   -1.000
 5479.00    1.21994   1.14871   -1.000
 5480.00    1.22860   1.16722   -1.000
 5481.00    1.22109   1.17691   -1.000
 5482.00    1.21756   1.17849   59.879
 5483.00    1.22638   1.18166   -1.000
 5484.00    1.23936   1.19199   -1.000
 5485.00    1.24322   1.20565   -1.000
 5486.00    1.24150   1.21353   58.956
 5487.00    1.23785   1.21106   58.132
 5488.00    1.22888   1.20237   58.255
 5489.00    1.22133   1.19614   59.024
 5490.00    1.22774   1.19703   59.602
 5491.00    1.23440   1.20234   59.736
 5492.00    1.23870   1.20751   59.491
 5493.00    1.24019   1.21024   59.043
 5494.00    1.23256   1.21093   58.733
 5495.00    1.23248   1.20996   58.719
 5496.00    1.23685   1.20594   58.806
 5497.00    1.23258   1.19917   58.804
 5498.00    1.22909   1.19326   59.038
 5499.00    1.23483   1.19145   -1.000
 5500.00    1.23642   1.19194   -1.000
 5501.00    1.22391   1.18833   -1.000
 5502.00    1.21135   1.17992   58.879
 5503.00    1.21894   1.17445   -1.000
 5504.00    1.23694   1.17472   -1.000
 5505.00    1.23769   1.17530   -1.000
 5506.00    1.22074   1.17119   -1.000
 5507.00    1.21122   1.16481   -1.000
 5508.00    1.22091   1.16446   -1.000
 5509.00    1.23235   1.17215   -1.000
 5510.00    1.22750   1.18074   -1.000
 5511.00    1.21454   1.18180   59.250
 5512.00    1.21130   1.17281   -1.000
 5513.00    1.20546   1.15964   -1.000
 5514.00    1.20210   1.15168   -1.000
 5515.00    1.21711   1.15450   -1.000
 5516.00    1.23958   1.16624   -1.000
 5517.00    1.25011   1.18197   -1.000
 5518.00    1.25226   1.19778   -1.000
 5519.00    1.26228   1.21103   -1.000
 5520.00    1.26141   1.21939   -1.000
 5521.00    1.25298   1.22230   57.352
 5522.00    1.25102   1.22159   57.376
 5523.00    1.25157   1.21982   57.486
 5524.00    1.24444   1.21679   57.648
 5525.00    1.23192   1.20882   57.798
 5526.00    1.21753   1.19308   58.026
 5527.00    1.19253   1.17093   58.625
 5528.00    1.17143   1.15036   59.745
 5529.00    1.17903   1.14209   61.245
 5530.00    1.20899   1.15220   -1.000
 5531.00    1.23167   1.17452   -1.000
 5532.00    1.23737   1.19402   -1.000
 5533.00    1.23269   1.20142   58.800
 5534.00    1.22465   1.19837   58.553
 5535.00    1.22155   1.19211   58.947
 5536.00    1.22649   1.18930   59.379
 5537.00    1.23427   1.19242   -1.000
 5538.00    1.24212   1.19868   -1.000
 5539.00    1.24814   1.20461   -1.000
 5540.00    1.25097   1.21029   -1.000
 5541.00    1.25157   1.21569   58.073
 5542.00    1.24768   1.21713   57.546
 5543.00    1.23741   1.21262   57.354
 5544.00    1.23166   1.20562   57.707
 5545.00    1.23124   1.20167   58.328
 5546.00    1.23229   1.20288   58.682
 5547.00    1.24070   1.20742   58.642
 5548.00    1.25078   1.21393   58.480
 5549.00    1.25788   1.22198   58.225
 5550.00    1.26091   1.22890   57.732
 5551.00    1.25822   1.23178   57.196
 5552.00    1.25659   1.22983   56.906
 5553.00    1.25274   1.22383   57.023
 5554.00    1.23989   1.21653   57.453
 5555.00    1.23275   1.21182   58.048
 5556.00    1.23636   1.21162   58.520
 5557.00    1.23954   1.21405   58.585
 5558.00    1.24384   1.21659   58.428
 5559.00    1.24734   1.21882   58.284
 5560.00    1.24895   1.21992   58.203
 5561.00    1.24201   1.21758   58.137
 5562.00    1.23015   1.21087   58.173
 5563.00    1.22317   1.20215   58.400
 5564.00    1.21759   1.19488   58.864
 5565.00    1.21616   1.19023   59.383
 5566.00    1.21584   1.18724   59.657
 5567.00    1.21879   1.18494   59.789
 5568.00    1.21783   1.18306   59.878
 5569.00    1.21170   1.18136   59.838
 5570.00    1.21297   1.17979   59.702
 5571.00    1.21450   1.17810   59.733
 5572.00    1.20655   1.17565   59.811
 5573.00    1.20058   1.17283   59.779
 5574.00    1.20809   1.17308   59.878
 5575.00    1.21409   1.17831   59.839
 5576.00    1.19826   1.18494   59.356
 5577.00    1.11548   1.19062   -1.000
 5578.00    0.89769   1.19690   -1.000
 5579.00    0.61224   1.20362   -1.000
 5580.00    0.50026   1.20794   -1.000
 5581.00    0.70318   1.20835   -1.000
 5582.00    1.03523   1.20643   -1.000
 5583.00    1.20570   1.20431   60.055
 5584.00    1.22511   1.20123   59.307
 5585.00    1.21642   1.19308   58.930
 5586.00    1.19546   1.17488   59.072
 5587.00    1.16489   1.14766   59.935
 5588.00    1.14918   1.12209   61.427
 5589.00    1.15588   1.10909   -1.000
 5590.00    1.17435   1.11235   -1.000
 5591.00    1.19472   1.12752   -1.000
 5592.00    1.20349   1.14537   -1.000
 5593.00    1.19982   1.15734   -1.000
 5594.00    1.19823   1.16208   61.075
 5595.00    1.20391   1.16530   -1.000
 5596.00    1.21588   1.17106   -1.000
 5597.00    1.22148   1.17621   -1.000
 5598.00    1.20976   1.17401   -1.000
 5599.00    1.19637   1.16451   59.788
 5600.00    1.19133   1.15464   60.661
 5601.00    1.18872   1.14689   -1.000
 5602.00    1.18350   1.14091   -1.000
 5603.00    1.18687   1.14184   -1.000
 5604.00    1.20898   1.15519   -1.000
 5605.00    1.23209   1.17921   -1.000
 5606.00    1.24664   1.20530   -1.000
 5607.00    1.24817   1.22466   58.912
 5608.00    1.25057   1.23486   57.910
 5609.00    1.25489   1.23871   57.541
 5610.00    1.25417   1.24000   57.554
 5611.00    1.25653   1.24084   57.667
 5612.00    1.25467   1.23954   57.698
 5613.00    1.24229   1.23022   57.567
 5614.00    1.21291   1.20824   57.606
 5615.00    1.17736   1.17782   58.365
 5616.00    1.17010   1.15226   60.043
 5617.00    1.19619   1.14610   -1.000
 5618.00    1.22303   1.15925   -1.000
 5619.00    1.23205   1.17846   -1.000
 5620.00    1.23191   1.19383   -1.000
 5621.00    1.23668   1.20314   59.488
 5622.00    1.23698   1.20644   59.323
 5623.00    1.22415   1.20266   59.027
 5624.00    1.21059   1.19193   59.004
 5625.00    1.20554   1.18058   59.746
 5626.00    1.21656   1.17725   60.954
 5627.00    1.23122   1.18455   -1.000
 5628.00    1.24184   1.19783   -1.000
 5629.00    1.25046   1.21009   -1.000
 5630.00    1.25329   1.21832   58.887
 5631.00    1.25433   1.22316   58.337
 5632.00    1.25188   1.22484   58.053
 5633.00    1.24354   1.22322   57.870
 5634.00    1.23620   1.21876   57.775
 5635.00    1.23375   1.21199   58.050
 5636.00    1.22817   1.20431   58.512
 5637.00    1.22181   1.19775   58.902
 5638.00    1.22457   1.19370   59.301
 5639.00    1.22515   1.19254   59.726
 5640.00    1.22024   1.19272   59.933
 5641.00    1.21922   1.19183   59.878
 5642.00    1.22159   1.19061   59.943
 5643.00    1.22431   1.19159   60.082
 5644.00    1.22698   1.19465   59.967
 5645.00    1.23175   1.19841   59.690
 5646.00    1.23254   1.20237   59.501
 5647.00    1.23373   1.20556   59.261
 5648.00    1.23927   1.20659   58.944
 5649.00    1.23894   1.20544   58.804
 5650.00    1.23778   1.20378   58.682
 5651.00    1.23923   1.20402   58.712
 5652.00    1.23833   1.20604   58.800
 5653.00    1.22980   1.20684   58.558
 5654.00    1.21791   1.20399   58.210
 5655.00    1.21508   1.19710   58.264
 5656.00    1.21002   1.18661   58.631
 5657.00    1.19364   1.17197   59.163
 5658.00    1.17644   1.15465   60.009
 5659.00    1.17200   1.14247   61.542
 5660.00    1.18391   1.14246   -1.000
 5661.00    1.20182   1.15131   -1.000
 5662.00    1.20175   1.16105   -1.000
 5663.00    1.19821   1.16824   60.978
 5664.00    1.21003   1.17538   60.984
 5665.00    1.22164   1.18500   60.723
 5666.00    1.22319   1.19345   59.899
 5667.00    1.21778   1.19603   59.332
 5668.00    1.21876   1.19398   59.404
 5669.00    1.22030   1.19190   59.775
 5670.00    1.22120   1.19295   59.997
 5671.00    1.22860   1.19747   59.942
 5672.00    1.23426   1.20395   59.661
 5673.00    1.23748   1.21028   59.195
 5674.00    1.23744   1.21483   58.634
 5675.00    1.23937   1.21669   58.051
 5676.00    1.23949   1.21682   57.767
 5677.00    1.23766   1.21716   57.908
 5678.00    1.23818   1.21765   57.931
 5679.00    1.23882   1.21632   57.763
 5680.00    1.23545   1.21137   57.864
 5681.00    1.22713   1.20221   58.159
 5682.00    1.21324   1.18994   58.439
 5683.00    1.20060   1.17833   58.954
 5684.00    1.19939   1.17192   59.675
 5685.00    1.20136   1.17236   60.113
 5686.00    1.19922   1.17601   59.975
 5687.00    1.19679   1.17686   59.633
 5688.00    1.19744   1.17378   59.634
 5689.00    1.20381   1.17148   60.156
 5690.00    1.21695   1.17514   -1.000
 5691.00    1.22905   1.18534   -1.000
 5692.00    1.23575   1.19759   -1.000
 5693.00    1.23763   1.20712   58.579
 5694.00    1.22935   1.21237   58.153
 5695.00    1.23018   1.21442   57.915
 5696.00    1.23498   1.21428   57.912
 5697.00    1.23182   1.21206   57.982
 5698.00    1.22856   1.20725   58.080
 5699.00    1.21990   1.19966   58.445
 5700.00    1.20319   1.19078   59.103
 5701.00    1.19181   1.18300   59.717
 5702.00    1.18858   1.17870   60.284
 5703.00    1.20011   1.17890   60.772
 5704.00    1.21046   1.18202   60.679
 5705.00    1.20337   1.18379   60.088
 5706.00    1.19039   1.18015   59.673
 5707.00    1.18102   1.17075   59.819
 5708.00    1.16697   1.15743   60.466
 5709.00    1.14845   1.14295   61.482
 5710.00    1.14252   1.13223   62.564
 5711.00    1.15141   1.13005   63.240
 5712.00    1.17206   1.13770   63.322
 5713.00    1.19078   1.15372   62.905
 5714.00    1.20934   1.17365   61.921
 5715.00    1.22261   1.19094   60.477
 5716.00    1.22503   1.20142   59.228
 5717.00    1.22330   1.20652   58.686
 5718.00    1.22697   1.21003   58.563
 5719.00    1.23009   1.21416   58.410
 5720.00    1.23592   1.21948   58.175
 5721.00    1.24383   1.22533   57.839
 5722.00    1.24570   1.23045   57.506
 5723.00    1.24259   1.23390   57.306
 5724.00    1.24052   1.23522   57.200
 5725.00    1.23905   1.23365   57.124
 5726.00    1.23522   1.22836   57.149
 5727.00    1.22753   1.22093   57.460
 5728.00    1.22229   1.21537   58.029
 5729.00    1.22883   1.21398   58.582
 5730.00    1.22993   1.21542   58.680
 5731.00    1.22003   1.21625   58.285
 5732.00    1.22103   1.21562   58.169
 5733.00    1.23092   1.21657   58.433
 5734.00    1.23526   1.22103   58.505
 5735.00    1.23484   1.22701   58.082
 5736.00    1.23488   1.23080   57.581
 5737.00    1.23530   1.23101   57.423
 5738.00    1.23286   1.22938   57.514
 5739.00    1.22845   1.22811   57.627
 5740.00    1.22576   1.22777   57.752
 5741.00    1.22535   1.22716   57.819
 5742.00    1.22586   1.22540   57.937
 5743.00    1.22231   1.22384   58.039
 5744.00    1.22385   1.22432   58.055
 5745.00    1.23504   1.22669   57.930
 5746.00    1.23460   1.22806   57.719
 5747.00    1.22179   1.22614   57.311
 5748.00    1.21850   1.22273   57.291
 5749.00    1.22376   1.22144   57.771
 5750.00    1.22625   1.22267   58.207
 5751.00    1.21599   1.22170   58.145
 5752.00    1.20158   1.21428   57.832
 5753.00    1.19031   1.20267   57.952
 5754.00    1.19416   1.19382   58.571
 5755.00    1.20475   1.19427   59.245
 5756.00    1.21650   1.20446   59.560
 5757.00    1.23019   1.21863   59.167
 5758.00    1.23663   1.22956   58.202
 5759.00    1.23070   1.23300   57.272
 5760.00    1.21666   1.22863   57.002
 5761.00    1.20137   1.21860   57.447
 5762.00    1.20022   1.20684   58.173
 5763.00    1.20552   1.19942   58.956
 5764.00    1.21102   1.20149   59.543
 5765.00    1.22341   1.21252   59.386
 5766.00    1.23659   1.22636   58.488
 5767.00    1.24002   1.23615   57.560
 5768.00    1.24043   1.23973   57.114
 5769.00    1.23824   1.23916   57.028
 5770.00    1.22868   1.23680   56.958
 5771.00    1.22204   1.23341   56.948
 5772.00    1.21980   1.22879   57.115
 5773.00    1.21910   1.22337   57.364
 5774.00    1.21626   1.21893   57.710
 5775.00    1.20802   1.21697   57.979
 5776.00    1.20675   1.21779   58.073
 5777.00    1.21142   1.22015   58.058
 5778.00    1.21149   1.22035   57.848
 5779.00    1.20341   1.21449   57.645
 5780.00    1.18586   1.20246   57.712
 5781.00    1.16755   1.18813   58.190
 5782.00    1.16125   1.17706   59.291
 5783.00    1.16097   1.17246   60.431
 5784.00    1.16535   1.17312   60.786
 5785.00    1.17768   1.17599   60.557
 5786.00    1.18910   1.18012   60.327
 5787.00    1.20227   1.18731   60.111
 5788.00    1.21125   1.19712   59.699
 5789.00    1.21008   1.20475   58.942
 5790.00    1.20892   1.20660   58.291
 5791.00    1.20566   1.20432   58.085
 5792.00    1.20734   1.20342   58.271
 5793.00    1.22207   1.20775   58.401
 5794.00    1.22226   1.21594   58.117
 5795.00    1.21689   1.22409   57.643
 5796.00    1.21933   1.22869   57.278
 5797.00    1.20993   1.22801   57.061
 5798.00    1.20880   1.22425   57.204
 5799.00    1.21463   1.22291   57.586
 5800.00    1.22386   1.22671   57.688
 5801.00    1.23485   1.23287   57.169
 5802.00    1.23580   1.23709   56.385
 5803.00    1.22759   1.23686   55.873
 5804.00    1.22043   1.23221   56.039
 5805.00    1.21623   1.22571   56.540
 5806.00    1.21293   1.22124   56.980
 5807.00    1.21542   1.22095   57.364
 5808.00    1.21735   1.22363   57.443
 5809.00    1.21760   1.22689   57.247
 5810.00    1.22823   1.22974   57.047
 5811.00    1.22471   1.23206   56.949
 5812.00    1.22556   1.23310   56.938
 5813.00    1.22886   1.23200   56.812
 5814.00    1.22759   1.22847   56.604
 5815.00    1.21895   1.22281   56.556
 5816.00    1.21431   1.21710   56.835
 5817.00    1.21766   1.21541   57.252
 5818.00    1.22800   1.22002   57.270
 5819.00    1.23905   1.22794   56.893
 5820.00    1.24219   1.23405   56.531
 5821.00    1.23874   1.23642   56.241
 5822.00    1.24107   1.23644   56.001
 5823.00    1.23896   1.23602   55.933
 5824.00    1.23313   1.23579   56.089
 5825.00    1.23540   1.23554   56.174
 5826.00    1.24104   1.23562   56.055
 5827.00    1.24403   1.23648   55.969
 5828.00    1.24284   1.23788   55.881
 5829.00    1.23962   1.23891   55.860
 5830.00    1.23619   1.23914   55.920
 5831.00    1.23421   1.23880   55.951
 5832.00    1.23320   1.23798   55.869
 5833.00    1.22960   1.23633   55.862
 5834.00    1.23148   1.23386   55.849
 5835.00    1.23879   1.23164   56.084
 5836.00    1.24309   1.23127   56.369
 5837.00    1.23875   1.23300   56.322
 5838.00    1.23187   1.23508   56.145
 5839.00    1.23295   1.23608   56.159
 5840.00    1.23730   1.23676   56.344
 5841.00    1.24256   1.23816   56.344
 5842.00    1.24153   1.23954   56.045
 5843.00    1.23882   1.23949   55.662
 5844.00    1.23778   1.23764   55.503
 5845.00    1.23009   1.23424   55.607
 5846.00    1.21919   1.22950   55.817
 5847.00    1.21349   1.22448   56.096
 5848.00    1.22025   1.22119   56.449
 5849.00    1.22623   1.22035   56.718
 5850.00    1.23108   1.21971   56.867
 5851.00    1.22428   1.21635   56.833
 5852.00    1.21104   1.20946   57.033
 5853.00    1.20333   1.20111   57.390
 5854.00    1.20129   1.19400   57.830
 5855.00    1.20077   1.18813   58.308
 5856.00    1.19407   1.18058   58.489
 5857.00    1.18474   1.16904   58.563
 5858.00    1.18134   1.15806   58.831
 5859.00    1.19228   1.15631   59.464
 5860.00    1.20669   1.16530   -1.000
 5861.00    1.20977   1.17853   59.008
 5862.00    1.21911   1.18950   58.345
 5863.00    1.21740   1.19649   58.000
 5864.00    1.21259   1.20115   57.809
 5865.00    1.21396   1.20320   57.617
 5866.00    1.20938   1.20119   57.645
 5867.00    1.20626   1.19725   57.839
 5868.00    1.20968   1.19599   58.074
 5869.00    1.21488   1.20027   58.237
 5870.00    1.22303   1.20856   57.957
 5871.00    1.22551   1.21620   57.390
 5872.00    1.22286   1.21969   57.007
 5873.00    1.22588   1.21910   56.867
 5874.00    1.22907   1.21674   56.937
 5875.00    1.22943   1.21440   57.049
 5876.00    1.22405   1.21215   57.006
 5877.00    1.22167   1.20931   57.008
 5878.00    1.22095   1.20546   57.230
 5879.00    1.21957   1.20064   57.420
 5880.00    1.21824   1.19545   57.625
 5881.00    1.21551   1.19061   58.085
 5882.00    1.21014   1.18591   58.309
 5883.00    1.20451   1.18049   58.218
 5884.00    1.20199   1.17434   58.102
 5885.00    1.20179   1.16796   58.216
 5886.00    1.19534   1.15903   -1.000
 5887.00    1.17626   1.13911   -1.000
 5888.00    1.12672   1.09853   58.907
 5889.00    1.04511   1.04004   60.173
 5890.00    0.95482   0.98506   63.106
 5891.00    0.88491   0.96169   -1.000
 5892.00    0.86831   0.97532   -1.000
 5893.00    0.91718   1.00211   -1.000
 5894.00    0.98919   1.01587   67.888
 5895.00    1.02528   1.00869   65.598
 5896.00    1.01324   0.99362   65.210
 5897.00    0.98394   0.99165   66.546
 5898.00    0.99051   1.01379   67.768
 5899.00    1.03984   1.05162   66.681
 5900.00    1.11086   1.08914   64.454
 5901.00    1.17042   1.11988   -1.000
 5902.00    1.19151   1.14391   -1.000
 5903.00    1.19458   1.16071   -1.000
 5904.00    1.19970   1.17027   58.706
 5905.00    1.20117   1.17481   58.555
 5906.00    1.19977   1.17746   58.525
 5907.00    1.20875   1.18033   58.554
 5908.00    1.21319   1.18363   58.613
 5909.00    1.20848   1.18676   58.540
 5910.00    1.20634   1.18932   58.412
 5911.00    1.20149   1.19060   58.394
 5912.00    1.19655   1.18903   58.590
 5913.00    1.19364   1.18307   58.649
 5914.00    1.18118   1.17386   58.768
 5915.00    1.17597   1.16588   59.232
 5916.00    1.18336   1.16296   60.010
 5917.00    1.19147   1.16579   60.203
 5918.00    1.19583   1.17258   59.951
 5919.00    1.19995   1.18033   59.629
 5920.00    1.19708   1.18599   59.420
 5921.00    1.19645   1.18828   59.202
 5922.00    1.19934   1.18813   59.046
 5923.00    1.20158   1.18747   58.900
 5924.00    1.20153   1.18805   58.962
 5925.00    1.20348   1.19047   58.912
 5926.00    1.19541   1.19364   58.662
 5927.00    1.18693   1.19484   58.516
 5928.00    1.18355   1.19161   58.438
 5929.00    1.17961   1.18460   58.455
 5930.00    1.17727   1.17802   58.693
 5931.00    1.18702   1.17629   59.165
 5932.00    1.19813   1.17974   59.444
 5933.00    1.19512   1.18399   59.145
 5934.00    1.18952   1.18538   58.622
 5935.00    1.19109   1.18567   58.639
 5936.00    1.18460   1.18820   59.135
 5937.00    1.18515   1.19289   59.420
 5938.00    1.19798   1.19699   59.314
 5939.00    1.20265   1.19784   58.847
 5940.00    1.20354   1.19471   58.438
 5941.00    1.19636   1.18927   58.401
 5942.00    1.19207   1.18500   58.793
 5943.00    1.19106   1.18446   59.342
 5944.00    1.19160   1.18717   59.502
 5945.00    1.19034   1.19062   59.320
 5946.00    1.19029   1.19209   58.942
 5947.00    1.18297   1.19004   58.641
 5948.00    1.17043   1.18527   58.559
 5949.00    1.16787   1.18102   58.892
 5950.00    1.17369   1.17995   59.489
 5951.00    1.18063   1.18120   59.954
 5952.00    1.17732   1.18135   59.878
 5953.00    1.17711   1.17929   59.562
 5954.00    1.18211   1.17805   59.485
 5955.00    1.17867   1.17869   59.610
 5956.00    1.17638   1.17844   59.508
 5957.00    1.18317   1.17682   59.438
 5958.00    1.19000   1.17678   59.544
 5959.00    1.19598   1.18051   59.761
 5960.00    1.19845   1.18734   59.715
 5961.00    1.19600   1.19438   59.295
 5962.00    1.19737   1.19913   58.603
 5963.00    1.20347   1.20084   58.173
 5964.00    1.19901   1.19965   58.034
 5965.00    1.18883   1.19635   58.050
 5966.00    1.18887   1.19281   58.269
 5967.00    1.19211   1.19115   58.568
 5968.00    1.20024   1.19213   58.752
 5969.00    1.20255   1.19488   58.854
 5970.00    1.19895   1.19831   58.569
 5971.00    1.20079   1.20172   58.195
 5972.00    1.19860   1.20391   58.136
 5973.00    1.19369   1.20366   58.091
 5974.00    1.19035   1.20017   57.969
 5975.00    1.18133   1.19333   58.042
 5976.00    1.17678   1.18481   58.450
 5977.00    1.17099   1.17802   58.919
 5978.00    1.17358   1.17629   59.355
 5979.00    1.17946   1.18011   59.724
 5980.00    1.18655   1.18665   59.797
 5981.00    1.18584   1.19155   59.388
 5982.00    1.17842   1.19107   58.955
 5983.00    1.16773   1.18450   58.886
 5984.00    1.16520   1.17530   59.176
 5985.00    1.16814   1.16923   59.707
 5986.00    1.17231   1.16957   60.156
 5987.00    1.17552   1.17488   60.259
 5988.00    1.17985   1.18145   59.852
 5989.00    1.18971   1.18659   59.272
 5990.00    1.18846   1.18944   59.006
 5991.00    1.18202   1.19052   58.791
 5992.00    1.18238   1.19183   58.613
 5993.00    1.19043   1.19542   58.766
 5994.00    1.18810   1.20037   58.762
 5995.00    1.17994   1.20252   58.357
 5996.00    1.17993   1.19974   57.957
 5997.00    1.17592   1.19419   58.015
 5998.00    1.17476   1.18954   58.480
 5999.00    1.17429   1.18790   58.829
 6000.00    1.17757   1.18840   59.028
 6001.00    1.17644   1.18853   59.066
 6002.00    1.17022   1.18652   58.986
 6003.00    1.17119   1.18330   59.160
 6004.00    1.16980   1.18141   59.496
 6005.00    1.17011   1.18116   59.599
 6006.00    1.16912   1.17929   59.512
 6007.00    1.16179   1.17332   59.399
 6008.00    1.15739   1.16631   59.588
 6009.00    1.16035   1.16439   60.115
 6010.00    1.17223   1.16980   60.545
 6011.00    1.17789   1.17801   60.246
 6012.00    1.17405   1.18234   59.507
 6013.00    1.16684   1.18118   59.110
 6014.00    1.15946   1.17795   59.342
 6015.00    1.16199   1.17559   59.795
 6016.00    1.16404   1.17449   59.895
 6017.00    1.16211   1.17372   59.617
 6018.00    1.16692   1.17247   59.739
 6019.00    1.16574   1.16996   59.981
 6020.00    1.15642   1.16593   59.994
 6021.00    1.14685   1.16209   59.912
 6022.00    1.14758   1.16110   60.203
 6023.00    1.15846   1.16317   60.416
 6024.00    1.15663   1.16668   60.053
 6025.00    1.15794   1.17178   59.721
 6026.00    1.16635   1.17891   59.643
 6027.00    1.17319   1.18610   59.481
 6028.00    1.16754   1.19180   59.144
 6029.00    1.16846   1.19667   58.936
 6030.00    1.17283   1.20095   58.568
 6031.00    1.17643   1.20388   58.386
 6032.00    1.18544   1.20567   58.351
 6033.00    1.18722   1.20735   58.412
 6034.00    1.18286   1.20920   58.490
 6035.00    1.18084   1.21056   58.305
 6036.00    1.18228   1.21085   58.065
 6037.00    1.18093   1.21000   57.970
 6038.00    1.18205   1.20809   57.932
 6039.00    1.17894   1.20502   57.862
 6040.00    1.17208   1.20119   58.028
 6041.00    1.16899   1.19788   58.326
 6042.00    1.16821   1.19638   58.433
 6043.00    1.16861   1.19728   58.541
 6044.00    1.17289   1.20030   58.388
 6045.00    1.17227   1.20425   58.257
 6046.00    1.17792   1.20774   57.879
 6047.00    1.18036   1.21062   57.547
 6048.00    1.17906   1.21343   57.637
 6049.00    1.17649   1.21580   57.606
 6050.00    1.17774   1.21702   57.544
 6051.00    1.17536   1.21673   57.664
 6052.00    1.17440   1.21474   57.860
 6053.00    1.16718   1.21074   57.955
 6054.00    1.16029   1.20480   58.017
 6055.00    1.15746   1.19835   58.173
 6056.00    1.16014   1.19361   58.409
 6057.00    1.16357   1.19247   58.619
 6058.00    1.16829   1.19511   58.924
 6059.00    1.17005   1.19978   59.001
 6060.00    1.17045   1.20403   58.810
 6061.00    1.16632   1.20597   58.479
 6062.00    1.16625   1.20405   58.289
 6063.00    1.16381   1.19729   58.419
 6064.00    1.15795   1.18651   58.749
 6065.00    1.08153   1.17565   -1.000
 6066.00    0.87153   1.17112   -1.000
 6067.00    1.06476   1.17634   -1.000
 6068.00    1.01125   1.18770   -1.000
 6069.00    0.33858   1.19919   -1.000
 6070.00    0.30151   1.20752   -1.000
 6071.00    0.90641   1.21211   -1.000
 6072.00    1.15328   1.21419   58.062
 6073.00    1.06036   1.21526   -1.000
 6074.00    0.97638   1.21583   -1.000
 6075.00    0.46922   1.21510   -1.000
 6076.00    0.79440   1.21196   -1.000
 6077.00    1.20721   1.20618   57.916
 6078.00    1.13925   1.19898   58.159
 6079.00    1.14446   1.19284   58.480
 6080.00    1.14858   1.18948   58.850
 6081.00    1.14969   1.18781   59.296
 6082.00    1.14582   1.18581   59.555
 6083.00    1.14198   1.18351   59.557
 6084.00    1.14026   1.18186   59.651
 6085.00    1.14069   1.18148   59.789
 6086.00    1.14855   1.18306   59.751
 6087.00    1.15327   1.18650   59.701
 6088.00    1.15317   1.18978   59.606
 6089.00    1.14911   1.19043   59.402
 6090.00    1.13808   1.18824   59.251
 6091.00    1.13840   1.18518   59.474
 6092.00    1.14364   1.18363   59.830
 6093.00    1.14664   1.18492   59.992
 6094.00    1.15240   1.18860   59.837
 6095.00    1.15944   1.19318   59.439
 6096.00    1.16080   1.19724   59.147
 6097.00    1.15681   1.20034   58.826
 6098.00    1.15268   1.20221   58.653
 6099.00    1.15128   1.20133   58.737
 6100.00    1.14446   1.19450   58.866
 6101.00    1.13091   1.17922   58.881
 6102.00    1.11888   1.15837   59.063
 6103.00    1.10656   1.14168   60.043
 6104.00    1.11191   1.13912   61.467
 6105.00    1.13259   1.15080   62.013
 6106.00    1.14232   1.16729   61.225
 6107.00    1.14034   1.18060   60.057
 6108.00    1.13789   1.18911   59.366
 6109.00    1.14535   1.19467   59.343
 6110.00    1.14565   1.19844   59.588
 6111.00    1.14549   1.20011   59.676
 6112.00    1.14100   1.20044   59.608
 6113.00    1.14060   1.20122   59.435
 6114.00    1.14750   1.20293   59.222
 6115.00    1.14076   1.20435   -1.000
 6116.00    1.14242   1.20420   58.853
 6117.00    1.13713   1.20267   -1.000
 6118.00    1.13488   1.19997   -1.000
 6119.00    1.13076   1.19390   -1.000
 6120.00    1.12149   1.18146   59.561
 6121.00    1.10907   1.16291   60.021
 6122.00    1.09764   1.14423   60.935
 6123.00    1.10306   1.13423   61.654
 6124.00    1.12068   1.13691   62.088
 6125.00    1.13395   1.14861   61.817
 6126.00    1.12839   1.16230   60.757
 6127.00    1.13411   1.17274   60.200
 6128.00    1.13057   1.17933   60.351
 6129.00    1.12821   1.18422   60.630
 6130.00    1.13263   1.18949   60.486
 6131.00    1.13407   1.19533   -1.000
 6132.00    1.13244   1.20049   -1.000
 6133.00    1.12880   1.20226   -1.000
 6134.00    1.11701   1.19602   -1.000
 6135.00    1.09957   1.17809   -1.000
 6136.00    1.08279   1.15127   -1.000
 6137.00    1.06587   1.12689   -1.000
 6138.00    1.07026   1.11763   63.640
 6139.00    1.08669   1.12512   64.866
 6140.00    1.10080   1.13889   64.460
 6141.00    1.10848   1.15001   62.617
 6142.00    1.10461   1.15840   61.101
 6143.00    1.10454   1.16787   -1.000
 6144.00    1.11336   1.17883   -1.000
 6145.00    1.12497   1.18725   -1.000
 6146.00    1.12415   1.19032   -1.000
 6147.00    1.11939   1.18882   -1.000
 6148.00    1.10805   1.18487   -1.000
 6149.00    1.10868   1.18038   -1.000
 6150.00    1.12058   1.17677   60.328
 6151.00    1.12314   1.17525   60.750
 6152.00    1.12419   1.17623   61.013
 6153.00    1.11510   1.17784   -1.000
 6154.00    1.10853   1.17695   -1.000
 6155.00    1.10556   1.17306   -1.000
 6156.00    1.10412   1.16883   -1.000
 6157.00    1.10882   1.16606   60.904
 6158.00    1.10405   1.16295   61.122
 6159.00    1.09744   1.15458   61.187
 6160.00    1.08021   1.13602   61.561
 6161.00    1.06103   1.10764   62.377
 6162.00    1.04985   1.07840   63.783
 6163.00    1.05132   1.06112   65.785
 6164.00    1.06171   1.06237   67.385
 6165.00    1.07817   1.07731   67.509
 6166.00    1.09046   1.09540   66.141
 6167.00    1.08690   1.10770   64.419
 6168.00    1.07787   1.10939   63.698
 6169.00    1.06707   1.10297   63.590
 6170.00    1.05786   1.09823   63.947
 6171.00    1.06850   1.10339   64.818
 6172.00    1.08501   1.11655   65.184
 6173.00    1.09127   1.13098   64.398
 6174.00    1.09373   1.14250   63.150
 6175.00    1.09153   1.14991   62.530
 6176.00    1.09594   1.15385   62.694
 6177.00    1.10291   1.15625   62.680
 6178.00    1.09967   1.15873   62.511
 6179.00    1.09467   1.16125   -1.000
 6180.00    1.09251   1.16363   -1.000
 6181.00    1.09484   1.16667   -1.000
 6182.00    1.10399   1.17060   -1.000
 6183.00    1.11143   1.17373   -1.000
 6184.00    1.11165   1.17395   -1.000
 6185.00    1.10618   1.17075   -1.000
 6186.00    1.09772   1.16510   -1.000
 6187.00    1.09622   1.15832   -1.000
 6188.00    1.09095   1.15132   -1.000
 6189.00    1.08369   1.14322   -1.000
 6190.00    1.07750   1.13229   63.455
 6191.00    1.06960   1.12049   64.022
 6192.00    1.07130   1.11505   64.546
 6193.00    1.08248   1.12077   65.358
 6194.00    1.09157   1.13373   65.462
 6195.00    1.09560   1.14702   64.402
 6196.00    1.10021   1.15709   62.823
 6197.00    1.10251   1.16254   62.020
 6198.00    1.09640   1.16280   -1.000
 6199.00    1.09496   1.15871   -1.000
 6200.00    1.08990   1.15374   -1.000
 6201.00    1.08956   1.15231   -1.000
 6202.00    1.09554   1.15603   -1.000
 6203.00    1.09734   1.16279   -1.000
 6204.00    1.09933   1.16977   -1.000
 6205.00    1.09461   1.17515   -1.000
 6206.00    1.09966   1.17844   -1.000
 6207.00    1.10309   1.18015   -1.000
 6208.00    1.10108   1.18077   -1.000
 6209.00    1.09886   1.17980   -1.000
 6210.00    1.09214   1.17596   -1.000
 6211.00    1.08961   1.16819   -1.000
 6212.00    1.08388   1.15662   -1.000
 6213.00    1.07258   1.14327   -1.000
 6214.00    1.06757   1.13181   -1.000
 6215.00    1.07086   1.12522   64.065
 6216.00    1.07258   1.12356   65.023
 6217.00    1.07332   1.12420   65.525
 6218.00    1.07301   1.12405   65.432
 6219.00    1.07083   1.12245   64.553
 6220.00    1.06710   1.12192   64.498
 6221.00    1.06943   1.12484   64.939
 6222.00    1.07978   1.13051   64.533
 6223.00    1.08173   1.13586   64.215
 6224.00    1.09188   1.13919   65.557
 6225.00    1.08747   1.14093   69.667
 6226.00    1.08920   1.14130   66.126
 6227.00    1.08576   1.13934   63.651
 6228.00    1.07432   1.13294   63.902
 6229.00    1.07002   1.12094   63.968
 6230.00    1.05116   1.10621   64.480
 6231.00    1.04275   1.09524   65.460
 6232.00    1.04645   1.09365   66.518
 6233.00    1.06334   1.10194   67.111
 6234.00    1.07243   1.11552   66.549
 6235.00    1.07553   1.12798   65.467
 6236.00    1.08087   1.13470   64.231
 6237.00    1.06601   1.13495   -1.000
 6238.00    1.06118   1.13089   -1.000
 6239.00    1.05782   1.12569   -1.000
 6240.00    1.04509   1.12115   -1.000
 6241.00    1.05049   1.11736   -1.000
 6242.00    1.04859   1.11317   -1.000
 6243.00    1.04215   1.10747   -1.000
 6244.00    1.03192   1.10054   -1.000
 6245.00    1.03452   1.09448   -1.000
 6246.00    1.04911   1.09241   66.862
 6247.00    1.04426   1.09716   66.688
 6248.00    1.05105   1.10830   -1.000
 6249.00    1.05914   1.12067   -1.000
 6250.00    1.05295   1.12754   -1.000
 6251.00    1.05124   1.12499   -1.000
 6252.00    1.03888   1.11463   -1.000
 6253.00    1.02259   1.10198   -1.000
 6254.00    1.02593   1.09265   -1.000
 6255.00    1.02504   1.08845   -1.000
 6256.00    1.02553   1.08742   -1.000
 6257.00    1.02442   1.08706   -1.000
 6258.00    1.02938   1.08701   -1.000
 6259.00    1.02777   1.08918   -1.000
 6260.00    1.04018   1.09535   -1.000
 6261.00    1.04841   1.10560   -1.000
 6262.00    1.05119   1.11769   -1.000
 6263.00    1.05888   1.12798   -1.000
 6264.00    1.05364   1.13373   -1.000
 6265.00    1.05205   1.13564   -1.000
 6266.00    1.05853   1.13694   -1.000
 6267.00    1.05625   1.13933   -1.000
 6268.00    1.06021   1.14139   -1.000
 6269.00    1.05975   1.14109   -1.000
 6270.00    1.05328   1.13914   -1.000
 6271.00    1.04652   1.13816   -1.000
 6272.00    1.05027   1.13908   -1.000
 6273.00    1.06033   1.13972   -1.000
 6274.00    1.06222   1.13668   -1.000
 6275.00    1.05633   1.12849   -1.000
 6276.00    1.05007   1.11704   -1.000
 6277.00    1.04205   1.10551   -1.000
 6278.00    1.02863   1.09624   -1.000
 6279.00    1.00698   1.09023   -1.000
 6280.00    0.98532   1.08842   -1.000
 6281.00    0.97244   1.09222   -1.000
 6282.00    0.97722   1.10148   -1.000
 6283.00    0.98882   1.11388   -1.000
 6284.00    0.99156   1.12624   -1.000
 6285.00    0.99530   1.13596   -1.000
 6286.00    1.00346   1.14224   -1.000
 6287.00    1.01097   1.14564   -1.000
 6288.00    1.02085   1.14662   -1.000
 6289.00    1.02856   1.14493   -1.000
 6290.00    1.03316   1.14085   -1.000
 6291.00    1.03001   1.13622   -1.000
 6292.00    1.02455   1.13287   -1.000
 6293.00    1.02830   1.13126   -1.000
 6294.00    1.03725   1.13052   -1.000
 6295.00    1.03890   1.12879   -1.000
 6296.00    1.03031   1.12444   -1.000
 6297.00    1.02026   1.11807   -1.000
 6298.00    1.00997   1.11236   -1.000
 6299.00    1.01332   1.10885   -1.000
 6300.00    1.00516   1.10620   -1.000
 6301.00    0.97610   1.10308   -1.000
 6302.00    0.95717   1.10166   -1.000
 6303.00    0.95087   1.10584   -1.000
 6304.00    0.96904   1.11600   -1.000
 6305.00    1.00772   1.12805   -1.000
 6306.00    1.03617   1.13793   -1.000
 6307.00    1.03832   1.14428   -1.000
 6308.00    1.03167   1.14729   -1.000
 6309.00    1.03383   1.14780   -1.000
 6310.00    1.03139   1.14692   -1.000
 6311.00    1.02354   1.14530   -1.000
 6312.00    1.02383   1.14281   -1.000
 6313.00    1.02697   1.13878   -1.000
 6314.00    1.02356   1.13288   -1.000
 6315.00    1.01604   1.12617   -1.000
 6316.00    1.01725   1.12015   -1.000
 6317.00    1.00986   1.11564   -1.000
 6318.00    1.00579   1.11377   -1.000
 6319.00    1.00794   1.11625   -1.000
 6320.00    1.01903   1.12324   -1.000
 6321.00    1.02772   1.13173   -1.000
 6322.00    1.02691   1.13872   -1.000
 6323.00    1.03120   1.14457   -1.000
 6324.00    1.04080   1.15071   -1.000
 6325.00    1.04879   1.15620   -1.000
 6326.00    1.05081   1.15929   -1.000
 6327.00    1.05493   1.15994   -1.000
 6328.00    1.05400   1.15943   -1.000
 6329.00    1.05212   1.15893   -1.000
 6330.00    1.04874   1.15895   -1.000
 6331.00    1.04249   1.15957   -1.000
 6332.00    1.04046   1.15996   -1.000
 6333.00    1.03318   1.15762   -1.000
 6334.00    1.03319   1.15022   -1.000
 6335.00    1.03038   1.13891   -1.000
 6336.00    1.01804   1.12861   -1.000
 6337.00    1.02796   1.12436   -1.000
 6338.00    0.98817   1.12737   -1.000
 6339.00    0.95107   1.13512   -1.000
 6340.00    1.05589   1.14431   -1.000
 6341.00    1.04556   1.15191   -1.000
 6342.00    1.05323   1.15535   -1.000
 6343.00    1.05233   1.15415   -1.000
 6344.00    1.04349   1.15069   -1.000
 6345.00    1.05018   1.14828   -1.000
 6346.00    1.05663   1.14903   -1.000
 6347.00    1.04947   1.15323   -1.000
 6348.00    1.05351   1.15985   -1.000
 6349.00    1.05633   1.16683   -1.000
 6350.00    1.06076   1.17194   -1.000
 6351.00    1.05494   1.17399   -1.000
 6352.00    1.05982   1.17270   -1.000
 6353.00    1.05891   1.16827   -1.000
 6354.00    1.04964   1.16182   -1.000
 6355.00    1.05286   1.15549   -1.000
 6356.00    1.04445   1.15075   -1.000
 6357.00    1.03068   1.14686   -1.000
 6358.00    1.02164   1.14241   -1.000
 6359.00    1.02742   1.13773   -1.000
 6360.00    1.02843   1.13382   -1.000
 6361.00    1.02998   1.13052   -1.000
 6362.00    1.03080   1.12781   -1.000
 6363.00    1.02545   1.12684   -1.000
 6364.00    1.02951   1.12867   -1.000
 6365.00    1.02298   1.13304   -1.000
 6366.00    1.02131   1.13883   -1.000
 6367.00    1.02801   1.14484   -1.000
 6368.00    1.03069   1.14974   -1.000
 6369.00    1.04531   1.15240   -1.000
 6370.00    1.04563   1.15332   -1.000
 6371.00    1.04500   1.15446   -1.000
 6372.00    1.04824   1.15713   -1.000
 6373.00    1.05461   1.16065   -1.000
 6374.00    1.05502   1.16333   -1.000
 6375.00    1.05610   1.16395   -1.000
 6376.00    1.05191   1.16230   -1.000
 6377.00    1.04044   1.15901   -1.000
 6378.00    1.04174   1.15508   -1.000
 6379.00    1.03610   1.15127   -1.000
 6380.00    1.04016   1.14789   -1.000
 6381.00    1.03652   1.14515   -1.000
 6382.00    1.03129   1.14338   -1.000
 6383.00    1.03464   1.14282   -1.000
 6384.00    1.03084   1.14371   -1.000
 6385.00    1.02359   1.14620   -1.000
 6386.00    1.02989   1.14960   -1.000
 6387.00    1.02653   1.15238   -1.000
 6388.00    1.01668   1.15354   -1.000
 6389.00    1.01114   1.15319   -1.000
 6390.00    1.00964   1.15109   -1.000
 6391.00    1.00037   1.14595   -1.000
 6392.00    0.99078   1.13754   -1.000
 6393.00    0.97684   1.12916   -1.000
 6394.00    0.96909   1.12589   -1.000
 6395.00    0.97281   1.12987   -1.000
 6396.00    0.98507   1.13786   -1.000
 6397.00    0.98491   1.14337   -1.000
 6398.00    0.97036   1.14160   -1.000
 6399.00    0.95761   1.13339   -1.000
 6400.00    0.93719   1.12528   -1.000
 6401.00    0.93790   1.12412   -1.000
 6402.00    0.94430   1.13132   -1.000
 6403.00    0.95026   1.14267   -1.000
 6404.00    0.94579   1.15234   -1.000
 6405.00    0.93604   1.15631   -1.000
 6406.00    0.93214   1.15373   -1.000
 6407.00    0.92535   1.14736   -1.000
 6408.00    0.91151   1.14189   -1.000
 6409.00    0.90846   1.13982   -1.000
 6410.00    0.90227   1.13955   -1.000
 6411.00    0.89983   1.13880   -1.000
 6412.00    0.89281   1.13837   -1.000
 6413.00    0.88524   1.14016   -1.000
 6414.00    0.88431   1.14386   -1.000
 6415.00    0.88515   1.14761   -1.000
 6416.00    0.87816   1.15010   -1.000
 6417.00    0.87297   1.15056   -1.000
 6418.00    0.86374   1.14796   -1.000
 6419.00    0.85284   1.14189   -1.000
 6420.00    0.83069   1.13433   -1.000
 6421.00    0.81628   1.12977   -1.000
 6422.00    0.82379   1.13217   -1.000
 6423.00    0.82477   1.14115   -1.000
 6424.00    0.83049   1.15222   -1.000
 6425.00    0.82267   1.16147   -1.000
 6426.00    0.81044   1.16768   -1.000
 6427.00    0.80322   1.17021   -1.000
 6428.00    0.79876   1.16759   -1.000
