###################################################################
## OUTPUT of StarlightChains_v04.for    [Cid@UFSC - 01/Apr/2007] ##
###################################################################

## Some input info
NGC6528_a_2.cxt                          [arq_obs]
Base.BC03.N                              [arq_base]
NGC6528_a_2.msk                          [arq_masks]
StCv04.C11.config                        [arq_config]
   45                                    [N_base]
    0                                    [N_YAV_components = # of components with extra extinction!]
    0                                    [i_FitPowerLaw (1/0 = Yes/No)]
-9.99                                    [alpha_PowerLaw]
CCM                                      [red_law_option]
 1.458241                                [q_norm = A(l_norm)/A(V)]

## (Re)Sampling Parameters
 3359.00                                 [l_ini (A)]
 6428.00                                 [l_fin (A)]
    1.00                                 [dl    (A)]     (OBS: dl_cushion =    50.00 A)

## Normalization info
 4020.00                                 [l_norm (A) - for base]
 4010.00                                 [llow_norm (A) - window for f_obs]
 4060.00                                 [lupp_norm (A) - window for f_obs]
4.643135E-15                             [fobs_norm (in input units)]

## S/N
 4730.00                                 [llow_SN (A) - window for S/N]
 4780.00                                 [lupp_SN (A) - window for S/N]
  27.089                                 [S/N in S/N window]
  13.711                                 [S/N in norm. window]
 346.459                                 [S/N_err in S/N window]
 175.352                                 [S/N_err in norm. window]
  1.0000                                 [fscale_chi2]

## etc...
  2147483605                             [idum_orig]
  3068                                   [NOl_eff]
  1209                                   [Nl_eff]
  1859    NSIGMA                         [Ntot_cliped & clip_method]
  1004220                                [Nglobal_steps]
   7                                     [N_chains]
  12                                     [NEX0s_base = N_base in EX0s-fits]
 0   0   1      164   2.0   3.956E+02    [Clip-Bug, RC-Crash & Burn-In warning-flags, n_censored_weights, wei_nsig_threshold & wei_limit]
    11     10.633     10.633      0.000  [idt_all, wdt_TotTime, wdt_UsrTime & wdt_SysTime (sec)]

## Synthesis Results - Best model ##

 2.26353E+00                             [chi2/Nl_eff]
     1.91858                             [adev (%)]

    99.34536                             [sum-of-x (%)]
 4.30723E-14                             [Flux_tot (units of input spectrum!)]
 3.51603E-09                             [Mini_tot (???)]
 1.78029E-09                             [Mcor_tot (???)]

  10.67                                  [v0_min  (km/s)]
  26.90                                  [vd_min  (km/s)]
 1.6634                                  [AV_min  (mag)]
 0.0000                                  [YAV_min (mag)]

# j     x_j(%)      Mini_j(%)     Mcor_j(%)     age_j(yr)     Z_j      (L/M)_j    YAV?  Mstars   component_j        a/Fe...       SSP_chi2r SSP_adev(%)   SSP_AV   SSP_x(%)
  1      3.3229     3.6781E-03    7.2642E-03    1.000000E+06  0.00400  1.114E-02    0   1.0000   age020_m42            0.0000     3.2944E+03    43.8474   4.0000    94.9728
  2      5.1721     1.5659E-03    3.0922E-03    3.160000E+06  0.00400  4.073E-02    0   0.9999   age045_m42            0.0000     1.1130E+03    23.1856   4.0000   106.8338
  3      5.6512     2.7500E-03    5.1531E-03    5.010000E+06  0.00400  2.534E-02    0   0.9488   age055_m42            0.0000     1.9126E+03    32.3844   4.0000   102.7804
  4      3.4866     3.3827E-03    5.9204E-03    1.000000E+07  0.00400  1.271E-02    0   0.8862   age070_m42            0.0000     8.7415E+02    16.6032   4.0000   101.7352
  5      0.0000     0.0000E+00    0.0000E+00    2.512000E+07  0.00400  5.070E-03    0   0.8174   age090_m42            0.0000     7.0846E+02    13.6072   4.0000   102.0486
  6      0.0000     0.0000E+00    0.0000E+00    4.000000E+07  0.00400  3.505E-03    0   0.7851   age104_m42            0.0000     4.4463E+02    10.1963   4.0000   100.8046
  7      0.0000     0.0000E+00    0.0000E+00    1.015200E+08  0.00400  2.268E-03    0   0.7207   age116_m42            0.0000     7.9155E+02    11.1714   4.0000   107.2664
  8      0.0000     0.0000E+00    0.0000E+00    2.861200E+08  0.00400  1.079E-03    0   0.6613   age125_m42            0.0000     8.0015E+02    10.9273   3.6127   107.1113
  9      0.0000     0.0000E+00    0.0000E+00    6.405400E+08  0.00400  5.077E-04    0   0.6197   age132_m42            0.0000     7.9769E+02    11.0552   3.2443   111.6013
 10      0.0000     0.0000E+00    0.0000E+00    9.047900E+08  0.00400  3.535E-04    0   0.6024   age135_m42            0.0000     6.0326E+02     9.8339   3.0037   110.8737
 11      0.0000     0.0000E+00    0.0000E+00    1.434000E+09  0.00400  1.910E-04    0   0.5716   age139_m42            0.0000     3.3932E+02     7.9235   2.4332   109.0422
 12      0.0000     0.0000E+00    0.0000E+00    2.500000E+09  0.00400  9.818E-05    0   0.5463   age150_m42            0.0000     1.5273E+02     5.9222   2.1633   104.1767
 13      0.0000     0.0000E+00    0.0000E+00    5.000000E+09  0.00400  4.718E-05    0   0.5228   age161_m42            0.0000     7.8848E+01     4.7046   1.9984   100.9034
 14      0.0000     0.0000E+00    0.0000E+00    1.100000E+10  0.00400  2.205E-05    0   0.4980   age185_m42            0.0000     4.8668E+01     5.0617   1.6822    98.7318
 15      1.9763     1.2942E+00    1.2593E+00    1.300000E+10  0.00400  1.883E-05    0   0.4927   age193_m42            0.0000     4.6779E+01     5.1368   1.6608    98.5842
 16      4.5311     2.8091E-03    5.5479E-03    1.000000E+06  0.02000  1.989E-02    0   1.0000   age020_m62            0.0000     3.2252E+03    43.0213   4.0000    95.7520
 17      2.3421     7.6566E-04    1.4907E-03    3.160000E+06  0.02000  3.772E-02    0   0.9858   age045_m62            0.0000     2.8933E+03    40.4942   4.0000    98.3484
 18      0.0000     0.0000E+00    0.0000E+00    5.010000E+06  0.02000  3.227E-02    0   0.9342   age055_m62            0.0000     1.5894E+03    28.9177   4.0000   105.3930
 19      0.0000     0.0000E+00    0.0000E+00    1.000000E+07  0.02000  1.011E-02    0   0.8751   age070_m62            0.0000     1.1587E+03    18.7264   4.0000    99.2251
 20      0.0000     0.0000E+00    0.0000E+00    2.512000E+07  0.02000  4.206E-03    0   0.8099   age090_m62            0.0000     9.2588E+02    16.2198   4.0000    99.2504
 21      0.0000     0.0000E+00    0.0000E+00    4.000000E+07  0.02000  3.373E-03    0   0.7799   age104_m62            0.0000     6.2978E+02    11.0583   4.0000   104.8183
 22      0.0000     0.0000E+00    0.0000E+00    1.015200E+08  0.02000  1.878E-03    0   0.7221   age116_m62            0.0000     7.8618E+02    10.5466   4.0000   108.6811
 23      0.0000     0.0000E+00    0.0000E+00    2.861200E+08  0.02000  8.869E-04    0   0.6700   age125_m62            0.0000     1.0948E+03    12.2634   3.5994   112.0160
 24      0.0000     0.0000E+00    0.0000E+00    6.405400E+08  0.02000  3.657E-04    0   0.6322   age132_m62            0.0000     7.7191E+02    11.5800   2.8530   114.9453
 25      0.0000     0.0000E+00    0.0000E+00    9.047900E+08  0.02000  2.312E-04    0   0.6152   age135_m62            0.0000     4.9748E+02     9.9088   2.4798   113.6878
 26      0.0000     0.0000E+00    0.0000E+00    1.434000E+09  0.02000  1.168E-04    0   0.5865   age139_m62            0.0000     2.0348E+02     6.9855   2.0806   107.6928
 27      0.0000     0.0000E+00    0.0000E+00    2.500000E+09  0.02000  5.505E-05    0   0.5610   age150_m62            0.0000     9.3193E+01     6.3349   1.6754   104.8705
 28      1.7533     8.3281E-01    8.8045E-01    5.000000E+09  0.02000  2.596E-05    0   0.5353   age161_m62            0.0000     8.5439E+01     8.1306   1.2720   104.6978
 29     25.6277     2.7033E+01    2.7244E+01    1.100000E+10  0.02000  1.169E-05    0   0.5103   age185_m62            0.0000     1.3263E+02    11.0785   0.8170   106.1815
 30     29.2059     3.7162E+01    3.7042E+01    1.300000E+10  0.02000  9.691E-06    0   0.5047   age193_m62            0.0000     1.4508E+02    11.6583   0.7540   106.4302
 31      0.0000     0.0000E+00    0.0000E+00    1.000000E+06  0.05000  2.651E-02    0   0.9998   age020_m72            0.0000     3.1712E+03    42.6540   4.0000    96.9935
 32      0.0000     0.0000E+00    0.0000E+00    3.160000E+06  0.05000  4.817E-02    0   0.9577   age045_m72            0.0000     2.4406E+03    36.8312   4.0000   102.3574
 33      0.0000     0.0000E+00    0.0000E+00    5.010000E+06  0.05000  3.101E-02    0   0.9147   age055_m72            0.0000     1.8037E+03    30.0654   4.0000   104.0791
 34      0.0000     0.0000E+00    0.0000E+00    1.000000E+07  0.05000  8.954E-03    0   0.8524   age070_m72            0.0000     2.1522E+03    34.2047   4.0000   103.4292
 35      0.0000     0.0000E+00    0.0000E+00    2.512000E+07  0.05000  4.207E-03    0   0.7902   age090_m72            0.0000     1.2503E+03    24.5737   4.0000   107.1326
 36      0.0000     0.0000E+00    0.0000E+00    4.000000E+07  0.05000  3.198E-03    0   0.7618   age104_m72            0.0000     7.8375E+02    14.1585   4.0000   109.7261
 37      0.0000     0.0000E+00    0.0000E+00    1.015200E+08  0.05000  1.716E-03    0   0.7092   age116_m72            0.0000     8.8828E+02    12.0316   4.0000   109.8477
 38      0.0000     0.0000E+00    0.0000E+00    2.861200E+08  0.05000  7.047E-04    0   0.6618   age125_m72            0.0000     1.0239E+03    12.3690   3.3614   112.2154
 39      0.0000     0.0000E+00    0.0000E+00    6.405400E+08  0.05000  2.633E-04    0   0.6253   age132_m72            0.0000     5.8561E+02    11.0724   2.4538   113.8568
 40      0.0000     0.0000E+00    0.0000E+00    9.047900E+08  0.05000  1.484E-04    0   0.6088   age135_m72            0.0000     2.6497E+02     8.9244   1.9600   108.5156
 41      0.0000     0.0000E+00    0.0000E+00    1.434000E+09  0.05000  7.827E-05    0   0.5847   age139_m72            0.0000     1.2676E+02     8.1615   1.5315   105.1364
 42      0.0000     0.0000E+00    0.0000E+00    2.500000E+09  0.05000  3.759E-05    0   0.5583   age150_m72            0.0000     1.0087E+02     8.7732   1.1775   104.3920
 43      0.0000     0.0000E+00    0.0000E+00    5.000000E+09  0.05000  1.548E-05    0   0.5320   age161_m72            0.0000     1.4360E+02    11.7398   0.6930   103.6938
 44      9.4742     1.7885E+01    1.7909E+01    1.100000E+10  0.05000  6.532E-06    0   0.5070   age185_m72            0.0000     2.4531E+02    16.0053   0.1479   104.0896
 45      6.8020     1.5778E+01    1.5637E+01    1.300000E+10  0.05000  5.316E-06    0   0.5018   age193_m72            0.0000     2.9587E+02    17.6667  -0.0418   104.5722


## Synthesis Results - Average & Chains ##

# j      x_j: min, <> & last-chain-values for 1 ...  7 chains
  1      3.3229      2.8087      2.7805      2.8789      2.9282      2.8106      2.7801      2.8034      2.7314
  2      5.1721      4.5717      4.5852      4.6672      4.6638      4.7483      4.6172      4.5816      4.5305
  3      5.6512      5.4597      5.5251      5.4141      5.4692      5.4662      5.5478      5.6173      5.5298
  4      3.4866      3.4385      3.5258      3.6751      3.4075      3.6356      3.5235      3.3587      3.4359
  5      0.0000      0.0361      0.0882      0.0000      0.0000      0.2287      0.0868      0.0000      0.0000
  6      0.0000      0.0282      0.0000      0.0000      0.0000      0.0000      0.0000      0.0000      0.0000
  7      0.0000      0.0252      0.0000      0.0000      0.0000      0.0000      0.0000      0.0504      0.0000
  8      0.0000      0.0166      0.0000      0.0357      0.0000      0.0000      0.0000      0.0152      0.0000
  9      0.0000      0.0132      0.0000      0.0088      0.0000      0.0000      0.0000      0.0000      0.0000
 10      0.0000      0.0393      0.0947      0.1166      0.0000      0.0006      0.0000      0.1370      0.0000
 11      0.0000      0.0359      0.0000      0.0000      0.0308      0.0000      0.0466      0.0000      0.0000
 12      0.0000      0.0754      0.1751      0.0000      0.0000      0.0000      0.0000      0.3476      0.2220
 13      0.0000      0.2024      0.6098      0.0000      0.0000      0.0000      0.0000      0.0000      0.5192
 14      0.0000      0.5531      1.1542      0.9958      0.4769      0.5949      0.6815      0.5358      0.2298
 15      1.9763      0.6541      0.0945      0.1810      1.1408      1.2183      0.9225      0.9106      0.6254
 16      4.5311      4.7426      4.6804      4.7831      4.7416      4.6815      4.6899      4.8359      4.7531
 17      2.3421      3.0420      2.9418      2.9444      2.9905      2.9130      3.0178      2.9876      2.9662
 18      0.0000      0.0498      0.0374      0.0852      0.0000      0.0821      0.0000      0.0000      0.2116
 19      0.0000      0.0154      0.0000      0.0000      0.0000      0.0000      0.0000      0.0000      0.0144
 20      0.0000      0.0183      0.0000      0.0073      0.0000      0.0000      0.0000      0.0000      0.0000
 21      0.0000      0.0133      0.0000      0.0000      0.0000      0.0000      0.0000      0.0000      0.0000
 22      0.0000      0.0174      0.0000      0.0000      0.2579      0.0000      0.0000      0.0000      0.0503
 23      0.0000      0.0062      0.0000      0.0000      0.0000      0.0000      0.0000      0.0000      0.0000
 24      0.0000      0.0080      0.0000      0.0000      0.0000      0.0000      0.0000      0.0000      0.0000
 25      0.0000      0.0175      0.0000      0.0000      0.0000      0.0000      0.0000      0.0461      0.0000
 26      0.0000      0.0376      0.0000      0.0304      0.0000      0.0000      0.0000      0.0000      0.0399
 27      0.0000      0.0841      0.0638      0.0144      0.0385      0.0428      0.0552      0.0000      0.0000
 28      1.7533      1.9023      1.1057      2.1343      1.7468      2.3852      1.9072      2.1092      1.8366
 29     25.6277     24.9278     25.3252     25.0102     25.6058     24.6639     24.9747     24.7353     25.3429
 30     29.2059     28.3640     28.8058     28.8206     28.3726     28.1286     28.5405     29.1891     28.7104
 31      0.0000      0.0137      0.0644      0.0000      0.0000      0.0000      0.0000      0.0000      0.0363
 32      0.0000      0.0233      0.0440      0.0000      0.0000      0.0000      0.0000      0.0000      0.0202
 33      0.0000      0.0436      0.0000      0.0000      0.0000      0.0000      0.1746      0.0000      0.1256
 34      0.0000      0.0214      0.0557      0.0248      0.0000      0.0000      0.0000      0.0493      0.0116
 35      0.0000      0.0172      0.0000      0.0000      0.0000      0.0000      0.0000      0.0000      0.0000
 36      0.0000      0.0082      0.0000      0.0000      0.0000      0.0000      0.0000      0.0000      0.0000
 37      0.0000      0.0127      0.0000      0.0000      0.0000      0.0000      0.0000      0.0000      0.0280
 38      0.0000      0.0079      0.0000      0.0000      0.0000      0.0000      0.0000      0.0000      0.0000
 39      0.0000      0.0132      0.0000      0.0000      0.0000      0.0000      0.0000      0.0000      0.0069
 40      0.0000      0.0346      0.0000      0.0117      0.0000      0.0000      0.3455      0.0000      0.0037
 41      0.0000      0.0851      0.0000      0.0000      0.1204      0.0000      0.1347      0.0000      0.0141
 42      0.0000      0.1455      0.0000      0.0000      0.0000      0.0000      0.0000      0.0000      0.0000
 43      0.0000      0.1596      0.5177      0.6634      0.1363      0.0000      0.0484      0.0319      0.0000
 44      9.4742     10.1649     10.3033      9.4571     10.2036     10.3416      9.8977      9.7513     10.0643
 45      6.8020      7.3916      6.7666      7.4004      7.0244      7.3709      7.3629      7.2678      7.2871

# j      m_j: min, <> & last-chain-values for 1 ...  7 chains
  1  7.2642E-03  6.0982E-03  6.0538E-03  6.2708E-03  6.3579E-03  6.0998E-03  6.0505E-03  6.0980E-03  5.9246E-03
  2  3.0922E-03  2.7145E-03  2.7302E-03  2.7803E-03  2.7693E-03  2.8183E-03  2.7481E-03  2.7255E-03  2.6875E-03
  3  5.1531E-03  4.9444E-03  5.0176E-03  4.9191E-03  4.9532E-03  4.9483E-03  5.0362E-03  5.0967E-03  5.0031E-03
  4  5.9204E-03  5.7987E-03  5.9626E-03  6.2180E-03  5.7466E-03  6.1287E-03  5.9563E-03  5.6748E-03  5.7887E-03
  5  0.0000E+00  1.4063E-04  3.4497E-04  0.0000E+00  0.0000E+00  8.9164E-04  3.3922E-04  0.0000E+00  0.0000E+00
  6  0.0000E+00  1.5265E-04  0.0000E+00  0.0000E+00  0.0000E+00  0.0000E+00  0.0000E+00  0.0000E+00  0.0000E+00
  7  0.0000E+00  1.9400E-04  0.0000E+00  0.0000E+00  0.0000E+00  0.0000E+00  0.0000E+00  3.8833E-04  0.0000E+00
  8  0.0000E+00  2.4546E-04  0.0000E+00  5.3033E-04  0.0000E+00  0.0000E+00  0.0000E+00  2.2538E-04  0.0000E+00
  9  0.0000E+00  3.9087E-04  0.0000E+00  2.6054E-04  0.0000E+00  0.0000E+00  0.0000E+00  0.0000E+00  0.0000E+00
 10  0.0000E+00  1.6183E-03  3.9121E-03  4.8224E-03  0.0000E+00  2.5289E-05  0.0000E+00  5.6573E-03  0.0000E+00
 11  0.0000E+00  2.5972E-03  0.0000E+00  0.0000E+00  2.2327E-03  0.0000E+00  3.3797E-03  0.0000E+00  0.0000E+00
 12  0.0000E+00  1.0148E-02  2.3636E-02  0.0000E+00  0.0000E+00  0.0000E+00  0.0000E+00  4.6864E-02  2.9843E-02
 13  0.0000E+00  5.4245E-02  1.6390E-01  0.0000E+00  0.0000E+00  0.0000E+00  0.0000E+00  0.0000E+00  1.3901E-01
 14  0.0000E+00  3.0211E-01  6.3226E-01  5.4574E-01  2.6053E-01  3.2484E-01  3.7315E-01  2.9324E-01  1.2543E-01
 15  1.2593E+00  4.1398E-01  5.9966E-02  1.1491E-01  7.2201E-01  7.7068E-01  5.8524E-01  5.7734E-01  3.9542E-01
 16  5.5479E-03  5.7671E-03  5.7074E-03  5.8353E-03  5.7661E-03  5.6906E-03  5.7166E-03  5.8916E-03  5.7744E-03
 17  1.4907E-03  1.9229E-03  1.8647E-03  1.8673E-03  1.8904E-03  1.8406E-03  1.9122E-03  1.8921E-03  1.8732E-03
 18  0.0000E+00  3.4835E-05  2.6270E-05  5.9818E-05  0.0000E+00  5.7465E-05  0.0000E+00  0.0000E+00  1.4803E-04
 19  0.0000E+00  3.2258E-05  0.0000E+00  0.0000E+00  0.0000E+00  0.0000E+00  0.0000E+00  0.0000E+00  3.0061E-05
 20  0.0000E+00  8.5040E-05  0.0000E+00  3.3989E-05  0.0000E+00  0.0000E+00  0.0000E+00  0.0000E+00  0.0000E+00
 21  0.0000E+00  7.4529E-05  0.0000E+00  0.0000E+00  0.0000E+00  0.0000E+00  0.0000E+00  0.0000E+00  0.0000E+00
 22  0.0000E+00  1.6206E-04  0.0000E+00  0.0000E+00  2.3987E-03  0.0000E+00  0.0000E+00  0.0000E+00  4.6712E-04
 23  0.0000E+00  1.1330E-04  0.0000E+00  0.0000E+00  0.0000E+00  0.0000E+00  0.0000E+00  0.0000E+00  0.0000E+00
 24  0.0000E+00  3.3591E-04  0.0000E+00  0.0000E+00  0.0000E+00  0.0000E+00  0.0000E+00  0.0000E+00  0.0000E+00
 25  0.0000E+00  1.1255E-03  0.0000E+00  0.0000E+00  0.0000E+00  0.0000E+00  0.0000E+00  2.9755E-03  0.0000E+00
 26  0.0000E+00  4.5625E-03  0.0000E+00  3.7047E-03  0.0000E+00  0.0000E+00  0.0000E+00  0.0000E+00  4.8444E-03
 27  0.0000E+00  2.0724E-02  1.5770E-02  3.5688E-03  9.4835E-03  1.0544E-02  1.3638E-02  0.0000E+00  0.0000E+00
 28  8.8045E-01  9.4876E-01  5.5299E-01  1.0679E+00  8.7122E-01  1.1891E+00  9.5345E-01  1.0539E+00  9.1511E-01
 29  2.7244E+01  2.6319E+01  2.6814E+01  2.6492E+01  2.7036E+01  2.6030E+01  2.6432E+01  2.6165E+01  2.6732E+01
 30  3.7042E+01  3.5728E+01  3.6386E+01  3.6421E+01  3.5740E+01  3.5418E+01  3.6036E+01  3.6836E+01  3.6130E+01
 31  0.0000E+00  1.2500E-05  5.8865E-05  0.0000E+00  0.0000E+00  0.0000E+00  0.0000E+00  0.0000E+00  3.3090E-05
 32  0.0000E+00  1.1213E-05  2.1226E-05  0.0000E+00  0.0000E+00  0.0000E+00  0.0000E+00  0.0000E+00  9.6913E-06
 33  0.0000E+00  3.1079E-05  0.0000E+00  0.0000E+00  0.0000E+00  0.0000E+00  1.2486E-04  0.0000E+00  8.9533E-05
 34  0.0000E+00  4.9350E-05  1.2860E-04  5.7336E-05  0.0000E+00  0.0000E+00  0.0000E+00  1.1374E-04  2.6733E-05
 35  0.0000E+00  7.8033E-05  0.0000E+00  0.0000E+00  0.0000E+00  0.0000E+00  0.0000E+00  0.0000E+00  0.0000E+00
 36  0.0000E+00  4.7402E-05  0.0000E+00  0.0000E+00  0.0000E+00  0.0000E+00  0.0000E+00  0.0000E+00  0.0000E+00
 37  0.0000E+00  1.2705E-04  0.0000E+00  0.0000E+00  0.0000E+00  0.0000E+00  0.0000E+00  0.0000E+00  2.8005E-04
 38  0.0000E+00  1.8047E-04  0.0000E+00  0.0000E+00  0.0000E+00  0.0000E+00  0.0000E+00  0.0000E+00  0.0000E+00
 39  0.0000E+00  7.5727E-04  0.0000E+00  0.0000E+00  0.0000E+00  0.0000E+00  0.0000E+00  0.0000E+00  3.9649E-04
 40  0.0000E+00  3.4366E-03  0.0000E+00  1.1622E-03  0.0000E+00  0.0000E+00  3.4367E-02  0.0000E+00  3.7008E-04
 41  0.0000E+00  1.5380E-02  0.0000E+00  0.0000E+00  2.1750E-02  0.0000E+00  2.4399E-02  0.0000E+00  2.5366E-03
 42  0.0000E+00  5.2272E-02  0.0000E+00  0.0000E+00  0.0000E+00  0.0000E+00  0.0000E+00  0.0000E+00  0.0000E+00
 43  0.0000E+00  1.3269E-01  4.3153E-01  5.5325E-01  1.1326E-01  0.0000E+00  4.0330E-02  2.6563E-02  0.0000E+00
 44  1.7909E+01  1.9083E+01  1.9397E+01  1.7812E+01  1.9156E+01  1.9407E+01  1.8626E+01  1.8341E+01  1.8876E+01
 45  1.5637E+01  1.6876E+01  1.5492E+01  1.6951E+01  1.6038E+01  1.6822E+01  1.6850E+01  1.6624E+01  1.6621E+01

# AV, chi2 & Mass for <> & i_chain = 1 ...  7 solutions
AV       1.6634      1.6537      1.6555      1.6562      1.6531      1.6560      1.6578      1.6567      1.6555
chi2 2.2635E+00  2.2869E+00  2.2796E+00  2.2795E+00  2.2822E+00  2.2797E+00  2.2803E+00  2.2795E+00  2.2818E+00
Mass 1.7803E-09  1.7695E-09  1.7687E-09  1.7696E-09  1.7679E-09  1.7756E-09  1.7749E-09  1.7733E-09  1.7753E-09
  10.67                                  [v0_min (km/s) before EX0s...]
  26.90                                  [vd_min (km/s) before EX0s...]


## Synthetic spectrum (Best Model) ##l_obs f_obs f_syn wei
 3070    [Nl_obs]
 3359.00    0.29773   0.42731   -1.000
 3360.00    0.30265   0.40444   -1.000
 3361.00    0.28717   0.40498   -1.000
 3362.00    0.31851   0.43050   -1.000
 3363.00    0.27417   0.46531   -1.000
 3364.00    0.30526   0.49059   -1.000
 3365.00    0.34605   0.49296   -1.000
 3366.00    0.37178   0.47099   -1.000
 3367.00    0.32110   0.44749   -1.000
 3368.00    0.31028   0.42631   -1.000
 3369.00    0.30949   0.41618   -1.000
 3370.00    0.30519   0.41361   -1.000
 3371.00    0.27007   0.41221   -1.000
 3372.00    0.30110   0.41591   -1.000
 3373.00    0.33111   0.43169   -1.000
 3374.00    0.34404   0.45723   -1.000
 3375.00    0.34606   0.48593   -1.000
 3376.00    0.34576   0.50513   -1.000
 3377.00    0.34424   0.50254   -1.000
 3378.00    0.33607   0.48011   -1.000
 3379.00    0.32482   0.45800   -1.000
 3380.00    0.34129   0.44659   -1.000
 3381.00    0.34326   0.45586   -1.000
 3382.00    0.38265   0.47103   -1.000
 3383.00    0.40810   0.48678   -1.000
 3384.00    0.39560   0.49655   -1.000
 3385.00    0.38193   0.50640   -1.000
 3386.00    0.37620   0.51028   -1.000
 3387.00    0.36068   0.50934   -1.000
 3388.00    0.35719   0.50661   -1.000
 3389.00    0.36556   0.50477   -1.000
 3390.00    0.38436   0.50040   -1.000
 3391.00    0.39057   0.48599   -1.000
 3392.00    0.38334   0.47116   -1.000
 3393.00    0.36767   0.46878   -1.000
 3394.00    0.36587   0.47983   -1.000
 3395.00    0.39685   0.50206   -1.000
 3396.00    0.41043   0.51814   -1.000
 3397.00    0.41913   0.53181   -1.000
 3398.00    0.43695   0.54366   -1.000
 3399.00    0.45780   0.54754   -1.000
 3400.00    0.45183   0.54439   -1.000
 3401.00    0.47286   0.53672   -1.000
 3402.00    0.47707   0.52251   52.713
 3403.00    0.45347   0.51043   -1.000
 3404.00    0.45751   0.50199   54.458
 3405.00    0.44892   0.49485   54.774
 3406.00    0.41023   0.48744   -1.000
 3407.00    0.42164   0.48050   -1.000
 3408.00    0.42900   0.48047   55.268
 3409.00    0.43778   0.48600   53.723
 3410.00    0.43945   0.49620   -1.000
 3411.00    0.45464   0.49590   55.890
 3412.00    0.47506   0.48132   56.740
 3413.00    0.43882   0.46330   56.418
 3414.00    0.42383   0.44974   54.849
 3415.00    0.43586   0.45562   52.437
 3416.00    0.43148   0.47239   49.925
 3417.00    0.42955   0.49882   -1.000
 3418.00    0.44652   0.52057   -1.000
 3419.00    0.45496   0.53999   -1.000
 3420.00    0.48564   0.54657   47.729
 3421.00    0.49323   0.53977   49.112
 3422.00    0.48897   0.51815   49.866
 3423.00    0.48503   0.50539   48.410
 3424.00    0.47453   0.50306   47.275
 3425.00    0.49186   0.50564   53.577
 3426.00    0.48716   0.50968   -1.000
 3427.00    0.49728   0.51654   -1.000
 3428.00    0.50829   0.53114   -1.000
 3429.00    0.54138   0.55418   -1.000
 3430.00    0.53502   0.55606   -1.000
 3431.00    0.50628   0.54044   47.223
 3432.00    0.47392   0.51585   53.666
 3433.00    0.45700   0.50231   -1.000
 3434.00    0.47175   0.50960   -1.000
 3435.00    0.48798   0.51818   47.230
 3436.00    0.49699   0.51840   49.556
 3437.00    0.48648   0.50508   52.686
 3438.00    0.48155   0.48218   56.614
 3439.00    0.45198   0.44873   58.553
 3440.00    0.41513   0.42051   58.576
 3441.00    0.39543   0.39946   58.005
 3442.00    0.39337   0.39829   55.542
 3443.00    0.40784   0.41065   52.483
 3444.00    0.40116   0.42770   49.741
 3445.00    0.40394   0.44107   55.635
 3446.00    0.42897   0.45700   -1.000
 3447.00    0.46629   0.47300  395.561
 3448.00    0.49078   0.49498  395.561
 3449.00    0.50560   0.51697   -1.000
 3450.00    0.48830   0.52304   -1.000
 3451.00    0.49643   0.50901   -1.000
 3452.00    0.47915   0.49537   -1.000
 3453.00    0.47862   0.49077   -1.000
 3454.00    0.51711   0.50073   -1.000
 3455.00    0.51048   0.51016  395.561
 3456.00    0.52436   0.50558   -1.000
 3457.00    0.51893   0.49100   47.166
 3458.00    0.51398   0.46648   47.659
 3459.00    0.48014   0.45087   55.127
 3460.00    0.49709   0.44184   -1.000
 3461.00    0.49422   0.44556   -1.000
 3462.00    0.48235   0.46143   -1.000
 3463.00    0.52805   0.48820   -1.000
 3464.00    0.53818   0.49477   -1.000
 3465.00    0.49874   0.49007   -1.000
 3466.00    0.51121   0.48774   -1.000
 3467.00    0.51393   0.49341   -1.000
 3468.00    0.52012   0.50991   -1.000
 3469.00    0.54840   0.52298   -1.000
 3470.00    0.55012   0.52962   -1.000
 3471.00    0.52681   0.52023  395.561
 3472.00    0.50533   0.50072  187.917
 3473.00    0.51618   0.47281   47.748
 3474.00    0.49606   0.44914   49.075
 3475.00    0.44990   0.43073   56.547
 3476.00    0.44548   0.43308   -1.000
 3477.00    0.45784   0.44966   -1.000
 3478.00    0.47368   0.47255  395.561
 3479.00    0.51648   0.48956   -1.000
 3480.00    0.52921   0.49837   -1.000
 3481.00    0.52417   0.49746   -1.000
 3482.00    0.52745   0.48762   -1.000
 3483.00    0.51227   0.47637   -1.000
 3484.00    0.51320   0.47478   -1.000
 3485.00    0.50976   0.49168   -1.000
 3486.00    0.53199   0.51033   -1.000
 3487.00    0.55592   0.52065   -1.000
 3488.00    0.52670   0.50837   -1.000
 3489.00    0.48719   0.48192  395.561
 3490.00    0.48686   0.45739   -1.000
 3491.00    0.48369   0.44955   -1.000
 3492.00    0.49150   0.46065   -1.000
 3493.00    0.52160   0.47542   -1.000
 3494.00    0.50385   0.48577   -1.000
 3495.00    0.46825   0.48032   -1.000
 3496.00    0.47459   0.47028  395.561
 3497.00    0.49127   0.47204   -1.000
 3498.00    0.49185   0.49380  375.328
 3499.00    0.50118   0.52534   -1.000
 3500.00    0.53895   0.53763  366.690
 3501.00    0.55475   0.54151   -1.000
 3502.00    0.55240   0.55020  376.014
 3503.00    0.57473   0.55704   -1.000
 3504.00    0.57484   0.55427   -1.000
 3505.00    0.54697   0.54197  381.597
 3506.00    0.53420   0.53108  379.021
 3507.00    0.54908   0.52862   -1.000
 3508.00    0.54697   0.52647   -1.000
 3509.00    0.54617   0.51446   -1.000
 3510.00    0.53735   0.50211   -1.000
 3511.00    0.53839   0.48881   -1.000
 3512.00    0.52059   0.47566   -1.000
 3513.00    0.48456   0.46343   -1.000
 3514.00    0.49095   0.45910   -1.000
 3515.00    0.45997   0.47567   -1.000
 3516.00    0.48764   0.51111   -1.000
 3517.00    0.53606   0.54135  386.803
 3518.00    0.56439   0.55603   -1.000
 3519.00    0.56837   0.54407   -1.000
 3520.00    0.56247   0.52119   -1.000
 3521.00    0.52293   0.49103   -1.000
 3522.00    0.50277   0.46979   47.372
 3523.00    0.49376   0.45088   48.689
 3524.00    0.46281   0.43363   58.770
 3525.00    0.43893   0.42692   -1.000
 3526.00    0.45750   0.44078   -1.000
 3527.00    0.46225   0.46835  395.527
 3528.00    0.49888   0.50386  392.351
 3529.00    0.52509   0.52693  395.561
 3530.00    0.55215   0.53356   -1.000
 3531.00    0.54030   0.52443   -1.000
 3532.00    0.51313   0.52103   -1.000
 3533.00    0.51445   0.52788   -1.000
 3534.00    0.54317   0.54030  376.703
 3535.00    0.55917   0.55054   -1.000
 3536.00    0.56169   0.55115   -1.000
 3537.00    0.51495   0.55197   -1.000
 3538.00    0.51898   0.56104   -1.000
 3539.00    0.57464   0.56584   -1.000
 3540.00    0.55737   0.56244  382.671
 3541.00    0.54041   0.55103   -1.000
 3542.00    0.52716   0.54642   -1.000
 3543.00    0.52485   0.55608   -1.000
 3544.00    0.55279   0.56668   -1.000
 3545.00    0.55215   0.57117   -1.000
 3546.00    0.56567   0.56417  390.879
 3547.00    0.54222   0.55679   -1.000
 3548.00    0.50191   0.55545   -1.000
 3549.00    0.50799   0.55715   -1.000
 3550.00    0.52750   0.55612   -1.000
 3551.00    0.51247   0.54715   -1.000
 3552.00    0.51457   0.53277   -1.000
 3553.00    0.51301   0.51728  395.561
 3554.00    0.50093   0.51224   -1.000
 3555.00    0.48462   0.51907   -1.000
 3556.00    0.47865   0.52448   -1.000
 3557.00    0.50037   0.52592   -1.000
 3558.00    0.48214   0.52037   -1.000
 3559.00    0.47241   0.51786   -1.000
 3560.00    0.49562   0.52639   -1.000
 3561.00    0.51112   0.53931   -1.000
 3562.00    0.51892   0.54933   -1.000
 3563.00    0.51628   0.53473   47.948
 3564.00    0.50323   0.50112   49.351
 3565.00    0.46939   0.46038   48.825
 3566.00    0.44927   0.44503   48.985
 3567.00    0.43896   0.44883   50.510
 3568.00    0.43581   0.44716   50.847
 3569.00    0.43731   0.43615   49.067
 3570.00    0.42759   0.42588   59.357
 3571.00    0.42647   0.42711  395.561
 3572.00    0.44977   0.44674  395.561
 3573.00    0.47144   0.46320   -1.000
 3574.00    0.46466   0.47504   -1.000
 3575.00    0.45649   0.48183   -1.000
 3576.00    0.46706   0.48170  157.875
 3577.00    0.47604   0.46853   49.976
 3578.00    0.46068   0.44728   53.706
 3579.00    0.42591   0.41572   56.037
 3580.00    0.39030   0.39155   56.345
 3581.00    0.37489   0.38006   56.852
 3582.00    0.37641   0.38533   58.408
 3583.00    0.38959   0.39193   60.086
 3584.00    0.40260   0.39235   59.964
 3585.00    0.38727   0.38685   56.851
 3586.00    0.38251   0.38404   53.886
 3587.00    0.37908   0.39324   50.711
 3588.00    0.39869   0.40946   59.863
 3589.00    0.42032   0.43896   -1.000
 3590.00    0.42986   0.46951   -1.000
 3591.00    0.44970   0.49569   -1.000
 3592.00    0.47612   0.50265   -1.000
 3593.00    0.47487   0.50226   -1.000
 3594.00    0.46755   0.50896   -1.000
 3595.00    0.49115   0.52636   -1.000
 3596.00    0.51485   0.55024   -1.000
 3597.00    0.54405   0.56423   -1.000
 3598.00    0.57985   0.57474  361.358
 3599.00    0.58262   0.58644  379.707
 3600.00    0.58162   0.58783  395.561
 3601.00    0.58618   0.56883   -1.000
 3602.00    0.54673   0.54019  395.561
 3603.00    0.51251   0.50930  395.561
 3604.00    0.49514   0.49062  395.561
 3605.00    0.50328   0.48465   -1.000
 3606.00    0.48360   0.48258  395.561
 3607.00    0.47047   0.47289  395.561
 3608.00    0.46176   0.45553  395.561
 3609.00    0.45818   0.44899   -1.000
 3610.00    0.45387   0.45923  395.561
 3611.00    0.48848   0.48630  395.561
 3612.00    0.50699   0.50480  394.106
 3613.00    0.51363   0.51796  383.511
 3614.00    0.52659   0.53267  392.404
 3615.00    0.54309   0.54461  395.561
 3616.00    0.53690   0.53543  141.688
 3617.00    0.50475   0.50431   60.617
 3618.00    0.46050   0.45659  395.561
 3619.00    0.43585   0.44482   -1.000
 3620.00    0.46397   0.46415  375.706
 3621.00    0.50908   0.50561  367.990
 3622.00    0.52172   0.54155   -1.000
 3623.00    0.54162   0.56475   -1.000
 3624.00    0.57146   0.58255   -1.000
 3625.00    0.58248   0.60968   -1.000
 3626.00    0.59837   0.63956   -1.000
 3627.00    0.64388   0.65676   -1.000
 3628.00    0.64052   0.64407  395.561
 3629.00    0.60235   0.60329  395.561
 3630.00    0.54595   0.53659   -1.000
 3631.00    0.49553   0.49383  395.561
 3632.00    0.47841   0.47831  395.561
 3633.00    0.48831   0.49350  395.561
 3634.00    0.50104   0.51626   -1.000
 3635.00    0.50846   0.53837   -1.000
 3636.00    0.54627   0.55078  348.530
 3637.00    0.56951   0.56778  339.949
 3638.00    0.58271   0.59370   -1.000
 3639.00    0.61182   0.61552  351.653
 3640.00    0.62639   0.62700  365.533
 3641.00    0.62510   0.61986  383.109
 3642.00    0.58075   0.59798   -1.000
 3643.00    0.55113   0.57437   -1.000
 3644.00    0.54184   0.55241   -1.000
 3645.00    0.52602   0.53267  395.561
 3646.00    0.50546   0.51464   -1.000
 3647.00    0.52185   0.49497   -1.000
 3648.00    0.51000   0.49056   -1.000
 3649.00    0.49950   0.50293  360.775
 3650.00    0.51682   0.53581   -1.000
 3651.00    0.54779   0.57096   -1.000
 3652.00    0.58357   0.60761   -1.000
 3653.00    0.60502   0.62459   -1.000
 3654.00    0.62139   0.63264   -1.000
 3655.00    0.63105   0.64008   -1.000
 3656.00    0.62710   0.65176   -1.000
 3657.00    0.63862   0.67105   -1.000
 3658.00    0.65623   0.68335   -1.000
 3659.00    0.66757   0.68915   -1.000
 3660.00    0.66398   0.68580   -1.000
 3661.00    0.66716   0.67491   -1.000
 3662.00    0.64678   0.65533   -1.000
 3663.00    0.62657   0.64221   -1.000
 3664.00    0.62263   0.63663   -1.000
 3665.00    0.62975   0.63857   -1.000
 3666.00    0.62603   0.63991   -1.000
 3667.00    0.62305   0.63058  353.317
 3668.00    0.61850   0.61468  347.551
 3669.00    0.61201   0.60143   -1.000
 3670.00    0.60506   0.60905  331.070
 3671.00    0.60744   0.63161   -1.000
 3672.00    0.60386   0.65025   -1.000
 3673.00    0.64020   0.65825   -1.000
 3674.00    0.65884   0.65670  344.593
 3675.00    0.63533   0.64668   -1.000
 3676.00    0.62242   0.62649  365.533
 3677.00    0.61606   0.59885   -1.000
 3678.00    0.59998   0.56992   -1.000
 3679.00    0.56573   0.54965   -1.000
 3680.00    0.55154   0.54889  349.551
 3681.00    0.56672   0.56757  349.900
 3682.00    0.59274   0.58820  360.368
 3683.00    0.59717   0.60156  375.332
 3684.00    0.59834   0.59468  388.193
 3685.00    0.57879   0.57137  389.492
 3686.00    0.53591   0.53539  373.515
 3687.00    0.51908   0.52077  348.515
 3688.00    0.52339   0.53298   -1.000
 3689.00    0.54914   0.57343   -1.000
 3690.00    0.60101   0.61894   -1.000
 3691.00    0.63573   0.65241   -1.000
 3692.00    0.64230   0.65379   -1.000
 3693.00    0.63634   0.63419  336.357
 3694.00    0.63075   0.61847   -1.000
 3695.00    0.61631   0.61145  326.695
 3696.00    0.61303   0.61699  316.610
 3697.00    0.62352   0.63275   -1.000
 3698.00    0.64510   0.66066   -1.000
 3699.00    0.67720   0.68185  317.445
 3700.00    0.70044   0.69084   -1.000
 3701.00    0.68827   0.67732   -1.000
 3702.00    0.64708   0.64327  395.561
 3703.00    0.60160   0.58218   -1.000
 3704.00    0.55155   0.52848   -1.000
 3705.00    0.51924   0.48738   -1.000
 3706.00    0.49972   0.47875   -1.000
 3707.00    0.49756   0.48555   -1.000
 3708.00    0.52372   0.49767   -1.000
 3709.00    0.52967   0.51499   -1.000
 3710.00    0.55635   0.54805  323.342
 3711.00    0.60061   0.58590   -1.000
 3712.00    0.63391   0.62664  304.902
 3713.00    0.67653   0.66079   -1.000
 3714.00    0.68212   0.67490  316.993
 3715.00    0.66640   0.66725  336.300
 3716.00    0.66814   0.64470   -1.000
 3717.00    0.62407   0.60285   -1.000
 3718.00    0.54227   0.54425  122.994
 3719.00    0.49458   0.48317   66.746
 3720.00    0.45763   0.42655   -1.000
 3721.00    0.42174   0.41069   -1.000
 3722.00    0.44928   0.43361   -1.000
 3723.00    0.51491   0.48271   -1.000
 3724.00    0.57387   0.53769   -1.000
 3725.00    0.59953   0.57439   -1.000
 3726.00    0.60020   0.57663   -1.000
 3727.00    0.57759   0.56241   -1.000
 3728.00    0.55011   0.56194   -1.000
 3729.00    0.57731   0.56818   -1.000
 3730.00    0.57642   0.56291  116.569
 3731.00    0.54429   0.53552   48.607
 3732.00    0.51501   0.47790   53.210
 3733.00    0.47473   0.42416   53.585
 3734.00    0.42053   0.37900   50.032
 3735.00    0.38289   0.36285   66.114
 3736.00    0.38826   0.37516   -1.000
 3737.00    0.41634   0.41807  364.986
 3738.00    0.47211   0.47001  350.387
 3739.00    0.53066   0.53176  353.826
 3740.00    0.57690   0.57043  370.823
 3741.00    0.58567   0.57975   -1.000
 3742.00    0.56871   0.55484   -1.000
 3743.00    0.51939   0.52047  395.561
 3744.00    0.48829   0.48112  117.749
 3745.00    0.46706   0.45866   48.550
 3746.00    0.44100   0.44150   50.832
 3747.00    0.43548   0.41828   72.979
 3748.00    0.42711   0.39639   -1.000
 3749.00    0.41065   0.38872   -1.000
 3750.00    0.43779   0.41287   -1.000
 3751.00    0.48452   0.46766   -1.000
 3752.00    0.52549   0.52461  316.009
 3753.00    0.57695   0.57339  318.012
 3754.00    0.62615   0.61715   -1.000
 3755.00    0.64747   0.62744   -1.000
 3756.00    0.61891   0.59722   -1.000
 3757.00    0.55576   0.54329   -1.000
 3758.00    0.50818   0.49696   -1.000
 3759.00    0.49482   0.49050  367.501
 3760.00    0.51183   0.50642  361.626
 3761.00    0.53007   0.52654  358.536
 3762.00    0.53897   0.53262  358.055
 3763.00    0.54285   0.52985   -1.000
 3764.00    0.53687   0.52763   -1.000
 3765.00    0.54903   0.52283   -1.000
 3766.00    0.54654   0.51348   -1.000
 3767.00    0.52179   0.51067   -1.000
 3768.00    0.52717   0.51757   -1.000
 3769.00    0.57293   0.52659   -1.000
 3770.00    0.57306   0.53717   -1.000
 3771.00    0.58027   0.55772   -1.000
 3772.00    0.59935   0.58180   -1.000
 3773.00    0.62997   0.60539   -1.000
 3774.00    0.63797   0.61547   -1.000
 3775.00    0.63224   0.61828   -1.000
 3776.00    0.64405   0.62244   -1.000
 3777.00    0.63021   0.62949  304.986
 3778.00    0.63353   0.64226  299.761
 3779.00    0.65682   0.65646  297.883
 3780.00    0.67449   0.67072  296.795
 3781.00    0.69088   0.68027   -1.000
 3782.00    0.68173   0.68578  309.695
 3783.00    0.68459   0.68694  328.847
 3784.00    0.68171   0.67359   -1.000
 3785.00    0.64262   0.63916  364.257
 3786.00    0.58512   0.59700   -1.000
 3787.00    0.54058   0.56005   -1.000
 3788.00    0.51807   0.53625   -1.000
 3789.00    0.51600   0.53351   -1.000
 3790.00    0.54321   0.54596  368.329
 3791.00    0.55717   0.55805  381.977
 3792.00    0.56266   0.55989  394.546
 3793.00    0.55022   0.54046   -1.000
 3794.00    0.52008   0.51707  395.561
 3795.00    0.50752   0.49516   -1.000
 3796.00    0.49147   0.47395   -1.000
 3797.00    0.48226   0.44911   -1.000
 3798.00    0.47554   0.43377   -1.000
 3799.00    0.46810   0.44546   -1.000
 3800.00    0.48422   0.49246  336.552
 3801.00    0.51971   0.54185   -1.000
 3802.00    0.55040   0.58781   -1.000
 3803.00    0.57616   0.61543   -1.000
 3804.00    0.58515   0.62534   -1.000
 3805.00    0.57637   0.61317   -1.000
 3806.00    0.55133   0.59399   -1.000
 3807.00    0.52949   0.58266   -1.000
 3808.00    0.54206   0.59337   -1.000
 3809.00    0.57501   0.61555   -1.000
 3810.00    0.59329   0.62912   -1.000
 3811.00    0.58685   0.62212   -1.000
 3812.00    0.57081   0.58901   -1.000
 3813.00    0.53204   0.55079   -1.000
 3814.00    0.49113   0.51316   -1.000
 3815.00    0.46610   0.49421   -1.000
 3816.00    0.45738   0.49343   -1.000
 3817.00    0.47092   0.50057   -1.000
 3818.00    0.47769   0.49293   -1.000
 3819.00    0.45304   0.46462   -1.000
 3820.00    0.42554   0.44525   -1.000
 3821.00    0.42340   0.44743   -1.000
 3822.00    0.43742   0.46708  109.634
 3823.00    0.45137   0.47145   49.560
 3824.00    0.43782   0.44844   50.028
 3825.00    0.41328   0.42640   49.424
 3826.00    0.41061   0.41465   48.613
 3827.00    0.41140   0.41768   48.364
 3828.00    0.41287   0.42824   49.613
 3829.00    0.42637   0.43931   52.570
 3830.00    0.42485   0.44107   55.817
 3831.00    0.40780   0.42845   56.353
 3832.00    0.38287   0.40529   54.718
 3833.00    0.37450   0.38339   52.892
 3834.00    0.38088   0.37338   52.653
 3835.00    0.39813   0.37443   53.878
 3836.00    0.41648   0.38575   54.269
 3837.00    0.41243   0.39352   52.375
 3838.00    0.39887   0.39464   77.636
 3839.00    0.38035   0.40055   -1.000
 3840.00    0.38810   0.41676   -1.000
 3841.00    0.42088   0.45318   -1.000
 3842.00    0.45470   0.49259   -1.000
 3843.00    0.48054   0.53113   -1.000
 3844.00    0.51153   0.55217   -1.000
 3845.00    0.51345   0.56002   -1.000
 3846.00    0.49949   0.56256   -1.000
 3847.00    0.50273   0.56142   -1.000
 3848.00    0.50126   0.55087   -1.000
 3849.00    0.49582   0.53690   -1.000
 3850.00    0.49160   0.52931   -1.000
 3851.00    0.47826   0.53876   -1.000
 3852.00    0.48873   0.54976   -1.000
 3853.00    0.49850   0.54943   -1.000
 3854.00    0.48136   0.53572   -1.000
 3855.00    0.46530   0.51841   -1.000
 3856.00    0.46039   0.50425   47.714
 3857.00    0.44786   0.48827   49.043
 3858.00    0.43232   0.46625   75.527
 3859.00    0.41765   0.45631   -1.000
 3860.00    0.41637   0.46510   -1.000
 3861.00    0.43551   0.49902   -1.000
 3862.00    0.47948   0.53462   -1.000
 3863.00    0.52011   0.55426   -1.000
 3864.00    0.53533   0.55241   -1.000
 3865.00    0.52948   0.54172   -1.000
 3866.00    0.50694   0.53616   -1.000
 3867.00    0.49418   0.53546   -1.000
 3868.00    0.48864   0.53093   -1.000
 3869.00    0.47146   0.52069   -1.000
 3870.00    0.44410   0.49849   -1.000
 3871.00    0.43399   0.48460   -1.000
 3872.00    0.46020   0.48657   -1.000
 3873.00    0.48956   0.51424   -1.000
 3874.00    0.51314   0.54884   -1.000
 3875.00    0.54414   0.57518   -1.000
 3876.00    0.55361   0.56545   -1.000
 3877.00    0.52156   0.53291   -1.000
 3878.00    0.48504   0.51196   -1.000
 3879.00    0.47371   0.50717   -1.000
 3880.00    0.47303   0.51245   -1.000
 3881.00    0.46410   0.51613   -1.000
 3882.00    0.47311   0.52011   -1.000
 3883.00    0.51029   0.53307   -1.000
 3884.00    0.54028   0.54059  395.561
 3885.00    0.53829   0.51728   -1.000
 3886.00    0.51810   0.48160   -1.000
 3887.00    0.51525   0.45068   -1.000
 3888.00    0.52261   0.44704   -1.000
 3889.00    0.54557   0.47394   -1.000
 3890.00    0.59006   0.52603   -1.000
 3891.00    0.63110   0.58060   -1.000
 3892.00    0.65503   0.62444   -1.000
 3893.00    0.66900   0.63867   -1.000
 3894.00    0.65889   0.63114   -1.000
 3895.00    0.63848   0.62691   -1.000
 3896.00    0.63602   0.63005  313.024
 3897.00    0.64852   0.63600   -1.000
 3898.00    0.65661   0.63507   -1.000
 3899.00    0.65234   0.62804   -1.000
 3900.00    0.65263   0.62978   -1.000
 3901.00    0.65349   0.63647   -1.000
 3902.00    0.65045   0.63513   -1.000
 3903.00    0.64067   0.62488   -1.000
 3904.00    0.61801   0.60806   -1.000
 3905.00    0.60945   0.60053   -1.000
 3906.00    0.62965   0.60701   -1.000
 3907.00    0.64827   0.63606   -1.000
 3908.00    0.68032   0.67225  287.058
 3909.00    0.70748   0.70237  284.779
 3910.00    0.72799   0.71658   -1.000
 3911.00    0.74648   0.72578   -1.000
 3912.00    0.75926   0.72956   -1.000
 3913.00    0.74891   0.72780   -1.000
 3914.00    0.73667   0.71905   -1.000
 3915.00    0.73190   0.70850   -1.000
 3916.00    0.70726   0.69586   -1.000
 3917.00    0.69253   0.68060   -1.000
 3918.00    0.67729   0.65862   -1.000
 3919.00    0.64588   0.62609   -1.000
 3920.00    0.61072   0.59812   -1.000
 3921.00    0.58918   0.57896   -1.000
 3922.00    0.58348   0.57914  355.084
 3923.00    0.60443   0.58986   -1.000
 3924.00    0.61419   0.59510   -1.000
 3925.00    0.60861   0.58874  101.916
 3926.00    0.57511   0.55974   55.725
 3927.00    0.51256   0.52336   65.288
 3928.00    0.46089   0.48220   76.755
 3929.00    0.40438   0.44828   -1.000
 3930.00    0.34298   0.42117   -1.000
 3931.00    0.30447   0.39023   -1.000
 3932.00    0.29931   0.35930   -1.000
 3933.00    0.29561   0.33289   -1.000
 3934.00    0.28778   0.33372   -1.000
 3935.00    0.31283   0.36196   55.844
 3936.00    0.34603   0.40463   -1.000
 3937.00    0.38532   0.44517   -1.000
 3938.00    0.45314   0.49175   -1.000
 3939.00    0.51121   0.52709   -1.000
 3940.00    0.54997   0.55396  395.561
 3941.00    0.56111   0.56639  389.405
 3942.00    0.54467   0.56336   -1.000
 3943.00    0.53315   0.55717   -1.000
 3944.00    0.54450   0.56672   -1.000
 3945.00    0.57861   0.59349   -1.000
 3946.00    0.63395   0.62316   -1.000
 3947.00    0.67324   0.64399   -1.000
 3948.00    0.68124   0.65869   -1.000
 3949.00    0.69411   0.67687   -1.000
 3950.00    0.72740   0.69936   -1.000
 3951.00    0.73895   0.70512   -1.000
 3952.00    0.73709   0.70323   -1.000
 3953.00    0.74300   0.70889   -1.000
 3954.00    0.74968   0.71632   -1.000
 3955.00    0.73797   0.71397   -1.000
 3956.00    0.71314   0.70056   -1.000
 3957.00    0.70196   0.68868   -1.000
 3958.00    0.70465   0.68568   -1.000
 3959.00    0.70164   0.67176   -1.000
 3960.00    0.65314   0.62130   -1.000
 3961.00    0.58488   0.56721   92.946
 3962.00    0.52463   0.51973   52.647
 3963.00    0.47724   0.49546   63.187
 3964.00    0.45089   0.47979   77.742
 3965.00    0.41598   0.44670   90.919
 3966.00    0.36057   0.40242   -1.000
 3967.00    0.31487   0.34783   80.570
 3968.00    0.30569   0.30988   66.233
 3969.00    0.30538   0.30226   54.925
 3970.00    0.32602   0.32855   86.580
 3971.00    0.38374   0.37256   -1.000
 3972.00    0.43801   0.43228  363.768
 3973.00    0.48460   0.48944  331.551
 3974.00    0.55266   0.54794  308.847
 3975.00    0.61873   0.59994   -1.000
 3976.00    0.65532   0.64451   -1.000
 3977.00    0.69871   0.69022  267.011
 3978.00    0.76044   0.72939   -1.000
 3979.00    0.80320   0.76809   -1.000
 3980.00    0.82101   0.78655   -1.000
 3981.00    0.82614   0.78897   -1.000
 3982.00    0.80797   0.77991   -1.000
 3983.00    0.79079   0.77487   -1.000
 3984.00    0.81196   0.78331   -1.000
 3985.00    0.83310   0.79929   -1.000
 3986.00    0.83810   0.81912   -1.000
 3987.00    0.86647   0.84018   -1.000
 3988.00    0.88922   0.85388   -1.000
 3989.00    0.88216   0.85471   -1.000
 3990.00    0.88740   0.85385   -1.000
 3991.00    0.91145   0.86106   -1.000
 3992.00    0.92329   0.87538   -1.000
 3993.00    0.91557   0.88514   -1.000
 3994.00    0.89401   0.87968   -1.000
 3995.00    0.87377   0.86272  254.255
 3996.00    0.86280   0.84175   -1.000
 3997.00    0.85553   0.83681   -1.000
 3998.00    0.87101   0.85149   -1.000
 3999.00    0.91846   0.88326   -1.000
 4000.00    0.96751   0.91144   -1.000
 4001.00    0.99181   0.93323   -1.000
 4002.00    0.99361   0.93892   -1.000
 4003.00    0.98457   0.92131   -1.000
 4004.00    0.93638   0.87273   -1.000
 4005.00    0.85907   0.82827   -1.000
 4006.00    0.84218   0.81999   -1.000
 4007.00    0.88728   0.85067   -1.000
 4008.00    0.94818   0.89835   -1.000
 4009.00    0.96837   0.92625   -1.000
 4010.00    0.97469   0.93866   -1.000
 4011.00    0.99977   0.94682   -1.000
 4012.00    0.99796   0.95202   -1.000
 4013.00    0.99532   0.95917   -1.000
 4014.00    0.99935   0.96861   -1.000
 4015.00    1.00244   0.97257   -1.000
 4016.00    1.00844   0.96925   -1.000
 4017.00    1.00721   0.96683   -1.000
 4018.00    1.01150   0.97386   -1.000
 4019.00    1.02812   0.98425   -1.000
 4020.00    1.03582   0.99102   -1.000
 4021.00    1.02988   0.98516   -1.000
 4022.00    1.01935   0.97413   -1.000
 4023.00    1.01319   0.96009   -1.000
 4024.00    1.00257   0.94701   -1.000
 4025.00    1.00402   0.94396   -1.000
 4026.00    1.02695   0.96345   -1.000
 4027.00    1.05816   0.99405   -1.000
 4028.00    1.06444   1.00374   -1.000
 4029.00    1.01739   0.97099   -1.000
 4030.00    0.95049   0.89928   -1.000
 4031.00    0.89135   0.83749   -1.000
 4032.00    0.85082   0.80120   -1.000
 4033.00    0.83804   0.79652   -1.000
 4034.00    0.85360   0.82077   -1.000
 4035.00    0.91060   0.87974   -1.000
 4036.00    0.98894   0.94777   -1.000
 4037.00    1.05598   1.01110   -1.000
 4038.00    1.08795   1.03823   -1.000
 4039.00    1.07949   1.03064   -1.000
 4040.00    1.04153   1.00743   -1.000
 4041.00    1.02601   0.99620   -1.000
 4042.00    1.02937   0.97710   -1.000
 4043.00    0.97492   0.92133   -1.000
 4044.00    0.86228   0.83319   -1.000
 4045.00    0.76602   0.75437  230.693
 4046.00    0.76136   0.75022  220.832
 4047.00    0.84943   0.82603   -1.000
 4048.00    0.95948   0.91220   -1.000
 4049.00    1.02955   0.98179   -1.000
 4050.00    1.05739   1.01485   -1.000
 4051.00    1.06276   1.02073   -1.000
 4052.00    1.03330   1.00489   -1.000
 4053.00    0.99340   0.98012   -1.000
 4054.00    0.96863   0.95515   -1.000
 4055.00    0.95204   0.93468   -1.000
 4056.00    0.93693   0.91577   -1.000
 4057.00    0.91999   0.89846   -1.000
 4058.00    0.91947   0.90246   -1.000
 4059.00    0.95719   0.92918   -1.000
 4060.00    1.00000   0.94840   -1.000
 4061.00    0.97614   0.92921   -1.000
 4062.00    0.88620   0.86384   -1.000
 4063.00    0.81440   0.81076  239.737
 4064.00    0.81468   0.79702   -1.000
 4065.00    0.87198   0.81753   -1.000
 4066.00    0.92662   0.85900   -1.000
 4067.00    0.95449   0.90122   -1.000
 4068.00    0.98731   0.93192   -1.000
 4069.00    1.01553   0.94014   -1.000
 4070.00    0.98836   0.91160   -1.000
 4071.00    0.92532   0.86581   -1.000
 4072.00    0.90963   0.85785   -1.000
 4073.00    0.94895   0.88736   -1.000
 4074.00    0.97786   0.91782   -1.000
 4075.00    0.96223   0.90397   -1.000
 4076.00    0.90347   0.85264   -1.000
 4077.00    0.85047   0.82338   -1.000
 4078.00    0.85436   0.83926   -1.000
 4079.00    0.91514   0.90503  219.503
 4080.00    0.99842   0.97432   -1.000
 4081.00    1.04951   1.02126   -1.000
 4082.00    1.04222   1.02127   -1.000
 4083.00    1.01043   0.99311   -1.000
 4084.00    0.98337   0.96959  216.153
 4085.00    0.98901   0.97267   -1.000
 4086.00    1.02517   1.00908   -1.000
 4087.00    1.08268   1.05168   -1.000
 4088.00    1.12702   1.08677   -1.000
 4089.00    1.12823   1.09422   -1.000
 4090.00    1.11410   1.07669   -1.000
 4091.00    1.08757   1.05048   -1.000
 4092.00    1.06910   1.03805   -1.000
 4093.00    1.06448   1.02679   -1.000
 4094.00    1.05336   1.00480   -1.000
 4095.00    1.00523   0.96699   -1.000
 4096.00    0.96188   0.92263   -1.000
 4097.00    0.93774   0.89549   -1.000
 4098.00    0.92696   0.87572   -1.000
 4099.00    0.90968   0.84166   -1.000
 4100.00    0.85887   0.79016   -1.000
 4101.00    0.80427   0.75035   -1.000
 4102.00    0.78994   0.74872   -1.000
 4103.00    0.83311   0.80145   -1.000
 4104.00    0.90520   0.86970   -1.000
 4105.00    0.95455   0.93414   -1.000
 4106.00    0.99157   0.97549   -1.000
 4107.00    1.02183   0.99498   -1.000
 4108.00    1.01725   0.99453   -1.000
 4109.00    0.97541   0.97984  232.633
 4110.00    0.95145   0.96327  228.062
 4111.00    0.96011   0.96106  224.403
 4112.00    0.97854   0.97288  221.691
 4113.00    0.99407   0.99653  221.447
 4114.00    1.02041   1.02206  224.711
 4115.00    1.04756   1.04003  231.233
 4116.00    1.05793   1.03763   -1.000
 4117.00    1.04244   1.01603   -1.000
 4118.00    0.99349   0.98762  232.709
 4119.00    0.96611   0.97006  231.866
 4120.00    0.98223   0.97188  230.529
 4121.00    0.99183   0.98217  227.031
 4122.00    0.98619   0.99053  224.896
 4123.00    0.99233   0.99977  226.424
 4124.00    1.01086   1.01497  230.645
 4125.00    1.02635   1.02754  233.856
 4126.00    1.03340   1.02370  235.296
 4127.00    1.00609   1.00466  237.527
 4128.00    0.98062   0.98571  243.225
 4129.00    0.97728   0.97144  251.023
 4130.00    0.95377   0.94841  254.647
 4131.00    0.91429   0.91723  249.727
 4132.00    0.87885   0.88337  238.645
 4133.00    0.87610   0.87973  229.093
 4134.00    0.90636   0.91501  223.950
 4135.00    0.95840   0.96717  220.452
 4136.00    1.01085   1.01417  218.550
 4137.00    1.02927   1.04515   -1.000
 4138.00    1.03605   1.05758   -1.000
 4139.00    1.03744   1.06296   -1.000
 4140.00    1.02704   1.04829   -1.000
 4141.00    0.99066   0.99778  262.243
 4142.00    0.91124   0.91666  248.447
 4143.00    0.83233   0.85834   -1.000
 4144.00    0.82880   0.85459   -1.000
 4145.00    0.89065   0.90091  233.750
 4146.00    0.96022   0.96183  239.607
 4147.00    0.98360   0.99187  244.120
 4148.00    0.96537   0.99060   -1.000
 4149.00    0.94603   0.97485   -1.000
 4150.00    0.92908   0.96476   -1.000
 4151.00    0.92019   0.96219   -1.000
 4152.00    0.92186   0.95922   -1.000
 4153.00    0.93298   0.95257   -1.000
 4154.00    1.07378   0.94339   -1.000
 4155.00    1.14666   0.93901   -1.000
 4156.00    0.85556   0.95058   -1.000
 4157.00    0.73254   0.97391   -1.000
 4158.00    0.91413   1.00568   -1.000
 4159.00    1.02385   1.03872   -1.000
 4160.00    1.03144   1.05891   -1.000
 4161.00    1.03202   1.07590   -1.000
 4162.00    1.04239   1.08977   -1.000
 4163.00    1.04712   1.09501   -1.000
 4164.00    1.03366   1.08201   -1.000
 4165.00    1.01171   1.05498   -1.000
 4166.00    0.98189   1.02076   -1.000
 4167.00    0.95989   1.00646   -1.000
 4168.00    0.96270   1.01088   -1.000
 4169.00    0.98016   1.02259   -1.000
 4170.00    0.99086   1.01624   -1.000
 4171.00    0.94776   0.97534   -1.000
 4172.00    0.89216   0.93068   -1.000
 4173.00    0.87493   0.90660   -1.000
 4174.00    0.88934   0.91719   -1.000
 4175.00    0.90896   0.94355   -1.000
 4176.00    0.92089   0.96033   -1.000
 4177.00    0.91890   0.96737   -1.000
 4178.00    0.93131   0.98115   -1.000
 4179.00    0.94918   0.99548   -1.000
 4180.00    0.94241   1.00107   -1.000
 4181.00    0.93548   0.99433   -1.000
 4182.00    0.95298   0.99135   -1.000
 4183.00    0.98220   1.01477   -1.000
 4184.00    1.01258   1.04140   -1.000
 4185.00    1.03135   1.04711   -1.000
 4186.00    1.01199   1.02190  240.742
 4187.00    0.96394   0.99098   -1.000
 4188.00    0.95206   0.98876   -1.000
 4189.00    0.97753   1.00804   -1.000
 4190.00    0.98693   1.02819   -1.000
 4191.00    0.99618   1.04185   -1.000
 4192.00    1.02609   1.05703   -1.000
 4193.00    1.06416   1.06877  250.347
 4194.00    1.04472   1.05737  256.085
 4195.00    0.97431   1.00922   -1.000
 4196.00    0.90851   0.95953   -1.000
 4197.00    0.89454   0.92280   -1.000
 4198.00    0.90467   0.90814  250.673
 4199.00    0.93178   0.90531   -1.000
 4200.00    0.94987   0.91177   -1.000
 4201.00    0.94044   0.92010   -1.000
 4202.00    0.93991   0.93420  240.067
 4203.00    0.97087   0.96330  234.448
 4204.00    0.99822   1.00606  229.400
 4205.00    1.02773   1.05087   -1.000
 4206.00    1.05446   1.08441   -1.000
 4207.00    1.07505   1.10866   -1.000
 4208.00    1.08614   1.11466   -1.000
 4209.00    1.06623   1.10582   -1.000
 4210.00    1.05063   1.09669   -1.000
 4211.00    1.06250   1.09778   -1.000
 4212.00    1.05906   1.10017   -1.000
 4213.00    1.03530   1.07726   -1.000
 4214.00    0.99601   1.02672   -1.000
 4215.00    0.96274   0.99226   -1.000
 4216.00    0.98542   1.00425   -1.000
 4217.00    1.06621   1.07195  210.163
 4218.00    1.13709   1.13659  210.692
 4219.00    1.19689   1.18035   -1.000
 4220.00    1.22356   1.18823   -1.000
 4221.00    1.20678   1.16629   -1.000
 4222.00    1.14329   1.10908   -1.000
 4223.00    1.05479   1.02580   -1.000
 4224.00    0.96020   0.90503   -1.000
 4225.00    0.83571   0.79594   -1.000
 4226.00    0.72591   0.72704  239.368
 4227.00    0.73512   0.74942  223.078
 4228.00    0.85336   0.84677  218.186
 4229.00    1.01240   0.98397   -1.000
 4230.00    1.10918   1.07126   -1.000
 4231.00    1.13258   1.10530   -1.000
 4232.00    1.12318   1.09461   -1.000
 4233.00    1.10491   1.06494   -1.000
 4234.00    1.08168   1.03365   -1.000
 4235.00    1.05538   1.01936   -1.000
 4236.00    1.03619   1.01599   -1.000
 4237.00    1.02554   1.02650  226.833
 4238.00    1.05984   1.05097  223.326
 4239.00    1.09850   1.08179   -1.000
 4240.00    1.10976   1.10994  218.836
 4241.00    1.14989   1.14110  214.425
 4242.00    1.17794   1.17040  214.450
 4243.00    1.19487   1.20574  221.989
 4244.00    1.21612   1.23813   -1.000
 4245.00    1.22708   1.24423   -1.000
 4246.00    1.21374   1.20857  241.432
 4247.00    1.15968   1.14795  241.884
 4248.00    1.09641   1.07987   -1.000
 4249.00    1.04681   1.03565  230.085
 4250.00    1.02899   1.02159  228.910
 4251.00    1.04204   1.03968  233.752
 4252.00    1.06689   1.05847  233.778
 4253.00    1.06647   1.05305   -1.000
 4254.00    1.05576   1.03536   -1.000
 4255.00    1.06857   1.04669   -1.000
 4256.00    1.12182   1.09708   -1.000
 4257.00    1.15141   1.12980   -1.000
 4258.00    1.12518   1.10044   -1.000
 4259.00    1.05021   1.03692   -1.000
 4260.00    0.98861   0.99531  217.410
 4261.00    1.01899   1.02351  210.778
 4262.00    1.11190   1.10451  208.979
 4263.00    1.18464   1.20036   -1.000
 4264.00    1.24390   1.25600  217.264
 4265.00    1.29140   1.26982   -1.000
 4266.00    1.27753   1.25443   -1.000
 4267.00    1.21974   1.21601  245.612
 4268.00    1.15780   1.15045  261.308
 4269.00    1.08340   1.07344   -1.000
 4270.00    0.99048   0.98147  264.556
 4271.00    0.90539   0.91322  257.974
 4272.00    0.87773   0.88426  247.864
 4273.00    0.90468   0.89809  233.056
 4274.00    0.92813   0.93684  220.868
 4275.00    0.97051   0.99961   -1.000
 4276.00    1.06372   1.07855   -1.000
 4277.00    1.15925   1.16016  233.375
 4278.00    1.20196   1.19544  236.197
 4279.00    1.19304   1.18212  233.882
 4280.00    1.14315   1.14582  231.339
 4281.00    1.11102   1.12965   -1.000
 4282.00    1.13044   1.13801  238.675
 4283.00    1.14476   1.14430  245.088
 4284.00    1.14401   1.13732  249.354
 4285.00    1.12292   1.12029  257.114
 4286.00    1.09535   1.10486  269.280
 4287.00    1.06982   1.08273   -1.000
 4288.00    1.02839   1.04045  263.716
 4289.00    0.97651   0.98381  247.611
 4290.00    0.94647   0.95593  239.660
 4291.00    0.98164   0.98362  240.089
 4292.00    1.05566   1.04510  243.674
 4293.00    1.09895   1.08373   -1.000
 4294.00    1.09151   1.08783  259.461
 4295.00    1.07336   1.07121  279.406
 4296.00    1.05597   1.04671   -1.000
 4297.00    1.01583   0.99761   -1.000
 4298.00    0.94180   0.93058   -1.000
 4299.00    0.85981   0.86299  298.679
 4300.00    0.82476   0.83241  294.210
 4301.00    0.84284   0.83978  290.391
 4302.00    0.86723   0.86309  290.310
 4303.00    0.87817   0.87922  297.979
 4304.00    0.88502   0.88844  312.661
 4305.00    0.87732   0.88082  323.191
 4306.00    0.84633   0.84441  320.569
 4307.00    0.80084   0.79533  305.922
 4308.00    0.76080   0.76796  286.630
 4309.00    0.76440   0.78640   -1.000
 4310.00    0.82859   0.84038  259.363
 4311.00    0.90615   0.91439  245.573
 4312.00    0.97833   0.98672  225.836
 4313.00    1.04006   1.06040   -1.000
 4314.00    1.10315   1.15477   -1.000
 4315.00    1.21624   1.25481   -1.000
 4316.00    1.34908   1.36016  199.058
 4317.00    1.41094   1.42395  203.261
 4318.00    1.41786   1.43161   -1.000
 4319.00    1.41973   1.40322   -1.000
 4320.00    1.37569   1.36853  233.912
 4321.00    1.32155   1.31547  254.112
 4322.00    1.26379   1.23969   -1.000
 4323.00    1.14364   1.12473   -1.000
 4324.00    1.01716   1.00707  232.407
 4325.00    0.92951   0.95056   -1.000
 4326.00    0.96839   0.99938   -1.000
 4327.00    1.13083   1.12474  206.442
 4328.00    1.26935   1.26934  205.895
 4329.00    1.35158   1.35021  202.861
 4330.00    1.36665   1.37042  200.363
 4331.00    1.36580   1.36747  199.541
 4332.00    1.36503   1.37959   -1.000
 4333.00    1.38904   1.40479   -1.000
 4334.00    1.41558   1.41844  231.662
 4335.00    1.41697   1.39663   -1.000
 4336.00    1.34450   1.31933   -1.000
 4337.00    1.22217   1.19929   -1.000
 4338.00    1.10850   1.06286   -1.000
 4339.00    1.03180   0.98365   -1.000
 4340.00    1.00027   0.97463   -1.000
 4341.00    1.04820   1.03442  219.648
 4342.00    1.14391   1.12931  213.532
 4343.00    1.23518   1.22214  209.387
 4344.00    1.28147   1.27782  206.888
 4345.00    1.32060   1.31805  203.788
 4346.00    1.34903   1.35320  203.370
 4347.00    1.36395   1.38816   -1.000
 4348.00    1.41556   1.41916  227.213
 4349.00    1.42595   1.41376   -1.000
 4350.00    1.33246   1.34300  227.121
 4351.00    1.21269   1.24673   -1.000
 4352.00    1.15458   1.18670   -1.000
 4353.00    1.18703   1.20263   -1.000
 4354.00    1.26988   1.26261  203.672
 4355.00    1.32873   1.32668  207.163
 4356.00    1.35991   1.36251  210.271
 4357.00    1.37894   1.37296  207.725
 4358.00    1.36580   1.36219  201.783
 4359.00    1.35110   1.35292  198.595
 4360.00    1.35469   1.37145   -1.000
 4361.00    1.40582   1.40855  195.642
 4362.00    1.43117   1.44435  194.973
 4363.00    1.46827   1.46692  199.599
 4364.00    1.48837   1.48506  206.796
 4365.00    1.49273   1.49001  210.341
 4366.00    1.45720   1.45951  209.177
 4367.00    1.37642   1.40119   -1.000
 4368.00    1.34565   1.36106   -1.000
 4369.00    1.34775   1.35053  208.799
 4370.00    1.34625   1.35423  215.915
 4371.00    1.35210   1.34752  224.711
 4372.00    1.33978   1.31663   -1.000
 4373.00    1.28812   1.26742   -1.000
 4374.00    1.23374   1.21431   -1.000
 4375.00    1.20948   1.19756  203.381
 4376.00    1.25295   1.23646   -1.000
 4377.00    1.34194   1.30680   -1.000
 4378.00    1.39938   1.35057   -1.000
 4379.00    1.39615   1.34840   -1.000
 4380.00    1.37120   1.29600   -1.000
 4381.00    1.28646   1.19217   -1.000
 4382.00    1.14165   1.04870   -1.000
 4383.00    0.97780   0.93560   -1.000
 4384.00    0.91752   0.90921  217.593
 4385.00    1.02236   0.98668   -1.000
 4386.00    1.17262   1.11256   -1.000
 4387.00    1.26281   1.19932   -1.000
 4388.00    1.27598   1.22328   -1.000
 4389.00    1.25483   1.21837   -1.000
 4390.00    1.24503   1.21961   -1.000
 4391.00    1.24760   1.23740  215.624
 4392.00    1.29775   1.26254   -1.000
 4393.00    1.31947   1.27779   -1.000
 4394.00    1.29668   1.28377  200.969
 4395.00    1.31356   1.30527  202.026
 4396.00    1.38809   1.35906   -1.000
 4397.00    1.45967   1.40860   -1.000
 4398.00    1.47230   1.41104   -1.000
 4399.00    1.40169   1.36677   -1.000
 4400.00    1.34197   1.32661   -1.000
 4401.00    1.33409   1.30381   -1.000
 4402.00    1.32985   1.27928   -1.000
 4403.00    1.26296   1.21556   -1.000
 4404.00    1.15280   1.12945   -1.000
 4405.00    1.10276   1.08837   -1.000
 4406.00    1.14464   1.11896   -1.000
 4407.00    1.19993   1.17824   -1.000
 4408.00    1.24020   1.24201  196.065
 4409.00    1.31080   1.31049  192.924
 4410.00    1.40324   1.39637  196.711
 4411.00    1.47206   1.47045  207.021
 4412.00    1.48944   1.47770  215.525
 4413.00    1.43908   1.41553   -1.000
 4414.00    1.34492   1.32830   -1.000
 4415.00    1.26825   1.26036  200.917
 4416.00    1.25918   1.26545  194.714
 4417.00    1.32337   1.33839   -1.000
 4418.00    1.40102   1.43475   -1.000
 4419.00    1.45800   1.49376   -1.000
 4420.00    1.45682   1.49891   -1.000
 4421.00    1.39474   1.45579   -1.000
 4422.00    1.34650   1.40168   -1.000
 4423.00    1.32996   1.37357   -1.000
 4424.00    1.33825   1.38204   -1.000
 4425.00    1.35885   1.39926   -1.000
 4426.00    1.37272   1.40748   -1.000
 4427.00    1.37758   1.41722   -1.000
 4428.00    1.38351   1.42600   -1.000
 4429.00    1.37715   1.42322   -1.000
 4430.00    1.36884   1.41214   -1.000
 4431.00    1.37915   1.40544   -1.000
 4432.00    1.40002   1.40662  218.773
 4433.00    1.36597   1.38092  211.865
 4434.00    1.29972   1.32582   -1.000
 4435.00    1.27534   1.29665   -1.000
 4436.00    1.32573   1.33194  188.447
 4437.00    1.41993   1.43007  193.360
 4438.00    1.52401   1.51723  202.225
 4439.00    1.56887   1.54836   -1.000
 4440.00    1.53230   1.50944   -1.000
 4441.00    1.43764   1.43762  206.599
 4442.00    1.36464   1.38054   -1.000
 4443.00    1.37004   1.38124  193.266
 4444.00    1.43710   1.44688  192.756
 4445.00    1.51337   1.52513  193.122
 4446.00    1.57579   1.57336  194.972
 4447.00    1.58696   1.58185  196.972
 4448.00    1.57576   1.57499  196.055
 4449.00    1.55308   1.57189   -1.000
 4450.00    1.54554   1.56529   -1.000
 4451.00    1.54985   1.54904  212.351
 4452.00    1.53463   1.51461   -1.000
 4453.00    1.47726   1.45618   -1.000
 4454.00    1.40489   1.37410   -1.000
 4455.00    1.34977   1.32037   -1.000
 4456.00    1.34953   1.31039   -1.000
 4457.00    1.35452   1.32694   -1.000
 4458.00    1.37999   1.33753   -1.000
 4459.00    1.36224   1.32916   -1.000
 4460.00    1.33217   1.31765   -1.000
 4461.00    1.32591   1.32192  199.412
 4462.00    1.36169   1.35855  198.449
 4463.00    1.41320   1.42015  198.571
 4464.00    1.47669   1.47487  200.501
 4465.00    1.50600   1.50006  204.167
 4466.00    1.51298   1.49735   -1.000
 4467.00    1.51081   1.48397   -1.000
 4468.00    1.47712   1.47168  197.665
 4469.00    1.45255   1.46315  190.865
 4470.00    1.47922   1.47270  185.454
 4471.00    1.52984   1.51669  183.353
 4472.00    1.58677   1.57013   -1.000
 4473.00    1.62404   1.61689  182.153
 4474.00    1.63990   1.64382  180.979
 4475.00    1.67207   1.65975  182.206
 4476.00    1.70911   1.68314   -1.000
 4477.00    1.73667   1.70332   -1.000
 4478.00    1.71878   1.68533   -1.000
 4479.00    1.65010   1.61440   -1.000
 4480.00    1.55642   1.52014   -1.000
 4481.00    1.48952   1.46719   -1.000
 4482.00    1.50082   1.48499  181.955
 4483.00    1.57807   1.56451  181.637
 4484.00    1.66966   1.65162   -1.000
 4485.00    1.71585   1.71634  192.025
 4486.00    1.73478   1.72846  196.945
 4487.00    1.71375   1.68788   -1.000
 4488.00    1.62676   1.60987   -1.000
 4489.00    1.54053   1.55307  187.470
 4490.00    1.51926   1.54736   -1.000
 4491.00    1.56162   1.58241   -1.000
 4492.00    1.61480   1.61254  199.450
 4493.00    1.60505   1.59351  198.176
 4494.00    1.52242   1.54678   -1.000
 4495.00    1.47722   1.51479   -1.000
 4496.00    1.50055   1.53369   -1.000
 4497.00    1.55518   1.59109   -1.000
 4498.00    1.62909   1.64662   -1.000
 4499.00    1.67685   1.67435  182.729
 4500.00    1.66611   1.67138  176.565
 4501.00    1.64146   1.66816   -1.000
 4502.00    1.68886   1.69125  173.648
 4503.00    1.78671   1.74229   -1.000
 4504.00    1.84131   1.79875   -1.000
 4505.00    1.84531   1.83264  179.311
 4506.00    1.82644   1.82387  178.118
 4507.00    1.79065   1.79413  176.840
 4508.00    1.76315   1.77594  177.982
 4509.00    1.78120   1.77569  181.284
 4510.00    1.81886   1.78453   -1.000
 4511.00    1.80273   1.78264   -1.000
 4512.00    1.75060   1.75476  185.356
 4513.00    1.70046   1.71300  185.098
 4514.00    1.67235   1.68081  187.064
 4515.00    1.67959   1.67148  188.341
 4516.00    1.68910   1.67801  185.667
 4517.00    1.69516   1.68277  182.013
 4518.00    1.68676   1.68326  182.030
 4519.00    1.71535   1.69756   -1.000
 4520.00    1.77259   1.72883   -1.000
 4521.00    1.78631   1.75476   -1.000
 4522.00    1.75443   1.75198  194.732
 4523.00    1.70294   1.71751  200.397
 4524.00    1.67843   1.67045  206.162
 4525.00    1.62217   1.62216  209.051
 4526.00    1.54786   1.56061  207.987
 4527.00    1.48554   1.49107  204.539
 4528.00    1.43474   1.43720  200.796
 4529.00    1.43121   1.41627   -1.000
 4530.00    1.46470   1.43737   -1.000
 4531.00    1.50750   1.48132   -1.000
 4532.00    1.53863   1.51817   -1.000
 4533.00    1.54338   1.52670   -1.000
 4534.00    1.48714   1.51001   -1.000
 4535.00    1.47677   1.50261   -1.000
 4536.00    1.56280   1.54037   -1.000
 4537.00    1.67805   1.62287   -1.000
 4538.00    1.75042   1.70101   -1.000
 4539.00    1.73863   1.72848  185.403
 4540.00    1.69048   1.70485  184.624
 4541.00    1.68296   1.67185   -1.000
 4542.00    1.66643   1.66701   94.243
 4543.00    0.54013   1.67931   -1.000
 4544.00    0.00233   1.68616   -1.000
 4545.00    0.04571   1.67442   -1.000
 4546.00    1.13731   1.65685   -1.000
 4547.00    0.57801   1.64966   -1.000
 4548.00    1.09083   1.64212   -1.000
 4549.00    1.61688   1.63035  193.362
 4550.00    1.62613   1.62842  196.191
 4551.00    1.63560   1.64692  198.163
 4552.00    1.65715   1.66246  195.683
 4553.00    1.65169   1.65164  188.922
 4554.00    1.64088   1.62606  181.333
 4555.00    1.65074   1.61869   -1.000
 4556.00    1.69547   1.65296   -1.000
 4557.00    1.78473   1.72208   -1.000
 4558.00    1.83798   1.79325   -1.000
 4559.00    1.84162   1.83129  182.096
 4560.00    1.84677   1.84552  186.660
 4561.00    1.84579   1.84181  190.014
 4562.00    1.83687   1.82346  188.460
 4563.00    1.78184   1.78133  183.892
 4564.00    1.71480   1.72965  179.019
 4565.00    1.69099   1.69698  176.922
 4566.00    1.72811   1.71133   -1.000
 4567.00    1.81171   1.76336   -1.000
 4568.00    1.85906   1.82215   -1.000
 4569.00    1.86037   1.84053   -1.000
 4570.00    1.79977   1.81633  181.625
 4571.00    1.71655   1.77346   -1.000
 4572.00    1.73357   1.74917  178.584
 4573.00    1.80526   1.77023   -1.000
 4574.00    1.84274   1.81241   -1.000
 4575.00    1.85049   1.84014  183.287
 4576.00    1.83002   1.83969  188.595
 4577.00    1.79283   1.82436   -1.000
 4578.00    1.78394   1.79198  192.563
 4579.00    1.74175   1.73894  190.005
 4580.00    1.66511   1.68176  188.468
 4581.00    1.66927   1.65745  188.860
 4582.00    1.70863   1.66942   -1.000
 4583.00    1.75067   1.69648   -1.000
 4584.00    1.73774   1.70925   -1.000
 4585.00    1.69138   1.70000  178.974
 4586.00    1.70486   1.69677  178.397
 4587.00    1.75816   1.72502   -1.000
 4588.00    1.83434   1.77745   -1.000
 4589.00    1.86530   1.82212   -1.000
 4590.00    1.82985   1.83210  187.832
 4591.00    1.78587   1.80603   -1.000
 4592.00    1.73177   1.76175   -1.000
 4593.00    1.70676   1.72845   -1.000
 4594.00    1.70403   1.71139  183.908
 4595.00    1.71083   1.70498  183.496
 4596.00    1.71298   1.70446  184.948
 4597.00    1.71176   1.71449  186.625
 4598.00    1.74652   1.73107   -1.000
 4599.00    1.75902   1.74408   -1.000
 4600.00    1.75229   1.74591  183.354
 4601.00    1.73275   1.74238  183.470
 4602.00    1.74667   1.74388  183.226
 4603.00    1.76585   1.74791   -1.000
 4604.00    1.78824   1.74598   -1.000
 4605.00    1.76084   1.74459   -1.000
 4606.00    1.76880   1.76211  171.886
 4607.00    1.85892   1.80678   -1.000
 4608.00    1.95008   1.86929   -1.000
 4609.00    1.98067   1.92990   -1.000
 4610.00    1.96437   1.94637   -1.000
 4611.00    1.92106   1.92493  177.189
 4612.00    1.89313   1.88956  175.643
 4613.00    1.87210   1.86626  174.873
 4614.00    1.88875   1.86747   -1.000
 4615.00    1.92868   1.88812   -1.000
 4616.00    1.94717   1.91097   -1.000
 4617.00    1.94118   1.92295   -1.000
 4618.00    1.92583   1.92625  172.829
 4619.00    1.90363   1.92331   -1.000
 4620.00    1.92134   1.92139  173.011
 4621.00    1.94679   1.92804   -1.000
 4622.00    1.95110   1.93732  174.879
 4623.00    1.93851   1.93809  175.390
 4624.00    1.93123   1.92936  175.324
 4625.00    1.92086   1.91846  176.383
 4626.00    1.91338   1.90588  176.815
 4627.00    1.91549   1.89772   -1.000
 4628.00    1.91803   1.89743   -1.000
 4629.00    1.90580   1.90278  174.626
 4630.00    1.91459   1.91028  177.101
 4631.00    1.95035   1.92013   -1.000
 4632.00    1.94589   1.92323   -1.000
 4633.00    1.89488   1.90647  180.415
 4634.00    1.86010   1.87544  182.775
 4635.00    1.86166   1.85250  183.624
 4636.00    1.85997   1.83694   -1.000
 4637.00    1.82019   1.81552  180.439
 4638.00    1.78197   1.78685  176.061
 4639.00    1.77455   1.76417  173.538
 4640.00    1.78040   1.76063   -1.000
 4641.00    1.83192   1.78293   -1.000
 4642.00    1.87909   1.81481   -1.000
 4643.00    1.86993   1.83111   -1.000
 4644.00    1.85068   1.80788   -1.000
 4645.00    1.77943   1.75749   -1.000
 4646.00    1.69671   1.69442  180.788
 4647.00    1.65948   1.64746   -1.000
 4648.00    1.69970   1.64753   -1.000
 4649.00    1.76730   1.69356   -1.000
 4650.00    1.80670   1.76246   -1.000
 4651.00    1.85943   1.82205   -1.000
 4652.00    1.89425   1.85825   -1.000
 4653.00    1.88979   1.86436   -1.000
 4654.00    1.85598   1.84134   -1.000
 4655.00    1.78832   1.80782  171.789
 4656.00    1.80484   1.79909  167.812
 4657.00    1.86282   1.83036   -1.000
 4658.00    1.95078   1.90048   -1.000
 4659.00    2.03493   1.97698   -1.000
 4660.00    2.03997   2.02291   -1.000
 4661.00    1.98089   2.01253   -1.000
 4662.00    1.92672   1.96338   -1.000
 4663.00    1.87066   1.90098   -1.000
 4664.00    1.82720   1.84440  195.962
 4665.00    1.79759   1.78790  196.450
 4666.00    1.71952   1.71939  190.588
 4667.00    1.62086   1.64910   -1.000
 4668.00    1.59018   1.61779   -1.000
 4669.00    1.67332   1.64893   -1.000
 4670.00    1.79257   1.72924   -1.000
 4671.00    1.86791   1.80843   -1.000
 4672.00    1.90380   1.85559   -1.000
 4673.00    1.87252   1.86059  171.492
 4674.00    1.86695   1.85797  172.259
 4675.00    1.88754   1.86975   -1.000
 4676.00    1.91143   1.89231   -1.000
 4677.00    1.92707   1.90239   -1.000
 4678.00    1.88903   1.88002  184.239
 4679.00    1.83099   1.83743  182.037
 4680.00    1.79567   1.79664  177.467
 4681.00    1.77503   1.77356  175.080
 4682.00    1.80314   1.77478   -1.000
 4683.00    1.85424   1.80022   -1.000
 4684.00    1.89361   1.83392   -1.000
 4685.00    1.90332   1.85235   -1.000
 4686.00    1.89527   1.85460   -1.000
 4687.00    1.87988   1.84528   -1.000
 4688.00    1.87608   1.83637   -1.000
 4689.00    1.88339   1.83404   -1.000
 4690.00    1.88541   1.83589   -1.000
 4691.00    1.87016   1.83438   -1.000
 4692.00    1.87323   1.83428   -1.000
 4693.00    1.89892   1.84636   -1.000
 4694.00    1.94703   1.87251   -1.000
 4695.00    2.00495   1.90030   -1.000
 4696.00    2.00662   1.91563   -1.000
 4697.00    1.94155   1.90068   -1.000
 4698.00    1.86968   1.85671   -1.000
 4699.00    1.82598   1.80466   -1.000
 4700.00    1.82420   1.77339   -1.000
 4701.00    1.84405   1.75849   -1.000
 4702.00    1.81465   1.75093   -1.000
 4703.00    1.80533   1.75311   -1.000
 4704.00    1.84279   1.77481   -1.000
 4705.00    1.88034   1.80486   -1.000
 4706.00    1.89170   1.81848   -1.000
 4707.00    1.84999   1.80451   -1.000
 4708.00    1.79844   1.78099   -1.000
 4709.00    1.79731   1.77827   -1.000
 4710.00    1.86180   1.80351   -1.000
 4711.00    1.91745   1.84032   -1.000
 4712.00    1.93241   1.86292   -1.000
 4713.00    1.90242   1.85911   -1.000
 4714.00    1.85730   1.84016   -1.000
 4715.00    1.84800   1.83792  170.336
 4716.00    1.91873   1.87092   -1.000
 4717.00    1.98828   1.92715   -1.000
 4718.00    2.03313   1.98276   -1.000
 4719.00    2.04110   2.01950   -1.000
 4720.00    2.05395   2.04108  170.808
 4721.00    2.03829   2.04434  168.943
 4722.00    1.99514   2.03137   -1.000
 4723.00    1.99987   2.02044   -1.000
 4724.00    2.01216   2.02820  180.005
 4725.00    2.05491   2.03193   -1.000
 4726.00    2.00329   2.00221  183.324
 4727.00    1.88676   1.93029   -1.000
 4728.00    1.80677   1.83885   -1.000
 4729.00    1.78737   1.78115  177.822
 4730.00    1.81370   1.77156   -1.000
 4731.00    1.84219   1.80412   -1.000
 4732.00    1.89826   1.85157   -1.000
 4733.00    1.93331   1.89505   -1.000
 4734.00    1.95894   1.92165   -1.000
 4735.00    1.96304   1.92814   -1.000
 4736.00    1.93883   1.92562  174.215
 4737.00    1.94580   1.92755   -1.000
 4738.00    1.99302   1.94383   -1.000
 4739.00    2.02274   1.96934   -1.000
 4740.00    2.01000   1.98451   -1.000
 4741.00    1.98358   1.98030  172.504
 4742.00    2.00116   1.97597   -1.000
 4743.00    2.03043   1.98177   -1.000
 4744.00    2.05027   1.98985   -1.000
 4745.00    2.04498   2.00312   -1.000
 4746.00    2.03831   2.02164   -1.000
 4747.00    2.05212   2.04445  169.637
 4748.00    2.06115   2.06344  170.901
 4749.00    2.05700   2.07588  172.863
 4750.00    2.05684   2.08351   -1.000
 4751.00    2.04666   2.07909   -1.000
 4752.00    2.00152   2.05651   -1.000
 4753.00    1.97027   2.02409   -1.000
 4754.00    1.96943   1.99073   -1.000
 4755.00    1.98262   1.97217  177.349
 4756.00    1.98424   1.97169  175.829
 4757.00    1.95017   1.98167   -1.000
 4758.00    1.96131   1.99933   -1.000
 4759.00    1.97547   2.01903   -1.000
 4760.00    1.96518   2.03036   -1.000
 4761.00    1.96183   2.01671   -1.000
 4762.00    1.90102   1.97744   -1.000
 4763.00    1.87357   1.92533   -1.000
 4764.00    1.85356   1.88117   -1.000
 4765.00    1.81469   1.85218   -1.000
 4766.00    1.81059   1.83197  174.519
 4767.00    1.84918   1.83450   -1.000
 4768.00    1.90079   1.88178   -1.000
 4769.00    1.95399   1.95607  177.995
 4770.00    1.99077   2.01017  175.810
 4771.00    1.99255   2.01973   -1.000
 4772.00    1.94975   2.00152   -1.000
 4773.00    2.01340   2.00290  171.070
 4774.00    2.07186   2.03662   -1.000
 4775.00    2.06640   2.08211  172.734
 4776.00    2.07424   2.11184   -1.000
 4777.00    2.05610   2.12128   -1.000
 4778.00    2.05781   2.12303   -1.000
 4779.00    2.03940   2.11561   -1.000
 4780.00    2.03145   2.09596   -1.000
 4781.00    2.03773   2.06934   -1.000
 4782.00    1.99974   2.03880   -1.000
 4783.00    1.95317   2.00023   -1.000
 4784.00    1.95531   1.97311  181.814
 4785.00    1.92844   1.96891   -1.000
 4786.00    1.94946   1.97381   -1.000
 4787.00    1.95270   1.97354  179.529
 4788.00    1.96177   1.97433  177.618
 4789.00    1.97769   1.97811  174.650
 4790.00    1.95872   1.98419   -1.000
 4791.00    1.97404   1.99971   -1.000
 4792.00    2.01568   2.03899   -1.000
 4793.00    2.08878   2.10214  169.098
 4794.00    2.14766   2.17123   -1.000
 4795.00    2.18678   2.22463   -1.000
 4796.00    2.17562   2.23914   -1.000
 4797.00    2.12204   2.20649   -1.000
 4798.00    2.05451   2.14542   -1.000
 4799.00    2.00809   2.08964   -1.000
 4800.00    2.01482   2.06286   -1.000
 4801.00    2.06800   2.08074  172.812
 4802.00    2.13696   2.13305  175.018
 4803.00    2.14978   2.18640   -1.000
 4804.00    2.11361   2.19253   -1.000
 4805.00    2.05706   2.15509   -1.000
 4806.00    2.01704   2.10611   -1.000
 4807.00    2.00588   2.07049   -1.000
 4808.00    1.98332   2.05346   -1.000
 4809.00    2.00023   2.06170   -1.000
 4810.00    2.03832   2.08980   -1.000
 4811.00    2.08476   2.11924   -1.000
 4812.00    2.08599   2.13368   -1.000
 4813.00    2.07042   2.13458   -1.000
 4814.00    2.04436   2.13699   -1.000
 4815.00    2.09031   2.14938   -1.000
 4816.00    2.13169   2.17153   -1.000
 4817.00    2.17769   2.19854  167.435
 4818.00    2.20252   2.22534   -1.000
 4819.00    2.20711   2.24770   -1.000
 4820.00    2.19031   2.25632   -1.000
 4821.00    2.17408   2.23838   -1.000
 4822.00    2.10781   2.19054   -1.000
 4823.00    2.03983   2.12491   -1.000
 4824.00    2.02205   2.07067   -1.000
 4825.00    2.05533   2.06426  173.436
 4826.00    2.11527   2.10610  174.446
 4827.00    2.11799   2.14632   -1.000
 4828.00    2.08018   2.14791   -1.000
 4829.00    2.07779   2.12903   -1.000
 4830.00    2.07227   2.11360   -1.000
 4831.00    2.03428   2.09595   -1.000
 4832.00    2.01928   2.07085   -1.000
 4833.00    2.02790   2.06494   -1.000
 4834.00    2.10572   2.08950   -1.000
 4835.00    2.11613   2.13366  174.130
 4836.00    2.10219   2.16502   -1.000
 4837.00    2.12050   2.17046   -1.000
 4838.00    2.11022   2.15294   -1.000
 4839.00    2.04441   2.11798   -1.000
 4840.00    2.01478   2.08437   -1.000
 4841.00    2.03392   2.06925   -1.000
 4842.00    2.03978   2.06991   -1.000
 4843.00    2.02953   2.07305   -1.000
 4844.00    2.06903   2.08402  172.954
 4845.00    2.13134   2.11931   -1.000
 4846.00    2.17027   2.16382  175.212
 4847.00    2.13814   2.18163   -1.000
 4848.00    2.08816   2.15972   -1.000
 4849.00    2.06156   2.12730   -1.000
 4850.00    2.08018   2.12421   -1.000
 4851.00    2.12310   2.14417  180.529
 4852.00    2.11883   2.15922   -1.000
 4853.00    2.08955   2.14390   -1.000
 4854.00    2.02243   2.09236   -1.000
 4855.00    1.93643   2.02183   -1.000
 4856.00    1.92867   1.97071   -1.000
 4857.00    1.96710   1.96477  230.086
 4858.00    1.95532   1.96719  239.599
 4859.00    1.85418   1.91793   -1.000
 4860.00    1.68802   1.78163   -1.000
 4861.00    1.57219   1.63553   -1.000
 4862.00    1.61067   1.58197   -1.000
 4863.00    1.73058   1.65160   -1.000
 4864.00    1.85748   1.77905   -1.000
 4865.00    1.90356   1.89283  179.561
 4866.00    1.95718   1.97313  181.361
 4867.00    1.97986   2.02639   -1.000
 4868.00    2.00585   2.05403   -1.000
 4869.00    1.98224   2.05113   -1.000
 4870.00    1.92037   2.00521   -1.000
 4871.00    1.81453   1.92244   -1.000
 4872.00    1.80488   1.85050   -1.000
 4873.00    1.85921   1.85966  178.138
 4874.00    1.92512   1.94238  177.477
 4875.00    1.96508   2.02500   -1.000
 4876.00    1.96937   2.07230   -1.000
 4877.00    2.00912   2.10079   -1.000
 4878.00    2.06249   2.13568   -1.000
 4879.00    2.09849   2.17331   -1.000
 4880.00    2.08898   2.19721   -1.000
 4881.00    2.05365   2.18596   -1.000
 4882.00    2.01055   2.14973   -1.000
 4883.00    2.04426   2.12511   -1.000
 4884.00    2.04330   2.11384   -1.000
 4885.00    1.97571   2.08182   -1.000
 4886.00    1.93119   2.03082   -1.000
 4887.00    1.95691   2.00198   -1.000
 4888.00    1.96896   2.00466   -1.000
 4889.00    1.93913   1.99960   -1.000
 4890.00    1.89001   1.95913   -1.000
 4891.00    1.87449   1.90328   -1.000
 4892.00    1.93667   1.90761   -1.000
 4893.00    2.10211   2.00487   -1.000
 4894.00    2.22729   2.16574   16.278
 4895.00    2.27922   2.30806   16.648
 4896.00    2.31470   2.37711   17.033
 4897.00    2.32507   2.39148   17.198
 4898.00    2.29672   2.37502   17.109
 4899.00    2.23747   2.33817   17.148
 4900.00    2.19661   2.29188   17.346
 4901.00    2.18695   2.25953   17.130
 4902.00    2.17576   2.23981   16.768
 4903.00    2.14592   2.22091   16.663
 4904.00    2.16054   2.21105   16.844
 4905.00    2.23039   2.23783   17.267
 4906.00    2.28343   2.29865   17.756
 4907.00    2.28952   2.33480   17.942
 4908.00    2.20001   2.30312   17.683
 4909.00    2.12907   2.22505   17.363
 4910.00    2.09267   2.14557   17.129
 4911.00    2.09387   2.10856   16.910
 4912.00    2.16655   2.13011   16.778
 4913.00    2.18317   2.19060   16.899
 4914.00    2.23365   2.25437   17.533
 4915.00    2.29269   2.30487   18.506
 4916.00    2.28169   2.32537   19.342
 4917.00    2.20528   2.28548   19.481
 4918.00    2.06517   2.15315   18.812
 4919.00    1.91059   1.97307   18.153
 4920.00    1.82321   1.83034   17.914
 4921.00    1.88194   1.79656   17.891
 4922.00    2.01174   1.87511   17.637
 4923.00    2.08567   1.99442   17.176
 4924.00    2.11897   2.07846   16.885
 4925.00    2.11990   2.11657   16.734
 4926.00    2.17889   2.16284   16.622
 4927.00    2.25983   2.23481   16.541
 4928.00    2.30393   2.30860   16.735
 4929.00    2.34782   2.37143   17.215
 4930.00    2.36854   2.41227   17.806
 4931.00    2.35583   2.41506   17.802
 4932.00    2.29032   2.37027   17.492
 4933.00    2.19436   2.29346   17.531
 4934.00    2.15335   2.22510   18.067
 4935.00    2.18367   2.20673   18.514
 4936.00    2.20646   2.21672   18.293
 4937.00    2.13177   2.18818   17.655
 4938.00    2.04031   2.10575   17.108
 4939.00    2.02756   2.03511   16.812
 4940.00    2.12570   2.05559   16.677
 4941.00    2.24578   2.15744   16.704
 4942.00    2.31022   2.27386   16.820
 4943.00    2.34611   2.35267   16.838
 4944.00    2.35912   2.38402   16.675
 4945.00    2.35696   2.38210   16.488
 4946.00    2.35952   2.36602   16.441
 4947.00    2.36478   2.36347   16.384
 4948.00    2.39218   2.38811   16.478
 4949.00    2.41270   2.42350   16.599
 4950.00    2.41184   2.44612   16.796
 4951.00    2.41774   2.45646   17.027
 4952.00    2.39983   2.45096   17.529
 4953.00    2.34501   2.42860   18.437
 4954.00    2.29065   2.39240   19.072
 4955.00    2.24038   2.32211   18.585
 4956.00    2.11383   2.19948   17.535
 4957.00    1.96835   2.03289   16.987
 4958.00    1.94390   1.92314   16.889
 4959.00    2.06129   1.97376   16.980
 4960.00    2.22104   2.12682   17.124
 4961.00    2.28374   2.26945   17.344
 4962.00    2.28608   2.33164   17.706
 4963.00    2.27130   2.33071   17.910
 4964.00    2.24415   2.29828   17.902
 4965.00    2.17895   2.23811   17.840
 4966.00    2.12346   2.17392   17.699
 4967.00    2.10488   2.13862   17.508
 4968.00    2.13344   2.13622   17.317
 4969.00    2.15375   2.15501   17.114
 4970.00    2.18731   2.19133   16.963
 4971.00    2.22399   2.23584   16.915
 4972.00    2.26058   2.28839   17.045
 4973.00    2.30601   2.33417   17.233
 4974.00    2.33198   2.35878   17.474
 4975.00    2.34079   2.36305   17.754
 4976.00    2.28865   2.34882   17.974
 4977.00    2.24018   2.31240   18.265
 4978.00    2.18817   2.26174   18.879
 4979.00    2.16151   2.21264   19.428
 4980.00    2.13628   2.17340   19.371
 4981.00    2.06632   2.12173   18.975
 4982.00    1.98326   2.03493   18.428
 4983.00    1.93995   1.94385   17.855
 4984.00    1.96120   1.91022   17.465
 4985.00    2.02017   1.95390   17.520
 4986.00    2.12087   2.05074   17.778
 4987.00    2.21301   2.15728   17.939
 4988.00    2.24629   2.23780   17.923
 4989.00    2.24130   2.26247   17.767
 4990.00    2.22114   2.24069   17.702
 4991.00    2.21693   2.21713   17.686
 4992.00    2.21013   2.21669   17.593
 4993.00    2.21386   2.23235   17.528
 4994.00    2.23195   2.24533   17.655
 4995.00    2.25833   2.25189   17.910
 4996.00    2.27413   2.26781   18.261
 4997.00    2.25515   2.28499   18.460
 4998.00    2.22691   2.26590   18.445
 4999.00    2.16339   2.20690   18.270
 5000.00    2.10688   2.12937   18.197
 5001.00    2.08160   2.07172   18.494
 5002.00    2.09835   2.05729   18.929
 5003.00    2.10429   2.06843   18.954
 5004.00    2.08689   2.06670   18.459
 5005.00    2.04352   2.02593   17.937
 5006.00    2.01217   1.97035   17.808
 5007.00    2.03301   1.95531   18.091
 5008.00    2.12201   2.01885   18.662
 5009.00    2.18723   2.11551   19.336
 5010.00    2.19800   2.17343   19.710
 5011.00    2.12896   2.16188   19.556
 5012.00    2.04722   2.09027   19.115
 5013.00    1.97289   1.99668   18.757
 5014.00    1.95475   1.92857   18.697
 5015.00    1.98188   1.92465   18.675
 5016.00    2.03184   1.96513   18.464
 5017.00    2.05587   2.00741   18.345
 5018.00    2.05301   2.03087   18.427
 5019.00    2.07624   2.04808   18.447
 5020.00    2.10145   2.07492   18.325
 5021.00    2.10845   2.08780   18.138
 5022.00    2.09843   2.07778   18.046
 5023.00    2.11119   2.07588   18.139
 5024.00    2.14808   2.11003   18.191
 5025.00    2.17749   2.16460   17.993
 5026.00    2.18002   2.19578   17.659
 5027.00    2.16276   2.17768   17.404
 5028.00    2.15029   2.14842   17.131
 5029.00    2.20161   2.15573   16.968
 5030.00    2.25628   2.20786   17.073
 5031.00    2.29877   2.27896   17.656
 5032.00    2.35372   2.34542   18.308
 5033.00    2.36338   2.39324   18.565
 5034.00    2.32393   2.39078   18.647
 5035.00    2.24704   2.32601   18.954
 5036.00    2.17085   2.23381   19.722
 5037.00    2.13877   2.17293   20.413
 5038.00    2.12156   2.14531   20.248
 5039.00    2.04989   2.09579   19.197
 5040.00    1.93390   1.99464   18.060
 5041.00    1.89633   1.89505   17.388
 5042.00    1.99466   1.89186   16.986
 5043.00    2.14847   2.00792   16.495
 5044.00    1.33623   2.18598   -1.000
 5045.00    0.06923   2.34321   -1.000
 5046.00    0.08196   2.42414   -1.000
 5047.00    0.66275   2.42167   -1.000
 5048.00    1.92156   2.34950   -1.000
 5049.00    2.16943   2.24267   17.826
 5050.00    2.12171   2.15488   17.393
 5051.00    2.15098   2.12730   17.103
 5052.00    2.20288   2.14564   16.962
 5053.00    2.26568   2.19463   16.924
 5054.00    2.32367   2.26671   16.958
 5055.00    2.38308   2.33111   16.983
 5056.00    2.41278   2.36682   16.958
 5057.00    2.40218   2.38640   16.858
 5058.00    2.44216   2.40166   16.906
 5059.00    2.45323   2.42611   17.184
 5060.00    2.46881   2.45956   17.713
 5061.00    2.48723   2.49180   18.282
 5062.00    2.46186   2.50253   18.408
 5063.00    2.38950   2.45658   18.161
 5064.00    2.27591   2.35588   17.919
 5065.00    2.19782   2.24772   17.865
 5066.00    2.20528   2.19174   17.773
 5067.00    2.23175   2.19076   17.697
 5068.00    2.24023   2.21121   17.850
 5069.00    2.27224   2.23515   17.930
 5070.00    2.30612   2.26453   17.710
 5071.00    2.29750   2.28225   17.594
 5072.00    2.27805   2.27127   17.576
 5073.00    2.29819   2.25196   17.593
 5074.00    2.32519   2.25884   17.845
 5075.00    2.34831   2.28077   18.524
 5076.00    2.34810   2.29470   19.305
 5077.00    2.32204   2.29209   19.394
 5078.00    2.25927   2.25642   18.963
 5079.00    2.14389   2.17131   18.584
 5080.00    2.05702   2.06928   18.321
 5081.00    2.07146   2.02603   17.976
 5082.00    2.12723   2.05204   17.700
 5083.00    2.18224   2.10472   17.598
 5084.00    2.23915   2.15705   17.566
 5085.00    2.28172   2.20900   17.468
 5086.00    2.32841   2.26183   17.345
 5087.00    2.33917   2.30292   17.252
 5088.00    2.33479   2.32566   17.142
 5089.00    2.36681   2.34007   16.948
 5090.00    2.38046   2.35297   16.852
 5091.00    2.42007   2.37195   17.053
 5092.00    2.45933   2.40607   17.420
 5093.00    2.48689   2.44843   17.806
 5094.00    2.48682   2.47030   18.230
 5095.00    2.42367   2.44125   18.551
 5096.00    2.34837   2.36449   18.501
 5097.00    2.28218   2.27403   18.012
 5098.00    2.18896   2.19263   17.554
 5099.00    2.15289   2.13840   17.461
 5100.00    2.21095   2.14769   17.597
 5101.00    2.30583   2.21602   17.833
 5102.00    2.36853   2.29922   18.057
 5103.00    2.36291   2.33851   18.279
 5104.00    2.33202   2.32699   18.460
 5105.00    2.30293   2.29716   18.405
 5106.00    2.25561   2.26469   18.281
 5107.00    2.22347   2.23037   18.123
 5108.00    2.22702   2.19674   17.865
 5109.00    2.22013   2.17388   17.647
 5110.00    2.23999   2.17718   17.443
 5111.00    2.27894   2.20845   17.300
 5112.00    2.31980   2.26202   17.192
 5113.00    2.37007   2.31131   17.014
 5114.00    2.41017   2.34704   16.911
 5115.00    2.43554   2.38283   17.002
 5116.00    2.46674   2.42189   17.239
 5117.00    2.50306   2.45903   17.505
 5118.00    2.51426   2.48281   17.827
 5119.00    2.50079   2.47851   18.310
 5120.00    2.43899   2.44149   18.782
 5121.00    2.37827   2.38452   18.835
 5122.00    2.30568   2.31244   18.671
 5123.00    2.21532   2.23101   18.579
 5124.00    2.17744   2.16177   18.495
 5125.00    2.18562   2.12776   18.519
 5126.00    2.21695   2.13615   18.453
 5127.00    2.23638   2.15909   18.188
 5128.00    2.23728   2.17028   17.908
 5129.00    2.23884   2.17462   17.764
 5130.00    2.25678   2.19032   17.596
 5131.00    2.31940   2.23097   17.464
 5132.00    2.37754   2.28364   17.497
 5133.00    2.41554   2.32280   17.851
 5134.00    2.43687   2.34983   18.261
 5135.00    2.44744   2.37293   18.490
 5136.00    2.42951   2.38442   18.463
 5137.00    2.36650   2.35212   18.354
 5138.00    2.27695   2.27443   18.538
 5139.00    2.23847   2.21572   18.759
 5140.00    2.26411   2.20839   18.588
 5141.00    2.27926   2.22623   18.320
 5142.00    2.26627   2.23163   18.317
 5143.00    2.24682   2.22186   18.471
 5144.00    2.25007   2.22862   18.451
 5145.00    2.27666   2.24706   18.240
 5146.00    2.25519   2.23077   18.214
 5147.00    2.23462   2.19391   18.478
 5148.00    2.22771   2.18379   18.773
 5149.00    2.25820   2.20762   18.839
 5150.00    2.26766   2.23133   18.675
 5151.00    2.24450   2.22268   18.280
 5152.00    2.22706   2.19375   17.810
 5153.00    2.23957   2.17213   17.384
 5154.00    2.26016   2.17007   17.108
 5155.00    2.32932   2.20495   17.017
 5156.00    2.41178   2.27991   17.033
 5157.00    2.48454   2.36927   17.101
 5158.00    2.52581   2.43308   17.223
 5159.00    2.51687   2.46233   17.439
 5160.00    2.49660   2.46602   17.801
 5161.00    2.44945   2.45071   18.672
 5162.00    2.41243   2.41260   20.346
 5163.00    2.36740   2.34484   22.334
 5164.00    2.26638   2.25417   23.343
 5165.00    2.09409   2.13661   22.578
 5166.00    1.86404   1.95430   21.475
 5167.00    1.67744   1.73450   21.602
 5168.00    1.64559   1.61199   23.093
 5169.00    1.76003   1.64421   -1.000
 5170.00    1.86561   1.74817   -1.000
 5171.00    1.79477   1.76584   20.189
 5172.00    1.62630   1.65156   18.764
 5173.00    1.61531   1.56645   18.211
 5174.00    1.81949   1.63243   -1.000
 5175.00    2.08120   1.84992   -1.000
 5176.00    2.24254   2.07128   -1.000
 5177.00    2.30053   2.18941   19.202
 5178.00    2.31823   2.23350   20.819
 5179.00    2.28548   2.23757   23.112
 5180.00    2.21180   2.19950   24.160
 5181.00    2.05756   2.09090   22.496
 5182.00    1.82599   1.88258   20.066
 5183.00    1.62675   1.65839   18.631
 5184.00    1.62592   1.54541   18.191
 5185.00    1.85403   1.64832   -1.000
 5186.00    2.14763   1.89815   -1.000
 5187.00    2.33105   2.13295   -1.000
 5188.00    2.39815   2.27377   18.947
 5189.00    2.42540   2.33158   19.300
 5190.00    2.41909   2.33565   19.076
 5191.00    2.32678   2.27899   18.752
 5192.00    2.21505   2.17453   18.477
 5193.00    2.19888   2.09766   18.181
 5194.00    2.26936   2.11410   -1.000
 5195.00    2.32096   2.16659   17.564
 5196.00    2.36708   2.21693   17.459
 5197.00    2.43309   2.27665   17.488
 5198.00    2.45946   2.34750   17.681
 5199.00    2.50144   2.41073   18.032
 5200.00    2.52433   2.44711   18.489
 5201.00    2.51540   2.44990   19.077
 5202.00    2.46979   2.41684   19.531
 5203.00    2.40358   2.35190   19.586
 5204.00    2.29957   2.24463   19.696
 5205.00    2.17943   2.10900   19.709
 5206.00    2.12722   1.99929   19.307
 5207.00    2.12011   1.94539   -1.000
 5208.00    2.10848   1.93619   -1.000
 5209.00    2.14780   1.95447   -1.000
 5210.00    2.25992   2.02119   -1.000
 5211.00    2.39169   2.15300   -1.000
 5212.00    2.50978   2.31113   -1.000
 5213.00    2.59165   2.43560   -1.000
 5214.00    2.58792   2.47614   17.579
 5215.00    2.52574   2.43705   17.219
 5216.00    2.48658   2.37168   16.998
 5217.00    2.49796   2.35133   16.890
 5218.00    2.56550   2.40386   16.901
 5219.00    2.63008   2.49048   17.214
 5220.00    2.66110   2.56469   17.805
 5221.00    2.67693   2.60121   18.578
 5222.00    2.64940   2.59338   19.360
 5223.00    2.55269   2.53189   19.616
 5224.00    2.44992   2.41756   18.962
 5225.00    2.32162   2.26740   17.954
 5226.00    2.21068   2.12409   17.348
 5227.00    2.22679   2.05575   -1.000
 5228.00    2.36358   2.11557   -1.000
 5229.00    2.54031   2.27848   -1.000
 5230.00    2.63985   2.44874   -1.000
 5231.00    2.64903   2.52070   17.633
 5232.00    2.59178   2.48533   17.206
 5233.00    2.51226   2.40343   16.855
 5234.00    2.48665   2.35399   16.725
 5235.00    2.57104   2.39200   -1.000
 5236.00    2.66191   2.48560   -1.000
 5237.00    2.73338   2.58786   16.716
 5238.00    2.74807   2.65314   16.649
 5239.00    2.72930   2.66806   16.664
 5240.00    2.71159   2.65578   16.629
 5241.00    2.71811   2.63677   16.705
 5242.00    2.72855   2.62582   17.113
 5243.00    2.73329   2.63377   17.622
 5244.00    2.75847   2.65866   17.919
 5245.00    2.74000   2.66172   17.943
 5246.00    2.65042   2.60495   18.001
 5247.00    2.54777   2.50656   18.062
 5248.00    2.52209   2.42800   17.917
 5249.00    2.53309   2.40216   17.681
 5250.00    2.52284   2.39966   17.562
 5251.00    2.52135   2.40398   17.536
 5252.00    2.55590   2.43360   17.317
 5253.00    2.59546   2.47039   16.879
 5254.00    2.59417   2.48366   16.511
 5255.00    2.58669   2.48097   16.469
 5256.00    2.65096   2.51090   16.725
 5257.00    2.76472   2.60832   17.273
 5258.00    2.82494   2.71176   18.047
 5259.00    2.81309   2.75610   18.844
 5260.00    2.74831   2.72167   19.406
 5261.00    2.62913   2.61821   19.690
 5262.00    2.48449   2.46814   19.606
 5263.00    2.33456   2.30580   19.242
 5264.00    2.24500   2.16512   19.126
 5265.00    2.20403   2.07427   19.689
 5266.00    2.21214   2.04789   -1.000
 5267.00    2.28196   2.07650   -1.000
 5268.00    2.27631   2.09392   -1.000
 5269.00    2.16595   2.02854   17.799
 5270.00    2.13677   1.94684   -1.000
 5271.00    2.28106   1.97239   -1.000
 5272.00    2.48525   2.14760   -1.000
 5273.00    2.57197   2.34657   -1.000
 5274.00    2.58255   2.41906   16.616
 5275.00    2.58402   2.42844   16.447
 5276.00    2.65689   2.46247   -1.000
 5277.00    2.77713   2.55665   -1.000
 5278.00    2.85992   2.67459   -1.000
 5279.00    2.86826   2.73188   17.731
 5280.00    2.79758   2.70490   17.665
 5281.00    2.70849   2.62032   17.227
 5282.00    2.62097   2.52215   16.686
 5283.00    2.56045   2.44687   16.286
 5284.00    2.64655   2.44890   -1.000
 5285.00    2.78948   2.54741   -1.000
 5286.00    2.91000   2.70330   -1.000
 5287.00    2.97498   2.81845   16.199
 5288.00    2.97353   2.85149   16.209
 5289.00    2.96935   2.84598   16.330
 5290.00    2.98629   2.84708   16.507
 5291.00    2.99911   2.86362   16.803
 5292.00    2.99067   2.86535   17.332
 5293.00    2.95073   2.84255   17.946
 5294.00    2.88433   2.81408   18.224
 5295.00    2.80709   2.76857   17.966
 5296.00    2.69989   2.66521   17.533
 5297.00    2.57663   2.51781   17.283
 5298.00    2.54163   2.40807   17.150
 5299.00    2.62408   2.40652   -1.000
 5300.00    2.73096   2.48893   -1.000
 5301.00    2.77693   2.56895   -1.000
 5302.00    2.80463   2.62304   -1.000
 5303.00    2.89701   2.68706   -1.000
 5304.00    2.99287   2.78386   -1.000
 5305.00    3.03065   2.87876   16.335
 5306.00    3.02947   2.91027   16.183
 5307.00    3.01865   2.88622   16.123
 5308.00    3.03122   2.86317   16.170
 5309.00    3.04931   2.87471   -1.000
 5310.00    3.06517   2.91141   16.343
 5311.00    3.06760   2.92938   16.479
 5312.00    3.04202   2.91426   16.639
 5313.00    3.03140   2.88550   16.738
 5314.00    3.00584   2.85402   16.692
 5315.00    2.98224   2.82578   16.579
 5316.00    2.94006   2.79780   16.556
 5317.00    2.91012   2.77557   16.643
 5318.00    2.92067   2.77702   16.790
 5319.00    2.93486   2.78889   17.025
 5320.00    2.93906   2.79564   17.281
 5321.00    2.94561   2.79211   17.376
 5322.00    2.90311   2.76720   17.525
 5323.00    2.83278   2.70809   18.250
 5324.00    2.76235   2.63106   19.267
 5325.00    2.73745   2.56978   -1.000
 5326.00    2.68512   2.50518   -1.000
 5327.00    2.52160   2.37515   17.465
 5328.00    2.37413   2.21768   17.060
 5329.00    2.40152   2.14624   -1.000
 5330.00    2.60022   2.26837   -1.000
 5331.00    2.78851   2.48858   -1.000
 5332.00    2.86591   2.64383   -1.000
 5333.00    2.89963   2.71355   -1.000
 5334.00    2.95437   2.75752   -1.000
 5335.00    3.00896   2.81619   -1.000
 5336.00    3.02056   2.86585   17.495
 5337.00    2.98655   2.86818   17.634
 5338.00    2.92994   2.82361   17.345
 5339.00    2.85256   2.73296   16.917
 5340.00    2.75839   2.61845   16.730
 5341.00    2.72756   2.54134   -1.000
 5342.00    2.80997   2.57502   -1.000
 5343.00    2.90946   2.67244   -1.000
 5344.00    2.94242   2.74374   -1.000
 5345.00    2.93229   2.75693   -1.000
 5346.00    2.91759   2.73444   -1.000
 5347.00    2.90850   2.70476   -1.000
 5348.00    2.88930   2.67443   -1.000
 5349.00    2.87193   2.64775   -1.000
 5350.00    2.91997   2.66115   -1.000
 5351.00    2.99408   2.73258   -1.000
 5352.00    3.05004   2.82423   -1.000
 5353.00    3.07779   2.90107   -1.000
 5354.00    3.11151   2.94751   15.887
 5355.00    3.16071   2.99107   15.924
 5356.00    3.19512   3.03468   16.031
 5357.00    3.21625   3.05574   16.257
 5358.00    3.20118   3.05520   16.521
 5359.00    3.17602   3.04365   16.715
 5360.00    3.13047   3.01491   16.819
 5361.00    3.07302   2.96573   16.917
 5362.00    3.03012   2.91228   16.962
 5363.00    3.01362   2.86887   16.920
 5364.00    3.00076   2.83299   -1.000
 5365.00    2.96804   2.80023   -1.000
 5366.00    2.94033   2.77271   -1.000
 5367.00    2.94495   2.76275   -1.000
 5368.00    2.92682   2.75423   -1.000
 5369.00    2.82761   2.69133   17.103
 5370.00    2.71614   2.56878   16.448
 5371.00    2.66306   2.45742   -1.000
 5372.00    2.75739   2.44561   -1.000
 5373.00    2.94241   2.57142   -1.000
 5374.00    3.08829   2.74948   -1.000
 5375.00    3.15156   2.88784   -1.000
 5376.00    3.14285   2.93384   -1.000
 5377.00    3.11580   2.92260   -1.000
 5378.00    3.11772   2.91717   -1.000
 5379.00    3.11946   2.93127   -1.000
 5380.00    3.09713   2.93993   16.658
 5381.00    3.05668   2.91682   16.537
 5382.00    3.02055   2.87168   16.410
 5383.00    3.02310   2.83837   -1.000
 5384.00    3.04994   2.83395   -1.000
 5385.00    3.07571   2.85925   -1.000
 5386.00    3.09430   2.89677   -1.000
 5387.00    3.08272   2.91617   -1.000
 5388.00    3.03644   2.89196   17.162
 5389.00    2.97091   2.83289   17.184
 5390.00    2.91405   2.76350   17.269
 5391.00    2.89779   2.71190   -1.000
 5392.00    2.90469   2.69167   -1.000
 5393.00    2.91121   2.69326   -1.000
 5394.00    2.89566   2.69731   -1.000
 5395.00    2.83827   2.67774   -1.000
 5396.00    2.76440   2.62165   16.843
 5397.00    2.73944   2.55315   -1.000
 5398.00    2.80611   2.54007   -1.000
 5399.00    2.90813   2.61384   -1.000
 5400.00    2.96413   2.71544   -1.000
 5401.00    2.97371   2.78477   -1.000
 5402.00    2.96827   2.80278   -1.000
 5403.00    2.90006   2.76124   17.967
 5404.00    2.75475   2.65135   17.668
 5405.00    2.64673   2.50078   17.653
 5406.00    2.64760   2.40565   -1.000
 5407.00    2.72867   2.44471   -1.000
 5408.00    2.80520   2.53590   -1.000
 5409.00    2.81052   2.58940   -1.000
 5410.00    2.81837   2.58878   -1.000
 5411.00    2.90106   2.61170   -1.000
 5412.00    3.01415   2.70898   -1.000
 5413.00    3.07965   2.81143   -1.000
 5414.00    3.07960   2.86364   -1.000
 5415.00    3.07345   2.88245   -1.000
 5416.00    3.09759   2.91205   -1.000
 5417.00    3.13437   2.96357   -1.000
 5418.00    3.14942   2.99272   16.643
 5419.00    3.12346   2.97261   16.701
 5420.00    3.08536   2.93052   16.919
 5421.00    3.07033   2.89931   -1.000
 5422.00    3.08505   2.89195   -1.000
 5423.00    3.07957   2.88295   -1.000
 5424.00    3.04783   2.85214   -1.000
 5425.00    3.06686   2.85290   -1.000
 5426.00    3.14211   2.91449   -1.000
 5427.00    3.16606   2.98037   -1.000
 5428.00    3.06627   2.96189   17.283
 5429.00    2.91706   2.83078   17.402
 5430.00    2.85964   2.70207   -1.000
 5431.00    2.90976   2.67351   -1.000
 5432.00    2.95057   2.71526   -1.000
 5433.00    2.92107   2.73533   -1.000
 5434.00    2.87045   2.68639   -1.000
 5435.00    2.87307   2.63584   -1.000
 5436.00    2.93055   2.65357   -1.000
 5437.00    3.00946   2.74411   -1.000
 5438.00    3.10292   2.87292   -1.000
 5439.00    3.20818   2.98913   -1.000
 5440.00    3.28625   3.06998   -1.000
 5441.00    3.29122   3.10690   -1.000
 5442.00    3.25852   3.12069   17.689
 5443.00    3.21827   3.11570   17.953
 5444.00    3.12436   3.06396   17.584
 5445.00    2.98427   2.94222   17.027
 5446.00    2.82834   2.77132   16.694
 5447.00    2.77640   2.64360   16.623
 5448.00    2.85613   2.63586   -1.000
 5449.00    2.97354   2.73900   -1.000
 5450.00    3.06383   2.86775   -1.000
 5451.00    3.08184   2.92471   -1.000
 5452.00    3.04948   2.91636   17.950
 5453.00    2.98147   2.86665   17.490
 5454.00    2.89303   2.77410   16.923
 5455.00    2.83067   2.65855   -1.000
 5456.00    2.85508   2.60013   -1.000
 5457.00    2.96770   2.65616   -1.000
 5458.00    3.09389   2.80911   -1.000
 5459.00    3.12971   2.93141   -1.000
 5460.00    3.08396   2.95445   17.350
 5461.00    3.03916   2.90112   17.123
 5462.00    2.99992   2.82002   -1.000
 5463.00    2.96323   2.76414   -1.000
 5464.00    2.98064   2.76360   -1.000
 5465.00    3.04287   2.80957   -1.000
 5466.00    3.08799   2.86324   -1.000
 5467.00    3.10857   2.90291   -1.000
 5468.00    3.11575   2.92389   -1.000
 5469.00    3.10532   2.92290   -1.000
 5470.00    3.07212   2.89955   -1.000
 5471.00    3.03583   2.86712   -1.000
 5472.00    3.02745   2.84217   -1.000
 5473.00    3.00153   2.82624   -1.000
 5474.00    2.95949   2.79820   -1.000
 5475.00    2.91253   2.73757   -1.000
 5476.00    2.83546   2.65921   -1.000
 5477.00    2.82859   2.60479   -1.000
 5478.00    2.91133   2.64684   -1.000
 5479.00    2.99907   2.75390   -1.000
 5480.00    2.99692   2.81023   -1.000
 5481.00    2.92374   2.78421   16.762
 5482.00    2.89052   2.73160   16.770
 5483.00    2.94746   2.75133   -1.000
 5484.00    3.04313   2.85165   -1.000
 5485.00    3.10590   2.94326   -1.000
 5486.00    3.11945   2.97045   17.154
 5487.00    3.07103   2.92205   17.024
 5488.00    3.02789   2.85868   -1.000
 5489.00    3.04467   2.83290   -1.000
 5490.00    3.08276   2.86267   -1.000
 5491.00    3.11168   2.90903   -1.000
 5492.00    3.12051   2.93147   -1.000
 5493.00    3.12685   2.92913   -1.000
 5494.00    3.13860   2.91793   -1.000
 5495.00    3.13993   2.91483   -1.000
 5496.00    3.11571   2.90897   -1.000
 5497.00    3.08521   2.88986   -1.000
 5498.00    3.09793   2.88634   -1.000
 5499.00    3.14140   2.91750   -1.000
 5500.00    3.14675   2.94163   -1.000
 5501.00    3.07328   2.91958   -1.000
 5502.00    3.03541   2.86076   -1.000
 5503.00    3.04552   2.82183   -1.000
 5504.00    3.04527   2.82912   -1.000
 5505.00    3.03439   2.82957   -1.000
 5506.00    3.01702   2.79844   -1.000
 5507.00    3.04217   2.77797   -1.000
 5508.00    3.10048   2.80930   -1.000
 5509.00    3.11822   2.87893   -1.000
 5510.00    3.09409   2.91351   -1.000
 5511.00    3.05026   2.87114   -1.000
 5512.00    2.98583   2.79012   -1.000
 5513.00    2.94287   2.72056   -1.000
 5514.00    2.96588   2.70509   -1.000
 5515.00    3.02011   2.73372   -1.000
 5516.00    3.07360   2.78448   -1.000
 5517.00    3.15050   2.84864   -1.000
 5518.00    3.22673   2.92659   -1.000
 5519.00    3.25369   3.00184   -1.000
 5520.00    3.25960   3.04831   -1.000
 5521.00    3.25320   3.04910   -1.000
 5522.00    3.23809   3.03635   -1.000
 5523.00    3.23327   3.03362   -1.000
 5524.00    3.20809   3.03523   -1.000
 5525.00    3.17067   3.01884   -1.000
 5526.00    3.11642   2.95734   -1.000
 5527.00    3.03521   2.86303   -1.000
 5528.00    2.98253   2.76840   -1.000
 5529.00    3.01690   2.75047   -1.000
 5530.00    3.10131   2.82664   -1.000
 5531.00    3.16385   2.92797   -1.000
 5532.00    3.17272   2.98449   -1.000
 5533.00    3.15512   2.98151   -1.000
 5534.00    3.14588   2.95806   -1.000
 5535.00    3.16147   2.93983   -1.000
 5536.00    3.16344   2.93129   -1.000
 5537.00    3.16579   2.93563   -1.000
 5538.00    3.20262   2.95511   -1.000
 5539.00    3.25792   2.98596   -1.000
 5540.00    3.30132   3.03032   -1.000
 5541.00    3.33012   3.06762   -1.000
 5542.00    3.29912   3.07265   -1.000
 5543.00    3.24439   3.04277   -1.000
 5544.00    3.23626   3.00952   -1.000
 5545.00    3.25950   2.99573   -1.000
 5546.00    3.27130   2.99902   -1.000
 5547.00    3.28146   3.01477   -1.000
 5548.00    3.33062   3.05414   -1.000
 5549.00    3.38716   3.10848   -1.000
 5550.00    3.39078   3.14456   -1.000
 5551.00    3.37585   3.15046   -1.000
 5552.00    3.35366   3.12969   -1.000
 5553.00    3.31530   3.08857   -1.000
 5554.00    3.28641   3.04612   -1.000
 5555.00    3.27698   3.02553   -1.000
 5556.00    3.27604   3.02723   -1.000
 5557.00    3.28152   3.03556   -1.000
 5558.00    3.29099   3.03534   -1.000
 5559.00    3.30298   3.03586   -1.000
 5560.00    3.30771   3.04176   -1.000
 5561.00    3.29039   3.03544   -1.000
 5562.00    3.25389   3.00594   -1.000
 5563.00    3.22035   2.97616   -1.000
 5564.00    3.21008   2.96314   -1.000
 5565.00    3.20364   2.95921   -1.000
 5566.00    3.18943   2.94716   -1.000
 5567.00    3.17262   2.93055   -1.000
 5568.00    3.16498   2.92389   -1.000
 5569.00    3.19555   2.92999   -1.000
 5570.00    3.20132   2.94364   -1.000
 5571.00    3.08988   2.95857   16.934
 5572.00    2.89953   2.95967   16.738
 5573.00    3.03676   2.94662   16.469
 5574.00    3.93463   2.94114   -1.000
 5575.00    4.73670   2.97802   -1.000
 5576.00    4.54633   3.02737   -1.000
 5577.00    3.91144   3.04321   -1.000
 5578.00    3.47214   3.04944   -1.000
 5579.00    3.33770   3.07044   -1.000
 5580.00    3.32825   3.08578   -1.000
 5581.00    3.32046   3.08552   -1.000
 5582.00    3.31011   3.06706   -1.000
 5583.00    3.29417   3.03992   -1.000
 5584.00    3.26142   3.02039   -1.000
 5585.00    3.19799   2.97332   -1.000
 5586.00    3.09759   2.87911   -1.000
 5587.00    3.00633   2.76421   -1.000
 5588.00    2.95899   2.67728   -1.000
 5589.00    2.96835   2.67101   -1.000
 5590.00    3.03358   2.72264   -1.000
 5591.00    3.11559   2.79926   -1.000
 5592.00    3.15228   2.85522   -1.000
 5593.00    3.13477   2.87877   -1.000
 5594.00    3.14199   2.89587   -1.000
 5595.00    3.21006   2.93928   -1.000
 5596.00    3.27841   3.00443   -1.000
 5597.00    3.27107   3.03525   -1.000
 5598.00    3.18477   2.99500   -1.000
 5599.00    3.10782   2.91534   -1.000
 5600.00    3.08653   2.84677   -1.000
 5601.00    3.08265   2.80957   -1.000
 5602.00    3.07440   2.79282   -1.000
 5603.00    3.09749   2.80915   -1.000
 5604.00    3.18962   2.89109   -1.000
 5605.00    3.30957   3.01539   -1.000
 5606.00    3.38945   3.11706   -1.000
 5607.00    3.41970   3.17266   -1.000
 5608.00    3.43110   3.18479   -1.000
 5609.00    3.43019   3.17713   -1.000
 5610.00    3.42717   3.17218   -1.000
 5611.00    3.43842   3.18792   -1.000
 5612.00    3.42716   3.20716   -1.000
 5613.00    3.35909   3.18042   -1.000
 5614.00    3.23388   3.07016   -1.000
 5615.00    3.10711   2.90327   -1.000
 5616.00    3.07604   2.79576   -1.000
 5617.00    3.14546   2.80408   -1.000
 5618.00    3.20503   2.89630   -1.000
 5619.00    3.22164   2.96792   -1.000
 5620.00    3.25116   2.99282   -1.000
 5621.00    3.29429   3.02333   -1.000
 5622.00    3.29888   3.05794   -1.000
 5623.00    3.22820   3.03248   -1.000
 5624.00    3.15012   2.95103   -1.000
 5625.00    3.12683   2.86843   -1.000
 5626.00    3.16257   2.86302   -1.000
 5627.00    3.23941   2.93539   -1.000
 5628.00    3.31125   3.01449   -1.000
 5629.00    3.36324   3.07455   -1.000
 5630.00    3.39662   3.12029   -1.000
 5631.00    3.40433   3.14411   -1.000
 5632.00    3.39111   3.14524   -1.000
 5633.00    3.36960   3.12752   -1.000
 5634.00    3.33575   3.10002   -1.000
 5635.00    3.29688   3.06395   -1.000
 5636.00    3.27072   3.02311   -1.000
 5637.00    3.25142   2.99206   -1.000
 5638.00    3.25120   2.98371   -1.000
 5639.00    3.24986   2.99388   -1.000
 5640.00    3.23282   3.00068   -1.000
 5641.00    3.22472   2.98667   -1.000
 5642.00    3.22955   2.96424   -1.000
 5643.00    3.25149   2.96938   -1.000
 5644.00    3.28208   2.99845   -1.000
 5645.00    3.30948   3.02524   -1.000
 5646.00    3.32761   3.04768   -1.000
 5647.00    3.35171   3.06459   -1.000
 5648.00    3.36514   3.06709   -1.000
 5649.00    3.34925   3.05691   -1.000
 5650.00    3.35976   3.05186   -1.000
 5651.00    3.39233   3.07313   -1.000
 5652.00    3.41059   3.11305   -1.000
 5653.00    3.40510   3.12877   -1.000
 5654.00    3.35033   3.10200   -1.000
 5655.00    3.29770   3.06763   -1.000
 5656.00    3.27323   3.03951   -1.000
 5657.00    3.21283   2.99211   -1.000
 5658.00    3.12740   2.91088   -1.000
 5659.00    3.10400   2.83995   -1.000
 5660.00    3.16320   2.85354   -1.000
 5661.00    3.21644   2.92500   -1.000
 5662.00    3.21652   2.95419   -1.000
 5663.00    3.22817   2.95575   -1.000
 5664.00    3.28558   2.99646   -1.000
 5665.00    3.34397   3.05582   -1.000
 5666.00    3.35072   3.08924   -1.000
 5667.00    3.30345   3.07687   -1.000
 5668.00    3.27409   3.04310   -1.000
 5669.00    3.28415   3.03197   -1.000
 5670.00    3.31004   3.04260   -1.000
 5671.00    3.35407   3.06629   -1.000
 5672.00    3.42248   3.11129   -1.000
 5673.00    3.49103   3.16954   -1.000
 5674.00    3.51299   3.20505   -1.000
 5675.00    3.49938   3.21340   -1.000
 5676.00    3.50187   3.20928   -1.000
 5677.00    3.51059   3.21325   -1.000
 5678.00    3.49593   3.21933   -1.000
 5679.00    3.46845   3.20368   -1.000
 5680.00    3.43734   3.17008   -1.000
 5681.00    3.39525   3.13269   -1.000
 5682.00    3.34160   3.08532   -1.000
 5683.00    3.31083   3.04190   -1.000
 5684.00    3.32506   3.04512   -1.000
 5685.00    3.36643   3.08315   -1.000
 5686.00    3.36623   3.09218   -1.000
 5687.00    3.32346   3.06281   -1.000
 5688.00    3.30966   3.03224   -1.000
 5689.00    3.34947   3.03888   -1.000
 5690.00    3.41999   3.09080   -1.000
 5691.00    3.48292   3.15601   -1.000
 5692.00    3.51319   3.21160   -1.000
 5693.00    3.51806   3.23998   -1.000
 5694.00    3.51123   3.23976   -1.000
 5695.00    3.48573   3.22515   -1.000
 5696.00    3.45698   3.21066   -1.000
 5697.00    3.42470   3.18802   -1.000
 5698.00    3.37057   3.14867   -1.000
 5699.00    3.31089   3.10315   -1.000
 5700.00    3.25852   3.06711   -1.000
 5701.00    3.23800   3.03353   -1.000
 5702.00    3.25456   3.00965   -1.000
 5703.00    3.29461   3.03086   -1.000
 5704.00    3.34178   3.07321   -1.000
 5705.00    3.32711   3.09096   -1.000
 5706.00    3.26299   3.05952   -1.000
 5707.00    3.20366   2.98746   -1.000
 5708.00    3.16266   2.92545   -1.000
 5709.00    3.13935   2.88722   -1.000
 5710.00    3.14614   2.87292   -1.000
 5711.00    3.18280   2.88974   -1.000
 5712.00    3.23993   2.93374   -1.000
 5713.00    3.33247   3.00936   -1.000
 5714.00    3.42840   3.10423   -1.000
 5715.00    3.47482   3.16746   -1.000
 5716.00    3.49950   3.20126   -1.000
 5717.00    3.51120   3.22160   -1.000
 5718.00    3.51565   3.23456   -1.000
 5719.00    3.53634   3.24942   -1.000
 5720.00    3.56701   3.27522   -1.000
 5721.00    3.60684   3.30811   -1.000
 5722.00    3.62545   3.33869   -1.000
 5723.00    3.62582   3.36049   -1.000
 5724.00    3.62843   3.36668   -1.000
 5725.00    3.60296   3.34292   -1.000
 5726.00    3.54440   3.28722   -1.000
 5727.00    3.50565   3.23104   -1.000
 5728.00    3.51280   3.21604   -1.000
 5729.00    3.54504   3.24880   -1.000
 5730.00    3.53458   3.27320   -1.000
 5731.00    3.49500   3.25898   -1.000
 5732.00    3.50121   3.23610   -1.000
 5733.00    3.55127   3.25127   -1.000
 5734.00    3.58890   3.30764   -1.000
 5735.00    3.59722   3.34670   -1.000
 5736.00    3.59756   3.34381   -1.000
 5737.00    3.57366   3.31812   -1.000
 5738.00    3.54041   3.29532   -1.000
 5739.00    3.53217   3.29553   -1.000
 5740.00    3.52988   3.30236   -1.000
 5741.00    3.53566   3.30311   -1.000
 5742.00    3.54368   3.29465   -1.000
 5743.00    3.54916   3.28967   -1.000
 5744.00    3.57663   3.31327   -1.000
 5745.00    3.61588   3.35268   -1.000
 5746.00    3.62951   3.37126   -1.000
 5747.00    3.59266   3.34035   -1.000
 5748.00    3.55164   3.28499   -1.000
 5749.00    3.56539   3.27789   -1.000
 5750.00    3.61282   3.31373   -1.000
 5751.00    3.60638   3.33821   -1.000
 5752.00    3.51210   3.29720   -1.000
 5753.00    3.43232   3.20552   -1.000
 5754.00    3.43219   3.15123   -1.000
 5755.00    3.50752   3.17770   -1.000
 5756.00    3.61224   3.27623   -1.000
 5757.00    3.66096   3.37032   -1.000
 5758.00    3.64487   3.40820   -1.000
 5759.00    3.59371   3.38461   -1.000
 5760.00    3.53416   3.31100   -1.000
 5761.00    3.45192   3.22026   -1.000
 5762.00    3.40584   3.15263   -1.000
 5763.00    3.45198   3.14677   -1.000
 5764.00    3.56004   3.21903   -1.000
 5765.00    3.63557   3.33170   -1.000
 5766.00    3.66454   3.40306   -1.000
 5767.00    3.65658   3.42729   -1.000
 5768.00    3.63901   3.43033   -1.000
 5769.00    3.60986   3.42094   -1.000
 5770.00    3.58099   3.40132   -1.000
 5771.00    3.56089   3.38195   -1.000
 5772.00    3.52708   3.36223   -1.000
 5773.00    3.47099   3.34157   16.610
 5774.00    3.41647   3.32672   16.644
 5775.00    3.34809   3.32006   16.830
 5776.00    3.29570   3.33289   17.178
 5777.00    3.30957   3.35663   17.460
 5778.00    3.36565   3.35748   17.501
 5779.00    3.40708   3.31293   17.434
 5780.00    3.36262   3.21782   17.369
 5781.00    3.28607   3.10952   -1.000
 5782.00    3.27683   3.03411   -1.000
 5783.00    3.29724   3.02351   -1.000
 5784.00    3.29249   3.03694   -1.000
 5785.00    3.30101   3.03561   -1.000
 5786.00    3.37182   3.05975   -1.000
 5787.00    3.46676   3.13579   -1.000
 5788.00    3.54240   3.21960   -1.000
 5789.00    3.56293   3.27231   -1.000
 5790.00    3.52205   3.27814   -1.000
 5791.00    3.49246   3.26267   -1.000
 5792.00    3.50228   3.26683   -1.000
 5793.00    3.53840   3.31533   -1.000
 5794.00    3.60880   3.39079   -1.000
 5795.00    3.67965   3.43937   -1.000
 5796.00    3.67911   3.43526   -1.000
 5797.00    3.62953   3.38378   -1.000
 5798.00    3.63267   3.34157   -1.000
 5799.00    3.69331   3.35839   -1.000
 5800.00    3.75971   3.43348   -1.000
 5801.00    3.80014   3.51381   -1.000
 5802.00    3.78637   3.54061   -1.000
 5803.00    3.72295   3.51095   -1.000
 5804.00    3.65011   3.44695   -1.000
 5805.00    3.62170   3.39353   -1.000
 5806.00    3.63788   3.37652   -1.000
 5807.00    3.66151   3.38867   -1.000
 5808.00    3.68144   3.41013   -1.000
 5809.00    3.70213   3.43030   -1.000
 5810.00    3.71860   3.44968   -1.000
 5811.00    3.73362   3.46514   -1.000
 5812.00    3.73806   3.46545   -1.000
 5813.00    3.72013   3.44848   -1.000
 5814.00    3.69316   3.41183   -1.000
 5815.00    3.64919   3.36007   -1.000
 5816.00    3.62989   3.31748   -1.000
 5817.00    3.66022   3.32874   -1.000
 5818.00    3.71792   3.39334   -1.000
 5819.00    3.77537   3.46853   -1.000
 5820.00    3.80615   3.50956   -1.000
 5821.00    3.80982   3.51018   -1.000
 5822.00    3.79103   3.48899   -1.000
 5823.00    3.77487   3.46483   -1.000
 5824.00    3.76908   3.46093   -1.000
 5825.00    3.78978   3.47058   -1.000
 5826.00    3.81379   3.48374   -1.000
 5827.00    3.82061   3.49324   -1.000
 5828.00    3.80808   3.49902   -1.000
 5829.00    3.80300   3.50942   -1.000
 5830.00    3.81451   3.52016   -1.000
 5831.00    3.80115   3.52141   -1.000
 5832.00    3.80080   3.51476   -1.000
 5833.00    3.78424   3.49917   -1.000
 5834.00    3.77535   3.47590   -1.000
 5835.00    3.77092   3.45400   -1.000
 5836.00    3.77170   3.45313   -1.000
 5837.00    3.76601   3.46119   -1.000
 5838.00    3.73713   3.45746   -1.000
 5839.00    3.73285   3.45962   -1.000
 5840.00    3.76696   3.48470   -1.000
 5841.00    3.79792   3.52433   -1.000
 5842.00    3.81052   3.55819   -1.000
 5843.00    3.80456   3.56345   -1.000
 5844.00    3.76887   3.54185   -1.000
 5845.00    3.72193   3.50314   -1.000
 5846.00    3.69033   3.45869   -1.000
 5847.00    3.66649   3.41891   -1.000
 5848.00    3.65611   3.39708   -1.000
 5849.00    3.67398   3.39678   -1.000
 5850.00    3.68312   3.40384   -1.000
 5851.00    3.64895   3.38873   -1.000
 5852.00    3.59816   3.34584   -1.000
 5853.00    3.57086   3.30410   -1.000
 5854.00    3.56823   3.28957   -1.000
 5855.00    3.55605   3.29508   -1.000
 5856.00    3.51212   3.27057   -1.000
 5857.00    3.47223   3.20315   -1.000
 5858.00    3.48301   3.15040   -1.000
 5859.00    3.53298   3.16361   -1.000
 5860.00    3.59072   3.24114   -1.000
 5861.00    3.62493   3.31076   -1.000
 5862.00    3.62557   3.33693   -1.000
 5863.00    3.62416   3.33682   -1.000
 5864.00    3.63723   3.33450   -1.000
 5865.00    3.61390   3.33531   -1.000
 5866.00    3.59090   3.31875   -1.000
 5867.00    3.59090   3.29361   -1.000
 5868.00    3.64094   3.31042   -1.000
 5869.00    3.68969   3.36794   -1.000
 5870.00    3.71421   3.41736   -1.000
 5871.00    3.71296   3.43643   -1.000
 5872.00    3.67439   3.42506   -1.000
 5873.00    3.67331   3.40475   -1.000
 5874.00    3.69104   3.39472   -1.000
 5875.00    3.68362   3.39868   -1.000
 5876.00    3.65837   3.39826   -1.000
 5877.00    3.63218   3.37400   -1.000
 5878.00    3.60511   3.33346   -1.000
 5879.00    3.55698   3.28893   -1.000
 5880.00    3.52059   3.25688   -1.000
 5881.00    3.44682   3.24824   -1.000
 5882.00    3.29559   3.26754   17.053
 5883.00    3.01843   3.27962   -1.000
 5884.00    2.62331   3.26436   -1.000
 5885.00    2.36849   3.25135   -1.000
 5886.00    2.43196   3.22776   -1.000
 5887.00    2.64458   3.12349   -1.000
 5888.00    2.65512   2.88066   -1.000
 5889.00    2.36325   2.52468   18.796
 5890.00    2.04569   2.23861   -1.000
 5891.00    1.98128   2.18354   -1.000
 5892.00    2.22366   2.37550   19.468
 5893.00    2.56494   2.60253   18.994
 5894.00    2.75165   2.66783   18.324
 5895.00    2.74316   2.56323   -1.000
 5896.00    2.73425   2.42249   -1.000
 5897.00    2.89476   2.46816   -1.000
 5898.00    3.14053   2.68590   -1.000
 5899.00    3.32817   2.90375   -1.000
 5900.00    3.45224   3.05625   -1.000
 5901.00    3.52893   3.16103   -1.000
 5902.00    3.55788   3.22570   -1.000
 5903.00    3.56535   3.26139   -1.000
 5904.00    3.54905   3.27508   -1.000
 5905.00    3.53450   3.27273   -1.000
 5906.00    3.53352   3.26609   -1.000
 5907.00    3.54725   3.27539   -1.000
 5908.00    3.58975   3.30232   -1.000
 5909.00    3.62057   3.32647   -1.000
 5910.00    3.62745   3.34705   -1.000
 5911.00    3.61477   3.36144   -1.000
 5912.00    3.58384   3.35294   -1.000
 5913.00    3.51107   3.30814   -1.000
 5914.00    3.44851   3.23922   -1.000
 5915.00    3.43524   3.18926   -1.000
 5916.00    3.45663   3.19175   -1.000
 5917.00    3.51929   3.22835   -1.000
 5918.00    3.57366   3.28096   -1.000
 5919.00    3.60014   3.32608   -1.000
 5920.00    3.58990   3.35054   -1.000
 5921.00    3.57793   3.35157   -1.000
 5922.00    3.58887   3.33627   -1.000
 5923.00    3.60230   3.32291   -1.000
 5924.00    3.62693   3.33335   -1.000
 5925.00    3.65557   3.36364   -1.000
 5926.00    3.66625   3.39099   -1.000
 5927.00    3.64044   3.39668   -1.000
 5928.00    3.59848   3.36507   -1.000
 5929.00    3.57173   3.31947   -1.000
 5930.00    3.57976   3.29088   -1.000
 5931.00    3.59298   3.30894   -1.000
 5932.00    3.63651   3.35306   -1.000
 5933.00    3.64146   3.36800   -1.000
 5934.00    3.60605   3.34537   -1.000
 5935.00    3.60416   3.31822   -1.000
 5936.00    3.62986   3.33580   -1.000
 5937.00    3.65100   3.38632   -1.000
 5938.00    3.64980   3.41825   -1.000
 5939.00    3.64200   3.42326   -1.000
 5940.00    3.60963   3.39880   -1.000
 5941.00    3.57736   3.35371   -1.000
 5942.00    3.57763   3.31763   -1.000
 5943.00    3.60749   3.32607   -1.000
 5944.00    3.65974   3.37047   -1.000
 5945.00    3.69266   3.41462   -1.000
 5946.00    3.69224   3.43431   -1.000
 5947.00    3.67104   3.41793   -1.000
 5948.00    3.61592   3.37328   -1.000
 5949.00    3.58539   3.33315   -1.000
 5950.00    3.61921   3.33798   -1.000
 5951.00    3.64409   3.35652   -1.000
 5952.00    3.59964   3.35328   -1.000
 5953.00    3.57566   3.33567   -1.000
 5954.00    3.58390   3.33430   -1.000
 5955.00    3.60475   3.35292   -1.000
 5956.00    3.59963   3.35051   -1.000
 5957.00    3.57640   3.32145   -1.000
 5958.00    3.60264   3.31325   -1.000
 5959.00    3.66484   3.34770   -1.000
 5960.00    3.71165   3.40361   -1.000
 5961.00    3.73459   3.45536   -1.000
 5962.00    3.73066   3.47930   -1.000
 5963.00    3.69444   3.47749   -1.000
 5964.00    3.66858   3.45833   -1.000
 5965.00    3.65258   3.43049   -1.000
 5966.00    3.65668   3.41027   -1.000
 5967.00    3.69506   3.42247   -1.000
 5968.00    3.73660   3.45630   -1.000
 5969.00    3.77963   3.48411   -1.000
 5970.00    3.79201   3.50374   -1.000
 5971.00    3.77972   3.51997   -1.000
 5972.00    3.76519   3.52563   -1.000
 5973.00    3.74545   3.51707   -1.000
 5974.00    3.71337   3.49226   -1.000
 5975.00    3.66879   3.44662   -1.000
 5976.00    3.63946   3.38862   -1.000
 5977.00    3.62110   3.35073   -1.000
 5978.00    3.61982   3.34281   -1.000
 5979.00    3.64809   3.37027   -1.000
 5980.00    3.69115   3.41604   -1.000
 5981.00    3.70463   3.44973   -1.000
 5982.00    3.67373   3.43494   -1.000
 5983.00    3.60009   3.37136   -1.000
 5984.00    3.56086   3.30424   -1.000
 5985.00    3.59061   3.28673   -1.000
 5986.00    3.63210   3.33650   -1.000
 5987.00    3.67454   3.39610   -1.000
 5988.00    3.69383   3.43216   -1.000
 5989.00    3.73334   3.45581   -1.000
 5990.00    3.73077   3.46762   -1.000
 5991.00    3.71266   3.46723   -1.000
 5992.00    3.73009   3.47521   -1.000
 5993.00    3.74644   3.51068   -1.000
 5994.00    3.77823   3.55310   -1.000
 5995.00    3.77378   3.56358   -1.000
 5996.00    3.73481   3.52228   -1.000
 5997.00    3.69523   3.46021   -1.000
 5998.00    3.66599   3.41779   -1.000
 5999.00    3.66978   3.41945   -1.000
 6000.00    3.67612   3.44430   -1.000
 6001.00    3.66960   3.46015   -1.000
 6002.00    3.65865   3.45509   -1.000
 6003.00    3.64575   3.43780   -1.000
 6004.00    3.63869   3.44202   -1.000
 6005.00    3.62220   3.45798   -1.000
 6006.00    3.59078   3.43469   -1.000
 6007.00    3.54491   3.37396   -1.000
 6008.00    3.55209   3.32681   -1.000
 6009.00    3.62408   3.34848   -1.000
 6010.00    3.69363   3.42908   -1.000
 6011.00    3.71439   3.47760   -1.000
 6012.00    3.67381   3.46128   -1.000
 6013.00    3.65042   3.41694   -1.000
 6014.00    3.64563   3.39444   -1.000
 6015.00    3.66652   3.40806   -1.000
 6016.00    3.67380   3.41484   -1.000
 6017.00    3.65389   3.40145   -1.000
 6018.00    3.65125   3.40198   -1.000
 6019.00    3.64992   3.40281   -1.000
 6020.00    3.64881   3.38176   -1.000
 6021.00    3.63598   3.37213   -1.000
 6022.00    3.65867   3.38747   -1.000
 6023.00    3.69870   3.41632   -1.000
 6024.00    3.70669   3.44920   -1.000
 6025.00    3.72871   3.48292   -1.000
 6026.00    3.75684   3.51362   -1.000
 6027.00    3.78925   3.53780   -1.000
 6028.00    3.81208   3.56320   -1.000
 6029.00    3.82595   3.59276   -1.000
 6030.00    3.82911   3.60859   -1.000
 6031.00    3.82660   3.61250   -1.000
 6032.00    3.83754   3.62169   -1.000
 6033.00    3.85383   3.64131   -1.000
 6034.00    3.86002   3.67626   -1.000
 6035.00    3.85792   3.70650   -1.000
 6036.00    3.85898   3.70781   -1.000
 6037.00    3.86382   3.68919   -1.000
 6038.00    3.85207   3.66215   -1.000
 6039.00    3.82958   3.63636   -1.000
 6040.00    3.81583   3.61674   -1.000
 6041.00    3.79165   3.61376   -1.000
 6042.00    3.81333   3.63060   -1.000
 6043.00    3.84956   3.66150   -1.000
 6044.00    3.86703   3.69320   -1.000
 6045.00    3.90346   3.70656   -1.000
 6046.00    3.92448   3.71420   -1.000
 6047.00    3.91143   3.72008   -1.000
 6048.00    3.91184   3.72182   -1.000
 6049.00    3.92259   3.72137   -1.000
 6050.00    3.92953   3.72333   -1.000
 6051.00    3.91300   3.72268   -1.000
 6052.00    3.88970   3.70283   -1.000
 6053.00    3.86760   3.66389   -1.000
 6054.00    3.85102   3.62690   -1.000
 6055.00    3.81222   3.59566   -1.000
 6056.00    3.78711   3.56897   -1.000
 6057.00    3.81766   3.56637   -1.000
 6058.00    3.75882   3.59040   -1.000
 6059.00    3.60333   3.62696   17.408
 6060.00    3.86573   3.65691   -1.000
 6061.00    3.74798   3.65925   -1.000
 6062.00    2.60311   3.63142   -1.000
 6063.00    1.95763   3.57742   -1.000
 6064.00    3.28016   3.51891   -1.000
 6065.00    3.75710   3.48405   -1.000
 6066.00    3.87735   3.51070   -1.000
 6067.00    3.53422   3.59383   16.203
 6068.00    1.42058   3.68187   -1.000
 6069.00    3.00934   3.73102   -1.000
 6070.00    3.95733   3.75076   -1.000
 6071.00    3.98331   3.76425   -1.000
 6072.00    3.99202   3.77394   -1.000
 6073.00    3.98342   3.77350   -1.000
 6074.00    3.95976   3.76433   -1.000
 6075.00    3.94848   3.74817   -1.000
 6076.00    3.91595   3.71853   -1.000
 6077.00    3.87435   3.67598   -1.000
 6078.00    3.81727   3.62894   -1.000
 6079.00    3.79317   3.59671   -1.000
 6080.00    3.81045   3.58088   -1.000
 6081.00    3.77815   3.56440   -1.000
 6082.00    3.75768   3.54396   -1.000
 6083.00    3.79005   3.54447   -1.000
 6084.00    3.80802   3.56285   -1.000
 6085.00    3.80518   3.57796   -1.000
 6086.00    3.81033   3.59540   -1.000
 6087.00    3.81791   3.61585   -1.000
 6088.00    3.82522   3.62298   -1.000
 6089.00    3.80727   3.60279   -1.000
 6090.00    3.77930   3.56100   -1.000
 6091.00    3.74199   3.53279   -1.000
 6092.00    3.73442   3.53687   -1.000
 6093.00    3.77907   3.56652   -1.000
 6094.00    3.84510   3.61104   -1.000
 6095.00    3.88896   3.65107   -1.000
 6096.00    3.87103   3.66749   -1.000
 6097.00    3.85974   3.66507   -1.000
 6098.00    3.85784   3.67565   -1.000
 6099.00    3.86700   3.69397   -1.000
 6100.00    3.85081   3.67034   -1.000
 6101.00    3.75848   3.58260   -1.000
 6102.00    3.64666   3.45235   -1.000
 6103.00    3.62067   3.38474   -1.000
 6104.00    3.68199   3.43298   -1.000
 6105.00    3.76829   3.53594   -1.000
 6106.00    3.81458   3.61274   -1.000
 6107.00    3.84044   3.64413   -1.000
 6108.00    3.82938   3.66060   -1.000
 6109.00    3.82201   3.68221   16.986
 6110.00    3.82229   3.68971   16.941
 6111.00    3.83126   3.67838   -1.000
 6112.00    3.86834   3.68149   -1.000
 6113.00    3.88420   3.70919   -1.000
 6114.00    3.87616   3.73948   17.219
 6115.00    3.84900   3.73937   17.460
 6116.00    3.83786   3.71145   17.690
 6117.00    3.83021   3.69207   -1.000
 6118.00    3.81504   3.67776   -1.000
 6119.00    3.77769   3.63275   -1.000
 6120.00    3.70643   3.54807   -1.000
 6121.00    3.62400   3.44692   -1.000
 6122.00    3.60805   3.39427   -1.000
 6123.00    3.68660   3.43269   -1.000
 6124.00    3.77579   3.53083   -1.000
 6125.00    3.82235   3.60451   -1.000
 6126.00    3.81779   3.61960   -1.000
 6127.00    3.78434   3.60486   -1.000
 6128.00    3.76894   3.59170   -1.000
 6129.00    3.78477   3.61476   -1.000
 6130.00    3.81069   3.67302   17.630
 6131.00    3.87042   3.73308   -1.000
 6132.00    3.88152   3.76229   18.612
 6133.00    3.84844   3.73973   18.689
 6134.00    3.74047   3.64739   18.244
 6135.00    3.58271   3.48970   17.726
 6136.00    3.45395   3.31833   17.514
 6137.00    3.43855   3.24302   -1.000
 6138.00    3.54243   3.31722   -1.000
 6139.00    3.69471   3.47165   -1.000
 6140.00    3.78132   3.59095   -1.000
 6141.00    3.80035   3.61923   -1.000
 6142.00    3.77416   3.62209   -1.000
 6143.00    3.81335   3.66239   -1.000
 6144.00    3.86603   3.71931   -1.000
 6145.00    3.87172   3.75170   17.567
 6146.00    3.84532   3.74627   17.573
 6147.00    3.78748   3.71199   17.510
 6148.00    3.75641   3.65828   17.390
 6149.00    3.70001   3.60942   17.364
 6150.00    3.69491   3.58399   17.506
 6151.00    3.69886   3.59702   17.599
 6152.00    3.70851   3.63047   17.614
 6153.00    3.70798   3.64446   17.685
 6154.00    3.66334   3.62238   17.870
 6155.00    3.62089   3.58489   18.207
 6156.00    3.62095   3.56603   18.756
 6157.00    3.59531   3.55821   19.303
 6158.00    3.54960   3.53347   19.502
 6159.00    3.47491   3.46165   19.226
 6160.00    3.32680   3.32197   18.698
 6161.00    3.16568   3.14816   18.404
 6162.00    3.11312   3.01763   18.320
 6163.00    3.15461   3.01390   -1.000
 6164.00    3.26229   3.11284   -1.000
 6165.00    3.34974   3.24386   18.792
 6166.00    3.38863   3.34039   18.662
 6167.00    3.40317   3.37696   18.302
 6168.00    3.37587   3.33905   18.044
 6169.00    3.33090   3.26584   18.056
 6170.00    3.30436   3.23745   18.071
 6171.00    3.37349   3.29306   18.027
 6172.00    3.47102   3.38953   17.993
 6173.00    3.48872   3.44928   17.944
 6174.00    3.46436   3.46681   17.856
 6175.00    3.47030   3.46961   17.790
 6176.00    3.48309   3.46826   17.734
 6177.00    3.52026   3.47624   17.651
 6178.00    3.55744   3.50185   17.606
 6179.00    3.54755   3.53100   17.641
 6180.00    3.53575   3.54934   17.703
 6181.00    3.55367   3.56943   17.844
 6182.00    3.55063   3.59182   18.040
 6183.00    3.57082   3.59617   18.227
 6184.00    3.57778   3.57602   18.400
 6185.00    3.52698   3.53463   18.533
 6186.00    3.47393   3.48036   18.778
 6187.00    3.44863   3.42843   18.898
 6188.00    3.39963   3.39206   18.687
 6189.00    3.35635   3.35694   18.221
 6190.00    3.29661   3.30017   17.924
 6191.00    3.24617   3.24523   17.814
 6192.00    3.29480   3.25490   17.787
 6193.00    3.39866   3.33305   17.904
 6194.00    3.47250   3.43198   18.114
 6195.00    3.50882   3.50248   18.261
 6196.00    3.48985   3.54097   18.243
 6197.00    3.45767   3.54396   18.056
 6198.00    3.41177   3.50820   17.829
 6199.00    3.36329   3.45195   17.781
 6200.00    3.38704   3.43485   17.783
 6201.00    3.43299   3.47671   17.752
 6202.00    3.52268   3.53620   17.752
 6203.00    3.58776   3.58204   17.822
 6204.00    3.58777   3.60254   17.819
 6205.00    3.59219   3.61095   17.899
 6206.00    3.59641   3.61867   18.066
 6207.00    3.60398   3.62622   18.206
 6208.00    3.58014   3.62892   18.386
 6209.00    3.54716   3.61571   18.669
 6210.00    3.52686   3.58601   18.855
 6211.00    3.49120   3.54058   18.902
 6212.00    3.42812   3.47093   18.648
 6213.00    3.34876   3.37933   18.563
 6214.00    3.30239   3.29825   18.709
 6215.00    3.27525   3.26113   18.634
 6216.00    3.29257   3.27595   18.495
 6217.00    3.35856   3.31580   18.617
 6218.00    3.37848   3.34263   20.043
 6219.00    3.37092   3.33076   19.331
 6220.00    3.37229   3.31293   18.431
 6221.00    3.38201   3.32299   18.404
 6222.00    3.40136   3.35024   18.413
 6223.00    3.41162   3.36956   18.520
 6224.00    3.41549   3.37864   18.777
 6225.00    3.39356   3.39006   19.091
 6226.00    3.41212   3.40603   19.333
 6227.00    3.41240   3.40922   19.242
 6228.00    3.37579   3.37715   18.961
 6229.00    3.31737   3.29968   18.600
 6230.00    3.23169   3.20393   18.299
 6231.00    3.21479   3.15643   18.220
 6232.00    3.27389   3.18719   18.348
 6233.00    3.34868   3.27793   18.535
 6234.00    3.45128   3.38852   18.723
 6235.00    3.51605   3.47545   18.924
 6236.00    3.48799   3.49899   18.998
 6237.00    3.44353   3.46650   18.989
 6238.00    3.41965   3.40531   19.134
 6239.00    3.34374   3.34546   19.259
 6240.00    3.32056   3.30528   19.242
 6241.00    3.30018   3.28723   19.117
 6242.00    3.27879   3.27317   18.925
 6243.00    3.29165   3.24978   18.682
 6244.00    3.29570   3.23548   18.489
 6245.00    3.30420   3.24880   18.475
 6246.00    3.33802   3.28804   18.653
 6247.00    3.39791   3.35483   19.005
 6248.00    3.45655   3.42647   19.234
 6249.00    3.46106   3.46725   19.363
 6250.00    3.42511   3.46124   19.415
 6251.00    3.35890   3.40894   19.405
 6252.00    3.28921   3.33145   19.589
 6253.00    3.25231   3.27626   19.762
 6254.00    3.24782   3.26006   19.669
 6255.00    3.25460   3.25671   19.366
 6256.00    3.24990   3.23226   19.076
 6257.00    3.21768   3.18564   18.818
 6258.00    3.19398   3.16654   18.524
 6259.00    3.24346   3.20142   18.439
 6260.00    3.31907   3.28167   18.594
 6261.00    3.41957   3.37757   18.716
 6262.00    3.45206   3.46287   18.624
 6263.00    3.45077   3.51105   18.487
 6264.00    3.41854   3.51279   18.561
 6265.00    3.37987   3.48811   18.655
 6266.00    3.35844   3.47418   18.626
 6267.00    3.41331   3.48492   18.561
 6268.00    3.43800   3.49234   18.518
 6269.00    3.39585   3.48597   18.570
 6270.00    3.38498   3.48567   18.709
 6271.00    3.38359   3.50559   18.860
 6272.00    3.33329   3.53308   -1.000
 6273.00    3.27127   3.54774   -1.000
 6274.00    3.18161   3.53684   -1.000
 6275.00    3.15577   3.50495   -1.000
 6276.00    3.13631   3.46706   -1.000
 6277.00    3.09914   3.42876   -1.000
 6278.00    3.05571   3.39358   -1.000
 6279.00    2.99442   3.36194   -1.000
 6280.00    2.97717   3.34204   -1.000
 6281.00    3.06404   3.34981   -1.000
 6282.00    3.21106   3.39553   18.530
 6283.00    3.31431   3.46111   18.402
 6284.00    3.39954   3.51948   18.370
 6285.00    3.46026   3.55853   18.474
 6286.00    3.49552   3.59179   18.634
 6287.00    3.53200   3.62887   18.771
 6288.00    3.56958   3.66079   18.803
 6289.00    3.57782   3.66310   18.823
 6290.00    3.54192   3.63022   18.858
 6291.00    3.53943   3.58083   19.010
 6292.00    3.50586   3.54536   19.134
 6293.00    3.55023   3.53103   19.158
 6294.00    3.56730   3.52961   19.127
 6295.00    3.58337   3.51421   19.044
 6296.00    3.58977   3.46845   -1.000
 6297.00    3.56251   3.42701   -1.000
 6298.00    3.52017   3.42895   19.354
 6299.00    3.48444   3.45309   19.172
 6300.00    3.44926   3.46113   18.862
 6301.00    3.41584   3.44095   18.635
 6302.00    3.37867   3.42888   18.479
 6303.00    3.41368   3.44831   18.309
 6304.00    3.44521   3.48773   18.288
 6305.00    3.48211   3.52735   18.374
 6306.00    3.51127   3.57171   18.501
 6307.00    3.57425   3.62496   18.569
 6308.00    3.62796   3.67229   18.646
 6309.00    3.62457   3.68075   18.660
 6310.00    3.58001   3.65098   18.843
 6311.00    3.52387   3.61434   18.903
 6312.00    3.48537   3.58843   18.886
 6313.00    3.48637   3.57421   18.868
 6314.00    3.47325   3.55045   18.898
 6315.00    3.42356   3.51670   18.822
 6316.00    3.40549   3.48928   18.585
 6317.00    3.43118   3.46497   18.406
 6318.00    3.44450   3.44514   18.342
 6319.00    3.45106   3.46465   18.280
 6320.00    3.50884   3.52651   18.179
 6321.00    3.57996   3.58378   18.124
 6322.00    3.59371   3.61998   18.117
 6323.00    3.63638   3.65118   18.020
 6324.00    3.66552   3.68579   18.045
 6325.00    3.67430   3.70958   18.057
 6326.00    3.67322   3.71549   18.070
 6327.00    3.68458   3.71773   17.998
 6328.00    3.68576   3.72531   17.972
 6329.00    3.68117   3.73238   18.026
 6330.00    3.68672   3.73156   18.070
 6331.00    3.43663   3.74133   -1.000
 6332.00    3.56385   3.76703   -1.000
 6333.00    3.73157   3.76647   18.368
 6334.00    3.65449   3.71356   18.179
 6335.00    3.56635   3.62569   17.978
 6336.00    3.53488   3.56317   17.898
 6337.00    3.54938   3.56689   17.809
 6338.00    3.60734   3.61098   17.830
 6339.00    3.64380   3.66635   18.002
 6340.00    3.68166   3.71681   18.017
 6341.00    3.67158   3.73708   17.963
 6342.00    3.65372   3.71191   17.863
 6343.00    3.62221   3.65943   17.735
 6344.00    3.59381   3.61643   17.672
 6345.00    3.63219   3.62784   17.681
 6346.00    3.68582   3.68031   17.638
 6347.00    3.70191   3.73796   17.659
 6348.00    3.73945   3.78469   17.740
 6349.00    3.76189   3.81598   17.821
 6350.00    3.72352   3.83229   18.037
 6351.00    3.72322   3.83406   18.188
 6352.00    3.72721   3.81793   18.185
 6353.00    3.69403   3.77817   18.243
 6354.00    3.62723   3.72211   18.464
 6355.00    3.59415   3.68190   18.531
 6356.00    3.58112   3.66467   18.446
 6357.00    3.56438   3.63804   18.389
 6358.00    3.52959   3.58637   18.375
 6359.00    3.51163   3.53060   18.307
 6360.00    3.53702   3.49086   18.182
 6361.00    3.51774   3.46543   18.066
 6362.00    3.46845   3.45660   17.971
 6363.00    3.48540   3.47690   17.855
 6364.00    3.53853   3.52929   17.735
 6365.00    3.60638   3.59571   17.695
 6366.00    3.65724   3.66146   17.712
 6367.00    3.70911   3.72363   17.646
 6368.00    3.74102   3.77709   17.576
 6369.00    3.74748   3.80316   17.632
 6370.00    3.76832   3.81084   17.642
 6371.00    3.75368   3.82374   17.683
 6372.00    3.74382   3.85131   17.751
 6373.00    3.75459   3.87831   17.843
 6374.00    3.74954   3.88651   17.968
 6375.00    3.73626   3.88380   18.031
 6376.00    3.74875   3.87933   18.039
 6377.00    3.72525   3.85944   18.076
 6378.00    3.65989   3.81861   18.068
 6379.00    3.64505   3.78396   18.016
 6380.00    3.64625   3.76962   18.112
 6381.00    3.68309   3.77641   18.149
 6382.00    3.69732   3.79474   18.129
 6383.00    3.69202   3.81112   18.191
 6384.00    3.67677   3.81794   18.249
 6385.00    3.66806   3.82490   18.409
 6386.00    3.67188   3.84316   18.552
 6387.00    3.66238   3.86120   -1.000
 6388.00    3.65680   3.86951   -1.000
 6389.00    3.64855   3.87283   -1.000
 6390.00    3.63719   3.86506   -1.000
 6391.00    3.55931   3.82325   -1.000
 6392.00    3.47128   3.74696   -1.000
 6393.00    3.41428   3.67385   -1.000
 6394.00    3.41463   3.66660   -1.000
 6395.00    3.48860   3.73657   -1.000
 6396.00    3.53844   3.82242   -1.000
 6397.00    3.52728   3.86217   -1.000
 6398.00    3.46483   3.82287   -1.000
 6399.00    3.37051   3.73008   -1.000
 6400.00    3.31295   3.65983   -1.000
 6401.00    3.35283   3.68934   -1.000
 6402.00    3.41630   3.79426   -1.000
 6403.00    3.44333   3.88949   -1.000
 6404.00    3.46227   3.93555   -1.000
 6405.00    3.41479   3.92725   -1.000
 6406.00    3.35158   3.87802   -1.000
 6407.00    3.27976   3.82092   -1.000
 6408.00    3.23412   3.79957   -1.000
 6409.00    3.26639   3.81253   -1.000
 6410.00    3.25338   3.81924   -1.000
 6411.00    3.19040   3.80118   -1.000
 6412.00    3.15247   3.77702   -1.000
 6413.00    3.14806   3.77978   -1.000
 6414.00    3.13521   3.80498   -1.000
 6415.00    3.13305   3.83853   -1.000
 6416.00    3.12027   3.86803   -1.000
 6417.00    3.09739   3.87162   -1.000
 6418.00    3.07856   3.83814   -1.000
 6419.00    3.00165   3.77513   -1.000
 6420.00    2.92265   3.71574   -1.000
 6421.00    2.89294   3.70596   -1.000
 6422.00    2.91199   3.76704   -1.000
 6423.00    2.94296   3.84845   -1.000
 6424.00    2.94341   3.90546   -1.000
 6425.00    2.90293   3.93603   -1.000
 6426.00    2.87652   3.95750   -1.000
 6427.00    0.00000   3.97125   -2.000
 6428.00    0.00000   3.94830   -2.000
