###################################################################
## OUTPUT of StarlightChains_v04.for    [Cid@UFSC - 01/Apr/2007] ##
###################################################################

## Some input info
NGC6356_a_1.cxt                          [arq_obs]
Base.BC03.N                              [arq_base]
NGC6356_a_1.msk                          [arq_masks]
StCv04.C11.config                        [arq_config]
   45                                    [N_base]
    0                                    [N_YAV_components = # of components with extra extinction!]
    0                                    [i_FitPowerLaw (1/0 = Yes/No)]
-9.99                                    [alpha_PowerLaw]
CCM                                      [red_law_option]
 1.458241                                [q_norm = A(l_norm)/A(V)]

## (Re)Sampling Parameters
 3359.00                                 [l_ini (A)]
 6428.00                                 [l_fin (A)]
    1.00                                 [dl    (A)]     (OBS: dl_cushion =    50.00 A)

## Normalization info
 4020.00                                 [l_norm (A) - for base]
 4010.00                                 [llow_norm (A) - window for f_obs]
 4060.00                                 [lupp_norm (A) - window for f_obs]
1.105556E-14                             [fobs_norm (in input units)]

## S/N
 4730.00                                 [llow_SN (A) - window for S/N]
 4780.00                                 [lupp_SN (A) - window for S/N]
  43.679                                 [S/N in S/N window]
  28.435                                 [S/N in norm. window]
  64.165                                 [S/N_err in S/N window]
  41.771                                 [S/N_err in norm. window]
  1.0000                                 [fscale_chi2]

## etc...
  2147483612                             [idum_orig]
  3068                                   [NOl_eff]
  1650                                   [Nl_eff]
  1418    NSIGMA                         [Ntot_cliped & clip_method]
   841400                                [Nglobal_steps]
   7                                     [N_chains]
  11                                     [NEX0s_base = N_base in EX0s-fits]
 0   0   1      257   2.0   8.798E+02    [Clip-Bug, RC-Crash & Burn-In warning-flags, n_censored_weights, wei_nsig_threshold & wei_limit]
     9      9.464      9.456      0.008  [idt_all, wdt_TotTime, wdt_UsrTime & wdt_SysTime (sec)]

## Synthesis Results - Best model ##

 2.74325E+00                             [chi2/Nl_eff]
     1.80509                             [adev (%)]

   102.11608                             [sum-of-x (%)]
 3.00797E-14                             [Flux_tot (units of input spectrum!)]
 1.44319E-09                             [Mini_tot (???)]
 7.41085E-10                             [Mcor_tot (???)]

   8.27                                  [v0_min  (km/s)]
  71.09                                  [vd_min  (km/s)]
 0.7296                                  [AV_min  (mag)]
 0.0000                                  [YAV_min (mag)]

# j     x_j(%)      Mini_j(%)     Mcor_j(%)     age_j(yr)     Z_j      (L/M)_j    YAV?  Mstars   component_j        a/Fe...       SSP_chi2r SSP_adev(%)   SSP_AV   SSP_x(%)
  1      0.0000     0.0000E+00    0.0000E+00    1.000000E+06  0.00400  1.114E-02    0   1.0000   age020_m42            0.0000     1.4676E+03    31.0009   4.0000    77.6341
  2      5.3248     2.6683E-03    5.1958E-03    3.160000E+06  0.00400  4.073E-02    0   0.9999   age045_m42            0.0000     3.9325E+02     7.7746   4.0000    88.4947
  3      0.0000     0.0000E+00    0.0000E+00    5.010000E+06  0.00400  2.534E-02    0   0.9488   age055_m42            0.0000     6.3463E+02    16.7855   4.0000    84.4118
  4      7.9533     1.2772E-02    2.2042E-02    1.000000E+07  0.00400  1.271E-02    0   0.8862   age070_m42            0.0000     4.4465E+02     9.9576   3.6795    85.3820
  5      0.0000     0.0000E+00    0.0000E+00    2.512000E+07  0.00400  5.070E-03    0   0.8174   age090_m42            0.0000     4.1339E+02     9.5291   3.5418    87.0827
  6      0.0000     0.0000E+00    0.0000E+00    4.000000E+07  0.00400  3.505E-03    0   0.7851   age104_m42            0.0000     3.7068E+02     8.2826   3.2070    90.2252
  7      0.0000     0.0000E+00    0.0000E+00    1.015200E+08  0.00400  2.268E-03    0   0.7207   age116_m42            0.0000     9.8863E+02     8.1343   3.1390    98.4193
  8      0.0000     0.0000E+00    0.0000E+00    2.861200E+08  0.00400  1.079E-03    0   0.6613   age125_m42            0.0000     9.9253E+02     8.3953   2.6045   101.1907
  9      0.0000     0.0000E+00    0.0000E+00    6.405400E+08  0.00400  5.077E-04    0   0.6197   age132_m42            0.0000     1.0102E+03     8.7741   2.2395   105.0267
 10      0.9294     5.3662E-02    6.2952E-02    9.047900E+08  0.00400  3.535E-04    0   0.6024   age135_m42            0.0000     7.2466E+02     7.7052   2.0038   104.8729
 11      0.0000     0.0000E+00    0.0000E+00    1.434000E+09  0.00400  1.910E-04    0   0.5716   age139_m42            0.0000     3.8353E+02     5.5935   1.4662   105.3374
 12      0.0000     0.0000E+00    0.0000E+00    2.500000E+09  0.00400  9.818E-05    0   0.5463   age150_m42            0.0000     1.1556E+02     3.3404   1.1944   102.4125
 13      0.0000     0.0000E+00    0.0000E+00    5.000000E+09  0.00400  4.718E-05    0   0.5228   age161_m42            0.0000     3.5854E+01     2.4086   1.0363    99.9376
 14     28.1045     2.6015E+01    2.5229E+01    1.100000E+10  0.00400  2.205E-05    0   0.4980   age185_m42            0.0000     1.2717E+01     2.5468   0.7599    99.3607
 15      0.0000     0.0000E+00    0.0000E+00    1.300000E+10  0.00400  1.883E-05    0   0.4927   age193_m42            0.0000     1.4175E+01     2.6103   0.7416    99.3866
 16      0.0000     0.0000E+00    0.0000E+00    1.000000E+06  0.02000  1.989E-02    0   1.0000   age020_m62            0.0000     1.3992E+03    30.1674   4.0000    78.3405
 17      0.0000     0.0000E+00    0.0000E+00    3.160000E+06  0.02000  3.772E-02    0   0.9858   age045_m62            0.0000     1.1941E+03    26.9806   4.0000    80.3660
 18      0.3120     1.9734E-04    3.5901E-04    5.010000E+06  0.02000  3.227E-02    0   0.9342   age055_m62            0.0000     5.3908E+02    13.1445   4.0000    86.4861
 19      0.9827     1.9839E-03    3.3809E-03    1.000000E+07  0.02000  1.011E-02    0   0.8751   age070_m62            0.0000     5.7797E+02    13.2802   3.7296    81.9314
 20      0.0000     0.0000E+00    0.0000E+00    2.512000E+07  0.02000  4.206E-03    0   0.8099   age090_m62            0.0000     5.0416E+02    11.3755   3.6460    83.2544
 21      0.0000     0.0000E+00    0.0000E+00    4.000000E+07  0.02000  3.373E-03    0   0.7799   age104_m62            0.0000     4.5460E+02     8.4614   3.4139    91.1261
 22      0.0000     0.0000E+00    0.0000E+00    1.015200E+08  0.02000  1.878E-03    0   0.7221   age116_m62            0.0000     9.1683E+02     8.2619   3.1763    98.4342
 23      0.0000     0.0000E+00    0.0000E+00    2.861200E+08  0.02000  8.869E-04    0   0.6700   age125_m62            0.0000     1.4351E+03     9.6992   2.5963   105.9009
 24      0.0000     0.0000E+00    0.0000E+00    6.405400E+08  0.02000  3.657E-04    0   0.6322   age132_m62            0.0000     9.7270E+02     8.8411   1.8640   111.3251
 25      0.0000     0.0000E+00    0.0000E+00    9.047900E+08  0.02000  2.312E-04    0   0.6152   age135_m62            0.0000     5.8555E+02     7.2832   1.4968   111.2369
 26      0.0000     0.0000E+00    0.0000E+00    1.434000E+09  0.02000  1.168E-04    0   0.5865   age139_m62            0.0000     1.7990E+02     4.2756   1.1032   107.0514
 27      0.0000     0.0000E+00    0.0000E+00    2.500000E+09  0.02000  5.505E-05    0   0.5610   age150_m62            0.0000     5.3188E+01     3.5254   0.7272   105.8706
 28     31.3303     2.4633E+01    2.5678E+01    5.000000E+09  0.02000  2.596E-05    0   0.5353   age161_m62            0.0000     5.6179E+01     4.8347   0.3630   107.9331
 29     11.2344     1.9615E+01    1.9493E+01    1.100000E+10  0.02000  1.169E-05    0   0.5103   age185_m62            0.0000     1.3449E+02     6.6542  -0.0456   111.6095
 30     10.9717     2.3108E+01    2.2712E+01    1.300000E+10  0.02000  9.691E-06    0   0.5047   age193_m62            0.0000     1.5607E+02     6.9545  -0.0998   112.2585
 31      0.0000     0.0000E+00    0.0000E+00    1.000000E+06  0.05000  2.651E-02    0   0.9998   age020_m72            0.0000     1.3707E+03    29.9689   4.0000    79.3430
 32      0.0000     0.0000E+00    0.0000E+00    3.160000E+06  0.05000  4.817E-02    0   0.9577   age045_m72            0.0000     9.2608E+02    22.9911   4.0000    83.5536
 33      0.0000     0.0000E+00    0.0000E+00    5.010000E+06  0.05000  3.101E-02    0   0.9147   age055_m72            0.0000     5.9642E+02    13.8674   4.0000    85.1710
 34      0.0000     0.0000E+00    0.0000E+00    1.000000E+07  0.05000  8.954E-03    0   0.8524   age070_m72            0.0000     7.6142E+02    19.4049   4.0000    84.9837
 35      0.0000     0.0000E+00    0.0000E+00    2.512000E+07  0.05000  4.207E-03    0   0.7902   age090_m72            0.0000     4.2956E+02     8.8229   4.0000    88.6633
 36      0.0000     0.0000E+00    0.0000E+00    4.000000E+07  0.05000  3.198E-03    0   0.7618   age104_m72            0.0000     6.6579E+02     7.3461   3.5573    95.0757
 37      0.0000     0.0000E+00    0.0000E+00    1.015200E+08  0.05000  1.716E-03    0   0.7092   age116_m72            0.0000     1.0113E+03     8.5000   3.2538    98.6529
 38      0.0000     0.0000E+00    0.0000E+00    2.861200E+08  0.05000  7.047E-04    0   0.6618   age125_m72            0.0000     1.3534E+03     9.3243   2.3747   107.1557
 39      0.0000     0.0000E+00    0.0000E+00    6.405400E+08  0.05000  2.633E-04    0   0.6253   age132_m72            0.0000     7.2962E+02     7.8104   1.4795   111.7082
 40      0.0000     0.0000E+00    0.0000E+00    9.047900E+08  0.05000  1.484E-04    0   0.6088   age135_m72            0.0000     2.6639E+02     5.5359   1.0016   108.5431
 41      0.0000     0.0000E+00    0.0000E+00    1.434000E+09  0.05000  7.827E-05    0   0.5847   age139_m72            0.0000     8.5881E+01     4.8162   0.6101   107.1384
 42      0.0000     0.0000E+00    0.0000E+00    2.500000E+09  0.05000  3.759E-05    0   0.5583   age150_m72            0.0000     7.3092E+01     5.2997   0.2747   107.8923
 43      4.9727     6.5566E+00    6.7928E+00    5.000000E+09  0.05000  1.548E-05    0   0.5320   age161_m72            0.0000     1.4383E+02     6.7651  -0.1746   109.2458
 44      0.0003     9.5881E-04    9.4666E-04    1.100000E+10  0.05000  6.532E-06    0   0.5070   age185_m72            0.0000     2.5836E+02     9.5037  -0.6324   112.0727
 45      0.0000     0.0000E+00    0.0000E+00    1.300000E+10  0.05000  5.316E-06    0   0.5018   age193_m72            0.0000     3.1769E+02    10.5976  -0.7852   113.3818


## Synthesis Results - Average & Chains ##

# j      x_j: min, <> & last-chain-values for 1 ...  7 chains
  1      0.0000      0.0360      0.0263      0.0710      0.0000      0.0000      0.0000      0.0000      0.0000
  2      5.3248      4.6309      4.8196      4.6699      4.7608      4.9913      4.6507      4.6267      4.7713
  3      0.0000      0.1590      0.1657      0.2220      0.2596      0.0000      0.3307      0.1261      0.1507
  4      7.9533      7.9539      8.2582      7.6724      8.4235      8.0116      8.0848      7.9266      8.1341
  5      0.0000      0.1302      0.1992      0.3242      0.0195      0.0392      0.0000      0.1232      0.2467
  6      0.0000      0.0443      0.0000      0.0137      0.0233      0.0000      0.0000      0.1332      0.0000
  7      0.0000      0.0350      0.0000      0.0000      0.1413      0.0000      0.0000      0.0000      0.0000
  8      0.0000      0.0174      0.0000      0.0000      0.0000      0.0000      0.0000      0.0000      0.0000
  9      0.0000      0.0747      0.0000      0.0967      0.0602      0.2976      0.0000      0.0000      0.0000
 10      0.9294      0.2790      0.5010      0.4889      0.3136      0.1907      0.3927      0.7277      0.3818
 11      0.0000      0.1537      0.1299      0.4286      0.0000      0.0943      0.2340      0.1754      0.1725
 12      0.0000      0.2112      0.1906      0.0807      0.1292      0.4310      0.1657      0.0000      0.4885
 13      0.0000      0.3542      0.7774      0.2787      0.5101      0.6089      1.2129      0.2457      0.5322
 14     28.1045     27.7895     28.1334     27.5334     27.7492     27.4035     27.8679     27.8075     27.8202
 15      0.0000      0.5152      0.5550      0.6533      0.8563      0.6230      0.3757      0.3211      0.5026
 16      0.0000      0.0332      0.0031      0.0000      0.0282      0.0955      0.0058      0.0923      0.0164
 17      0.0000      0.0407      0.0350      0.0260      0.0224      0.0000      0.0000      0.0000      0.0000
 18      0.3120      0.3899      0.3925      0.3765      0.5291      0.4845      0.3786      0.4214      0.3480
 19      0.9827      0.1748      0.1587      0.0000      0.0000      0.1420      0.2096      0.3625      0.2340
 20      0.0000      0.0275      0.0000      0.0000      0.0000      0.0000      0.0000      0.0000      0.0000
 21      0.0000      0.0255      0.0187      0.0000      0.0000      0.0000      0.0000      0.0000      0.0000
 22      0.0000      0.0195      0.0000      0.0000      0.0000      0.0000      0.0000      0.0000      0.0000
 23      0.0000      0.0137      0.0000      0.0000      0.0000      0.0000      0.0000      0.0000      0.0000
 24      0.0000      0.0175      0.0000      0.0000      0.0000      0.0000      0.0000      0.0000      0.0000
 25      0.0000      0.0326      0.0000      0.0000      0.0000      0.0000      0.0000      0.0000      0.0000
 26      0.0000      0.0265      0.0000      0.0112      0.0000      0.0104      0.0000      0.0000      0.0000
 27      0.0000      0.0675      0.0000      0.0000      0.0000      0.0000      0.0000      0.0000      0.0467
 28     31.3303     32.3900     31.3182     32.0199     32.5934     32.0170     31.7393     32.2569     32.2233
 29     11.2344     11.8789     11.2670     11.8780     12.0310     11.9918     11.8080     11.7864     11.9073
 30     10.9717     11.5337     12.5510     11.6974     11.9018     10.9349     11.6733     11.8780     11.6555
 31      0.0000      0.1340      0.1169      0.1432      0.1506      0.1130      0.2416      0.1604      0.1162
 32      0.0000      0.1008      0.0000      0.1444      0.0000      0.0248      0.0707      0.0797      0.1248
 33      0.0000      0.1400      0.0641      0.5146      0.0000      0.2102      0.0975      0.1508      0.0044
 34      0.0000      0.0753      0.0034      0.0000      0.0000      0.1526      0.0000      0.0000      0.0000
 35      0.0000      0.0239      0.0000      0.0000      0.0000      0.0043      0.0158      0.1104      0.0171
 36      0.0000      0.0189      0.0000      0.0000      0.0000      0.0000      0.0000      0.0000      0.0000
 37      0.0000      0.0385      0.0000      0.0000      0.0000      0.0040      0.0000      0.0000      0.0000
 38      0.0000      0.0148      0.0000      0.0000      0.0000      0.0000      0.0000      0.0000      0.0000
 39      0.0000      0.0202      0.0000      0.0000      0.0000      0.0000      0.1128      0.0000      0.0000
 40      0.0000      0.0298      0.0059      0.0000      0.0000      0.0000      0.0000      0.0000      0.0000
 41      0.0000      0.0439      0.0000      0.1630      0.0000      0.0000      0.0728      0.0000      0.0487
 42      0.0000      0.1861      0.1123      0.3528      0.0000      0.4411      0.0000      0.1641      0.0000
 43      4.9727      1.1255      1.4818      1.1841      1.3603      1.8998      1.4934      1.8752      1.2884
 44      0.0003      0.5812      0.4369      0.6917      0.2892      0.3991      0.5979      0.6222      0.3840
 45      0.0000      0.6123      0.4080      0.4584      0.0000      0.5500      0.2891      0.0000      0.5693

# j      m_j: min, <> & last-chain-values for 1 ...  7 chains
  1  0.0000E+00  1.2518E-04  9.1730E-05  2.4723E-04  0.0000E+00  0.0000E+00  0.0000E+00  0.0000E+00  0.0000E+00
  2  5.1958E-03  4.4048E-03  4.5897E-03  4.4477E-03  4.5956E-03  4.7977E-03  4.4609E-03  4.4452E-03  4.5543E-03
  3  0.0000E+00  2.3061E-04  2.4062E-04  3.2247E-04  3.8223E-04  0.0000E+00  4.8378E-04  1.8475E-04  2.1943E-04
  4  2.2042E-02  2.1488E-02  2.2336E-02  2.0754E-02  2.3094E-02  2.1872E-02  2.2025E-02  2.1630E-02  2.2051E-02
  5  0.0000E+00  8.1352E-04  1.2460E-03  2.0279E-03  1.2342E-04  2.4727E-04  0.0000E+00  7.7767E-04  1.5464E-03
  6  0.0000E+00  3.8477E-04  0.0000E+00  1.1894E-04  2.0500E-04  0.0000E+00  0.0000E+00  1.1673E-03  0.0000E+00
  7  0.0000E+00  4.3090E-04  0.0000E+00  0.0000E+00  1.7656E-03  0.0000E+00  0.0000E+00  0.0000E+00  0.0000E+00
  8  0.0000E+00  4.1317E-04  0.0000E+00  0.0000E+00  0.0000E+00  0.0000E+00  0.0000E+00  0.0000E+00  0.0000E+00
  9  0.0000E+00  3.5341E-03  0.0000E+00  4.5808E-03  2.8869E-03  1.4224E-02  0.0000E+00  0.0000E+00  0.0000E+00
 10  6.2952E-02  1.8424E-02  3.3119E-02  3.2323E-02  2.1014E-02  1.2727E-02  2.6147E-02  4.8531E-02  2.5296E-02
 11  0.0000E+00  1.7824E-02  1.5075E-02  4.9767E-02  0.0000E+00  1.1048E-02  2.7365E-02  2.0544E-02  2.0074E-02
 12  0.0000E+00  4.5526E-02  4.1150E-02  1.7413E-02  2.8272E-02  9.3893E-02  3.6034E-02  0.0000E+00  1.0568E-01
 13  0.0000E+00  1.5207E-01  3.3414E-01  1.1981E-01  2.2225E-01  2.6417E-01  5.2513E-01  1.0654E-01  2.2930E-01
 14  2.5229E+01  2.4317E+01  2.4648E+01  2.4125E+01  2.4643E+01  2.4233E+01  2.4592E+01  2.4579E+01  2.4430E+01
 15  0.0000E+00  5.2235E-01  5.6333E-01  6.6314E-01  8.8101E-01  6.3830E-01  3.8405E-01  3.2885E-01  5.1131E-01
 16  0.0000E+00  6.4761E-05  6.1197E-06  0.0000E+00  5.5770E-05  1.8792E-04  1.1355E-05  1.8161E-04  3.2032E-05
 17  0.0000E+00  4.1169E-05  3.5461E-05  2.6314E-05  2.3065E-05  0.0000E+00  0.0000E+00  0.0000E+00  0.0000E+00
 18  3.5901E-04  4.3731E-04  4.4072E-04  4.2290E-04  6.0225E-04  5.4921E-04  4.2828E-04  4.7747E-04  3.9173E-04
 19  3.3809E-03  5.8628E-04  5.3296E-04  0.0000E+00  0.0000E+00  4.8138E-04  7.0889E-04  1.2278E-03  7.8747E-04
 20  0.0000E+00  2.0519E-04  0.0000E+00  0.0000E+00  0.0000E+00  0.0000E+00  0.0000E+00  0.0000E+00  0.0000E+00
 21  0.0000E+00  2.2839E-04  1.6792E-04  0.0000E+00  0.0000E+00  0.0000E+00  0.0000E+00  0.0000E+00  0.0000E+00
 22  0.0000E+00  2.9041E-04  0.0000E+00  0.0000E+00  0.0000E+00  0.0000E+00  0.0000E+00  0.0000E+00  0.0000E+00
 23  0.0000E+00  3.9966E-04  0.0000E+00  0.0000E+00  0.0000E+00  0.0000E+00  0.0000E+00  0.0000E+00  0.0000E+00
 24  0.0000E+00  1.1734E-03  0.0000E+00  0.0000E+00  0.0000E+00  0.0000E+00  0.0000E+00  0.0000E+00  0.0000E+00
 25  0.0000E+00  3.3640E-03  0.0000E+00  0.0000E+00  0.0000E+00  0.0000E+00  0.0000E+00  0.0000E+00  0.0000E+00
 26  0.0000E+00  5.1637E-03  0.0000E+00  2.1792E-03  0.0000E+00  2.0498E-03  0.0000E+00  0.0000E+00  0.0000E+00
 27  0.0000E+00  2.6658E-02  0.0000E+00  0.0000E+00  0.0000E+00  0.0000E+00  0.0000E+00  0.0000E+00  1.8514E-02
 28  2.5678E+01  2.5877E+01  2.5051E+01  2.5615E+01  2.6427E+01  2.5849E+01  2.5571E+01  2.6031E+01  2.5835E+01
 29  1.9493E+01  2.0091E+01  1.9079E+01  2.0116E+01  2.0651E+01  2.0496E+01  2.0140E+01  2.0136E+01  2.0210E+01
 30  2.2712E+01  2.3273E+01  2.5356E+01  2.3634E+01  2.4372E+01  2.2297E+01  2.3753E+01  2.4210E+01  2.3601E+01
 31  0.0000E+00  1.9578E-04  1.7096E-04  2.0952E-04  2.2339E-04  1.6689E-04  3.5602E-04  2.3679E-04  1.7038E-04
 32  0.0000E+00  7.7665E-05  0.0000E+00  1.1135E-04  0.0000E+00  1.9297E-05  5.4915E-05  6.1999E-05  9.6445E-05
 33  0.0000E+00  1.6002E-04  7.3389E-05  5.8885E-04  0.0000E+00  2.4282E-04  1.1243E-04  1.7411E-04  5.0014E-06
 34  0.0000E+00  2.7760E-04  1.2456E-05  0.0000E+00  0.0000E+00  5.6875E-04  0.0000E+00  0.0000E+00  0.0000E+00
 35  0.0000E+00  1.7362E-04  0.0000E+00  0.0000E+00  0.0000E+00  3.1752E-05  1.1582E-04  8.1178E-04  1.2514E-04
 36  0.0000E+00  1.7430E-04  0.0000E+00  0.0000E+00  0.0000E+00  0.0000E+00  0.0000E+00  0.0000E+00  0.0000E+00
 37  0.0000E+00  6.1668E-04  0.0000E+00  0.0000E+00  0.0000E+00  6.4274E-05  0.0000E+00  0.0000E+00  0.0000E+00
 38  0.0000E+00  5.4016E-04  0.0000E+00  0.0000E+00  0.0000E+00  0.0000E+00  0.0000E+00  0.0000E+00  0.0000E+00
 39  0.0000E+00  1.8556E-03  0.0000E+00  0.0000E+00  0.0000E+00  0.0000E+00  1.0463E-02  0.0000E+00  0.0000E+00
 40  0.0000E+00  4.7300E-03  9.3573E-04  0.0000E+00  0.0000E+00  0.0000E+00  0.0000E+00  0.0000E+00  0.0000E+00
 41  0.0000E+00  1.2710E-02  0.0000E+00  4.7251E-02  0.0000E+00  0.0000E+00  2.1249E-02  0.0000E+00  1.4158E-02
 42  0.0000E+00  1.0708E-01  6.4707E-02  2.0327E-01  0.0000E+00  2.5652E-01  0.0000E+00  9.5389E-02  0.0000E+00
 43  6.7928E+00  1.4987E+00  1.9754E+00  1.5787E+00  1.8382E+00  2.5564E+00  2.0053E+00  2.5221E+00  1.7216E+00
 44  9.4666E-04  1.7477E+00  1.3154E+00  2.0830E+00  8.8253E-01  1.2130E+00  1.8132E+00  1.8902E+00  1.1590E+00
 45  0.0000E+00  2.2394E+00  1.4939E+00  1.6786E+00  0.0000E+00  2.0328E+00  1.0663E+00  0.0000E+00  2.0895E+00

# AV, chi2 & Mass for <> & i_chain = 1 ...  7 solutions
AV       0.7296      0.7249      0.7292      0.7272      0.7333      0.7291      0.7309      0.7296      0.7268
chi2 2.7432E+00  2.7844E+00  2.7698E+00  2.7773E+00  2.7681E+00  2.7696E+00  2.7699E+00  2.7661E+00  2.7771E+00
Mass 7.4108E-10  7.5544E-10  7.5892E-10  7.5680E-10  7.5286E-10  7.5181E-10  7.5520E-10  7.5262E-10  7.5476E-10
   8.27                                  [v0_min (km/s) before EX0s...]
  71.09                                  [vd_min (km/s) before EX0s...]


## Synthetic spectrum (Best Model) ##l_obs f_obs f_syn wei
 3070    [Nl_obs]
 3359.00    0.08593   0.42978   -1.000
 3360.00    0.21175   0.39858   -1.000
 3361.00    0.21317   0.39584   -1.000
 3362.00    0.22768   0.42220   -1.000
 3363.00    0.26071   0.46173   -1.000
 3364.00    0.26928   0.49214   -1.000
 3365.00    0.25580   0.49831   -1.000
 3366.00    0.26151   0.48021   -1.000
 3367.00    0.26895   0.45149   -1.000
 3368.00    0.25245   0.42566   -1.000
 3369.00    0.23814   0.40976   -1.000
 3370.00    0.24378   0.40278   -1.000
 3371.00    0.25596   0.40141   -1.000
 3372.00    0.26374   0.40790   -1.000
 3373.00    0.28131   0.42714   -1.000
 3374.00    0.27829   0.45822   -1.000
 3375.00    0.28472   0.49263   -1.000
 3376.00    0.31282   0.51499   -1.000
 3377.00    0.32134   0.51286   -1.000
 3378.00    0.32390   0.48934   -1.000
 3379.00    0.31997   0.46138   -1.000
 3380.00    0.30559   0.44614   -1.000
 3381.00    0.29206   0.45053   -1.000
 3382.00    0.29591   0.46808   -1.000
 3383.00    0.31348   0.48737   -1.000
 3384.00    0.32830   0.50243   -1.000
 3385.00    0.32775   0.51434   -1.000
 3386.00    0.33356   0.52191   -1.000
 3387.00    0.34267   0.52322   -1.000
 3388.00    0.35768   0.52069   -1.000
 3389.00    0.36219   0.51648   -1.000
 3390.00    0.36794   0.50825   -1.000
 3391.00    0.36788   0.49396   -1.000
 3392.00    0.36323   0.47830   -1.000
 3393.00    0.35620   0.47215   -1.000
 3394.00    0.35906   0.48239   -1.000
 3395.00    0.37813   0.50526   -1.000
 3396.00    0.40147   0.53037   -1.000
 3397.00    0.42023   0.55175   -1.000
 3398.00    0.43271   0.56651   -1.000
 3399.00    0.44346   0.57188   -1.000
 3400.00    0.46085   0.56807   -1.000
 3401.00    0.46179   0.55700   -1.000
 3402.00    0.43186   0.54074   -1.000
 3403.00    0.42396   0.52448   -1.000
 3404.00    0.42341   0.51280   -1.000
 3405.00    0.40328   0.50486   -1.000
 3406.00    0.39058   0.49746   -1.000
 3407.00    0.39215   0.49141   -1.000
 3408.00    0.40010   0.49059   -1.000
 3409.00    0.40241   0.49631   -1.000
 3410.00    0.40223   0.50393   -1.000
 3411.00    0.40355   0.50366   -1.000
 3412.00    0.39625   0.49131   -1.000
 3413.00    0.38541   0.47375   -1.000
 3414.00    0.38410   0.46284   -1.000
 3415.00    0.39679   0.46682   -1.000
 3416.00    0.40580   0.48460   -1.000
 3417.00    0.40826   0.50968   -1.000
 3418.00    0.42104   0.53469   -1.000
 3419.00    0.43985   0.55442   -1.000
 3420.00    0.45686   0.56290   -1.000
 3421.00    0.45589   0.55676   -1.000
 3422.00    0.45440   0.54098   -1.000
 3423.00    0.45297   0.52712   -1.000
 3424.00    0.44583   0.52162   -1.000
 3425.00    0.43947   0.52314   -1.000
 3426.00    0.44394   0.52856   -1.000
 3427.00    0.46397   0.53908   -1.000
 3428.00    0.47341   0.55739   -1.000
 3429.00    0.48929   0.57623   -1.000
 3430.00    0.50439   0.58065   -1.000
 3431.00    0.48936   0.56607   -1.000
 3432.00    0.47700   0.54307   -1.000
 3433.00    0.46973   0.52836   -1.000
 3434.00    0.47720   0.52889   -1.000
 3435.00    0.48546   0.53595   -1.000
 3436.00    0.47328   0.53668   -1.000
 3437.00    0.46144   0.52440   -1.000
 3438.00    0.44937   0.49860   -1.000
 3439.00    0.42499   0.46284   -1.000
 3440.00    0.39351   0.42589   -1.000
 3441.00    0.36673   0.39935   -1.000
 3442.00    0.37197   0.39247  139.307
 3443.00    0.38969   0.40341  136.561
 3444.00    0.40546   0.42256  130.198
 3445.00    0.42767   0.44275  123.017
 3446.00    0.44179   0.46423  117.302
 3447.00    0.46450   0.48911   -1.000
 3448.00    0.47908   0.51629   -1.000
 3449.00    0.48511   0.53804   -1.000
 3450.00    0.48637   0.54405   -1.000
 3451.00    0.48783   0.53305   -1.000
 3452.00    0.48151   0.51695   -1.000
 3453.00    0.47950   0.51017   -1.000
 3454.00    0.48720   0.51635   -1.000
 3455.00    0.50255   0.52468   -1.000
 3456.00    0.50447   0.52254   -1.000
 3457.00    0.48881   0.50659   -1.000
 3458.00    0.47050   0.48384   -1.000
 3459.00    0.46617   0.46491  112.710
 3460.00    0.46973   0.45459  113.271
 3461.00    0.47058   0.45705  181.172
 3462.00    0.47688   0.47431   -1.000
 3463.00    0.49616   0.49669  879.770
 3464.00    0.50648   0.50901  879.770
 3465.00    0.51467   0.50944   -1.000
 3466.00    0.51788   0.50776   -1.000
 3467.00    0.52205   0.51337   -1.000
 3468.00    0.53886   0.52692   -1.000
 3469.00    0.55206   0.54104   -1.000
 3470.00    0.54923   0.54721  879.770
 3471.00    0.54245   0.54003  879.770
 3472.00    0.52371   0.51960   -1.000
 3473.00    0.50829   0.49040   -1.000
 3474.00    0.49814   0.46068   -1.000
 3475.00    0.46912   0.44097   -1.000
 3476.00    0.44462   0.44092  116.161
 3477.00    0.45032   0.45945  184.085
 3478.00    0.47967   0.48532   -1.000
 3479.00    0.51211   0.50641   -1.000
 3480.00    0.53292   0.51658   -1.000
 3481.00    0.54593   0.51537   -1.000
 3482.00    0.55318   0.50620   -1.000
 3483.00    0.54391   0.49657   -1.000
 3484.00    0.53277   0.49614   -1.000
 3485.00    0.54088   0.50976   -1.000
 3486.00    0.54887   0.52933   -1.000
 3487.00    0.55695   0.53827   -1.000
 3488.00    0.55455   0.52630   -1.000
 3489.00    0.52895   0.49966   -1.000
 3490.00    0.50712   0.47524   -1.000
 3491.00    0.49934   0.46622   -1.000
 3492.00    0.50180   0.47243   -1.000
 3493.00    0.51213   0.48377   -1.000
 3494.00    0.51664   0.48965   -1.000
 3495.00    0.50534   0.48592   -1.000
 3496.00    0.49025   0.47985   -1.000
 3497.00    0.49293   0.48553   -1.000
 3498.00    0.52036   0.50852   -1.000
 3499.00    0.55287   0.53674   -1.000
 3500.00    0.58251   0.55558   -1.000
 3501.00    0.58879   0.56581   -1.000
 3502.00    0.58454   0.57368   -1.000
 3503.00    0.58750   0.57790   -1.000
 3504.00    0.58299   0.57351   -1.000
 3505.00    0.57231   0.56214   -1.000
 3506.00    0.57083   0.55157   -1.000
 3507.00    0.56908   0.54622   -1.000
 3508.00    0.57323   0.54218   -1.000
 3509.00    0.56729   0.53334   -1.000
 3510.00    0.55843   0.52029   -1.000
 3511.00    0.55724   0.50623   -1.000
 3512.00    0.54586   0.49243   -1.000
 3513.00    0.51702   0.48092   -1.000
 3514.00    0.50096   0.48011   -1.000
 3515.00    0.51398   0.49825   -1.000
 3516.00    0.53964   0.53125   -1.000
 3517.00    0.56940   0.56249   -1.000
 3518.00    0.58556   0.57563   -1.000
 3519.00    0.57408   0.56573   -1.000
 3520.00    0.54966   0.53970   -1.000
 3521.00    0.52366   0.50926   -1.000
 3522.00    0.50351   0.48281   -1.000
 3523.00    0.48822   0.46001   -1.000
 3524.00    0.46136   0.44216  113.732
 3525.00    0.43867   0.43677  115.742
 3526.00    0.45302   0.45025  186.818
 3527.00    0.48524   0.48044   -1.000
 3528.00    0.51360   0.51607  879.770
 3529.00    0.53912   0.54243  879.770
 3530.00    0.55429   0.55216  879.770
 3531.00    0.56010   0.54966   -1.000
 3532.00    0.56019   0.54712   -1.000
 3533.00    0.56428   0.55273   -1.000
 3534.00    0.56409   0.56433  879.770
 3535.00    0.57186   0.57439  879.770
 3536.00    0.58030   0.57968  879.770
 3537.00    0.58427   0.58496  879.770
 3538.00    0.59330   0.59348  879.770
 3539.00    0.60435   0.59950   -1.000
 3540.00    0.59877   0.59636  879.770
 3541.00    0.57629   0.58781   -1.000
 3542.00    0.56880   0.58493   -1.000
 3543.00    0.57428   0.59137   -1.000
 3544.00    0.58141   0.60060   -1.000
 3545.00    0.57756   0.60414   -1.000
 3546.00    0.57491   0.59987   -1.000
 3547.00    0.57181   0.59351   -1.000
 3548.00    0.56147   0.59075   -1.000
 3549.00    0.56529   0.59146   -1.000
 3550.00    0.56962   0.59069   -1.000
 3551.00    0.55663   0.58343   -1.000
 3552.00    0.54248   0.56965   -1.000
 3553.00    0.53637   0.55580   -1.000
 3554.00    0.52716   0.54963   -1.000
 3555.00    0.53067   0.55239   -1.000
 3556.00    0.53653   0.55742   -1.000
 3557.00    0.52921   0.55778   -1.000
 3558.00    0.52740   0.55356   -1.000
 3559.00    0.52670   0.55201   -1.000
 3560.00    0.52238   0.55922   -1.000
 3561.00    0.52439   0.57242   -1.000
 3562.00    0.53622   0.57939   -1.000
 3563.00    0.53732   0.56495   -1.000
 3564.00    0.51374   0.52665  228.483
 3565.00    0.47810   0.48442  115.142
 3566.00    0.45390   0.46181  117.204
 3567.00    0.45198   0.45831  116.121
 3568.00    0.45201   0.45641  117.474
 3569.00    0.44064   0.44632  120.723
 3570.00    0.42996   0.43630  120.244
 3571.00    0.43273   0.43959  115.703
 3572.00    0.45426   0.45610  184.688
 3573.00    0.47312   0.47496  879.770
 3574.00    0.48588   0.48893  879.770
 3575.00    0.50254   0.49664   -1.000
 3576.00    0.51270   0.49742   -1.000
 3577.00    0.50222   0.48853   -1.000
 3578.00    0.48043   0.46786   -1.000
 3579.00    0.45641   0.43770  120.872
 3580.00    0.42344   0.40849  129.263
 3581.00    0.39645   0.39148  133.587
 3582.00    0.38934   0.39002  134.271
 3583.00    0.39268   0.39585  136.063
 3584.00    0.38468   0.39649  139.990
 3585.00    0.37256   0.39003  143.466
 3586.00    0.37183   0.38621  141.254
 3587.00    0.38218   0.39405  133.868
 3588.00    0.40178   0.41580  127.027
 3589.00    0.42554   0.44849  118.452
 3590.00    0.46628   0.48386   -1.000
 3591.00    0.51405   0.51149  879.770
 3592.00    0.52486   0.52522  879.770
 3593.00    0.51818   0.53060   -1.000
 3594.00    0.52537   0.53955   -1.000
 3595.00    0.55043   0.55757   -1.000
 3596.00    0.57367   0.57913   -1.000
 3597.00    0.58599   0.59681   -1.000
 3598.00    0.59676   0.61013   -1.000
 3599.00    0.60710   0.61842   -1.000
 3600.00    0.60541   0.61493   -1.000
 3601.00    0.59374   0.59452  879.770
 3602.00    0.56900   0.56271   -1.000
 3603.00    0.53908   0.53185   -1.000
 3604.00    0.52780   0.51240   -1.000
 3605.00    0.52673   0.50512   -1.000
 3606.00    0.52037   0.50103   -1.000
 3607.00    0.50733   0.49124   -1.000
 3608.00    0.49104   0.47697   -1.000
 3609.00    0.48023   0.47012   -1.000
 3610.00    0.48962   0.48009   -1.000
 3611.00    0.51040   0.50127   -1.000
 3612.00    0.52923   0.52108   -1.000
 3613.00    0.53507   0.53703  879.770
 3614.00    0.54248   0.55203   -1.000
 3615.00    0.56529   0.56139   -1.000
 3616.00    0.56459   0.55151   -1.000
 3617.00    0.53459   0.51695   -1.000
 3618.00    0.48694   0.47740  224.258
 3619.00    0.45961   0.46312  183.661
 3620.00    0.48302   0.48251  879.770
 3621.00    0.53119   0.52093   -1.000
 3622.00    0.56097   0.55819  879.770
 3623.00    0.57689   0.58571   -1.000
 3624.00    0.59674   0.60960   -1.000
 3625.00    0.61270   0.63815   -1.000
 3626.00    0.64242   0.66744   -1.000
 3627.00    0.65870   0.68325   -1.000
 3628.00    0.64675   0.67092   -1.000
 3629.00    0.60572   0.62648   -1.000
 3630.00    0.54710   0.56557   -1.000
 3631.00    0.50160   0.51773   -1.000
 3632.00    0.49017   0.50133   -1.000
 3633.00    0.50763   0.51292   -1.000
 3634.00    0.52842   0.53577   -1.000
 3635.00    0.53946   0.55662   -1.000
 3636.00    0.55189   0.57374   -1.000
 3637.00    0.57163   0.59416   -1.000
 3638.00    0.61255   0.61989   -1.000
 3639.00    0.64336   0.64295  809.349
 3640.00    0.64292   0.65288   -1.000
 3641.00    0.62052   0.64445   -1.000
 3642.00    0.59525   0.62221   -1.000
 3643.00    0.57451   0.59598   -1.000
 3644.00    0.55179   0.57250   -1.000
 3645.00    0.53638   0.55287   -1.000
 3646.00    0.53326   0.53539  879.770
 3647.00    0.52716   0.52187   -1.000
 3648.00    0.51859   0.51908  879.770
 3649.00    0.53323   0.53151  879.770
 3650.00    0.56070   0.55831  879.770
 3651.00    0.58501   0.59329   -1.000
 3652.00    0.61030   0.62688   -1.000
 3653.00    0.63532   0.65012   -1.000
 3654.00    0.64738   0.66307   -1.000
 3655.00    0.64858   0.67267   -1.000
 3656.00    0.65616   0.68546   -1.000
 3657.00    0.66532   0.70089   -1.000
 3658.00    0.67127   0.71286   -1.000
 3659.00    0.67628   0.71820   -1.000
 3660.00    0.67923   0.71573   -1.000
 3661.00    0.67307   0.70467   -1.000
 3662.00    0.65281   0.68817   -1.000
 3663.00    0.64293   0.67375   -1.000
 3664.00    0.64577   0.66667   -1.000
 3665.00    0.64888   0.66611   -1.000
 3666.00    0.65342   0.66530   -1.000
 3667.00    0.64605   0.65745   -1.000
 3668.00    0.63664   0.64366   -1.000
 3669.00    0.62816   0.63466   -1.000
 3670.00    0.62343   0.64066   -1.000
 3671.00    0.63975   0.65910   -1.000
 3672.00    0.65871   0.67761   -1.000
 3673.00    0.66620   0.68684   -1.000
 3674.00    0.66493   0.68483   -1.000
 3675.00    0.65497   0.67222   -1.000
 3676.00    0.64185   0.65056   -1.000
 3677.00    0.62753   0.62366  849.822
 3678.00    0.60179   0.59784  873.738
 3679.00    0.57262   0.58140   -1.000
 3680.00    0.57043   0.58065   -1.000
 3681.00    0.59924   0.59423   -1.000
 3682.00    0.62627   0.61217   -1.000
 3683.00    0.62843   0.62219   -1.000
 3684.00    0.61421   0.61529  863.384
 3685.00    0.59222   0.59116  879.770
 3686.00    0.56974   0.56283   -1.000
 3687.00    0.55649   0.55036   -1.000
 3688.00    0.56468   0.56448  879.770
 3689.00    0.59624   0.60075   -1.000
 3690.00    0.63654   0.64297   -1.000
 3691.00    0.66815   0.67182   -1.000
 3692.00    0.67288   0.67725   -1.000
 3693.00    0.65554   0.66661   -1.000
 3694.00    0.64638   0.65425   -1.000
 3695.00    0.65939   0.64832   -1.000
 3696.00    0.66451   0.65208   -1.000
 3697.00    0.66002   0.66742   -1.000
 3698.00    0.67745   0.69166   -1.000
 3699.00    0.71329   0.71423   -1.000
 3700.00    0.72928   0.72275  737.423
 3701.00    0.71025   0.70851  760.819
 3702.00    0.67934   0.66901   -1.000
 3703.00    0.62769   0.61232   -1.000
 3704.00    0.56815   0.55650   -1.000
 3705.00    0.53936   0.51858   -1.000
 3706.00    0.54171   0.50580   -1.000
 3707.00    0.54568   0.51125   -1.000
 3708.00    0.54118   0.52535   -1.000
 3709.00    0.55979   0.54602   -1.000
 3710.00    0.59704   0.57516   -1.000
 3711.00    0.63002   0.61194   -1.000
 3712.00    0.66743   0.65257   -1.000
 3713.00    0.70741   0.68813   -1.000
 3714.00    0.73130   0.70833   -1.000
 3715.00    0.72290   0.70856   -1.000
 3716.00    0.69915   0.68815   -1.000
 3717.00    0.67539   0.64702   -1.000
 3718.00    0.62426   0.58765   -1.000
 3719.00    0.54108   0.51946   -1.000
 3720.00    0.47926   0.46342   -1.000
 3721.00    0.46981   0.44244   -1.000
 3722.00    0.49589   0.46233   -1.000
 3723.00    0.54485   0.51124   -1.000
 3724.00    0.59855   0.56680   -1.000
 3725.00    0.62666   0.60391   -1.000
 3726.00    0.62677   0.61248   -1.000
 3727.00    0.61688   0.60706   -1.000
 3728.00    0.61396   0.60556   -1.000
 3729.00    0.61581   0.60714   -1.000
 3730.00    0.60821   0.59761   -1.000
 3731.00    0.58546   0.56471   -1.000
 3732.00    0.54879   0.51019   -1.000
 3733.00    0.49479   0.45025   -1.000
 3734.00    0.44017   0.40246   -1.000
 3735.00    0.41289   0.38162   -1.000
 3736.00    0.42471   0.39502   -1.000
 3737.00    0.46296   0.43844   -1.000
 3738.00    0.51805   0.49959   -1.000
 3739.00    0.58102   0.56155   -1.000
 3740.00    0.62228   0.60394   -1.000
 3741.00    0.62760   0.61455   -1.000
 3742.00    0.60666   0.59572   -1.000
 3743.00    0.57304   0.55993   -1.000
 3744.00    0.53849   0.52183   -1.000
 3745.00    0.51058   0.49092   -1.000
 3746.00    0.48990   0.46487   -1.000
 3747.00    0.46629   0.43794   -1.000
 3748.00    0.43678   0.41420  121.182
 3749.00    0.42414   0.40896   -1.000
 3750.00    0.45903   0.43544   -1.000
 3751.00    0.53033   0.48960   -1.000
 3752.00    0.59379   0.55374   -1.000
 3753.00    0.64428   0.61320   -1.000
 3754.00    0.69083   0.65631   -1.000
 3755.00    0.70419   0.66787   -1.000
 3756.00    0.67128   0.64133   -1.000
 3757.00    0.61115   0.59105   -1.000
 3758.00    0.55414   0.54634   -1.000
 3759.00    0.53635   0.52998   -1.000
 3760.00    0.55333   0.54011   -1.000
 3761.00    0.58518   0.55777   -1.000
 3762.00    0.60859   0.56875   -1.000
 3763.00    0.60806   0.57236   -1.000
 3764.00    0.59750   0.57182   -1.000
 3765.00    0.59834   0.56728   -1.000
 3766.00    0.59838   0.56003   -1.000
 3767.00    0.59504   0.55468   -1.000
 3768.00    0.59787   0.55358   -1.000
 3769.00    0.59711   0.55581   -1.000
 3770.00    0.59805   0.56333   -1.000
 3771.00    0.62052   0.58113   -1.000
 3772.00    0.65800   0.60823   -1.000
 3773.00    0.68820   0.63483   -1.000
 3774.00    0.69381   0.65221   -1.000
 3775.00    0.68594   0.66165   -1.000
 3776.00    0.67894   0.66937   -1.000
 3777.00    0.67831   0.67999  764.089
 3778.00    0.68992   0.69512   -1.000
 3779.00    0.70877   0.71273   -1.000
 3780.00    0.72721   0.72919  713.273
 3781.00    0.73595   0.74143   -1.000
 3782.00    0.74062   0.74774   -1.000
 3783.00    0.74467   0.74516  714.641
 3784.00    0.73198   0.72758  741.383
 3785.00    0.69361   0.69309  788.855
 3786.00    0.64850   0.65084  839.487
 3787.00    0.61641   0.61393  868.857
 3788.00    0.59674   0.59150   -1.000
 3789.00    0.58822   0.58642  868.752
 3790.00    0.60081   0.59283   -1.000
 3791.00    0.61980   0.59897   -1.000
 3792.00    0.61328   0.59441   -1.000
 3793.00    0.58895   0.57717   -1.000
 3794.00    0.57520   0.55365   -1.000
 3795.00    0.56792   0.52924   -1.000
 3796.00    0.54898   0.50386   -1.000
 3797.00    0.52376   0.47884   -1.000
 3798.00    0.51191   0.46717   -1.000
 3799.00    0.53035   0.48462   -1.000
 3800.00    0.57261   0.52983   -1.000
 3801.00    0.60886   0.58579   -1.000
 3802.00    0.64065   0.63535  799.710
 3803.00    0.66660   0.66725  788.446
 3804.00    0.67629   0.67741  791.951
 3805.00    0.66686   0.66847  812.836
 3806.00    0.64710   0.65201   -1.000
 3807.00    0.63556   0.64531   -1.000
 3808.00    0.63939   0.65680   -1.000
 3809.00    0.65497   0.67781   -1.000
 3810.00    0.67353   0.69065   -1.000
 3811.00    0.66545   0.68181   -1.000
 3812.00    0.63540   0.65044   -1.000
 3813.00    0.59711   0.60721   -1.000
 3814.00    0.56302   0.56715  879.770
 3815.00    0.54478   0.54458  879.770
 3816.00    0.54036   0.54281  879.770
 3817.00    0.55213   0.54809   -1.000
 3818.00    0.55492   0.54183   -1.000
 3819.00    0.52896   0.52042   -1.000
 3820.00    0.49431   0.50052   -1.000
 3821.00    0.49376   0.49854  879.770
 3822.00    0.51419   0.50811   -1.000
 3823.00    0.51318   0.50782   -1.000
 3824.00    0.48208   0.48863  224.274
 3825.00    0.45255   0.46280  118.208
 3826.00    0.44304   0.44610  119.028
 3827.00    0.44044   0.44333  117.526
 3828.00    0.44272   0.44941  115.596
 3829.00    0.45506   0.45543  115.279
 3830.00    0.46064   0.45304  118.558
 3831.00    0.44325   0.43850  125.942
 3832.00    0.41460   0.41540  133.204
 3833.00    0.40000   0.39307  133.959
 3834.00    0.40505   0.38098   -1.000
 3835.00    0.42037   0.38163   -1.000
 3836.00    0.43281   0.38891   -1.000
 3837.00    0.42671   0.39499   -1.000
 3838.00    0.41350   0.39944  129.033
 3839.00    0.41264   0.41018  124.148
 3840.00    0.43209   0.43591  205.807
 3841.00    0.47744   0.47750  879.770
 3842.00    0.53037   0.52567   -1.000
 3843.00    0.56518   0.56757  879.770
 3844.00    0.58948   0.59482   -1.000
 3845.00    0.59639   0.60918   -1.000
 3846.00    0.58839   0.61738   -1.000
 3847.00    0.58679   0.62026   -1.000
 3848.00    0.57424   0.61451   -1.000
 3849.00    0.54860   0.60413   -1.000
 3850.00    0.54178   0.59965   -1.000
 3851.00    0.56136   0.60581   -1.000
 3852.00    0.58225   0.61523   -1.000
 3853.00    0.58111   0.61598   -1.000
 3854.00    0.56375   0.60414   -1.000
 3855.00    0.54386   0.58546   -1.000
 3856.00    0.52949   0.56510   -1.000
 3857.00    0.51382   0.54282   -1.000
 3858.00    0.48526   0.52031   -1.000
 3859.00    0.45942   0.50833   -1.000
 3860.00    0.46337   0.51902   -1.000
 3861.00    0.50184   0.55187   -1.000
 3862.00    0.55554   0.59090   -1.000
 3863.00    0.59414   0.61630   -1.000
 3864.00    0.60418   0.62161   -1.000
 3865.00    0.59127   0.61601   -1.000
 3866.00    0.57295   0.61008   -1.000
 3867.00    0.56614   0.60621   -1.000
 3868.00    0.55655   0.59978   -1.000
 3869.00    0.53468   0.58511   -1.000
 3870.00    0.50440   0.56266   -1.000
 3871.00    0.48574   0.54289   -1.000
 3872.00    0.49511   0.53946   -1.000
 3873.00    0.53526   0.55811   -1.000
 3874.00    0.58538   0.58971  879.770
 3875.00    0.60251   0.61239   -1.000
 3876.00    0.58876   0.60921   -1.000
 3877.00    0.55827   0.58614   -1.000
 3878.00    0.52683   0.56416   -1.000
 3879.00    0.51879   0.55601   -1.000
 3880.00    0.52294   0.55813   -1.000
 3881.00    0.51831   0.56231   -1.000
 3882.00    0.53004   0.56698   -1.000
 3883.00    0.56242   0.57164   -1.000
 3884.00    0.58762   0.56734   -1.000
 3885.00    0.58438   0.54543   -1.000
 3886.00    0.56173   0.51181   -1.000
 3887.00    0.55139   0.48392   -1.000
 3888.00    0.55308   0.47776   -1.000
 3889.00    0.56526   0.49975   -1.000
 3890.00    0.60931   0.54435   -1.000
 3891.00    0.66759   0.59611   -1.000
 3892.00    0.70807   0.63588   -1.000
 3893.00    0.71148   0.65304   -1.000
 3894.00    0.69380   0.65445   -1.000
 3895.00    0.69148   0.65513   -1.000
 3896.00    0.70634   0.66211   -1.000
 3897.00    0.72482   0.67012   -1.000
 3898.00    0.72458   0.67239   -1.000
 3899.00    0.71656   0.67157   -1.000
 3900.00    0.71758   0.67377   -1.000
 3901.00    0.71802   0.67706   -1.000
 3902.00    0.71413   0.67413   -1.000
 3903.00    0.69689   0.66192   -1.000
 3904.00    0.66969   0.64600   -1.000
 3905.00    0.64928   0.63787   -1.000
 3906.00    0.64704   0.64695  784.720
 3907.00    0.68417   0.67403   -1.000
 3908.00    0.73495   0.70972   -1.000
 3909.00    0.76032   0.74041   -1.000
 3910.00    0.76740   0.75964   -1.000
 3911.00    0.77996   0.76987   -1.000
 3912.00    0.78745   0.77334   -1.000
 3913.00    0.78217   0.77008   -1.000
 3914.00    0.77103   0.76134   -1.000
 3915.00    0.75518   0.74950   -1.000
 3916.00    0.74634   0.73627   -1.000
 3917.00    0.73436   0.72027   -1.000
 3918.00    0.70525   0.69804   -1.000
 3919.00    0.67502   0.67006   -1.000
 3920.00    0.64368   0.64342  835.324
 3921.00    0.62212   0.62752   -1.000
 3922.00    0.62476   0.62611  828.088
 3923.00    0.64375   0.63192   -1.000
 3924.00    0.64748   0.63189   -1.000
 3925.00    0.62156   0.61613   -1.000
 3926.00    0.57958   0.58236  879.770
 3927.00    0.51739   0.53564   -1.000
 3928.00    0.44697   0.48390   -1.000
 3929.00    0.38597   0.43372   -1.000
 3930.00    0.32910   0.38689   -1.000
 3931.00    0.28116   0.34342   -1.000
 3932.00    0.24533   0.30648   -1.000
 3933.00    0.22201   0.28375   -1.000
 3934.00    0.22500   0.28432   -1.000
 3935.00    0.24976   0.31031   -1.000
 3936.00    0.28940   0.35464   -1.000
 3937.00    0.35224   0.40854   -1.000
 3938.00    0.42091   0.46448   -1.000
 3939.00    0.47160   0.51454   -1.000
 3940.00    0.51317   0.55244   -1.000
 3941.00    0.54239   0.57436   -1.000
 3942.00    0.55299   0.58248   -1.000
 3943.00    0.55838   0.58714   -1.000
 3944.00    0.57794   0.60061   -1.000
 3945.00    0.62062   0.62615   -1.000
 3946.00    0.66829   0.65476   -1.000
 3947.00    0.69444   0.67709   -1.000
 3948.00    0.69712   0.69430  743.901
 3949.00    0.71349   0.71170  717.740
 3950.00    0.74337   0.72680   -1.000
 3951.00    0.75771   0.73379   -1.000
 3952.00    0.75852   0.73606   -1.000
 3953.00    0.76039   0.74109   -1.000
 3954.00    0.76740   0.74730   -1.000
 3955.00    0.76213   0.74626   -1.000
 3956.00    0.74172   0.73692  728.689
 3957.00    0.73001   0.72742  728.019
 3958.00    0.72958   0.71852   -1.000
 3959.00    0.72021   0.69672   -1.000
 3960.00    0.67146   0.65254   -1.000
 3961.00    0.59237   0.59577  879.770
 3962.00    0.53260   0.54468   -1.000
 3963.00    0.50178   0.50717  216.655
 3964.00    0.47156   0.47367  125.596
 3965.00    0.41569   0.43010  150.815
 3966.00    0.34440   0.37420   -1.000
 3967.00    0.27778   0.31877   -1.000
 3968.00    0.24422   0.28269   -1.000
 3969.00    0.25933   0.27799  191.486
 3970.00    0.30392   0.30507  157.417
 3971.00    0.36128   0.35582  130.581
 3972.00    0.42821   0.41893  208.636
 3973.00    0.50465   0.48526   -1.000
 3974.00    0.57190   0.55021   -1.000
 3975.00    0.63242   0.61048   -1.000
 3976.00    0.68701   0.66487   -1.000
 3977.00    0.72641   0.71419   -1.000
 3978.00    0.76587   0.75857   -1.000
 3979.00    0.81253   0.79443   -1.000
 3980.00    0.84806   0.81497   -1.000
 3981.00    0.84408   0.81883   -1.000
 3982.00    0.82834   0.81410   -1.000
 3983.00    0.83265   0.81261   -1.000
 3984.00    0.84644   0.82035   -1.000
 3985.00    0.85803   0.83540   -1.000
 3986.00    0.86976   0.85394   -1.000
 3987.00    0.88711   0.87204   -1.000
 3988.00    0.90194   0.88497   -1.000
 3989.00    0.91136   0.89134   -1.000
 3990.00    0.90982   0.89578   -1.000
 3991.00    0.91947   0.90406   -1.000
 3992.00    0.94278   0.91519   -1.000
 3993.00    0.94645   0.92115   -1.000
 3994.00    0.93206   0.91539   -1.000
 3995.00    0.91675   0.89958   -1.000
 3996.00    0.90063   0.88327   -1.000
 3997.00    0.87287   0.87862   -1.000
 3998.00    0.87814   0.89162   -1.000
 3999.00    0.92555   0.91727   -1.000
 4000.00    0.96231   0.94465   -1.000
 4001.00    0.98337   0.96381   -1.000
 4002.00    1.00182   0.96596   -1.000
 4003.00    0.98518   0.94524   -1.000
 4004.00    0.92443   0.90693   -1.000
 4005.00    0.87022   0.87230  611.353
 4006.00    0.86189   0.86501  590.137
 4007.00    0.90617   0.88893   -1.000
 4008.00    0.95717   0.92586   -1.000
 4009.00    0.98482   0.95575   -1.000
 4010.00    0.98879   0.97251   -1.000
 4011.00    1.00366   0.98048   -1.000
 4012.00    1.01349   0.98549   -1.000
 4013.00    1.00243   0.99100   -1.000
 4014.00    1.00310   0.99648  534.291
 4015.00    1.00112   0.99870  532.752
 4016.00    0.99542   0.99697  538.587
 4017.00    0.98855   0.99620   -1.000
 4018.00    0.99197   1.00122   -1.000
 4019.00    1.00654   1.00971  531.324
 4020.00    1.00743   1.01472   -1.000
 4021.00    1.00032   1.01245   -1.000
 4022.00    0.99742   1.00483   -1.000
 4023.00    0.99398   0.99560  548.912
 4024.00    0.98963   0.98966  544.052
 4025.00    0.99574   0.99384  527.171
 4026.00    1.01714   1.01039  512.373
 4027.00    1.04472   1.02848   -1.000
 4028.00    1.05552   1.02719   -1.000
 4029.00    1.02018   0.99422   -1.000
 4030.00    0.95692   0.94020   -1.000
 4031.00    0.90966   0.88962   -1.000
 4032.00    0.90107   0.86082   -1.000
 4033.00    0.91038   0.85947   -1.000
 4034.00    0.93187   0.88470   -1.000
 4035.00    0.97532   0.93148   -1.000
 4036.00    1.02195   0.98827   -1.000
 4037.00    1.06506   1.03740   -1.000
 4038.00    1.08504   1.06165   -1.000
 4039.00    1.06852   1.05867   -1.000
 4040.00    1.04799   1.04344  524.668
 4041.00    1.04255   1.02715   -1.000
 4042.00    1.03826   1.00131   -1.000
 4043.00    1.00000   0.95092   -1.000
 4044.00    0.90835   0.88117   -1.000
 4045.00    0.82728   0.82759  644.608
 4046.00    0.83327   0.82670  597.608
 4047.00    0.91138   0.87804   -1.000
 4048.00    0.99129   0.94861   -1.000
 4049.00    1.03893   1.00576   -1.000
 4050.00    1.05571   1.03525   -1.000
 4051.00    1.04912   1.03873   -1.000
 4052.00    1.02848   1.02425  538.362
 4053.00    1.00450   1.00173  549.496
 4054.00    0.98105   0.98009  555.834
 4055.00    0.96891   0.96218  559.854
 4056.00    0.96186   0.94701   -1.000
 4057.00    0.95208   0.93860   -1.000
 4058.00    0.95686   0.94462   -1.000
 4059.00    0.98112   0.96278   -1.000
 4060.00    1.01079   0.97347   -1.000
 4061.00    1.01024   0.95533   -1.000
 4062.00    0.95610   0.91126   -1.000
 4063.00    0.89131   0.86871   -1.000
 4064.00    0.87881   0.85248   -1.000
 4065.00    0.91093   0.86560   -1.000
 4066.00    0.94304   0.89524   -1.000
 4067.00    0.97109   0.92815   -1.000
 4068.00    1.00803   0.95393   -1.000
 4069.00    1.02611   0.96031   -1.000
 4070.00    1.00293   0.94253   -1.000
 4071.00    0.96466   0.91712   -1.000
 4072.00    0.95424   0.90900   -1.000
 4073.00    0.97837   0.92192   -1.000
 4074.00    0.99221   0.93216   -1.000
 4075.00    0.97477   0.91709   -1.000
 4076.00    0.92216   0.88379   -1.000
 4077.00    0.87030   0.86177   -1.000
 4078.00    0.87787   0.87435  593.516
 4079.00    0.93333   0.91999   -1.000
 4080.00    1.00176   0.97481   -1.000
 4081.00    1.04641   1.01089   -1.000
 4082.00    1.03826   1.01543   -1.000
 4083.00    1.00891   0.99869   -1.000
 4084.00    0.99197   0.98394   -1.000
 4085.00    0.99432   0.98934  535.298
 4086.00    1.03087   1.01622   -1.000
 4087.00    1.07781   1.05153   -1.000
 4088.00    1.10646   1.07844   -1.000
 4089.00    1.11636   1.08572   -1.000
 4090.00    1.10255   1.07437   -1.000
 4091.00    1.07649   1.05625   -1.000
 4092.00    1.06246   1.04119   -1.000
 4093.00    1.06018   1.02678   -1.000
 4094.00    1.05293   1.00499   -1.000
 4095.00    1.02443   0.97365   -1.000
 4096.00    0.98509   0.93987   -1.000
 4097.00    0.95945   0.91011   -1.000
 4098.00    0.94566   0.87927   -1.000
 4099.00    0.91454   0.83785   -1.000
 4100.00    0.84678   0.78871   -1.000
 4101.00    0.78760   0.75270   -1.000
 4102.00    0.79037   0.75289   -1.000
 4103.00    0.84550   0.79339   -1.000
 4104.00    0.90962   0.85636   -1.000
 4105.00    0.95877   0.91704   -1.000
 4106.00    0.99780   0.95957   -1.000
 4107.00    1.01723   0.98096   -1.000
 4108.00    1.01669   0.98533   -1.000
 4109.00    1.00560   0.98008   -1.000
 4110.00    0.98563   0.97504   -1.000
 4111.00    0.97745   0.97781  554.707
 4112.00    0.99151   0.99040  543.610
 4113.00    1.01614   1.01013  534.831
 4114.00    1.03061   1.03098  528.177
 4115.00    1.03624   1.04468   -1.000
 4116.00    1.04592   1.04429  534.304
 4117.00    1.04311   1.02983   -1.000
 4118.00    1.02067   1.01008   -1.000
 4119.00    1.00027   0.99658  561.120
 4120.00    0.99847   0.99440  554.475
 4121.00    1.00509   0.99960  552.032
 4122.00    1.00494   1.00636  549.318
 4123.00    1.01327   1.01393  541.244
 4124.00    1.03297   1.02296   -1.000
 4125.00    1.04327   1.02879   -1.000
 4126.00    1.03385   1.02520   -1.000
 4127.00    1.01490   1.01314  556.525
 4128.00    0.99885   0.99921  560.059
 4129.00    0.99378   0.98538   -1.000
 4130.00    0.98781   0.96687   -1.000
 4131.00    0.96451   0.94229   -1.000
 4132.00    0.93522   0.92148   -1.000
 4133.00    0.92182   0.92006  596.123
 4134.00    0.94113   0.94434  570.422
 4135.00    0.98230   0.98464  546.779
 4136.00    1.02008   1.02515   -1.000
 4137.00    1.04794   1.05539   -1.000
 4138.00    1.06323   1.07270   -1.000
 4139.00    1.06422   1.07561   -1.000
 4140.00    1.05870   1.05722  544.899
 4141.00    1.01976   1.01314  582.916
 4142.00    0.94868   0.95668   -1.000
 4143.00    0.89491   0.91630   -1.000
 4144.00    0.89690   0.91375   -1.000
 4145.00    0.95268   0.94522  565.611
 4146.00    1.00681   0.98490   -1.000
 4147.00    1.01916   1.00848   -1.000
 4148.00    1.00421   1.01101   -1.000
 4149.00    0.98306   1.00354   -1.000
 4150.00    0.96736   0.99727   -1.000
 4151.00    0.97198   0.99350   -1.000
 4152.00    0.97903   0.98765   -1.000
 4153.00    0.96077   0.97771   -1.000
 4154.00    0.99932   0.96782   -1.000
 4155.00    1.16561   0.96537   -1.000
 4156.00    1.14839   0.97475   -1.000
 4157.00    0.86111   0.99471   -1.000
 4158.00    0.81735   1.02079   -1.000
 4159.00    0.99820   1.04653   -1.000
 4160.00    1.05248   1.06682   -1.000
 4161.00    1.05073   1.08169   -1.000
 4162.00    1.06562   1.09223   -1.000
 4163.00    1.06890   1.09611   -1.000
 4164.00    1.05337   1.08925   -1.000
 4165.00    1.02467   1.07078   -1.000
 4166.00    0.99627   1.04812   -1.000
 4167.00    0.98068   1.03327   -1.000
 4168.00    0.99334   1.03026   -1.000
 4169.00    1.01186   1.02894   -1.000
 4170.00    1.00117   1.01368   -1.000
 4171.00    0.95651   0.98086   -1.000
 4172.00    0.90419   0.94574   -1.000
 4173.00    0.88786   0.92882   -1.000
 4174.00    0.91538   0.93663   -1.000
 4175.00    0.95036   0.95702   -1.000
 4176.00    0.96397   0.97465   -1.000
 4177.00    0.96150   0.98661   -1.000
 4178.00    0.96197   0.99820   -1.000
 4179.00    0.97169   1.00905   -1.000
 4180.00    0.98234   1.01277   -1.000
 4181.00    0.98418   1.00942   -1.000
 4182.00    0.98261   1.00968   -1.000
 4183.00    0.99562   1.02116   -1.000
 4184.00    1.01889   1.03537   -1.000
 4185.00    1.01740   1.03655   -1.000
 4186.00    0.99400   1.02153   -1.000
 4187.00    0.96843   1.00451   -1.000
 4188.00    0.96111   1.00114   -1.000
 4189.00    0.98691   1.01268   -1.000
 4190.00    1.00924   1.02976   -1.000
 4191.00    1.01343   1.04610   -1.000
 4192.00    1.03865   1.06008   -1.000
 4193.00    1.06627   1.06548  546.286
 4194.00    1.04487   1.05231   -1.000
 4195.00    0.99345   1.01978   -1.000
 4196.00    0.95443   0.98051   -1.000
 4197.00    0.93523   0.94902   -1.000
 4198.00    0.93001   0.93152  611.026
 4199.00    0.93929   0.92636   -1.000
 4200.00    0.95064   0.92946   -1.000
 4201.00    0.95420   0.93806   -1.000
 4202.00    0.95943   0.95266  587.470
 4203.00    0.97247   0.97572  580.785
 4204.00    0.98921   1.00653   -1.000
 4205.00    1.00930   1.03944   -1.000
 4206.00    1.02930   1.06781   -1.000
 4207.00    1.04642   1.08701   -1.000
 4208.00    1.05751   1.09473   -1.000
 4209.00    1.06076   1.09374   -1.000
 4210.00    1.06550   1.09161   -1.000
 4211.00    1.07013   1.09225   -1.000
 4212.00    1.06489   1.08859   -1.000
 4213.00    1.05335   1.06976   -1.000
 4214.00    1.01418   1.03854   -1.000
 4215.00    0.97198   1.01543   -1.000
 4216.00    0.97851   1.02113   -1.000
 4217.00    1.02858   1.05647   -1.000
 4218.00    1.08863   1.10219   -1.000
 4219.00    1.12536   1.13694   -1.000
 4220.00    1.14363   1.14839   -1.000
 4221.00    1.14293   1.13164   -1.000
 4222.00    1.10838   1.08541   -1.000
 4223.00    1.04536   1.01066   -1.000
 4224.00    0.95974   0.91733   -1.000
 4225.00    0.84793   0.83109   -1.000
 4226.00    0.76230   0.78589   -1.000
 4227.00    0.78213   0.80519   -1.000
 4228.00    0.89424   0.88253   -1.000
 4229.00    1.00799   0.97830   -1.000
 4230.00    1.06967   1.04839   -1.000
 4231.00    1.09826   1.07606   -1.000
 4232.00    1.09549   1.07029   -1.000
 4233.00    1.06510   1.04855   -1.000
 4234.00    1.04893   1.02601   -1.000
 4235.00    1.03213   1.01095   -1.000
 4236.00    1.01027   1.00607  570.839
 4237.00    1.01569   1.01222  561.237
 4238.00    1.03347   1.02917  550.688
 4239.00    1.04411   1.05281   -1.000
 4240.00    1.06072   1.07788   -1.000
 4241.00    1.07724   1.10166   -1.000
 4242.00    1.09005   1.12431   -1.000
 4243.00    1.10998   1.14654   -1.000
 4244.00    1.13405   1.16287   -1.000
 4245.00    1.12702   1.16105   -1.000
 4246.00    1.09625   1.13430   -1.000
 4247.00    1.06112   1.09024   -1.000
 4248.00    1.02854   1.04616   -1.000
 4249.00    1.00497   1.01836   -1.000
 4250.00    0.99468   1.01325   -1.000
 4251.00    1.02388   1.02400  549.903
 4252.00    1.05609   1.03468   -1.000
 4253.00    1.05581   1.03355   -1.000
 4254.00    1.02822   1.02789  557.757
 4255.00    1.02951   1.03591   -1.000
 4256.00    1.07392   1.05800   -1.000
 4257.00    1.09620   1.06977   -1.000
 4258.00    1.07366   1.05139   -1.000
 4259.00    1.02108   1.01429   -1.000
 4260.00    0.97647   0.99314   -1.000
 4261.00    0.98868   1.01323   -1.000
 4262.00    1.04785   1.06914   -1.000
 4263.00    1.11166   1.13223   -1.000
 4264.00    1.15249   1.17494   -1.000
 4265.00    1.16621   1.18826   -1.000
 4266.00    1.15675   1.17661   -1.000
 4267.00    1.12979   1.14470   -1.000
 4268.00    1.09730   1.09519  549.929
 4269.00    1.05766   1.03256   -1.000
 4270.00    0.99696   0.96706   -1.000
 4271.00    0.93478   0.91534   -1.000
 4272.00    0.91111   0.89172   -1.000
 4273.00    0.92508   0.89885   -1.000
 4274.00    0.94866   0.93105   -1.000
 4275.00    0.98117   0.98185  560.385
 4276.00    1.03903   1.04238  529.429
 4277.00    1.09691   1.09488  518.318
 4278.00    1.11828   1.11976  531.301
 4279.00    1.09020   1.11350   -1.000
 4280.00    1.04934   1.09368   -1.000
 4281.00    1.04209   1.08118   -1.000
 4282.00    1.05095   1.08061   -1.000
 4283.00    1.05952   1.08110   -1.000
 4284.00    1.05924   1.07310   -1.000
 4285.00    1.03313   1.05743   -1.000
 4286.00    1.00355   1.03799   -1.000
 4287.00    0.98365   1.01277   -1.000
 4288.00    0.95328   0.97877   -1.000
 4289.00    0.92221   0.94426   -1.000
 4290.00    0.90861   0.92978   -1.000
 4291.00    0.93270   0.94776   -1.000
 4292.00    0.99306   0.98456   -1.000
 4293.00    1.02897   1.01331   -1.000
 4294.00    1.02307   1.01926  578.706
 4295.00    1.00947   1.00453   -1.000
 4296.00    0.98930   0.97413   -1.000
 4297.00    0.94314   0.92872   -1.000
 4298.00    0.87578   0.87294  710.010
 4299.00    0.81806   0.82224  738.664
 4300.00    0.78593   0.79370   -1.000
 4301.00    0.78837   0.79111  712.782
 4302.00    0.80712   0.80368   -1.000
 4303.00    0.82718   0.81823   -1.000
 4304.00    0.84946   0.82613   -1.000
 4305.00    0.84987   0.82010   -1.000
 4306.00    0.82697   0.79661   -1.000
 4307.00    0.79024   0.76555   -1.000
 4308.00    0.76071   0.74750   -1.000
 4309.00    0.76230   0.75814   -1.000
 4310.00    0.80094   0.79780   -1.000
 4311.00    0.85367   0.85471  650.438
 4312.00    0.90055   0.91857   -1.000
 4313.00    0.94649   0.98908   -1.000
 4314.00    1.00445   1.06975   -1.000
 4315.00    1.09305   1.15689   -1.000
 4316.00    1.18897   1.23659   -1.000
 4317.00    1.25146   1.28932   -1.000
 4318.00    1.26526   1.30481   -1.000
 4319.00    1.25051   1.29054   -1.000
 4320.00    1.22691   1.25794   -1.000
 4321.00    1.18167   1.20816   -1.000
 4322.00    1.12133   1.13685   -1.000
 4323.00    1.05114   1.04966  596.171
 4324.00    0.97293   0.97264  634.079
 4325.00    0.92559   0.94261   -1.000
 4326.00    0.95114   0.97846   -1.000
 4327.00    1.05114   1.06405   -1.000
 4328.00    1.15550   1.15698  493.404
 4329.00    1.19890   1.21954   -1.000
 4330.00    1.19690   1.24543   -1.000
 4331.00    1.19839   1.25370   -1.000
 4332.00    1.21424   1.26263   -1.000
 4333.00    1.22842   1.27324   -1.000
 4334.00    1.23860   1.27202   -1.000
 4335.00    1.23401   1.24237   -1.000
 4336.00    1.18757   1.17518   -1.000
 4337.00    1.09639   1.07830   -1.000
 4338.00    0.99298   0.97904   -1.000
 4339.00    0.90720   0.91190   -1.000
 4340.00    0.87244   0.89831   -1.000
 4341.00    0.91213   0.93757   99.597
 4342.00    0.99811   1.00987   54.971
 4343.00    1.07956   1.08554   52.581
 4344.00    1.13526   1.14478   51.092
 4345.00    1.17086   1.18784   50.003
 4346.00    1.18898   1.22264   49.351
 4347.00    1.20634   1.25159   48.672
 4348.00    1.23515   1.26776   48.388
 4349.00    1.23859   1.25634   49.961
 4350.00    1.18178   1.21151   53.374
 4351.00    1.09482   1.15384   -1.000
 4352.00    1.05643   1.11907   -1.000
 4353.00    1.09187   1.12645   52.072
 4354.00    1.14198   1.16515   50.137
 4355.00    1.18338   1.20920   48.897
 4356.00    1.21935   1.23858   48.479
 4357.00    1.22729   1.24839   49.115
 4358.00    1.21381   1.24602   49.960
 4359.00    1.20057   1.24524   49.658
 4360.00    1.20808   1.25752   48.331
 4361.00    1.23628   1.28213   47.373
 4362.00    1.26112   1.30867   47.065
 4363.00    1.27454   1.32914   46.688
 4364.00    1.28137   1.34059   46.425
 4365.00    1.28269   1.33710   47.231
 4366.00    1.25554   1.31357   48.899
 4367.00    1.20660   1.27875   -1.000
 4368.00    1.18510   1.24996   -1.000
 4369.00    1.19763   1.23525   49.496
 4370.00    1.20293   1.22837   49.346
 4371.00    1.20348   1.21689   49.614
 4372.00    1.20347   1.19260   50.990
 4373.00    1.16713   1.15824   53.102
 4374.00    1.11432   1.12828   54.033
 4375.00    1.10035   1.12218   52.691
 4376.00    1.13558   1.14800   50.174
 4377.00    1.19021   1.19020   48.574
 4378.00    1.22726   1.22074   48.414
 4379.00    1.22745   1.21973   49.063
 4380.00    1.20660   1.17942   50.770
 4381.00    1.16630   1.10142   -1.000
 4382.00    1.06500   1.00439   -1.000
 4383.00    0.94816   0.92659   64.709
 4384.00    0.90995   0.90652   61.261
 4385.00    0.97250   0.95169   55.367
 4386.00    1.07462   1.02866   52.109
 4387.00    1.13537   1.09171   51.490
 4388.00    1.14601   1.12073   51.873
 4389.00    1.14040   1.12692   52.226
 4390.00    1.13869   1.13097   51.700
 4391.00    1.15005   1.14283   50.566
 4392.00    1.17491   1.15885   50.267
 4393.00    1.18968   1.17095   51.100
 4394.00    1.16859   1.18037   51.502
 4395.00    1.16620   1.19813   49.999
 4396.00    1.20887   1.22760   48.128
 4397.00    1.25394   1.25307   47.936
 4398.00    1.26112   1.25493   49.303
 4399.00    1.21938   1.23386   50.966
 4400.00    1.17803   1.20792   51.251
 4401.00    1.18214   1.18733   50.396
 4402.00    1.20248   1.16352   50.994
 4403.00    1.17599   1.12505   53.562
 4404.00    1.11006   1.08116   55.205
 4405.00    1.07545   1.05817   54.223
 4406.00    1.10057   1.06892   52.931
 4407.00    1.12293   1.10340   52.367
 4408.00    1.13162   1.14861   51.006
 4409.00    1.17367   1.20151   48.866
 4410.00    1.23839   1.25871   47.019
 4411.00    1.29179   1.30216   46.037
 4412.00    1.31242   1.30876   46.544
 4413.00    1.28930   1.27512   48.676
 4414.00    1.22262   1.22257   50.946
 4415.00    1.16196   1.18341   51.520
 4416.00    1.15422   1.18295   50.279
 4417.00    1.19271   1.22285   48.280
 4418.00    1.24220   1.27938   46.639
 4419.00    1.28251   1.32163   46.254
 4420.00    1.29318   1.33145   47.123
 4421.00    1.25946   1.31227   48.178
 4422.00    1.22360   1.28394   -1.000
 4423.00    1.21352   1.26642   48.086
 4424.00    1.22121   1.26507   48.094
 4425.00    1.22657   1.27130   48.315
 4426.00    1.21564   1.27680   -1.000
 4427.00    1.21679   1.28141   -1.000
 4428.00    1.23583   1.28489   48.148
 4429.00    1.23628   1.28433   48.470
 4430.00    1.22450   1.28040   48.194
 4431.00    1.23293   1.27544   47.712
 4432.00    1.24818   1.26593   48.466
 4433.00    1.22814   1.24435   50.588
 4434.00    1.17353   1.21576   51.994
 4435.00    1.14377   1.20461   -1.000
 4436.00    1.17455   1.23112   48.175
 4437.00    1.24711   1.28724   45.729
 4438.00    1.31534   1.34061   44.871
 4439.00    1.34055   1.36046   45.689
 4440.00    1.31712   1.33951   47.623
 4441.00    1.26191   1.29553   49.787
 4442.00    1.21062   1.25992   50.764
 4443.00    1.19692   1.25803   -1.000
 4444.00    1.22986   1.29213   47.581
 4445.00    1.28563   1.34032   46.202
 4446.00    1.31925   1.37687   45.878
 4447.00    1.32134   1.39270   -1.000
 4448.00    1.32070   1.39416   -1.000
 4449.00    1.31527   1.38991   -1.000
 4450.00    1.30532   1.38156   -1.000
 4451.00    1.30696   1.36540   46.786
 4452.00    1.29958   1.33626   47.939
 4453.00    1.26250   1.29182   50.020
 4454.00    1.20161   1.24105   51.615
 4455.00    1.16398   1.20323   51.505
 4456.00    1.17832   1.19035   50.549
 4457.00    1.20358   1.19529   50.191
 4458.00    1.20791   1.20242   50.385
 4459.00    1.20311   1.20382   50.808
 4460.00    1.19210   1.20420   51.305
 4461.00    1.18252   1.21342   50.896
 4462.00    1.19928   1.23724   49.250
 4463.00    1.24727   1.27187   47.737
 4464.00    1.28662   1.30447   47.251
 4465.00    1.29608   1.32289   47.272
 4466.00    1.28952   1.32479   47.601
 4467.00    1.28120   1.31636   48.382
 4468.00    1.26974   1.30662   48.957
 4469.00    1.25442   1.30477   48.657
 4470.00    1.25758   1.31901   47.443
 4471.00    1.29622   1.35079   45.835
 4472.00    1.34798   1.39079   44.446
 4473.00    1.37966   1.42575   43.734
 4474.00    1.39426   1.44910   43.651
 4475.00    1.39893   1.46354   43.474
 4476.00    1.41168   1.47370   43.151
 4477.00    1.43510   1.47434   43.277
 4478.00    1.42568   1.45323   44.390
 4479.00    1.37447   1.40790   46.298
 4480.00    1.31579   1.35548   47.959
 4481.00    1.27319   1.32425   48.179
 4482.00    1.27405   1.33275   46.692
 4483.00    1.32048   1.37592   44.799
 4484.00    1.38083   1.43115   43.545
 4485.00    1.42380   1.47252   43.216
 4486.00    1.43462   1.48256   43.845
 4487.00    1.41113   1.45901   45.276
 4488.00    1.36165   1.41765   46.639
 4489.00    1.31293   1.38401   -1.000
 4490.00    1.30926   1.37583   -1.000
 4491.00    1.35325   1.38868   44.809
 4492.00    1.38559   1.40131   44.917
 4493.00    1.37271   1.39603   46.047
 4494.00    1.33129   1.37633   47.241
 4495.00    1.29684   1.36275   -1.000
 4496.00    1.30189   1.37133   -1.000
 4497.00    1.34370   1.39934   44.666
 4498.00    1.38628   1.43016   43.891
 4499.00    1.39778   1.44971   44.033
 4500.00    1.38860   1.45715   -1.000
 4501.00    1.38406   1.46379   -1.000
 4502.00    1.40335   1.48198   -1.000
 4503.00    1.44697   1.51241   41.375
 4504.00    1.48555   1.54391   41.256
 4505.00    1.49058   1.56246   41.899
 4506.00    1.47409   1.56174   -1.000
 4507.00    1.45891   1.54924   -1.000
 4508.00    1.45010   1.53820   -1.000
 4509.00    1.46103   1.53481   -1.000
 4510.00    1.47196   1.53462   42.272
 4511.00    1.45785   1.52845   -1.000
 4512.00    1.43115   1.51141   -1.000
 4513.00    1.40414   1.48804   -1.000
 4514.00    1.38450   1.46787   -1.000
 4515.00    1.39031   1.45699   44.077
 4516.00    1.40250   1.45457   44.387
 4517.00    1.38984   1.45594   44.781
 4518.00    1.37768   1.45955   -1.000
 4519.00    1.39711   1.46847   -1.000
 4520.00    1.43325   1.48205   43.289
 4521.00    1.44812   1.49118   43.974
 4522.00    1.42252   1.48607   44.959
 4523.00    1.38469   1.46515   -1.000
 4524.00    1.36808   1.43413   -1.000
 4525.00    1.34821   1.39728   47.314
 4526.00    1.30738   1.35501   48.721
 4527.00    1.27288   1.31146   49.630
 4528.00    1.24920   1.27799   49.638
 4529.00    1.24289   1.26561   48.946
 4530.00    1.26869   1.27579   48.050
 4531.00    1.30159   1.29761   47.550
 4532.00    1.31109   1.31457   48.250
 4533.00    1.28459   1.31737   49.823
 4534.00    1.24382   1.31276   -1.000
 4535.00    1.23799   1.31918   -1.000
 4536.00    1.29226   1.35059   45.230
 4537.00    1.37924   1.40161   43.421
 4538.00    1.43476   1.44914   43.222
 4539.00    1.43656   1.47204   44.053
 4540.00    1.41612   1.46896   44.483
 4541.00    1.39659   1.45643   44.240
 4542.00    1.43669   1.45009   44.003
 4543.00    1.25896   1.45066   -1.000
 4544.00    0.48735   1.44906   -1.000
 4545.00   -0.02818   1.44049    0.000
 4546.00    0.18057   1.42818   -1.000
 4547.00    0.78469   1.41591   -1.000
 4548.00    0.65950   1.40352   -1.000
 4549.00    0.84092   1.39327   -1.000
 4550.00    1.32440   1.39183   -1.000
 4551.00    1.35848   1.40024   45.958
 4552.00    1.36611   1.40859   46.501
 4553.00    1.35842   1.40721   47.066
 4554.00    1.34463   1.40042   46.814
 4555.00    1.34963   1.40299   45.476
 4556.00    1.37947   1.42563   43.684
 4557.00    1.42718   1.46498   42.508
 4558.00    1.46645   1.50582   42.366
 4559.00    1.48015   1.53442   42.473
 4560.00    1.48459   1.54723   42.464
 4561.00    1.47889   1.54600   43.052
 4562.00    1.45980   1.53117   -1.000
 4563.00    1.41936   1.50457   -1.000
 4564.00    1.37788   1.47544   -1.000
 4565.00    1.37779   1.45952   -1.000
 4566.00    1.41619   1.46758   42.957
 4567.00    1.46292   1.49508   42.237
 4568.00    1.48356   1.52333   42.354
 4569.00    1.47711   1.53372   43.203
 4570.00    1.44039   1.52234   -1.000
 4571.00    1.39684   1.50195   -1.000
 4572.00    1.39376   1.49104   -1.000
 4573.00    1.43523   1.49936   42.720
 4574.00    1.47053   1.51958   42.504
 4575.00    1.46715   1.53571   42.646
 4576.00    1.46343   1.53842   -1.000
 4577.00    1.46772   1.52711   43.413
 4578.00    1.44560   1.50294   44.500
 4579.00    1.40315   1.46933   45.609
 4580.00    1.36975   1.43658   45.907
 4581.00    1.37038   1.41725   45.442
 4582.00    1.39082   1.41541   44.969
 4583.00    1.40406   1.42345   44.920
 4584.00    1.40346   1.43074   45.155
 4585.00    1.39118   1.43461   44.902
 4586.00    1.39146   1.44270   43.922
 4587.00    1.42224   1.46266   42.886
 4588.00    1.45519   1.49061   42.481
 4589.00    1.47087   1.51304   42.844
 4590.00    1.47090   1.51805   43.593
 4591.00    1.44381   1.50435   44.383
 4592.00    1.41171   1.48147   -1.000
 4593.00    1.40623   1.46171   44.496
 4594.00    1.41454   1.45139   44.124
 4595.00    1.42086   1.44926   43.914
 4596.00    1.42821   1.45230   43.817
 4597.00    1.43709   1.45883   43.722
 4598.00    1.44031   1.46639   43.909
 4599.00    1.42987   1.47089   44.315
 4600.00    1.41203   1.47059   44.551
 4601.00    1.40469   1.46823   44.312
 4602.00    1.41278   1.46754   43.810
 4603.00    1.42851   1.46924   43.652
 4604.00    1.44359   1.47240   43.653
 4605.00    1.44968   1.47915   43.335
 4606.00    1.45643   1.49483   42.622
 4607.00    1.47768   1.52212   41.726
 4608.00    1.51398   1.55598   41.070
 4609.00    1.54079   1.58412   40.992
 4610.00    1.53442   1.59455   41.420
 4611.00    1.51443   1.58594   41.935
 4612.00    1.49596   1.56929   42.283
 4613.00    1.48579   1.55729   42.264
 4614.00    1.49325   1.55565   41.942
 4615.00    1.50498   1.56207   41.687
 4616.00    1.50574   1.57020   41.791
 4617.00    1.50189   1.57494   42.101
 4618.00    1.49364   1.57565   -1.000
 4619.00    1.48619   1.57539   -1.000
 4620.00    1.49381   1.57807   -1.000
 4621.00    1.51403   1.58459   41.086
 4622.00    1.52752   1.59092   41.160
 4623.00    1.52917   1.59199   41.253
 4624.00    1.52590   1.58737   41.512
 4625.00    1.51772   1.58049   41.735
 4626.00    1.50894   1.57435   41.755
 4627.00    1.51179   1.57041   41.905
 4628.00    1.51191   1.56951   42.076
 4629.00    1.50005   1.57168   41.980
 4630.00    1.50717   1.57622   41.596
 4631.00    1.52762   1.58058   41.506
 4632.00    1.52671   1.57954   41.962
 4633.00    1.50285   1.56930   42.498
 4634.00    1.49101   1.55303   42.658
 4635.00    1.48773   1.53731   42.837
 4636.00    1.48035   1.52384   43.328
 4637.00    1.46282   1.51017   43.672
 4638.00    1.44556   1.49679   43.696
 4639.00    1.45579   1.48898   43.217
 4640.00    1.47551   1.49190   42.267
 4641.00    1.49558   1.50490   41.498
 4642.00    1.51516   1.51933   41.382
 4643.00    1.52151   1.52274   41.930
 4644.00    1.50854   1.50762   42.969
 4645.00    1.47536   1.47693   44.182
 4646.00    1.43514   1.44217   44.785
 4647.00    1.41174   1.41843   44.353
 4648.00    1.41704   1.41804   43.389
 4649.00    1.44230   1.44188   42.621
 4650.00    1.47756   1.47812   42.354
 4651.00    1.50265   1.51105   42.285
 4652.00    1.50240   1.52989   42.550
 4653.00    1.48859   1.53134   43.363
 4654.00    1.46960   1.51918   44.081
 4655.00    1.44770   1.50501   44.039
 4656.00    1.44150   1.50431   43.013
 4657.00    1.47022   1.52628   41.444
 4658.00    1.52144   1.56655   40.248
 4659.00    1.56952   1.60837   39.880
 4660.00    1.59298   1.63204   40.184
 4661.00    1.57395   1.62783   40.992
 4662.00    1.53282   1.60074   41.895
 4663.00    1.50693   1.56293   42.276
 4664.00    1.49830   1.52257   42.714
 4665.00    1.47815   1.47994   44.113
 4666.00    1.42160   1.43454   46.012
 4667.00    1.35743   1.39551   46.800
 4668.00    1.34091   1.37993   45.892
 4669.00    1.37975   1.39770   44.128
 4670.00    1.44722   1.44007   42.666
 4671.00    1.50221   1.48561   42.074
 4672.00    1.51475   1.51703   42.017
 4673.00    1.50630   1.53192   42.010
 4674.00    1.50660   1.53955   41.657
 4675.00    1.52084   1.54857   41.049
 4676.00    1.54054   1.55697   40.926
 4677.00    1.55001   1.55525   41.567
 4678.00    1.53116   1.53802   42.442
 4679.00    1.49664   1.51111   43.196
 4680.00    1.46469   1.48631   43.728
 4681.00    1.44525   1.47314   43.554
 4682.00    1.45556   1.47520   42.644
 4683.00    1.48013   1.48954   41.867
 4684.00    1.50922   1.50787   41.751
 4685.00    1.52645   1.52121   41.835
 4686.00    1.52657   1.52574   41.983
 4687.00    1.51743   1.52347   42.085
 4688.00    1.51700   1.51865   42.082
 4689.00    1.51973   1.51460   42.268
 4690.00    1.50427   1.51234   42.450
 4691.00    1.49604   1.51204   42.170
 4692.00    1.50556   1.51530   41.576
 4693.00    1.53145   1.52448   40.763
 4694.00    1.56157   1.53850   40.083
 4695.00    1.58367   1.55141   40.012
 4696.00    1.58692   1.55517   40.807
 4697.00    1.55601   1.54394   42.049
 4698.00    1.50665   1.51900   42.848
 4699.00    1.48336   1.48967   42.811
 4700.00    1.48412   1.46545   42.849
 4701.00    1.47724   1.44940   43.456
 4702.00    1.45614   1.44115   43.908
 4703.00    1.44115   1.44222   43.470
 4704.00    1.45905   1.45317   42.730
 4705.00    1.49245   1.46742   42.848
 4706.00    1.49063   1.47403   43.641
 4707.00    1.46328   1.46909   44.249
 4708.00    1.44506   1.46115   44.261
 4709.00    1.44065   1.46248   43.349
 4710.00    1.46131   1.47685   42.099
 4711.00    1.50894   1.49693   41.398
 4712.00    1.54204   1.51154   41.498
 4713.00    1.53403   1.51487   42.155
 4714.00    1.51359   1.51206   42.478
 4715.00    1.51114   1.51588   41.937
 4716.00    1.53250   1.53459   41.099
 4717.00    1.56275   1.56441   40.637
 4718.00    1.57956   1.59465   40.466
 4719.00    1.58383   1.61680   40.327
 4720.00    1.58579   1.62814   40.484
 4721.00    1.57591   1.63000   40.807
 4722.00    1.55744   1.62681   40.771
 4723.00    1.55397   1.62446   40.393
 4724.00    1.57302   1.62380   40.255
 4725.00    1.57605   1.61668   40.888
 4726.00    1.54923   1.59278   42.251
 4727.00    1.50988   1.55162   43.476
 4728.00    1.47266   1.50664   43.737
 4729.00    1.45968   1.47626   43.371
 4730.00    1.46925   1.46981   42.983
 4731.00    1.48412   1.48328   42.537
 4732.00    1.50156   1.50638   42.107
 4733.00    1.51871   1.52906   41.823
 4734.00    1.53331   1.54454   41.591
 4735.00    1.54168   1.55101   41.775
 4736.00    1.52852   1.55250   42.000
 4737.00    1.52248   1.55544   41.674
 4738.00    1.54032   1.56326   41.461
 4739.00    1.55357   1.57377   41.631
 4740.00    1.54136   1.58161   41.764
 4741.00    1.52679   1.58484   41.574
 4742.00    1.53507   1.58712   41.155
 4743.00    1.55428   1.59169   41.029
 4744.00    1.56644   1.59820   41.098
 4745.00    1.56853   1.60605   40.920
 4746.00    1.56823   1.61575   40.538
 4747.00    1.58092   1.62707   40.325
 4748.00    1.59049   1.63818   40.339
 4749.00    1.58890   1.64655   40.382
 4750.00    1.58549   1.64984   40.572
 4751.00    1.58198   1.64570   40.977
 4752.00    1.56823   1.63269   41.373
 4753.00    1.55183   1.61337   41.678
 4754.00    1.53681   1.59449   41.741
 4755.00    1.53266   1.58286   41.803
 4756.00    1.52833   1.58120   42.064
 4757.00    1.51936   1.58789   42.217
 4758.00    1.52333   1.59952   -1.000
 4759.00    1.53689   1.61098   41.819
 4760.00    1.54206   1.61457   42.198
 4761.00    1.52419   1.60324   -1.000
 4762.00    1.49005   1.57686   -1.000
 4763.00    1.46586   1.54403   -1.000
 4764.00    1.45929   1.51572   44.093
 4765.00    1.46053   1.49780   43.863
 4766.00    1.46821   1.49238   43.363
 4767.00    1.48553   1.50321   42.515
 4768.00    1.51261   1.53176   41.771
 4769.00    1.53824   1.56856   41.601
 4770.00    1.54636   1.59690   41.862
 4771.00    1.53687   1.60813   42.234
 4772.00    1.52843   1.60951   -1.000
 4773.00    1.53846   1.61533   -1.000
 4774.00    1.56413   1.63195   40.785
 4775.00    1.58502   1.65342   40.713
 4776.00    1.58430   1.67018   -1.000
 4777.00    1.57528   1.67803   -1.000
 4778.00    1.56775   1.67783   -1.000
 4779.00    1.55173   1.67094   -1.000
 4780.00    1.53615   1.65862   -1.000
 4781.00    1.53452   1.64272   -1.000
 4782.00    1.52984   1.62471   -1.000
 4783.00    1.52763   1.60665   -1.000
 4784.00    1.53131   1.59241   42.551
 4785.00    1.52151   1.58388   42.872
 4786.00    1.50843   1.57900   43.196
 4787.00    1.50164   1.57578   -1.000
 4788.00    1.49704   1.57477   -1.000
 4789.00    1.49380   1.57752   -1.000
 4790.00    1.50965   1.58587   -1.000
 4791.00    1.52554   1.60261   -1.000
 4792.00    1.54294   1.62976   -1.000
 4793.00    1.57416   1.66514   -1.000
 4794.00    1.60617   1.70125   -1.000
 4795.00    1.62406   1.72716   -1.000
 4796.00    1.61575   1.73308   -1.000
 4797.00    1.58550   1.71672   -1.000
 4798.00    1.55331   1.68660   -1.000
 4799.00    1.53745   1.65788   -1.000
 4800.00    1.54165   1.64451   -1.000
 4801.00    1.56700   1.65225   -1.000
 4802.00    1.59559   1.67429   40.537
 4803.00    1.60582   1.69393   -1.000
 4804.00    1.58712   1.69684   -1.000
 4805.00    1.56172   1.68210   -1.000
 4806.00    1.54795   1.66018   -1.000
 4807.00    1.54083   1.64236   -1.000
 4808.00    1.54385   1.63476   -1.000
 4809.00    1.55288   1.63877   -1.000
 4810.00    1.56303   1.65126   -1.000
 4811.00    1.58013   1.66540   -1.000
 4812.00    1.58962   1.67537   -1.000
 4813.00    1.58864   1.68088   -1.000
 4814.00    1.59498   1.68621   -1.000
 4815.00    1.60250   1.69544   -1.000
 4816.00    1.60659   1.70924   -1.000
 4817.00    1.62034   1.72510   -1.000
 4818.00    1.63437   1.73923   -1.000
 4819.00    1.63396   1.74808   -1.000
 4820.00    1.62827   1.74776   -1.000
 4821.00    1.61846   1.73392   -1.000
 4822.00    1.58833   1.70568   -1.000
 4823.00    1.54375   1.67086   -1.000
 4824.00    1.53216   1.64490   -1.000
 4825.00    1.56755   1.64025   40.835
 4826.00    1.59822   1.65399   40.703
 4827.00    1.60035   1.66977   41.085
 4828.00    1.58581   1.67479   -1.000
 4829.00    1.56840   1.66938   -1.000
 4830.00    1.56040   1.65929   -1.000
 4831.00    1.55285   1.64736   -1.000
 4832.00    1.55155   1.63692   -1.000
 4833.00    1.56428   1.63508   40.937
 4834.00    1.58514   1.64562   40.641
 4835.00    1.60202   1.66302   40.634
 4836.00    1.60403   1.67655   40.785
 4837.00    1.60245   1.67850   41.209
 4838.00    1.58464   1.66787   -1.000
 4839.00    1.55342   1.64922   -1.000
 4840.00    1.54038   1.63038   -1.000
 4841.00    1.55365   1.61846   41.964
 4842.00    1.56214   1.61555   41.687
 4843.00    1.56300   1.62029   41.307
 4844.00    1.57458   1.63229   40.743
 4845.00    1.60137   1.65058   40.365
 4846.00    1.61621   1.66784   40.804
 4847.00    1.60110   1.67332   41.521
 4848.00    1.57337   1.66496   -1.000
 4849.00    1.56356   1.65354   -1.000
 4850.00    1.57572   1.65032   41.074
 4851.00    1.58794   1.65425   41.194
 4852.00    1.58476   1.65390   41.509
 4853.00    1.57324   1.63834   42.414
 4854.00    1.53971   1.60566   43.666
 4855.00    1.49543   1.56564   44.071
 4856.00    1.48308   1.53288   43.726
 4857.00    1.49538   1.51122   44.286
 4858.00    1.47754   1.48419   47.115
 4859.00    1.38803   1.42857   52.153
 4860.00    1.24977   1.34419   -1.000
 4861.00    1.16350   1.26606   -1.000
 4862.00    1.18943   1.23823   50.421
 4863.00    1.29346   1.27498   46.864
 4864.00    1.39584   1.35226   44.819
 4865.00    1.45372   1.43449   43.651
 4866.00    1.49025   1.50030   43.066
 4867.00    1.52045   1.54419   42.813
 4868.00    1.52872   1.56592   42.977
 4869.00    1.51028   1.56358   43.882
 4870.00    1.47506   1.53725   45.041
 4871.00    1.43618   1.49837   45.215
 4872.00    1.42735   1.47135   44.229
 4873.00    1.46565   1.47701   43.259
 4874.00    1.50648   1.51255   42.777
 4875.00    1.51786   1.55564   42.514
 4876.00    1.52446   1.58874   42.339
 4877.00    1.53561   1.61184   41.901
 4878.00    1.55175   1.63314   -1.000
 4879.00    1.57236   1.65449   -1.000
 4880.00    1.56995   1.66865   -1.000
 4881.00    1.54878   1.66841   -1.000
 4882.00    1.53745   1.65593   -1.000
 4883.00    1.54046   1.63932   -1.000
 4884.00    1.54185   1.62131   -1.000
 4885.00    1.52054   1.59947   -1.000
 4886.00    1.50315   1.57658   43.376
 4887.00    1.50829   1.55998   43.243
 4888.00    1.51854   1.54977   43.620
 4889.00    1.50233   1.53670   44.483
 4890.00    1.46289   1.51673   44.680
 4891.00    1.45765   1.50387   43.415
 4892.00    1.50371   1.52177   41.468
 4893.00    1.57726   1.58027   39.975
 4894.00    1.64036   1.66256   39.074
 4895.00    1.67538   1.73693   38.686
 4896.00    1.68994   1.78154   -1.000
 4897.00    1.69143   1.79477   -1.000
 4898.00    1.67681   1.78593   -1.000
 4899.00    1.64167   1.76534   -1.000
 4900.00    1.61409   1.74217   -1.000
 4901.00    1.61473   1.72260   -1.000
 4902.00    1.61163   1.70749   -1.000
 4903.00    1.59867   1.69677   -1.000
 4904.00    1.59918   1.69552   -1.000
 4905.00    1.62595   1.70920   -1.000
 4906.00    1.65605   1.73067   39.889
 4907.00    1.65450   1.74021   -1.000
 4908.00    1.61876   1.72345   -1.000
 4909.00    1.57467   1.68541   -1.000
 4910.00    1.54673   1.64617   -1.000
 4911.00    1.54439   1.62640   -1.000
 4912.00    1.57172   1.63459   41.041
 4913.00    1.61417   1.66395   40.498
 4914.00    1.64544   1.69942   40.076
 4915.00    1.66112   1.72534   40.062
 4916.00    1.65312   1.72648   41.007
 4917.00    1.60770   1.68974   -1.000
 4918.00    1.53457   1.61501   -1.000
 4919.00    1.45840   1.52503   46.304
 4920.00    1.42170   1.45713   45.530
 4921.00    1.45265   1.43898   43.908
 4922.00    1.51057   1.46902   42.898
 4923.00    1.54515   1.52096   42.645
 4924.00    1.55838   1.56858   42.299
 4925.00    1.56806   1.60614   41.393
 4926.00    1.60241   1.64320   40.515
 4927.00    1.64070   1.68565   40.009
 4928.00    1.66432   1.72869   39.702
 4929.00    1.67984   1.76351   39.451
 4930.00    1.68903   1.78241   -1.000
 4931.00    1.68746   1.77938   -1.000
 4932.00    1.65191   1.75347   -1.000
 4933.00    1.60032   1.71418   -1.000
 4934.00    1.57431   1.67915   -1.000
 4935.00    1.59757   1.65953   41.650
 4936.00    1.61098   1.64778   42.409
 4937.00    1.57508   1.62710   43.636
 4938.00    1.53109   1.59585   43.853
 4939.00    1.52028   1.57583   42.745
 4940.00    1.54962   1.59039   41.323
 4941.00    1.61089   1.63919   40.350
 4942.00    1.65613   1.69884   39.846
 4943.00    1.67985   1.74438   39.731
 4944.00    1.68378   1.76575   39.925
 4945.00    1.66717   1.76801   -1.000
 4946.00    1.66454   1.76384   -1.000
 4947.00    1.67749   1.76535   -1.000
 4948.00    1.69150   1.77682   39.204
 4949.00    1.70154   1.79288   -1.000
 4950.00    1.71544   1.80500   -1.000
 4951.00    1.71779   1.80844   -1.000
 4952.00    1.70546   1.80261   -1.000
 4953.00    1.68354   1.78767   -1.000
 4954.00    1.67077   1.76050   -1.000
 4955.00    1.64085   1.71350   42.850
 4956.00    1.56367   1.64400   -1.000
 4957.00    1.48570   1.57078   -1.000
 4958.00    1.48722   1.53231   42.884
 4959.00    1.55805   1.55399   41.021
 4960.00    1.62597   1.62059   40.304
 4961.00    1.65853   1.69055   40.318
 4962.00    1.66096   1.73233   40.597
 4963.00    1.64972   1.74015   -1.000
 4964.00    1.62623   1.72286   -1.000
 4965.00    1.59338   1.69205   -1.000
 4966.00    1.56992   1.66042   -1.000
 4967.00    1.56778   1.63922   42.559
 4968.00    1.57766   1.63311   42.314
 4969.00    1.58332   1.64047   41.910
 4970.00    1.59465   1.65770   41.458
 4971.00    1.62055   1.68165   40.981
 4972.00    1.64052   1.70867   40.555
 4973.00    1.65064   1.73317   -1.000
 4974.00    1.65942   1.74902   -1.000
 4975.00    1.67043   1.75241   -1.000
 4976.00    1.65813   1.74272   -1.000
 4977.00    1.63215   1.72194   -1.000
 4978.00    1.60769   1.69432   -1.000
 4979.00    1.58519   1.66394   -1.000
 4980.00    1.56909   1.63011   44.218
 4981.00    1.52712   1.58763   45.677
 4982.00    1.46366   1.53711   -1.000
 4983.00    1.44015   1.49359   45.670
 4984.00    1.46324   1.47835   44.531
 4985.00    1.51550   1.50098   43.169
 4986.00    1.55841   1.55185   41.985
 4987.00    1.59907   1.60931   41.620
 4988.00    1.62582   1.65229   42.031
 4989.00    1.61966   1.67011   42.543
 4990.00    1.59996   1.66729   42.717
 4991.00    1.59280   1.65851   42.478
 4992.00    1.60608   1.65581   42.219
 4993.00    1.61315   1.66094   42.143
 4994.00    1.61191   1.66943   42.000
 4995.00    1.61570   1.67824   41.786
 4996.00    1.62074   1.68562   41.867
 4997.00    1.61858   1.68591   42.319
 4998.00    1.60245   1.67114   43.073
 4999.00    1.57487   1.64012   43.742
 5000.00    1.54988   1.60258   43.963
 5001.00    1.54045   1.57291   43.704
 5002.00    1.55011   1.55878   43.363
 5003.00    1.56304   1.55440   43.646
 5004.00    1.56078   1.54609   44.591
 5005.00    1.52501   1.52699   45.182
 5006.00    1.49469   1.50738   44.562
 5007.00    1.51878   1.50728   43.282
 5008.00    1.57250   1.53499   42.498
 5009.00    1.60625   1.57496   42.687
 5010.00    1.59757   1.60000   43.712
 5011.00    1.55883   1.59274   45.243
 5012.00    1.50414   1.55642   46.548
 5013.00    1.45940   1.51087   46.802
 5014.00    1.44893   1.47926   46.045
 5015.00    1.47028   1.47282   45.049
 5016.00    1.50502   1.48516   44.581
 5017.00    1.52223   1.50235   44.526
 5018.00    1.53066   1.51710   44.211
 5019.00    1.54807   1.53092   43.790
 5020.00    1.55972   1.54470   43.782
 5021.00    1.56461   1.55462   43.922
 5022.00    1.55725   1.56006   43.797
 5023.00    1.55931   1.56810   43.407
 5024.00    1.58247   1.58492   43.050
 5025.00    1.58736   1.60521   43.075
 5026.00    1.58251   1.61626   43.288
 5027.00    1.58113   1.61432   43.114
 5028.00    1.58611   1.61067   42.444
 5029.00    1.60281   1.61950   41.762
 5030.00    1.62758   1.64484   41.115
 5031.00    1.65045   1.67990   40.569
 5032.00    1.67688   1.71313   40.441
 5033.00    1.68836   1.73168   41.286
 5034.00    1.65881   1.72485   42.831
 5035.00    1.59166   1.69266   -1.000
 5036.00    1.54785   1.64948   -1.000
 5037.00    1.54748   1.61117   44.666
 5038.00    1.53568   1.57827   45.981
 5039.00    1.48816   1.53876   47.853
 5040.00    1.42834   1.49069   48.585
 5041.00    1.40379   1.45619   47.050
 5042.00    1.45387   1.46483   44.329
 5043.00    1.54069   1.52442   42.179
 5044.00    1.66211   1.61222   41.003
 5045.00    1.07278   1.69213   -1.000
 5046.00    0.28172   1.73729   -1.000
 5047.00   -0.00254   1.73932    0.000
 5048.00    0.52875   1.70629   -1.000
 5049.00    1.33891   1.65737   -1.000
 5050.00    1.58090   1.61524   43.296
 5051.00    1.57060   1.59555   42.993
 5052.00    1.60213   1.60202   41.938
 5053.00    1.63708   1.62965   41.065
 5054.00    1.67276   1.66769   40.549
 5055.00    1.69189   1.70310   40.330
 5056.00    1.69777   1.72817   40.334
 5057.00    1.70833   1.74402   40.412
 5058.00    1.71477   1.75616   40.429
 5059.00    1.70983   1.76913   40.244
 5060.00    1.70853   1.78310   40.156
 5061.00    1.71488   1.79257   40.514
 5062.00    1.71235   1.78737   41.472
 5063.00    1.67740   1.75902   -1.000
 5064.00    1.61646   1.71142   -1.000
 5065.00    1.57814   1.66292   -1.000
 5066.00    1.58758   1.63239   42.937
 5067.00    1.60978   1.62482   42.614
 5068.00    1.61295   1.63244   42.443
 5069.00    1.62980   1.64558   42.189
 5070.00    1.64265   1.65745   42.306
 5071.00    1.64129   1.66251   42.654
 5072.00    1.63219   1.65929   42.435
 5073.00    1.62885   1.65413   42.022
 5074.00    1.64182   1.65507   41.871
 5075.00    1.65234   1.66214   41.834
 5076.00    1.64990   1.66699   42.083
 5077.00    1.63716   1.65884   43.175
 5078.00    1.60828   1.63034   45.057
 5079.00    1.54470   1.58530   46.175
 5080.00    1.49859   1.54239   45.706
 5081.00    1.51503   1.52252   44.711
 5082.00    1.54982   1.53096   43.985
 5083.00    1.57004   1.55747   43.243
 5084.00    1.60177   1.59034   42.470
 5085.00    1.63821   1.62380   42.018
 5086.00    1.66530   1.65445   41.880
 5087.00    1.67418   1.67837   41.727
 5088.00    1.67335   1.69421   41.454
 5089.00    1.67762   1.70494   41.199
 5090.00    1.68322   1.71528   40.982
 5091.00    1.69676   1.72894   40.600
 5092.00    1.72327   1.74637   40.194
 5093.00    1.74170   1.76214   40.304
 5094.00    1.73460   1.76545   40.991
 5095.00    1.70725   1.74709   41.875
 5096.00    1.66873   1.70747   42.853
 5097.00    1.62655   1.65725   43.805
 5098.00    1.58860   1.61232   44.218
 5099.00    1.56952   1.58869   43.544
 5100.00    1.58849   1.59564   42.327
 5101.00    1.64011   1.62728   41.652
 5102.00    1.67171   1.66369   41.696
 5103.00    1.66056   1.68504   42.149
 5104.00    1.65121   1.68524   42.696
 5105.00    1.64356   1.67053   43.225
 5106.00    1.61849   1.64910   43.763
 5107.00    1.59409   1.62646   43.913
 5108.00    1.59041   1.60748   43.696
 5109.00    1.59561   1.59809   43.390
 5110.00    1.60134   1.60327   42.873
 5111.00    1.62351   1.62340   42.310
 5112.00    1.65273   1.65272   41.795
 5113.00    1.67361   1.68257   41.372
 5114.00    1.68578   1.70800   41.100
 5115.00    1.70433   1.72991   40.741
 5116.00    1.72331   1.75007   40.366
 5117.00    1.73772   1.76671   40.327
 5118.00    1.74143   1.77479   40.721
 5119.00    1.72465   1.76938   41.314
 5120.00    1.70132   1.74889   41.978
 5121.00    1.67329   1.71565   42.925
 5122.00    1.63065   1.67432   44.163
 5123.00    1.59221   1.63145   44.833
 5124.00    1.57231   1.59597   44.660
 5125.00    1.57545   1.57615   44.369
 5126.00    1.58846   1.57301   44.123
 5127.00    1.59388   1.57912   44.073
 5128.00    1.58891   1.58650   44.075
 5129.00    1.58398   1.59427   43.680
 5130.00    1.59852   1.60663   42.984
 5131.00    1.63110   1.62568   42.500
 5132.00    1.65440   1.64829   42.122
 5133.00    1.66008   1.66945   41.739
 5134.00    1.67745   1.68610   41.542
 5135.00    1.69981   1.69527   41.999
 5136.00    1.68718   1.69137   42.947
 5137.00    1.65176   1.67083   43.764
 5138.00    1.61967   1.64047   44.037
 5139.00    1.59860   1.61499   43.785
 5140.00    1.60371   1.60331   43.855
 5141.00    1.60899   1.60192   44.451
 5142.00    1.58872   1.60326   44.536
 5143.00    1.58487   1.60547   43.932
 5144.00    1.60883   1.60980   43.570
 5145.00    1.61573   1.61258   43.797
 5146.00    1.59775   1.60820   44.020
 5147.00    1.59303   1.59960   43.692
 5148.00    1.61495   1.59647   43.335
 5149.00    1.62911   1.60171   43.610
 5150.00    1.62033   1.60711   44.336
 5151.00    1.59958   1.60431   44.811
 5152.00    1.58427   1.59473   44.751
 5153.00    1.57782   1.58729   44.096
 5154.00    1.59269   1.59159   43.055
 5155.00    1.63186   1.61302   41.955
 5156.00    1.68738   1.64922   41.075
 5157.00    1.72996   1.68996   40.620
 5158.00    1.74858   1.72324   40.522
 5159.00    1.75446   1.74231   40.615
 5160.00    1.74993   1.74612   40.818
 5161.00    1.73477   1.73523   41.204
 5162.00    1.71376   1.70945   41.790
 5163.00    1.68616   1.66797   43.063
 5164.00    1.64130   1.60828   45.969
 5165.00    1.54371   1.52497   50.473
 5166.00    1.39457   1.42012   54.565
 5167.00    1.27742   1.31891   55.014
 5168.00    1.27522   1.26007   52.420
 5169.00    1.35266   1.25701   -1.000
 5170.00    1.39085   1.27738   -1.000
 5171.00    1.33238   1.27601   -1.000
 5172.00    1.23934   1.24836   56.182
 5173.00    1.23645   1.23753   51.147
 5174.00    1.36518   1.28550   -1.000
 5175.00    1.51967   1.38748   -1.000
 5176.00    1.61058   1.49835   -1.000
 5177.00    1.64434   1.57785   -1.000
 5178.00    1.65607   1.61552   43.241
 5179.00    1.65258   1.61641   44.396
 5180.00    1.61352   1.58028   47.060
 5181.00    1.51169   1.50178   51.847
 5182.00    1.35321   1.39026   56.668
 5183.00    1.22325   1.28512   -1.000
 5184.00    1.22665   1.24048   50.977
 5185.00    1.37139   1.28419   -1.000
 5186.00    1.53988   1.39235   -1.000
 5187.00    1.62920   1.51011   -1.000
 5188.00    1.65616   1.59487   -1.000
 5189.00    1.66617   1.63525   43.207
 5190.00    1.66195   1.63743   44.290
 5191.00    1.62031   1.61125   45.600
 5192.00    1.57147   1.57329   45.778
 5193.00    1.57218   1.54657   45.100
 5194.00    1.60010   1.54470   44.389
 5195.00    1.61798   1.56340   43.741
 5196.00    1.64015   1.59224   42.938
 5197.00    1.67009   1.62603   42.159
 5198.00    1.69906   1.66209   41.695
 5199.00    1.72473   1.69451   41.563
 5200.00    1.73382   1.71502   41.780
 5201.00    1.71157   1.71719   42.408
 5202.00    1.69499   1.69795   43.323
 5203.00    1.66800   1.65714   44.569
 5204.00    1.61220   1.59923   45.963
 5205.00    1.56524   1.53631   46.539
 5206.00    1.54733   1.48443   -1.000
 5207.00    1.54029   1.45422   -1.000
 5208.00    1.52354   1.44787   -1.000
 5209.00    1.53039   1.46538   -1.000
 5210.00    1.58078   1.50805   -1.000
 5211.00    1.65615   1.57225   -1.000
 5212.00    1.72989   1.64260   -1.000
 5213.00    1.77304   1.69609   -1.000
 5214.00    1.76702   1.71611   41.653
 5215.00    1.73121   1.70519   42.330
 5216.00    1.70391   1.68462   42.247
 5217.00    1.70447   1.67936   41.494
 5218.00    1.73344   1.70007   40.767
 5219.00    1.76966   1.73784   40.361
 5220.00    1.78826   1.77448   40.158
 5221.00    1.79238   1.79457   40.459
 5222.00    1.78538   1.78922   41.478
 5223.00    1.75007   1.75487   43.064
 5224.00    1.68518   1.69361   45.017
 5225.00    1.60788   1.61702   46.556
 5226.00    1.55169   1.54924   46.272
 5227.00    1.56441   1.52007   44.137
 5228.00    1.64450   1.54516   -1.000
 5229.00    1.72407   1.61025   -1.000
 5230.00    1.76419   1.67782   -1.000
 5231.00    1.77486   1.71392   -1.000
 5232.00    1.76001   1.71136   42.137
 5233.00    1.73230   1.68995   42.312
 5234.00    1.72232   1.67850   41.598
 5235.00    1.75070   1.69440   40.597
 5236.00    1.79047   1.73419   39.977
 5237.00    1.81369   1.78024   39.820
 5238.00    1.83430   1.81500   39.904
 5239.00    1.83362   1.83135   39.899
 5240.00    1.82554   1.83298   39.711
 5241.00    1.82555   1.82814   39.674
 5242.00    1.82501   1.82445   39.644
 5243.00    1.82412   1.82572   39.572
 5244.00    1.83185   1.82810   40.092
 5245.00    1.81687   1.82042   41.227
 5246.00    1.76876   1.79448   42.306
 5247.00    1.71665   1.75578   42.685
 5248.00    1.70951   1.71977   42.753
 5249.00    1.70946   1.69770   42.967
 5250.00    1.69842   1.69059   42.919
 5251.00    1.70569   1.69498   42.434
 5252.00    1.72631   1.70665   41.952
 5253.00    1.74799   1.71936   41.830
 5254.00    1.74604   1.72909   41.635
 5255.00    1.75249   1.74131   40.862
 5256.00    1.79105   1.76673   39.787
 5257.00    1.84300   1.80599   39.206
 5258.00    1.86856   1.84313   39.364
 5259.00    1.86088   1.85682   40.235
 5260.00    1.82223   1.83464   41.767
 5261.00    1.75940   1.77773   43.705
 5262.00    1.67795   1.69771   45.407
 5263.00    1.61145   1.61198   46.533
 5264.00    1.57920   1.53847   46.908
 5265.00    1.56734   1.49100   -1.000
 5266.00    1.58075   1.47322   -1.000
 5267.00    1.60680   1.47273   -1.000
 5268.00    1.59425   1.46765   -1.000
 5269.00    1.53865   1.44980   -1.000
 5270.00    1.52930   1.43970   -1.000
 5271.00    1.61569   1.46668   -1.000
 5272.00    1.70867   1.53216   -1.000
 5273.00    1.73698   1.60424   -1.000
 5274.00    1.73475   1.65407   -1.000
 5275.00    1.74174   1.68457   41.525
 5276.00    1.77306   1.71721   40.276
 5277.00    1.82866   1.76256   -1.000
 5278.00    1.86770   1.80842   39.268
 5279.00    1.87122   1.83236   40.015
 5280.00    1.84304   1.82265   41.052
 5281.00    1.80176   1.78671   41.905
 5282.00    1.76232   1.74439   42.278
 5283.00    1.74455   1.71814   41.735
 5284.00    1.76825   1.72512   40.564
 5285.00    1.83087   1.76789   -1.000
 5286.00    1.89637   1.82925   -1.000
 5287.00    1.92680   1.88290   38.773
 5288.00    1.91659   1.91399   38.843
 5289.00    1.91541   1.92665   38.678
 5290.00    1.92355   1.93183   38.546
 5291.00    1.92441   1.93384   38.681
 5292.00    1.92138   1.93022   39.012
 5293.00    1.90883   1.91833   39.488
 5294.00    1.89474   1.89598   40.394
 5295.00    1.85233   1.85832   41.821
 5296.00    1.78159   1.80339   43.109
 5297.00    1.71038   1.74320   43.263
 5298.00    1.69628   1.70185   42.380
 5299.00    1.74267   1.69619   41.487
 5300.00    1.78908   1.72074   -1.000
 5301.00    1.80714   1.75722   40.654
 5302.00    1.82935   1.79494   39.729
 5303.00    1.87592   1.83526   38.881
 5304.00    1.91781   1.87804   38.602
 5305.00    1.93348   1.91295   38.847
 5306.00    1.92491   1.92945   39.209
 5307.00    1.91120   1.93017   39.132
 5308.00    1.90643   1.92866   38.754
 5309.00    1.91986   1.93506   38.455
 5310.00    1.94225   1.94698   38.410
 5311.00    1.94979   1.95446   38.579
 5312.00    1.93854   1.95102   38.766
 5313.00    1.92311   1.93753   39.011
 5314.00    1.91683   1.91829   39.370
 5315.00    1.90456   1.89736   39.735
 5316.00    1.88884   1.87896   39.849
 5317.00    1.88347   1.86837   39.638
 5318.00    1.88725   1.86840   39.424
 5319.00    1.89827   1.87512   39.478
 5320.00    1.90367   1.87988   39.723
 5321.00    1.89608   1.87471   40.137
 5322.00    1.87580   1.85546   40.777
 5323.00    1.84513   1.82336   41.263
 5324.00    1.82250   1.78446   41.358
 5325.00    1.81130   1.74213   -1.000
 5326.00    1.77255   1.69118   -1.000
 5327.00    1.67982   1.62927   -1.000
 5328.00    1.60556   1.57553   45.439
 5329.00    1.63469   1.56414   -1.000
 5330.00    1.74189   1.61048   -1.000
 5331.00    1.83020   1.69109   -1.000
 5332.00    1.85469   1.76688   -1.000
 5333.00    1.86252   1.81901   39.678
 5334.00    1.88846   1.85329   39.417
 5335.00    1.90540   1.87873   39.551
 5336.00    1.90346   1.89361   39.817
 5337.00    1.89298   1.89052   40.200
 5338.00    1.87326   1.86594   41.049
 5339.00    1.83291   1.82465   41.882
 5340.00    1.79092   1.78195   41.848
 5341.00    1.78907   1.75942   40.918
 5342.00    1.83539   1.76888   -1.000
 5343.00    1.87829   1.79973   -1.000
 5344.00    1.88954   1.82833   -1.000
 5345.00    1.87936   1.83903   40.315
 5346.00    1.86713   1.83240   40.531
 5347.00    1.86302   1.81760   40.847
 5348.00    1.85308   1.80404   41.030
 5349.00    1.84792   1.80027   40.602
 5350.00    1.86698   1.81340   39.731
 5351.00    1.90104   1.84366   39.103
 5352.00    1.92899   1.88211   38.883
 5353.00    1.94175   1.91793   38.638
 5354.00    1.95652   1.94722   38.193
 5355.00    1.97762   1.97178   37.842
 5356.00    1.99173   1.99154   37.788
 5357.00    1.99694   2.00327   37.847
 5358.00    1.99508   2.00512   37.962
 5359.00    1.99087   1.99752   38.319
 5360.00    1.97387   1.98111   38.914
 5361.00    1.94625   1.95724   39.515
 5362.00    1.92523   1.92950   39.879
 5363.00    1.89917   1.90213   40.117
 5364.00    1.88088   1.87789   40.356
 5365.00    1.87337   1.85856   40.339
 5366.00    1.87994   1.84518   40.292
 5367.00    1.88453   1.83438   40.585
 5368.00    1.87264   1.81607   -1.000
 5369.00    1.83639   1.78107   -1.000
 5370.00    1.77856   1.73518   43.122
 5371.00    1.74397   1.70208   41.996
 5372.00    1.78962   1.70717   -1.000
 5373.00    1.87653   1.75553   -1.000
 5374.00    1.94362   1.82587   -1.000
 5375.00    1.97036   1.88730   -1.000
 5376.00    1.97795   1.92229   38.500
 5377.00    1.97518   1.93396   38.555
 5378.00    1.97128   1.93479   38.738
 5379.00    1.95825   1.93217   39.081
 5380.00    1.94406   1.92530   39.471
 5381.00    1.92811   1.91219   39.720
 5382.00    1.91945   1.89623   39.752
 5383.00    1.91259   1.88536   39.604
 5384.00    1.92070   1.88595   39.241
 5385.00    1.94661   1.89741   39.060
 5386.00    1.95723   1.91128   39.173
 5387.00    1.94384   1.91608   39.502
 5388.00    1.92016   1.90505   40.049
 5389.00    1.89500   1.88030   40.552
 5390.00    1.87749   1.85052   40.806
 5391.00    1.86170   1.82518   40.865
 5392.00    1.85884   1.80923   40.957
 5393.00    1.86525   1.80111   -1.000
 5394.00    1.86270   1.79379   -1.000
 5395.00    1.83763   1.77926   -1.000
 5396.00    1.79757   1.75665   42.739
 5397.00    1.78178   1.73738   41.804
 5398.00    1.81179   1.73779   -1.000
 5399.00    1.86728   1.76301   -1.000
 5400.00    1.90132   1.80012   -1.000
 5401.00    1.90845   1.82840   -1.000
 5402.00    1.90091   1.83215   -1.000
 5403.00    1.85846   1.80532   -1.000
 5404.00    1.78999   1.75427   43.507
 5405.00    1.74212   1.70068   43.330
 5406.00    1.75599   1.67165   -1.000
 5407.00    1.80515   1.67727   -1.000
 5408.00    1.83333   1.70223   -1.000
 5409.00    1.82285   1.72531   -1.000
 5410.00    1.81369   1.74294   -1.000
 5411.00    1.84745   1.76743   -1.000
 5412.00    1.89507   1.80468   -1.000
 5413.00    1.92351   1.84440   -1.000
 5414.00    1.91993   1.87423   39.619
 5415.00    1.92760   1.89414   39.407
 5416.00    1.95137   1.91162   39.135
 5417.00    1.96339   1.92806   39.185
 5418.00    1.96099   1.93672   39.523
 5419.00    1.93729   1.93301   39.809
 5420.00    1.92244   1.92093   39.753
 5421.00    1.93240   1.90776   39.583
 5422.00    1.93622   1.89621   39.941
 5423.00    1.91676   1.88532   40.382
 5424.00    1.89770   1.87880   40.162
 5425.00    1.90967   1.88486   39.528
 5426.00    1.95099   1.90256   39.429
 5427.00    1.96074   1.91362   40.275
 5428.00    1.91154   1.89744   41.549
 5429.00    1.84501   1.85590   41.973
 5430.00    1.82797   1.81472   41.406
 5431.00    1.85801   1.79577   -1.000
 5432.00    1.87423   1.79509   -1.000
 5433.00    1.85184   1.79340   -1.000
 5434.00    1.82704   1.78295   42.157
 5435.00    1.83012   1.77667   41.483
 5436.00    1.85769   1.79230   -1.000
 5437.00    1.90215   1.83434   -1.000
 5438.00    1.95418   1.89106   -1.000
 5439.00    1.98864   1.94471   38.486
 5440.00    2.00689   1.98317   38.357
 5441.00    2.02524   2.00390   38.345
 5442.00    2.02248   2.00847   38.641
 5443.00    1.99693   1.99497   39.515
 5444.00    1.95418   1.95810   41.009
 5445.00    1.87944   1.89900   42.478
 5446.00    1.81025   1.83468   42.618
 5447.00    1.79679   1.79311   41.475
 5448.00    1.84437   1.79358   40.243
 5449.00    1.90469   1.83011   -1.000
 5450.00    1.93508   1.87592   39.590
 5451.00    1.94660   1.90456   39.849
 5452.00    1.94434   1.90477   40.629
 5453.00    1.91344   1.87803   41.758
 5454.00    1.84960   1.83406   42.752
 5455.00    1.80299   1.79240   42.535
 5456.00    1.81859   1.77785   41.239
 5457.00    1.88917   1.80282   -1.000
 5458.00    1.94717   1.85311   -1.000
 5459.00    1.95656   1.89708   -1.000
 5460.00    1.93683   1.91121   40.565
 5461.00    1.91401   1.89478   41.180
 5462.00    1.87967   1.86473   41.488
 5463.00    1.86420   1.84183   41.158
 5464.00    1.89102   1.83839   40.649
 5465.00    1.92301   1.85315   -1.000
 5466.00    1.93732   1.87572   -1.000
 5467.00    1.94659   1.89560   39.761
 5468.00    1.95481   1.90717   40.001
 5469.00    1.94432   1.90893   40.424
 5470.00    1.92949   1.90199   40.641
 5471.00    1.92652   1.88968   40.825
 5472.00    1.91617   1.87515   41.191
 5473.00    1.89315   1.85780   41.740
 5474.00    1.87636   1.83356   42.560
 5475.00    1.84409   1.80127   43.300
 5476.00    1.79869   1.76983   43.177
 5477.00    1.79774   1.75600   42.062
 5478.00    1.85426   1.76905   -1.000
 5479.00    1.90541   1.79763   -1.000
 5480.00    1.90464   1.81926   -1.000
 5481.00    1.87012   1.82435   41.724
 5482.00    1.85561   1.82552   41.143
 5483.00    1.88657   1.84073   40.314
 5484.00    1.93234   1.87128   -1.000
 5485.00    1.95227   1.90029   40.046
 5486.00    1.93863   1.91042   40.595
 5487.00    1.90958   1.89999   40.927
 5488.00    1.88659   1.88278   40.984
 5489.00    1.89425   1.87453   40.765
 5490.00    1.92354   1.88001   40.462
 5491.00    1.93808   1.89199   40.276
 5492.00    1.93829   1.90107   40.308
 5493.00    1.94260   1.90401   40.349
 5494.00    1.94785   1.90298   40.345
 5495.00    1.95385   1.89998   40.563
 5496.00    1.94055   1.89508   40.861
 5497.00    1.92351   1.89030   40.770
 5498.00    1.92318   1.89001   40.354
 5499.00    1.94871   1.89388   40.469
 5500.00    1.94982   1.89378   -1.000
 5501.00    1.92050   1.88285   41.294
 5502.00    1.91250   1.86534   41.039
 5503.00    1.91951   1.85176   -1.000
 5504.00    1.92126   1.84530   -1.000
 5505.00    1.90567   1.84020   -1.000
 5506.00    1.87684   1.83384   41.559
 5507.00    1.88279   1.83280   40.938
 5508.00    1.92213   1.84322   -1.000
 5509.00    1.94422   1.85905   -1.000
 5510.00    1.92522   1.86520   -1.000
 5511.00    1.89488   1.85263   42.216
 5512.00    1.86452   1.82733   42.669
 5513.00    1.85015   1.80480   42.377
 5514.00    1.86338   1.79779   -1.000
 5515.00    1.88265   1.80928   -1.000
 5516.00    1.91282   1.83481   -1.000
 5517.00    1.95594   1.86822   -1.000
 5518.00    1.99051   1.90345   -1.000
 5519.00    2.00983   1.93352   -1.000
 5520.00    2.01060   1.95227   -1.000
 5521.00    2.00375   1.95885   39.580
 5522.00    1.99428   1.95808   39.668
 5523.00    1.98601   1.95417   39.861
 5524.00    1.98115   1.94523   40.332
 5525.00    1.96315   1.92505   41.176
 5526.00    1.92076   1.89067   42.226
 5527.00    1.87045   1.84942   42.685
 5528.00    1.85028   1.81898   42.025
 5529.00    1.87568   1.81626   -1.000
 5530.00    1.92148   1.84225   -1.000
 5531.00    1.95249   1.87942   -1.000
 5532.00    1.96028   1.90656   -1.000
 5533.00    1.95382   1.91476   40.775
 5534.00    1.93998   1.90941   40.715
 5535.00    1.93833   1.90115   40.418
 5536.00    1.94776   1.89791   40.256
 5537.00    1.97144   1.90251   -1.000
 5538.00    1.98747   1.91379   -1.000
 5539.00    1.99561   1.92916   -1.000
 5540.00    2.01306   1.94508   -1.000
 5541.00    2.01850   1.95589   -1.000
 5542.00    1.99751   1.95638   40.098
 5543.00    1.98014   1.94740   40.277
 5544.00    1.97484   1.93619   40.209
 5545.00    1.97595   1.93040   40.107
 5546.00    1.97510   1.93339   39.895
 5547.00    1.98779   1.94506   39.529
 5548.00    2.01429   1.96317   39.179
 5549.00    2.03193   1.98246   39.032
 5550.00    2.03490   1.99578   39.173
 5551.00    2.03553   1.99810   39.491
 5552.00    2.02626   1.98898   39.923
 5553.00    2.00278   1.97271   40.185
 5554.00    1.98264   1.95668   40.179
 5555.00    1.98103   1.94717   40.061
 5556.00    1.99275   1.94520   39.977
 5557.00    1.99363   1.94719   39.925
 5558.00    1.99474   1.94964   39.880
 5559.00    2.00850   1.95101   -1.000
 5560.00    2.00545   1.94941   -1.000
 5561.00    1.99074   1.94232   40.478
 5562.00    1.97489   1.93015   40.800
 5563.00    1.96024   1.91723   40.953
 5564.00    1.95245   1.90736   41.040
 5565.00    1.94830   1.90040   41.092
 5566.00    1.94376   1.89440   41.035
 5567.00    1.94936   1.88911   -1.000
 5568.00    1.95992   1.88622   -1.000
 5569.00    1.95897   1.88679   -1.000
 5570.00    1.96283   1.88945   -1.000
 5571.00    1.96394   1.89110   -1.000
 5572.00    1.93784   1.89001   41.011
 5573.00    1.89649   1.88915   40.626
 5574.00    1.75538   1.89434   -1.000
 5575.00    1.40736   1.90709   -1.000
 5576.00    1.11956   1.92196   -1.000
 5577.00    1.25694   1.93371   -1.000
 5578.00    1.71609   1.94262   -1.000
 5579.00    2.05829   1.95005   -1.000
 5580.00    2.04458   1.95450   -1.000
 5581.00    2.01162   1.95382   -1.000
 5582.00    2.00253   1.94809   -1.000
 5583.00    1.99301   1.93780   -1.000
 5584.00    1.98841   1.91991   -1.000
 5585.00    1.95947   1.88861   -1.000
 5586.00    1.90261   1.84323   -1.000
 5587.00    1.84951   1.79456   -1.000
 5588.00    1.83233   1.76026   -1.000
 5589.00    1.83965   1.75235   -1.000
 5590.00    1.87224   1.76900   -1.000
 5591.00    1.90157   1.79754   -1.000
 5592.00    1.90723   1.82441   -1.000
 5593.00    1.90483   1.84427   -1.000
 5594.00    1.91990   1.86128   -1.000
 5595.00    1.94450   1.88058   -1.000
 5596.00    1.96926   1.89866   -1.000
 5597.00    1.96107   1.90459   -1.000
 5598.00    1.91604   1.89181   42.318
 5599.00    1.89749   1.86561   42.394
 5600.00    1.89452   1.83780   -1.000
 5601.00    1.88466   1.81797   -1.000
 5602.00    1.87075   1.81303   -1.000
 5603.00    1.89160   1.82951   -1.000
 5604.00    1.94158   1.86839   -1.000
 5605.00    2.00073   1.91953   -1.000
 5606.00    2.03957   1.96642   -1.000
 5607.00    2.04244   1.99744   39.506
 5608.00    2.03804   2.01159   39.586
 5609.00    2.04491   2.01568   39.575
 5610.00    2.03808   2.01734   39.466
 5611.00    2.03161   2.01812   39.579
 5612.00    2.03989   2.01017   40.259
 5613.00    2.01511   1.98150   41.551
 5614.00    1.94826   1.92962   42.651
 5615.00    1.89304   1.87117   42.597
 5616.00    1.88682   1.83339   -1.000
 5617.00    1.92027   1.83158   -1.000
 5618.00    1.95623   1.85684   -1.000
 5619.00    1.97119   1.88821   -1.000
 5620.00    1.97975   1.91265   -1.000
 5621.00    2.00033   1.92717   -1.000
 5622.00    2.00461   1.92868   -1.000
 5623.00    1.96595   1.91357   -1.000
 5624.00    1.91749   1.88761   42.044
 5625.00    1.90851   1.86742   41.422
 5626.00    1.94267   1.86795   -1.000
 5627.00    1.97901   1.89004   -1.000
 5628.00    1.99428   1.92261   -1.000
 5629.00    2.00926   1.95358   -1.000
 5630.00    2.02835   1.97597   39.664
 5631.00    2.02867   1.98705   39.658
 5632.00    2.02723   1.98674   39.915
 5633.00    2.01446   1.97712   40.217
 5634.00    2.01260   1.96130   40.476
 5635.00    2.00354   1.94255   -1.000
 5636.00    1.98268   1.92460   -1.000
 5637.00    1.96440   1.91152   -1.000
 5638.00    1.96628   1.90543   -1.000
 5639.00    1.97480   1.90434   -1.000
 5640.00    1.97272   1.90341   -1.000
 5641.00    1.95728   1.90037   -1.000
 5642.00    1.96156   1.89836   -1.000
 5643.00    1.97027   1.90181   -1.000
 5644.00    1.97818   1.91087   -1.000
 5645.00    1.98919   1.92211   -1.000
 5646.00    1.99290   1.93200   -1.000
 5647.00    2.00421   1.93813   -1.000
 5648.00    1.99972   1.93966   -1.000
 5649.00    1.99461   1.93877   -1.000
 5650.00    2.00480   1.94007   -1.000
 5651.00    2.01393   1.94596   -1.000
 5652.00    2.02240   1.95260   -1.000
 5653.00    2.03030   1.95293   -1.000
 5654.00    2.01213   1.94384   -1.000
 5655.00    1.97629   1.92717   -1.000
 5656.00    1.95660   1.90412   -1.000
 5657.00    1.91789   1.87466   43.430
 5658.00    1.87111   1.84470   43.074
 5659.00    1.87977   1.82715   -1.000
 5660.00    1.92291   1.82979   -1.000
 5661.00    1.93985   1.84613   -1.000
 5662.00    1.93249   1.86463   -1.000
 5663.00    1.94749   1.88212   -1.000
 5664.00    1.98015   1.90109   -1.000
 5665.00    1.99287   1.91905   -1.000
 5666.00    1.99083   1.92897   -1.000
 5667.00    1.97803   1.92846   41.172
 5668.00    1.96272   1.92344   41.094
 5669.00    1.96828   1.92219   40.858
 5670.00    1.98210   1.92909   -1.000
 5671.00    1.99947   1.94407   -1.000
 5672.00    2.02293   1.96407   -1.000
 5673.00    2.03888   1.98364   -1.000
 5674.00    2.04405   1.99728   39.771
 5675.00    2.04553   2.00339   39.704
 5676.00    2.04618   2.00473   39.619
 5677.00    2.05373   2.00414   39.767
 5678.00    2.04994   2.00093   39.947
 5679.00    2.03706   1.99232   40.165
 5680.00    2.02630   1.97683   40.589
 5681.00    2.00496   1.95565   -1.000
 5682.00    1.97532   1.93334   41.255
 5683.00    1.96535   1.91737   41.073
 5684.00    1.97288   1.91255   -1.000
 5685.00    1.97644   1.91523   -1.000
 5686.00    1.97130   1.91679   -1.000
 5687.00    1.96036   1.91377   41.641
 5688.00    1.95380   1.91172   41.289
 5689.00    1.96788   1.91881   40.568
 5690.00    1.99064   1.93753   -1.000
 5691.00    2.02477   1.96259   -1.000
 5692.00    2.04872   1.98544   -1.000
 5693.00    2.05307   1.99988   -1.000
 5694.00    2.04541   2.00476   39.790
 5695.00    2.04250   2.00245   39.886
 5696.00    2.03956   1.99515   40.225
 5697.00    2.01946   1.98314   40.688
 5698.00    1.98905   1.96640   41.072
 5699.00    1.97716   1.94651   41.494
 5700.00    1.97067   1.92685   41.741
 5701.00    1.95530   1.91209   41.524
 5702.00    1.94693   1.90678   41.099
 5703.00    1.95629   1.91113   40.929
 5704.00    1.97146   1.91804   -1.000
 5705.00    1.97088   1.91695   -1.000
 5706.00    1.95044   1.90212   -1.000
 5707.00    1.92177   1.87665   43.114
 5708.00    1.89227   1.84907   43.447
 5709.00    1.86731   1.82801   43.404
 5710.00    1.86651   1.81977   43.017
 5711.00    1.88836   1.82792   -1.000
 5712.00    1.92386   1.85263   -1.000
 5713.00    1.97690   1.88925   -1.000
 5714.00    2.01470   1.92849   -1.000
 5715.00    2.02363   1.96101   -1.000
 5716.00    2.02939   1.98292   40.037
 5717.00    2.03633   1.99653   39.853
 5718.00    2.04020   2.00673   39.605
 5719.00    2.05165   2.01762   39.404
 5720.00    2.07101   2.03069   39.294
 5721.00    2.08484   2.04468   39.229
 5722.00    2.09648   2.05686   39.180
 5723.00    2.09170   2.06411   39.246
 5724.00    2.08394   2.06324   39.535
 5725.00    2.07055   2.05263   39.945
 5726.00    2.04467   2.03541   40.286
 5727.00    2.02118   2.01987   40.172
 5728.00    2.02753   2.01326   39.919
 5729.00    2.05201   2.01458   39.960
 5730.00    2.05148   2.01650   40.157
 5731.00    2.03877   2.01526   40.079
 5732.00    2.04844   2.01544   39.723
 5733.00    2.06438   2.02312   39.438
 5734.00    2.07187   2.03669   39.422
 5735.00    2.07363   2.04782   39.475
 5736.00    2.06550   2.05042   39.580
 5737.00    2.06438   2.04609   39.629
 5738.00    2.06855   2.04073   39.702
 5739.00    2.06126   2.03815   39.768
 5740.00    2.05954   2.03761   39.852
 5741.00    2.05998   2.03672   39.794
 5742.00    2.05344   2.03570   39.740
 5743.00    2.05308   2.03771   39.498
 5744.00    2.06099   2.04432   39.261
 5745.00    2.07094   2.05143   39.396
 5746.00    2.06880   2.05178   39.768
 5747.00    2.05567   2.04354   39.972
 5748.00    2.05312   2.03387   39.803
 5749.00    2.06130   2.03073   39.649
 5750.00    2.06429   2.03206   39.881
 5751.00    2.05966   2.02686   40.348
 5752.00    2.03462   2.00849   40.773
 5753.00    2.00004   1.98472   40.843
 5754.00    1.99399   1.97268   40.408
 5755.00    2.02539   1.98357   39.687
 5756.00    2.06929   2.01254   -1.000
 5757.00    2.10638   2.04286   -1.000
 5758.00    2.10912   2.05823   -1.000
 5759.00    2.08478   2.05186   40.084
 5760.00    2.05310   2.02769   40.630
 5761.00    2.01865   1.99745   40.902
 5762.00    1.99732   1.97645   40.575
 5763.00    2.00698   1.97689   39.886
 5764.00    2.04552   2.00012   39.348
 5765.00    2.08435   2.03480   39.163
 5766.00    2.10269   2.06557   39.117
 5767.00    2.09611   2.08352   39.057
 5768.00    2.09624   2.08873   39.107
 5769.00    2.09647   2.08556   39.232
 5770.00    2.07478   2.07798   39.435
 5771.00    2.06387   2.06807   39.678
 5772.00    2.06794   2.05708   39.806
 5773.00    2.05631   2.04702   39.860
 5774.00    2.04887   2.04069   39.801
 5775.00    2.04552   2.04013   39.620
 5776.00    2.03419   2.04405   39.548
 5777.00    2.02741   2.04616   39.646
 5778.00    2.00663   2.03753   40.140
 5779.00    1.96644   2.01253   41.000
 5780.00    1.93615   1.97437   41.622
 5781.00    1.92723   1.93470   41.656
 5782.00    1.94699   1.90632   41.494
 5783.00    1.96332   1.89395   -1.000
 5784.00    1.96013   1.89391   -1.000
 5785.00    1.96848   1.90262   -1.000
 5786.00    1.99620   1.92090   -1.000
 5787.00    2.02021   1.94812   -1.000
 5788.00    2.04866   1.97690   -1.000
 5789.00    2.06194   1.99729   -1.000
 5790.00    2.04619   2.00576   40.037
 5791.00    2.03974   2.00851   39.752
 5792.00    2.05101   2.01574   39.462
 5793.00    2.05768   2.03215   39.220
 5794.00    2.06628   2.05264   39.152
 5795.00    2.08205   2.06678   39.341
 5796.00    2.07943   2.06796   39.597
 5797.00    2.05524   2.06000   39.495
 5798.00    2.05939   2.05511   39.040
 5799.00    2.09512   2.06355   38.502
 5800.00    2.12438   2.08399   38.326
 5801.00    2.14262   2.10440   38.579
 5802.00    2.13944   2.11237   38.894
 5803.00    2.12007   2.10405   39.208
 5804.00    2.09430   2.08565   39.412
 5805.00    2.08661   2.06793   39.370
 5806.00    2.09065   2.05896   39.226
 5807.00    2.08714   2.05996   39.102
 5808.00    2.09192   2.06719   39.078
 5809.00    2.10546   2.07646   39.051
 5810.00    2.11643   2.08494   38.923
 5811.00    2.12551   2.09026   38.799
 5812.00    2.12521   2.08984   38.840
 5813.00    2.11396   2.08185   39.122
 5814.00    2.10190   2.06702   39.337
 5815.00    2.08852   2.05055   39.205
 5816.00    2.08338   2.04162   38.939
 5817.00    2.09705   2.04754   38.715
 5818.00    2.11519   2.06698   38.521
 5819.00    2.12890   2.08990   38.381
 5820.00    2.13950   2.10555   38.408
 5821.00    2.13963   2.10996   38.535
 5822.00    2.13276   2.10658   38.507
 5823.00    2.12873   2.10172   38.442
 5824.00    2.12975   2.09957   38.374
 5825.00    2.13470   2.10086   38.330
 5826.00    2.13413   2.10413   38.333
 5827.00    2.13943   2.10799   38.399
 5828.00    2.14074   2.11187   38.353
 5829.00    2.14316   2.11525   38.343
 5830.00    2.14399   2.11707   38.305
 5831.00    2.14556   2.11619   38.355
 5832.00    2.14451   2.11202   38.583
 5833.00    2.14391   2.10501   38.687
 5834.00    2.13718   2.09708   38.589
 5835.00    2.14267   2.09127   -1.000
 5836.00    2.13922   2.08926   -1.000
 5837.00    2.12827   2.09011   38.688
 5838.00    2.13129   2.09282   38.603
 5839.00    2.14140   2.09833   38.342
 5840.00    2.13992   2.10770   38.123
 5841.00    2.14499   2.11870   38.095
 5842.00    2.15222   2.12630   38.205
 5843.00    2.15685   2.12632   38.352
 5844.00    2.13571   2.11791   38.590
 5845.00    2.11846   2.10317   38.798
 5846.00    2.10896   2.08614   38.988
 5847.00    2.10734   2.07158   38.989
 5848.00    2.10028   2.06282   39.026
 5849.00    2.09548   2.05886   39.223
 5850.00    2.09783   2.05441   39.469
 5851.00    2.09270   2.04450   -1.000
 5852.00    2.07039   2.02940   40.066
 5853.00    2.05468   2.01412   40.152
 5854.00    2.05741   2.00215   -1.000
 5855.00    2.05862   1.99035   -1.000
 5856.00    2.03226   1.97335   -1.000
 5857.00    2.00050   1.95319   40.774
 5858.00    1.99962   1.94119   -1.000
 5859.00    2.02643   1.94711   -1.000
 5860.00    2.06070   1.96838   -1.000
 5861.00    2.07768   1.99303   -1.000
 5862.00    2.07358   2.01096   -1.000
 5863.00    2.07702   2.02030   -1.000
 5864.00    2.08319   2.02342   -1.000
 5865.00    2.07354   2.02179   -1.000
 5866.00    2.06386   2.01747   39.928
 5867.00    2.07162   2.01614   -1.000
 5868.00    2.08904   2.02341   -1.000
 5869.00    2.10541   2.03854   -1.000
 5870.00    2.12071   2.05439   -1.000
 5871.00    2.11965   2.06368   -1.000
 5872.00    2.10944   2.06467   39.138
 5873.00    2.10871   2.06102   39.087
 5874.00    2.10448   2.05713   39.170
 5875.00    2.10312   2.05373   39.334
 5876.00    2.09729   2.04809   39.413
 5877.00    2.08379   2.03757   39.674
 5878.00    2.08358   2.02260   -1.000
 5879.00    2.08083   2.00676   -1.000
 5880.00    2.06020   1.99457   -1.000
 5881.00    2.06576   1.98840   -1.000
 5882.00    2.06844   1.98615   -1.000
 5883.00    2.06092   1.98342   -1.000
 5884.00    2.04053   1.97704   -1.000
 5885.00    1.99097   1.96251   40.630
 5886.00    1.87636   1.92833   41.921
 5887.00    1.64530   1.85839   -1.000
 5888.00    1.35547   1.74830   -1.000
 5889.00    1.18996   1.62212   -1.000
 5890.00    1.28223   1.52741   -1.000
 5891.00    1.51534   1.50146   45.788
 5892.00    1.65355   1.53716   -1.000
 5893.00    1.61352   1.58938   45.022
 5894.00    1.45604   1.61432   -1.000
 5895.00    1.37293   1.60622   -1.000
 5896.00    1.47426   1.59826   -1.000
 5897.00    1.68524   1.62531   -1.000
 5898.00    1.85551   1.69202   -1.000
 5899.00    1.94598   1.77594   -1.000
 5900.00    1.99608   1.85236   -1.000
 5901.00    2.03172   1.90969   -1.000
 5902.00    2.05522   1.94756   -1.000
 5903.00    2.06524   1.96963   -1.000
 5904.00    2.05775   1.98028   -1.000
 5905.00    2.05104   1.98453   -1.000
 5906.00    2.04719   1.98769   -1.000
 5907.00    2.05004   1.99319   -1.000
 5908.00    2.06588   2.00132   -1.000
 5909.00    2.07369   2.01028   -1.000
 5910.00    2.07004   2.01718   -1.000
 5911.00    2.06363   2.01825   40.391
 5912.00    2.05038   2.00976   40.910
 5913.00    2.01863   1.99138   41.277
 5914.00    2.00065   1.96968   41.252
 5915.00    2.00550   1.95494   41.026
 5916.00    2.01142   1.95392   -1.000
 5917.00    2.02879   1.96612   -1.000
 5918.00    2.04522   1.98513   -1.000
 5919.00    2.04564   2.00301   40.445
 5920.00    2.05499   2.01423   40.431
 5921.00    2.05741   2.01759   40.471
 5922.00    2.04434   2.01643   40.339
 5923.00    2.04379   2.01627   40.201
 5924.00    2.06276   2.02062   40.122
 5925.00    2.07512   2.02811   40.086
 5926.00    2.07733   2.03321   40.146
 5927.00    2.08073   2.03023   -1.000
 5928.00    2.06587   2.01862   40.727
 5929.00    2.04600   2.00448   40.745
 5930.00    2.04647   1.99681   40.390
 5931.00    2.05382   1.99932   -1.000
 5932.00    2.06382   2.00690   -1.000
 5933.00    2.07339   2.01158   -1.000
 5934.00    2.06415   2.01147   -1.000
 5935.00    2.05516   2.01255   40.567
 5936.00    2.06625   2.02008   40.228
 5937.00    2.07911   2.03185   40.046
 5938.00    2.08166   2.04061   40.151
 5939.00    2.07212   2.04050   40.534
 5940.00    2.05209   2.03131   40.794
 5941.00    2.03739   2.01878   40.799
 5942.00    2.03320   2.01110   40.585
 5943.00    2.05253   2.01312   40.342
 5944.00    2.07599   2.02297   -1.000
 5945.00    2.08344   2.03339   -1.000
 5946.00    2.07784   2.03673   40.578
 5947.00    2.07122   2.03016   41.005
 5948.00    2.05282   2.01824   41.149
 5949.00    2.04221   2.00922   40.976
 5950.00    2.04793   2.00680   40.808
 5951.00    2.05963   2.00768   -1.000
 5952.00    2.05623   2.00705   -1.000
 5953.00    2.05086   2.00498   40.796
 5954.00    2.04970   2.00431   40.792
 5955.00    2.05102   2.00436   40.939
 5956.00    2.05396   2.00266   -1.000
 5957.00    2.04350   2.00077   40.888
 5958.00    2.04707   2.00410   40.456
 5959.00    2.07651   2.01606   -1.000
 5960.00    2.09746   2.03388   -1.000
 5961.00    2.11683   2.05062   -1.000
 5962.00    2.11802   2.06064   -1.000
 5963.00    2.11278   2.06207   -1.000
 5964.00    2.10110   2.05671   40.236
 5965.00    2.08806   2.04915   40.378
 5966.00    2.07489   2.04505   40.320
 5967.00    2.07409   2.04751   40.037
 5968.00    2.09726   2.05551   39.905
 5969.00    2.11931   2.06586   -1.000
 5970.00    2.12551   2.07538   -1.000
 5971.00    2.12654   2.08167   39.760
 5972.00    2.11251   2.08281   39.940
 5973.00    2.11146   2.07710   40.250
 5974.00    2.09754   2.06358   40.561
 5975.00    2.07250   2.04406   40.853
 5976.00    2.05839   2.02421   41.052
 5977.00    2.05563   2.01117   40.918
 5978.00    2.06208   2.00981   -1.000
 5979.00    2.07599   2.01907   -1.000
 5980.00    2.09313   2.03165   -1.000
 5981.00    2.09643   2.03710   -1.000
 5982.00    2.08352   2.02889   -1.000
 5983.00    2.06230   2.00991   -1.000
 5984.00    2.04445   1.99191   -1.000
 5985.00    2.04670   1.98642   -1.000
 5986.00    2.06498   1.99539   -1.000
 5987.00    2.08300   2.01221   -1.000
 5988.00    2.09336   2.02901   -1.000
 5989.00    2.09823   2.04128   -1.000
 5990.00    2.10017   2.04866   -1.000
 5991.00    2.10382   2.05404   -1.000
 5992.00    2.11381   2.06147   -1.000
 5993.00    2.12655   2.07192   -1.000
 5994.00    2.13218   2.08037   -1.000
 5995.00    2.12441   2.07972   -1.000
 5996.00    2.11192   2.06819   40.438
 5997.00    2.09355   2.05177   40.533
 5998.00    2.08576   2.03996   -1.000
 5999.00    2.10033   2.03720   -1.000
 6000.00    2.10869   2.04034   -1.000
 6001.00    2.10140   2.04296   -1.000
 6002.00    2.07930   2.04169   40.876
 6003.00    2.07292   2.03873   40.774
 6004.00    2.07883   2.03608   40.780
 6005.00    2.07675   2.03075   -1.000
 6006.00    2.06479   2.01911   -1.000
 6007.00    2.04771   2.00399   41.504
 6008.00    2.03889   1.99576   41.083
 6009.00    2.05290   2.00194   -1.000
 6010.00    2.07508   2.01758   -1.000
 6011.00    2.08468   2.03010   -1.000
 6012.00    2.08795   2.03154   -1.000
 6013.00    2.07719   2.02486   -1.000
 6014.00    2.07289   2.01801   -1.000
 6015.00    2.07670   2.01454   -1.000
 6016.00    2.07307   2.01318   -1.000
 6017.00    2.08146   2.01199   -1.000
 6018.00    2.08278   2.00916   -1.000
 6019.00    2.07054   2.00378   -1.000
 6020.00    2.06551   1.99788   -1.000
 6021.00    2.06240   1.99545   -1.000
 6022.00    2.06950   1.99961   -1.000
 6023.00    2.07934   2.01017   -1.000
 6024.00    2.09360   2.02477   -1.000
 6025.00    2.10362   2.04078   -1.000
 6026.00    2.11191   2.05604   -1.000
 6027.00    2.11931   2.06988   -1.000
 6028.00    2.13449   2.08252   -1.000
 6029.00    2.14542   2.09360   -1.000
 6030.00    2.14396   2.10260   40.129
 6031.00    2.14220   2.11006   40.081
 6032.00    2.14489   2.11778   39.912
 6033.00    2.15644   2.12775   39.799
 6034.00    2.16002   2.13883   39.772
 6035.00    2.15706   2.14675   39.707
 6036.00    2.15212   2.14803   39.732
 6037.00    2.15217   2.14208   39.938
 6038.00    2.13647   2.13159   40.043
 6039.00    2.13727   2.12046   40.160
 6040.00    2.13000   2.11285   40.105
 6041.00    2.13168   2.11152   40.042
 6042.00    2.14333   2.11678   39.858
 6043.00    2.15700   2.12609   39.551
 6044.00    2.16844   2.13533   39.525
 6045.00    2.16350   2.14226   39.545
 6046.00    2.16634   2.14673   39.488
 6047.00    2.16882   2.14975   39.511
 6048.00    2.17099   2.15201   39.639
 6049.00    2.17024   2.15328   39.737
 6050.00    2.15974   2.15236   39.779
 6051.00    2.16118   2.14747   39.848
 6052.00    2.15931   2.13754   40.001
 6053.00    2.14973   2.12359   40.131
 6054.00    2.14186   2.10820   40.340
 6055.00    2.13030   2.09490   40.479
 6056.00    2.12432   2.08761   40.434
 6057.00    2.13074   2.08855   -1.000
 6058.00    2.14183   2.09667   -1.000
 6059.00    2.15023   2.10728   -1.000
 6060.00    2.14506   2.11420   40.128
 6061.00    2.11434   2.11262   40.637
 6062.00    2.15376   2.10102   -1.000
 6063.00    1.69213   2.08226   -1.000
 6064.00    0.98962   2.06372   -1.000
 6065.00    1.33726   2.05573   -1.000
 6066.00    1.98092   2.06495   26.449
 6067.00    2.10022   2.08856   41.658
 6068.00    2.21626   2.11642   -1.000
 6069.00    1.54321   2.13924   -1.000
 6070.00    0.83399   2.15382   -1.000
 6071.00    1.85835   2.16167   -1.000
 6072.00    2.19941   2.16501   39.641
 6073.00    2.17809   2.16471   39.696
 6074.00    2.18035   2.16040   39.814
 6075.00    2.17385   2.15118   40.014
 6076.00    2.16644   2.13691   40.241
 6077.00    2.14534   2.11929   40.544
 6078.00    2.12332   2.10190   40.803
 6079.00    2.11441   2.08787   40.856
 6080.00    2.11064   2.07776   40.886
 6081.00    2.10400   2.07049   40.994
 6082.00    2.10398   2.06606   41.010
 6083.00    2.11151   2.06491   -1.000
 6084.00    2.11717   2.06705   -1.000
 6085.00    2.11199   2.07198   -1.000
 6086.00    2.12009   2.07825   -1.000
 6087.00    2.12916   2.08317   -1.000
 6088.00    2.12870   2.08352   -1.000
 6089.00    2.10727   2.07797   41.132
 6090.00    2.08377   2.06959   41.137
 6091.00    2.08711   2.06402   40.902
 6092.00    2.09920   2.06571   40.685
 6093.00    2.12053   2.07523   -1.000
 6094.00    2.13572   2.08895   -1.000
 6095.00    2.14638   2.10171   -1.000
 6096.00    2.14594   2.11043   40.358
 6097.00    2.14187   2.11558   40.396
 6098.00    2.14272   2.11699   40.400
 6099.00    2.14306   2.11017   40.814
 6100.00    2.12338   2.08922   41.755
 6101.00    2.08299   2.05453   42.490
 6102.00    2.03610   2.01970   42.317
 6103.00    2.03850   2.00305   41.558
 6104.00    2.08153   2.01247   -1.000
 6105.00    2.11931   2.03954   -1.000
 6106.00    2.13068   2.06904   -1.000
 6107.00    2.12312   2.09127   40.930
 6108.00    2.11666   2.10548   40.928
 6109.00    2.12305   2.11395   40.847
 6110.00    2.14330   2.11828   40.679
 6111.00    2.13360   2.12092   40.644
 6112.00    2.13219   2.12454   40.461
 6113.00    2.15500   2.12996   40.342
 6114.00    2.16591   2.13432   40.465
 6115.00    2.14979   2.13412   40.723
 6116.00    2.13289   2.12896   40.812
 6117.00    2.12781   2.11953   40.985
 6118.00    2.11643   2.10450   41.528
 6119.00    2.09142   2.08109   42.085
 6120.00    2.06830   2.05012   42.505
 6121.00    2.04611   2.02031   42.590
 6122.00    2.03572   2.00460   41.994
 6123.00    2.05478   2.00966   -1.000
 6124.00    2.09169   2.02959   -1.000
 6125.00    2.11638   2.05161   -1.000
 6126.00    2.10448   2.06646   -1.000
 6127.00    2.08936   2.07367   41.453
 6128.00    2.09553   2.08001   41.149
 6129.00    2.11347   2.09136   40.762
 6130.00    2.12743   2.10758   40.634
 6131.00    2.13233   2.12238   40.696
 6132.00    2.12870   2.12651   41.041
 6133.00    2.11720   2.11107   41.901
 6134.00    2.09448   2.07261   43.116
 6135.00    2.03184   2.01835   44.235
 6136.00    1.96542   1.96829   44.501
 6137.00    1.95503   1.94510   43.538
 6138.00    1.99994   1.95755   -1.000
 6139.00    2.06626   1.99322   -1.000
 6140.00    2.09452   2.03045   -1.000
 6141.00    2.09097   2.05737   41.820
 6142.00    2.09035   2.07649   41.464
 6143.00    2.10006   2.09439   40.967
 6144.00    2.12420   2.11131   40.844
 6145.00    2.13481   2.12184   41.007
 6146.00    2.12330   2.12152   41.263
 6147.00    2.11196   2.11112   41.558
 6148.00    2.10388   2.09591   41.810
 6149.00    2.08715   2.08208   41.845
 6150.00    2.07107   2.07478   41.708
 6151.00    2.06798   2.07476   41.432
 6152.00    2.08635   2.07788   41.346
 6153.00    2.09744   2.07788   41.648
 6154.00    2.08752   2.07195   41.889
 6155.00    2.07800   2.06255   41.940
 6156.00    2.07012   2.05255   42.092
 6157.00    2.06690   2.04065   42.507
 6158.00    2.04531   2.01974   43.276
 6159.00    2.00701   1.98200   44.532
 6160.00    1.95435   1.92774   45.845
 6161.00    1.89224   1.87048   46.407
 6162.00    1.85757   1.83158   45.853
 6163.00    1.86679   1.82524   44.640
 6164.00    1.91708   1.84933   -1.000
 6165.00    1.96369   1.88732   -1.000
 6166.00    1.98089   1.91949   -1.000
 6167.00    1.97941   1.93276   -1.000
 6168.00    1.95029   1.92752   44.706
 6169.00    1.92130   1.91717   44.476
 6170.00    1.92364   1.91764   43.665
 6171.00    1.96364   1.93468   43.016
 6172.00    1.99637   1.96123   42.979
 6173.00    2.01629   1.98603   43.026
 6174.00    2.02308   2.00233   42.936
 6175.00    2.01402   2.01067   42.849
 6176.00    2.00658   2.01579   42.738
 6177.00    2.01906   2.02182   42.537
 6178.00    2.02705   2.02985   42.374
 6179.00    2.03984   2.03901   42.238
 6180.00    2.05339   2.04862   42.049
 6181.00    2.05368   2.05772   41.930
 6182.00    2.06187   2.06400   41.992
 6183.00    2.05887   2.06449   42.136
 6184.00    2.04525   2.05692   42.451
 6185.00    2.02883   2.04188   42.905
 6186.00    2.01635   2.02238   43.354
 6187.00    1.99707   2.00195   43.770
 6188.00    1.98052   1.98172   44.098
 6189.00    1.96252   1.96062   44.645
 6190.00    1.94757   1.94079   44.973
 6191.00    1.92848   1.93027   44.560
 6192.00    1.93796   1.93687   43.507
 6193.00    1.97449   1.96022   42.744
 6194.00    2.01031   1.99116   42.437
 6195.00    2.03830   2.01824   42.357
 6196.00    2.03534   2.03363   42.596
 6197.00    2.02529   2.03548   43.074
 6198.00    2.00835   2.02723   43.446
 6199.00    1.98468   2.01752   43.449
 6200.00    1.97099   2.01561   43.047
 6201.00    1.98017   2.02470   42.511
 6202.00    2.00450   2.04114   42.342
 6203.00    2.02785   2.05777   42.340
 6204.00    2.04188   2.07011   42.278
 6205.00    2.05203   2.07774   42.266
 6206.00    2.05820   2.08212   42.414
 6207.00    2.05906   2.08393   42.432
 6208.00    2.05720   2.08196   42.594
 6209.00    2.04220   2.07419   42.967
 6210.00    2.03154   2.05885   43.312
 6211.00    2.01432   2.03475   43.726
 6212.00    1.98711   2.00352   44.370
 6213.00    1.95367   1.97077   44.848
 6214.00    1.92821   1.94483   44.999
 6215.00    1.93219   1.93191   44.483
 6216.00    1.94171   1.93160   44.215
 6217.00    1.95594   1.93706   44.499
 6218.00    1.96238   1.94051   44.400
 6219.00    1.95395   1.94054   44.078
 6220.00    1.96465   1.94127   44.282
 6221.00    1.75256   1.94664   -1.000
 6222.00    1.80619   1.95604   -1.000
 6223.00    1.97339   1.96578   44.130
 6224.00    2.00415   1.97326   43.795
 6225.00    1.99424   1.97769   43.843
 6226.00    1.99349   1.97752   44.062
 6227.00    1.98244   1.96919   44.629
 6228.00    1.95942   1.94936   45.363
 6229.00    1.92828   1.92077   45.964
 6230.00    1.90379   1.89417   45.857
 6231.00    1.89478   1.88255   45.236
 6232.00    1.92353   1.89305   44.395
 6233.00    1.95952   1.92220   43.657
 6234.00    1.98474   1.95754   43.398
 6235.00    1.99860   1.98454   43.641
 6236.00    1.99511   1.99451   44.074
 6237.00    1.98697   1.98731   44.524
 6238.00    1.96991   1.96973   44.997
 6239.00    1.94838   1.95022   45.218
 6240.00    1.93231   1.93402   45.220
 6241.00    1.92565   1.92156   45.508
 6242.00    1.91630   1.91089   45.819
 6243.00    1.89886   1.90185   45.828
 6244.00    1.89740   1.89697   45.560
 6245.00    1.91679   1.89999   45.123
 6246.00    1.94177   1.91351   44.559
 6247.00    1.96121   1.93538   44.081
 6248.00    1.97158   1.95832   43.988
 6249.00    1.98396   1.97277   44.350
 6250.00    1.97401   1.97155   45.131
 6251.00    1.94580   1.95479   45.729
 6252.00    1.91911   1.93009   46.066
 6253.00    1.89575   1.90697   46.213
 6254.00    1.89567   1.89044   46.209
 6255.00    1.89377   1.87929   46.575
 6256.00    1.87652   1.87045   47.000
 6257.00    1.86509   1.86529   46.874
 6258.00    1.87291   1.86879   46.216
 6259.00    1.89815   1.88525   45.514
 6260.00    1.93248   1.91334   44.890
 6261.00    1.96576   1.94627   44.204
 6262.00    1.98401   1.97524   43.925
 6263.00    1.98509   1.99355   44.214
 6264.00    1.97962   2.00041   44.524
 6265.00    1.97117   2.00077   44.384
 6266.00    1.96842   2.00062   44.066
 6267.00    1.97554   2.00190   44.162
 6268.00    1.97411   2.00324   44.387
 6269.00    1.96987   2.00386   44.364
 6270.00    1.96395   2.00533   44.217
 6271.00    1.97080   2.00919   44.106
 6272.00    1.98167   2.01379   44.196
 6273.00    1.98001   2.01456   44.496
 6274.00    1.95269   2.00784   44.855
 6275.00    1.91979   1.99357   45.531
 6276.00    1.89897   1.97466   46.641
 6277.00    1.87324   1.95491   47.536
 6278.00    1.85760   1.93741   47.899
 6279.00    1.85361   1.92513   47.767
 6280.00    1.84137   1.92168   47.076
 6281.00    1.82982   1.92991   -1.000
 6282.00    1.84331   1.94906   -1.000
 6283.00    1.87359   1.97434   -1.000
 6284.00    1.89685   1.99950   -1.000
 6285.00    1.92896   2.02067   44.183
 6286.00    1.95836   2.03719   43.862
 6287.00    1.97990   2.04896   43.749
 6288.00    1.99063   2.05424   43.946
 6289.00    1.99880   2.05110   44.308
 6290.00    1.99515   2.04050   44.646
 6291.00    1.98707   2.02705   44.763
 6292.00    1.97420   2.01565   44.812
 6293.00    1.96274   2.00807   44.888
 6294.00    1.95832   2.00154   45.204
 6295.00    1.94753   1.99205   45.513
 6296.00    1.93523   1.97949   45.610
 6297.00    1.92170   1.96792   45.555
 6298.00    1.91981   1.96093   45.377
 6299.00    1.92685   1.95767   45.174
 6300.00    1.93501   1.95485   45.483
 6301.00    1.93637   1.95263   45.998
 6302.00    1.93507   1.95489   45.731
 6303.00    1.94686   1.96520   45.032
 6304.00    1.95315   1.98291   44.455
 6305.00    1.96643   2.00428   44.057
 6306.00    1.98102   2.02538   43.662
 6307.00    1.99991   2.04276   43.548
 6308.00    2.00974   2.05306   43.713
 6309.00    1.99756   2.05458   44.002
 6310.00    1.98501   2.04867   44.189
 6311.00    1.97382   2.03863   44.367
 6312.00    1.96815   2.02739   44.427
 6313.00    1.95512   2.01489   44.789
 6314.00    1.94063   2.00086   44.989
 6315.00    1.92644   1.98632   44.978
 6316.00    1.92171   1.97314   44.934
 6317.00    1.92011   1.96434   44.983
 6318.00    1.92228   1.96409   44.849
 6319.00    1.93577   1.97448   44.350
 6320.00    1.95592   1.99287   43.896
 6321.00    1.97838   2.01403   43.696
 6322.00    1.98772   2.03356   43.551
 6323.00    1.99474   2.05036   43.326
 6324.00    2.00805   2.06434   43.176
 6325.00    2.02355   2.07479   43.140
 6326.00    2.01486   2.08121   42.949
 6327.00    2.00896   2.08435   42.954
 6328.00    2.01032   2.08587   42.990
 6329.00    2.01570   2.08703   43.020
 6330.00    2.01778   2.08908   42.887
 6331.00    2.02446   2.09142   42.801
 6332.00    2.02290   2.09004   42.895
 6333.00    1.99813   2.07994   43.007
 6334.00    1.98253   2.05968   43.897
 6335.00    1.96390   2.03572   44.136
 6336.00    1.96220   2.01889   43.808
 6337.00    1.97289   2.01621   43.366
 6338.00    1.99049   2.02717   42.891
 6339.00    1.99785   2.04506   42.647
 6340.00    2.02203   2.06074   42.442
 6341.00    2.02358   2.06742   42.443
 6342.00    2.01000   2.06377   42.787
 6343.00    1.99429   2.05462   42.897
 6344.00    1.98881   2.04880   42.796
 6345.00    1.98902   2.05212   42.576
 6346.00    2.00831   2.06477   42.284
 6347.00    2.01712   2.08269   42.104
 6348.00    2.02772   2.10036   42.094
 6349.00    2.02983   2.11406   42.017
 6350.00    2.02911   2.12163   42.037
 6351.00    2.02952   2.12169   42.202
 6352.00    2.02051   2.11366   42.397
 6353.00    2.00601   2.09883   42.848
 6354.00    1.98736   2.08108   43.240
 6355.00    1.96778   2.06432   43.304
 6356.00    1.97107   2.04913   43.410
 6357.00    1.96365   2.03346   43.861
 6358.00    1.94384   2.01614   44.097
 6359.00    1.93087   1.99855   43.962
 6360.00    1.92187   1.98358   43.810
 6361.00    1.92721   1.97417   43.757
 6362.00    1.93341   1.97273   43.622
 6363.00    1.93575   1.98071   43.349
 6364.00    1.95969   1.99762   43.069
 6365.00    1.96178   2.02059   42.833
 6366.00    1.96656   2.04556   42.566
 6367.00    1.98252   2.06835   42.283
 6368.00    1.99465   2.08568   42.150
 6369.00    2.00424   2.09710   42.165
 6370.00    1.98764   2.10499   -1.000
 6371.00    1.99711   2.11287   -1.000
 6372.00    2.00492   2.12197   -1.000
 6373.00    1.99594   2.13018   -1.000
 6374.00    1.98726   2.13493   -1.000
 6375.00    1.99272   2.13484   -1.000
 6376.00    1.98082   2.12984   -1.000
 6377.00    1.97610   2.12103   -1.000
 6378.00    1.96866   2.11058   -1.000
 6379.00    1.95591   2.10117   -1.000
 6380.00    1.94339   2.09545   -1.000
 6381.00    1.94948   2.09424   -1.000
 6382.00    1.95449   2.09622   -1.000
 6383.00    1.95061   2.09966   -1.000
 6384.00    1.94822   2.10396   -1.000
 6385.00    1.94864   2.10943   -1.000
 6386.00    1.94508   2.11563   -1.000
 6387.00    1.94189   2.12101   -1.000
 6388.00    1.94050   2.12358   -1.000
 6389.00    1.91736   2.12095   -1.000
 6390.00    1.89483   2.11071   -1.000
 6391.00    1.88382   2.09261   -1.000
 6392.00    1.84697   2.07134   -1.000
 6393.00    1.81758   2.05681   -1.000
 6394.00    1.81441   2.05695   -1.000
 6395.00    1.84264   2.07047   -1.000
 6396.00    1.85938   2.08654   -1.000
 6397.00    1.85462   2.09162   -1.000
 6398.00    1.82424   2.08070   -1.000
 6399.00    1.77732   2.06225   -1.000
 6400.00    1.76108   2.05240   -1.000
 6401.00    1.77966   2.06109   -1.000
 6402.00    1.79622   2.08514   -1.000
 6403.00    1.80705   2.11194   -1.000
 6404.00    1.80771   2.12828   -1.000
 6405.00    1.79069   2.12887   -1.000
 6406.00    1.77183   2.11755   -1.000
 6407.00    1.74866   2.10326   -1.000
 6408.00    1.72758   2.09337   -1.000
 6409.00    1.72242   2.08912   -1.000
 6410.00    1.70618   2.08724   -1.000
 6411.00    1.67458   2.08535   -1.000
 6412.00    1.66795   2.08479   -1.000
 6413.00    1.67299   2.08777   -1.000
 6414.00    1.65897   2.09456   -1.000
 6415.00    1.64459   2.10247   -1.000
 6416.00    1.64353   2.10680   -1.000
 6417.00    1.63439   2.10363   -1.000
 6418.00    1.61304   2.09183   -1.000
 6419.00    1.58576   2.07531   -1.000
 6420.00    1.55353   2.06280   -1.000
 6421.00    1.53442   2.06301   -1.000
 6422.00    1.54023   2.07756   -1.000
 6423.00    1.55436   2.10045   -1.000
 6424.00    1.54916   2.12338   -1.000
 6425.00    1.54324   2.14047   -1.000
 6426.00    1.52769   2.14928   -1.000
 6427.00    1.50264   2.14750   -1.000
 6428.00    1.48865   2.13358   -1.000
