###################################################################
## OUTPUT of StarlightChains_v04.for    [Cid@UFSC - 01/Apr/2007] ##
###################################################################

## Some input info
NGC6333_a_1.cxt                          [arq_obs]
Base.BC03.N                              [arq_base]
NGC6333_a_1.msk                          [arq_masks]
StCv04.C11.config                        [arq_config]
   45                                    [N_base]
    0                                    [N_YAV_components = # of components with extra extinction!]
    0                                    [i_FitPowerLaw (1/0 = Yes/No)]
-9.99                                    [alpha_PowerLaw]
CCM                                      [red_law_option]
 1.458241                                [q_norm = A(l_norm)/A(V)]

## (Re)Sampling Parameters
 3359.00                                 [l_ini (A)]
 6428.00                                 [l_fin (A)]
    1.00                                 [dl    (A)]     (OBS: dl_cushion =    50.00 A)

## Normalization info
 4020.00                                 [l_norm (A) - for base]
 4010.00                                 [llow_norm (A) - window for f_obs]
 4060.00                                 [lupp_norm (A) - window for f_obs]
1.502426E-14                             [fobs_norm (in input units)]

## S/N
 4730.00                                 [llow_SN (A) - window for S/N]
 4780.00                                 [lupp_SN (A) - window for S/N]
 125.098                                 [S/N in S/N window]
 101.861                                 [S/N in norm. window]
  69.725                                 [S/N_err in S/N window]
  56.774                                 [S/N_err in norm. window]
  1.0000                                 [fscale_chi2]

## etc...
  2147483616                             [idum_orig]
  3065                                   [NOl_eff]
  1770                                   [Nl_eff]
  1295    NSIGMA                         [Ntot_cliped & clip_method]
   848120                                [Nglobal_steps]
   7                                     [N_chains]
  11                                     [NEX0s_base = N_base in EX0s-fits]
 0   0   1      286   2.0   8.723E+02    [Clip-Bug, RC-Crash & Burn-In warning-flags, n_censored_weights, wei_nsig_threshold & wei_limit]
    10     10.133     10.133      0.000  [idt_all, wdt_TotTime, wdt_UsrTime & wdt_SysTime (sec)]

## Synthesis Results - Best model ##

 1.92785E+00                             [chi2/Nl_eff]
     1.51377                             [adev (%)]

   102.79787                             [sum-of-x (%)]
 1.16176E-13                             [Flux_tot (units of input spectrum!)]
 8.61176E-10                             [Mini_tot (???)]
 4.59152E-10                             [Mcor_tot (???)]

 -22.43                                  [v0_min  (km/s)]
 129.41                                  [vd_min  (km/s)]
 1.5024                                  [AV_min  (mag)]
 0.0000                                  [YAV_min (mag)]

# j     x_j(%)      Mini_j(%)     Mcor_j(%)     age_j(yr)     Z_j      (L/M)_j    YAV?  Mstars   component_j        a/Fe...       SSP_chi2r SSP_adev(%)   SSP_AV   SSP_x(%)
  1      0.0000     0.0000E+00    0.0000E+00    1.000000E+06  0.00400  1.114E-02    0   1.0000   age020_m42            0.0000     4.1704E+02    20.2917   4.0000    69.7729
  2      9.9243     3.1976E-02    5.9968E-02    3.160000E+06  0.00400  4.073E-02    0   0.9999   age045_m42            0.0000     2.5937E+01     3.5676   3.4094    88.8852
  3      0.0000     0.0000E+00    0.0000E+00    5.010000E+06  0.00400  2.534E-02    0   0.9488   age055_m42            0.0000     6.8540E+01     6.5120   3.9342    78.3793
  4     12.9277     1.3348E-01    2.2186E-01    1.000000E+07  0.00400  1.271E-02    0   0.8862   age070_m42            0.0000     5.3869E+01     6.6438   3.1314    82.7222
  5      0.0240     6.2093E-04    9.5194E-04    2.512000E+07  0.00400  5.070E-03    0   0.8174   age090_m42            0.0000     4.9471E+01     6.2174   2.9859    84.9199
  6      0.0000     0.0000E+00    0.0000E+00    4.000000E+07  0.00400  3.505E-03    0   0.7851   age104_m42            0.0000     3.2322E+01     4.3747   2.6105    90.3510
  7     32.0774     1.8561E+00    2.5089E+00    1.015200E+08  0.00400  2.268E-03    0   0.7207   age116_m42            0.0000     1.2811E+02     9.1126   2.1176   121.5226
  8      0.0000     0.0000E+00    0.0000E+00    2.861200E+08  0.00400  1.079E-03    0   0.6613   age125_m42            0.0000     1.3220E+02    10.1065   1.5676   126.8494
  9      0.0000     0.0000E+00    0.0000E+00    6.405400E+08  0.00400  5.077E-04    0   0.6197   age132_m42            0.0000     1.5264E+02    10.6411   1.1743   133.3072
 10      9.0029     3.3422E+00    3.7762E+00    9.047900E+08  0.00400  3.535E-04    0   0.6024   age135_m42            0.0000     8.3163E+01     8.1623   1.0586   126.3621
 11      0.0000     0.0000E+00    0.0000E+00    1.434000E+09  0.00400  1.910E-04    0   0.5716   age139_m42            0.0000     4.2888E+01     5.9033   0.6676   118.6124
 12     18.2675     2.4417E+01    2.5019E+01    2.500000E+09  0.00400  9.818E-05    0   0.5463   age150_m42            0.0000     3.9263E+01     4.3869   0.5521   106.3168
 13     18.5327     5.1549E+01    5.0547E+01    5.000000E+09  0.00400  4.718E-05    0   0.5228   age161_m42            0.0000     5.9707E+01     4.4096   0.4640    99.5128
 14      0.0000     0.0000E+00    0.0000E+00    1.100000E+10  0.00400  2.205E-05    0   0.4980   age185_m42            0.0000     1.0963E+02     5.7216   0.2353    96.1884
 15      0.0000     0.0000E+00    0.0000E+00    1.300000E+10  0.00400  1.883E-05    0   0.4927   age193_m42            0.0000     1.2079E+02     5.8803   0.2249    95.7567
 16      0.0000     0.0000E+00    0.0000E+00    1.000000E+06  0.02000  1.989E-02    0   1.0000   age020_m62            0.0000     3.9224E+02    19.5008   4.0000    70.4029
 17      0.0000     0.0000E+00    0.0000E+00    3.160000E+06  0.02000  3.772E-02    0   0.9858   age045_m62            0.0000     2.5725E+02    15.3032   4.0000    72.9217
 18      0.7698     3.1305E-03    5.4851E-03    5.010000E+06  0.02000  3.227E-02    0   0.9342   age055_m62            0.0000     3.9217E+01     4.8288   3.7287    83.5245
 19      0.0000     0.0000E+00    0.0000E+00    1.000000E+07  0.02000  1.011E-02    0   0.8751   age070_m62            0.0000     1.5371E+02    11.6397   3.2739    74.8598
 20      0.0000     0.0000E+00    0.0000E+00    2.512000E+07  0.02000  4.206E-03    0   0.8099   age090_m62            0.0000     1.2395E+02     9.5580   3.1628    77.5900
 21      0.0000     0.0000E+00    0.0000E+00    4.000000E+07  0.02000  3.373E-03    0   0.7799   age104_m62            0.0000     2.8672E+01     3.4003   2.7635    94.2833
 22      0.0000     0.0000E+00    0.0000E+00    1.015200E+08  0.02000  1.878E-03    0   0.7221   age116_m62            0.0000     8.7623E+01     7.3608   2.2203   118.7240
 23      0.0000     0.0000E+00    0.0000E+00    2.861200E+08  0.02000  8.869E-04    0   0.6700   age125_m62            0.0000     2.8368E+02    14.1669   1.3697   143.7288
 24      0.0000     0.0000E+00    0.0000E+00    6.405400E+08  0.02000  3.657E-04    0   0.6322   age132_m62            0.0000     1.6227E+02    11.6186   0.8341   140.6714
 25      0.0000     0.0000E+00    0.0000E+00    9.047900E+08  0.02000  2.312E-04    0   0.6152   age135_m62            0.0000     9.0896E+01     8.6698   0.6312   130.7752
 26      0.0000     0.0000E+00    0.0000E+00    1.434000E+09  0.02000  1.168E-04    0   0.5865   age139_m62            0.0000     5.2903E+01     5.5028   0.4417   113.2515
 27      0.0000     0.0000E+00    0.0000E+00    2.500000E+09  0.02000  5.505E-05    0   0.5610   age150_m62            0.0000     9.7061E+01     5.9505   0.1530   106.5236
 28      0.0000     0.0000E+00    0.0000E+00    5.000000E+09  0.02000  2.596E-05    0   0.5353   age161_m62            0.0000     1.8647E+02     7.5781  -0.1567   105.6974
 29      0.0000     0.0000E+00    0.0000E+00    1.100000E+10  0.02000  1.169E-05    0   0.5103   age185_m62            0.0000     3.0049E+02     9.1298  -0.5259   107.5403
 30      0.4399     5.9571E+00    5.6390E+00    1.300000E+10  0.02000  9.691E-06    0   0.5047   age193_m62            0.0000     3.2642E+02     9.3701  -0.5716   107.7843
 31      0.0000     0.0000E+00    0.0000E+00    1.000000E+06  0.05000  2.651E-02    0   0.9998   age020_m72            0.0000     3.7711E+02    19.0095   4.0000    71.5956
 32      0.0000     0.0000E+00    0.0000E+00    3.160000E+06  0.05000  4.817E-02    0   0.9577   age045_m72            0.0000     1.1930E+02     9.3764   4.0000    77.2793
 33      0.0000     0.0000E+00    0.0000E+00    5.010000E+06  0.05000  3.101E-02    0   0.9147   age055_m72            0.0000     7.8676E+01     7.1363   3.8219    78.9620
 34      0.0000     0.0000E+00    0.0000E+00    1.000000E+07  0.05000  8.954E-03    0   0.8524   age070_m72            0.0000     1.0826E+02     7.6940   4.0000    77.8646
 35      0.0000     0.0000E+00    0.0000E+00    2.512000E+07  0.05000  4.207E-03    0   0.7902   age090_m72            0.0000     4.9275E+01     4.7931   3.5240    87.0665
 36      0.0000     0.0000E+00    0.0000E+00    4.000000E+07  0.05000  3.198E-03    0   0.7618   age104_m72            0.0000     3.7784E+01     4.7188   2.7310   107.4759
 37      0.0000     0.0000E+00    0.0000E+00    1.015200E+08  0.05000  1.716E-03    0   0.7092   age116_m72            0.0000     1.1833E+02     8.6558   2.2409   121.8542
 38      0.0000     0.0000E+00    0.0000E+00    2.861200E+08  0.05000  7.047E-04    0   0.6618   age125_m72            0.0000     2.8205E+02    14.2940   1.1605   144.4379
 39      0.0000     0.0000E+00    0.0000E+00    6.405400E+08  0.05000  2.633E-04    0   0.6253   age132_m72            0.0000     1.3201E+02    10.3325   0.5344   135.8617
 40      0.0000     0.0000E+00    0.0000E+00    9.047900E+08  0.05000  1.484E-04    0   0.6088   age135_m72            0.0000     7.8955E+01     7.2168   0.2843   118.5930
 41      0.0000     0.0000E+00    0.0000E+00    1.434000E+09  0.05000  7.827E-05    0   0.5847   age139_m72            0.0000     1.2499E+02     7.2453   0.0000   109.4573
 42      0.0000     0.0000E+00    0.0000E+00    2.500000E+09  0.05000  3.759E-05    0   0.5583   age150_m72            0.0000     1.9942E+02     7.9519  -0.2500   106.0239
 43      0.3446     2.9211E+00    2.9147E+00    5.000000E+09  0.05000  1.548E-05    0   0.5320   age161_m72            0.0000     2.8535E+02     9.2399  -0.6683   105.9669
 44      0.4872     9.7878E+00    9.3075E+00    1.100000E+10  0.05000  6.532E-06    0   0.5070   age185_m72            0.0000     3.7747E+02    11.3952  -1.0000   107.7141
 45      0.0000     0.0000E+00    0.0000E+00    1.300000E+10  0.05000  5.316E-06    0   0.5018   age193_m72            0.0000     4.5616E+02    13.6683  -1.0000   107.1828


## Synthesis Results - Average & Chains ##

# j      x_j: min, <> & last-chain-values for 1 ...  7 chains
  1      0.0000      0.0051      0.0000      0.0000      0.0000      0.0000      0.0000      0.0000      0.0000
  2      9.9243      8.5910      8.9231      8.8420      8.6492      8.6732      8.8574      9.0314      8.6250
  3      0.0000      0.0718      0.0000      0.0000      0.0000      0.1461      0.0000      0.0000      0.0000
  4     12.9277     11.7420     11.9761     11.8650     11.9501     11.9496     11.8737     12.0444     12.0912
  5      0.0240      1.0621      1.0432      1.1402      1.0995      1.1162      1.0019      1.0123      1.0561
  6      0.0000      0.0293      0.0000      0.0000      0.0082      0.0000      0.0000      0.0000      0.0000
  7     32.0774     32.7736     32.6981     33.0425     32.9675     32.9205     32.6728     32.7430     32.8126
  8      0.0000      0.0296      0.0000      0.0000      0.0000      0.0000      0.0000      0.0000      0.0000
  9      0.0000      0.0871      0.0000      0.0000      0.0000      0.0000      0.0000      0.0799      0.0000
 10      9.0029      8.8924      8.9972      9.2856      9.1065      8.8221      8.8837      9.3353      9.2390
 11      0.0000      0.7101      0.7063      0.0327      0.2145      0.6013      0.8329      0.3960      0.3698
 12     18.2675     16.9185     16.9146     17.0639     16.7221     17.2900     16.8373     16.9487     16.8105
 13     18.5327     18.2171     18.2209     18.4587     18.5557     18.1585     18.1261     17.8643     18.3841
 14      0.0000      0.3693      0.4303      0.2579      0.4315      0.3937      0.2774      0.4093      0.4024
 15      0.0000      0.0362      0.0000      0.0000      0.0000      0.0000      0.1216      0.0000      0.0055
 16      0.0000      0.0053      0.0000      0.0000      0.0000      0.0000      0.0000      0.0000      0.0000
 17      0.0000      0.0169      0.0000      0.0000      0.0000      0.0000      0.0000      0.0000      0.0000
 18      0.7698      0.7571      0.6966      0.7242      0.9956      0.8182      0.9239      0.6769      0.9714
 19      0.0000      0.0567      0.0000      0.0000      0.0000      0.0000      0.0000      0.0000      0.0000
 20      0.0000      0.0051      0.0000      0.0000      0.0000      0.0000      0.0093      0.0024      0.0000
 21      0.0000      0.0225      0.0000      0.0000      0.0041      0.0000      0.0085      0.0092      0.0000
 22      0.0000      0.0334      0.0000      0.0000      0.0402      0.0000      0.1631      0.0000      0.0000
 23      0.0000      0.0103      0.0000      0.0121      0.0000      0.0000      0.0000      0.0000      0.0000
 24      0.0000      0.0141      0.0115      0.0050      0.0000      0.0000      0.0110      0.0000      0.0000
 25      0.0000      0.0254      0.0000      0.0000      0.0000      0.0000      0.0000      0.0000      0.0000
 26      0.0000      0.0402      0.0000      0.0836      0.0000      0.0000      0.0000      0.0000      0.0000
 27      0.0000      0.0605      0.1686      0.0000      0.0101      0.0000      0.0000      0.1174      0.0122
 28      0.0000      0.0316      0.0000      0.0578      0.0000      0.0000      0.0414      0.0000      0.0000
 29      0.0000      0.3643      0.2450      0.3673      0.3161      0.2689      0.4129      0.4371      0.2999
 30      0.4399      0.4582      0.5134      0.3453      0.5106      0.3349      0.4326      0.4932      0.4817
 31      0.0000      0.0018      0.0000      0.0000      0.0000      0.0000      0.0000      0.0000      0.0000
 32      0.0000      0.0454      0.0000      0.0000      0.0000      0.0000      0.0000      0.0000      0.0623
 33      0.0000      0.0242      0.0152      0.0226      0.0000      0.0449      0.0000      0.0000      0.0000
 34      0.0000      0.0068      0.0000      0.0000      0.0000      0.0000      0.1596      0.0000      0.0000
 35      0.0000      0.0070      0.0000      0.0000      0.0000      0.0009      0.0000      0.0000      0.0000
 36      0.0000      0.0146      0.0000      0.0000      0.0000      0.0151      0.0000      0.0000      0.0505
 37      0.0000      0.0235      0.0000      0.0000      0.0000      0.0687      0.0000      0.0000      0.0000
 38      0.0000      0.0185      0.0000      0.0274      0.0000      0.0000      0.0000      0.0000      0.0000
 39      0.0000      0.0223      0.0000      0.0000      0.0000      0.0411      0.0000      0.0000      0.0000
 40      0.0000      0.0420      0.0551      0.0000      0.0000      0.0000      0.0000      0.0000      0.0000
 41      0.0000      0.0339      0.0000      0.0703      0.0000      0.0000      0.0030      0.0000      0.0000
 42      0.0000      0.1385      0.2120      0.0003      0.0920      0.2186      0.1487      0.1660      0.0000
 43      0.3446      0.5477      0.5049      0.6515      0.5452      0.4376      0.5142      0.5609      0.5018
 44      0.4872      0.4621      0.4670      0.5269      0.4250      0.4626      0.3808      0.4100      0.4923
 45      0.0000      0.4037      0.3615      0.3544      0.4827      0.3651      0.4023      0.4663      0.4232

# j      m_j: min, <> & last-chain-values for 1 ...  7 chains
  1  0.0000E+00  9.7685E-05  0.0000E+00  0.0000E+00  0.0000E+00  0.0000E+00  0.0000E+00  0.0000E+00  0.0000E+00
  2  5.9968E-02  4.4772E-02  4.7100E-02  4.6588E-02  4.4658E-02  4.7021E-02  4.7048E-02  4.6787E-02  4.5172E-02
  3  0.0000E+00  5.7045E-04  0.0000E+00  0.0000E+00  0.0000E+00  1.2084E-03  0.0000E+00  0.0000E+00  0.0000E+00
  4  2.2186E-01  1.7380E-01  1.7954E-01  1.7756E-01  1.7524E-01  1.8400E-01  1.7913E-01  1.7721E-01  1.7986E-01
  5  9.5194E-04  3.6352E-02  3.6163E-02  3.9453E-02  3.7283E-02  3.9742E-02  3.4948E-02  3.4440E-02  3.6324E-02
  6  0.0000E+00  1.3936E-03  0.0000E+00  0.0000E+00  3.8671E-04  0.0000E+00  0.0000E+00  0.0000E+00  0.0000E+00
  7  2.5089E+00  2.2108E+00  2.2341E+00  2.2535E+00  2.2033E+00  2.3102E+00  2.2464E+00  2.1956E+00  2.2245E+00
  8  0.0000E+00  3.8482E-03  0.0000E+00  0.0000E+00  0.0000E+00  0.0000E+00  0.0000E+00  0.0000E+00  0.0000E+00
  9  0.0000E+00  2.2576E-02  0.0000E+00  0.0000E+00  0.0000E+00  0.0000E+00  0.0000E+00  2.0579E-02  0.0000E+00
 10  3.7762E+00  3.2169E+00  3.2966E+00  3.3961E+00  3.2638E+00  3.3200E+00  3.2755E+00  3.3570E+00  3.3589E+00
 11  0.0000E+00  4.5111E-01  4.5447E-01  2.1018E-02  1.3499E-01  3.9740E-01  5.3934E-01  2.5008E-01  2.3609E-01
 12  2.5019E+01  1.9984E+01  2.0236E+01  2.0378E+01  1.9569E+01  2.1246E+01  2.0271E+01  1.9901E+01  1.9955E+01
 13  5.0547E+01  4.2853E+01  4.3412E+01  4.3899E+01  4.3245E+01  4.4435E+01  4.3459E+01  4.1773E+01  4.3460E+01
 14  0.0000E+00  1.7704E+00  2.0894E+00  1.2503E+00  2.0496E+00  1.9634E+00  1.3555E+00  1.9509E+00  1.9388E+00
 15  0.0000E+00  2.0082E-01  0.0000E+00  0.0000E+00  0.0000E+00  0.0000E+00  6.8836E-01  0.0000E+00  3.0518E-02
 16  0.0000E+00  5.6790E-05  0.0000E+00  0.0000E+00  0.0000E+00  0.0000E+00  0.0000E+00  0.0000E+00  0.0000E+00
 17  0.0000E+00  9.3957E-05  0.0000E+00  0.0000E+00  0.0000E+00  0.0000E+00  0.0000E+00  0.0000E+00  0.0000E+00
 18  5.4851E-03  4.6525E-03  4.3358E-03  4.4999E-03  6.0618E-03  5.2307E-03  5.7868E-03  4.1352E-03  5.9993E-03
 19  0.0000E+00  1.0421E-03  0.0000E+00  0.0000E+00  0.0000E+00  0.0000E+00  0.0000E+00  0.0000E+00  0.0000E+00
 20  0.0000E+00  2.1021E-04  0.0000E+00  0.0000E+00  0.0000E+00  0.0000E+00  3.8548E-04  9.5507E-05  0.0000E+00
 21  0.0000E+00  1.1061E-03  0.0000E+00  0.0000E+00  1.9843E-04  0.0000E+00  4.2274E-04  4.5006E-04  0.0000E+00
 22  0.0000E+00  2.7270E-03  0.0000E+00  0.0000E+00  3.2543E-03  0.0000E+00  1.3569E-02  0.0000E+00  0.0000E+00
 23  0.0000E+00  1.6484E-03  0.0000E+00  1.9645E-03  0.0000E+00  0.0000E+00  0.0000E+00  0.0000E+00  0.0000E+00
 24  0.0000E+00  5.1623E-03  4.2901E-03  1.8420E-03  0.0000E+00  0.0000E+00  4.1040E-03  0.0000E+00  0.0000E+00
 25  0.0000E+00  1.4363E-02  0.0000E+00  0.0000E+00  0.0000E+00  0.0000E+00  0.0000E+00  0.0000E+00  0.0000E+00
 26  0.0000E+00  4.2886E-02  0.0000E+00  9.0129E-02  0.0000E+00  0.0000E+00  0.0000E+00  0.0000E+00  0.0000E+00
 27  0.0000E+00  1.3082E-01  3.6935E-01  0.0000E+00  2.1699E-02  0.0000E+00  0.0000E+00  2.5253E-01  2.6584E-02
 28  0.0000E+00  1.3842E-01  0.0000E+00  2.5589E-01  0.0000E+00  0.0000E+00  1.8454E-01  0.0000E+00  0.0000E+00
 29  0.0000E+00  3.3764E+00  2.2998E+00  3.4416E+00  2.9022E+00  2.5921E+00  3.9000E+00  4.0263E+00  2.7934E+00
 30  5.6390E+00  5.0653E+00  5.7487E+00  3.8598E+00  5.5932E+00  3.8512E+00  4.8744E+00  5.4200E+00  5.3525E+00
 31  0.0000E+00  1.4217E-05  0.0000E+00  0.0000E+00  0.0000E+00  0.0000E+00  0.0000E+00  0.0000E+00  0.0000E+00
 32  0.0000E+00  1.9182E-04  0.0000E+00  0.0000E+00  0.0000E+00  0.0000E+00  0.0000E+00  0.0000E+00  2.6411E-04
 33  0.0000E+00  1.5134E-04  9.6101E-05  1.4286E-04  0.0000E+00  2.9225E-04  0.0000E+00  0.0000E+00  0.0000E+00
 34  0.0000E+00  1.3661E-04  0.0000E+00  0.0000E+00  0.0000E+00  0.0000E+00  3.2871E-03  0.0000E+00  0.0000E+00
 35  0.0000E+00  2.7884E-04  0.0000E+00  0.0000E+00  0.0000E+00  3.7069E-05  0.0000E+00  0.0000E+00  0.0000E+00
 36  0.0000E+00  7.3851E-04  0.0000E+00  0.0000E+00  0.0000E+00  7.9254E-04  0.0000E+00  0.0000E+00  2.5687E-03
 37  0.0000E+00  2.0581E-03  0.0000E+00  0.0000E+00  0.0000E+00  6.2710E-03  0.0000E+00  0.0000E+00  0.0000E+00
 38  0.0000E+00  3.6860E-03  0.0000E+00  5.5204E-03  0.0000E+00  0.0000E+00  0.0000E+00  0.0000E+00  0.0000E+00
 39  0.0000E+00  1.1262E-02  0.0000E+00  0.0000E+00  0.0000E+00  2.1556E-02  0.0000E+00  0.0000E+00  0.0000E+00
 40  0.0000E+00  3.6598E-02  4.8585E-02  0.0000E+00  0.0000E+00  0.0000E+00  0.0000E+00  0.0000E+00  0.0000E+00
 41  0.0000E+00  5.3837E-02  0.0000E+00  1.1275E-01  0.0000E+00  0.0000E+00  4.7723E-03  0.0000E+00  0.0000E+00
 42  0.0000E+00  4.3678E-01  6.7709E-01  8.3880E-04  2.8725E-01  7.1712E-01  4.7778E-01  5.2023E-01  0.0000E+00
 43  2.9147E+00  3.9956E+00  3.7309E+00  4.8054E+00  3.9410E+00  3.3209E+00  3.8234E+00  4.0677E+00  3.6790E+00
 44  9.3075E+00  7.6138E+00  7.7942E+00  8.7772E+00  6.9378E+00  7.9295E+00  6.3958E+00  6.7148E+00  8.1526E+00
 45  0.0000E+00  8.0895E+00  7.3375E+00  7.1803E+00  9.5835E+00  7.6114E+00  8.2157E+00  9.2877E+00  8.5215E+00

# AV, chi2 & Mass for <> & i_chain = 1 ...  7 solutions
AV       1.5024      1.4504      1.4548      1.4578      1.4581      1.4672      1.4655      1.4559      1.4649
chi2 1.9279E+00  2.0113E+00  1.9945E+00  1.9940E+00  1.9892E+00  1.9822E+00  1.9850E+00  1.9916E+00  1.9793E+00
Mass 4.5915E-10  4.9648E-10  4.9309E-10  4.9593E-10  5.0628E-10  4.8812E-10  4.9710E-10  5.0312E-10  5.0371E-10
 -22.43                                  [v0_min (km/s) before EX0s...]
 129.41                                  [vd_min (km/s) before EX0s...]


## Synthetic spectrum (Best Model) ##l_obs f_obs f_syn wei
 3070    [Nl_obs]
 3359.00    0.25391   0.49545   -1.000
 3360.00    0.26381   0.48764   -1.000
 3361.00    0.27009   0.48781   -1.000
 3362.00    0.27660   0.49547   -1.000
 3363.00    0.29863   0.50579   -1.000
 3364.00    0.31465   0.51260   -1.000
 3365.00    0.31214   0.51239   -1.000
 3366.00    0.31480   0.50594   -1.000
 3367.00    0.31660   0.49697   -1.000
 3368.00    0.32389   0.48943   -1.000
 3369.00    0.32087   0.48495   -1.000
 3370.00    0.30678   0.48287   -1.000
 3371.00    0.30901   0.48267   -1.000
 3372.00    0.31679   0.48533   -1.000
 3373.00    0.32672   0.49273   -1.000
 3374.00    0.33913   0.50432   -1.000
 3375.00    0.35314   0.51548   -1.000
 3376.00    0.35654   0.52073   -1.000
 3377.00    0.37258   0.51780   -1.000
 3378.00    0.38238   0.50993   -1.000
 3379.00    0.37239   0.50326   -1.000
 3380.00    0.36316   0.50241   -1.000
 3381.00    0.37258   0.50787   -1.000
 3382.00    0.38568   0.51666   -1.000
 3383.00    0.38136   0.52540   -1.000
 3384.00    0.37565   0.53199   -1.000
 3385.00    0.37458   0.53592   -1.000
 3386.00    0.38575   0.53752   -1.000
 3387.00    0.39724   0.53736   -1.000
 3388.00    0.39289   0.53628   -1.000
 3389.00    0.39405   0.53477   -1.000
 3390.00    0.40248   0.53258   -1.000
 3391.00    0.40721   0.52965   -1.000
 3392.00    0.42125   0.52732   -1.000
 3393.00    0.42645   0.52786   -1.000
 3394.00    0.41232   0.53261   -1.000
 3395.00    0.42049   0.54057   -1.000
 3396.00    0.43663   0.54880   -1.000
 3397.00    0.43506   0.55408   -1.000
 3398.00    0.43154   0.55466   -1.000
 3399.00    0.43039   0.55091   -1.000
 3400.00    0.43791   0.54439   -1.000
 3401.00    0.44605   0.53717   -1.000
 3402.00    0.44016   0.53093   -1.000
 3403.00    0.42687   0.52626   -1.000
 3404.00    0.41343   0.52286   -1.000
 3405.00    0.41318   0.51986   -1.000
 3406.00    0.42232   0.51711   -1.000
 3407.00    0.42792   0.51558   -1.000
 3408.00    0.42936   0.51640   -1.000
 3409.00    0.43252   0.51921   -1.000
 3410.00    0.43205   0.52223   -1.000
 3411.00    0.42705   0.52391   -1.000
 3412.00    0.43206   0.52404   -1.000
 3413.00    0.44280   0.52380   -1.000
 3414.00    0.44690   0.52473   -1.000
 3415.00    0.45173   0.52796   -1.000
 3416.00    0.45489   0.53374   -1.000
 3417.00    0.45527   0.54141   -1.000
 3418.00    0.46264   0.54915   -1.000
 3419.00    0.46558   0.55469   -1.000
 3420.00    0.47183   0.55658   -1.000
 3421.00    0.48137   0.55497   -1.000
 3422.00    0.47211   0.55160   -1.000
 3423.00    0.45840   0.54851   -1.000
 3424.00    0.46010   0.54708   -1.000
 3425.00    0.46701   0.54800   -1.000
 3426.00    0.46616   0.55160   -1.000
 3427.00    0.47186   0.55741   -1.000
 3428.00    0.48642   0.56332   -1.000
 3429.00    0.49627   0.56658   -1.000
 3430.00    0.49966   0.56540   -1.000
 3431.00    0.48682   0.56071   -1.000
 3432.00    0.48074   0.55543   -1.000
 3433.00    0.48232   0.55220   -1.000
 3434.00    0.47982   0.55165   -1.000
 3435.00    0.49002   0.55210   -1.000
 3436.00    0.49613   0.55087   -1.000
 3437.00    0.48797   0.54565   -1.000
 3438.00    0.48098   0.53579   -1.000
 3439.00    0.47099   0.52277   -1.000
 3440.00    0.46555   0.51014   -1.000
 3441.00    0.46629   0.50165   -1.000
 3442.00    0.45566   0.49925   -1.000
 3443.00    0.45418   0.50232   -1.000
 3444.00    0.46238   0.50910   -1.000
 3445.00    0.47328   0.51843   -1.000
 3446.00    0.48511   0.52980   -1.000
 3447.00    0.49394   0.54177   -1.000
 3448.00    0.49958   0.55099   -1.000
 3449.00    0.50520   0.55412   -1.000
 3450.00    0.51184   0.55021   -1.000
 3451.00    0.50736   0.54176   -1.000
 3452.00    0.50805   0.53355   -1.000
 3453.00    0.50089   0.52905   -1.000
 3454.00    0.48932   0.52868   -1.000
 3455.00    0.50630   0.52995   -1.000
 3456.00    0.52148   0.52965  153.406
 3457.00    0.52251   0.52648  153.812
 3458.00    0.52236   0.52121  294.922
 3459.00    0.51656   0.51618  872.295
 3460.00    0.51786   0.51395   -1.000
 3461.00    0.51349   0.51595  872.295
 3462.00    0.50696   0.52130   -1.000
 3463.00    0.51239   0.52748   -1.000
 3464.00    0.52870   0.53218  872.295
 3465.00    0.54270   0.53491   -1.000
 3466.00    0.53407   0.53718  872.295
 3467.00    0.52239   0.54004   -1.000
 3468.00    0.53227   0.54345   -1.000
 3469.00    0.54009   0.54613   -1.000
 3470.00    0.54350   0.54643  872.295
 3471.00    0.53961   0.54317  257.420
 3472.00    0.53584   0.53616  156.726
 3473.00    0.53473   0.52677  157.397
 3474.00    0.52362   0.51787  306.955
 3475.00    0.50899   0.51260  872.295
 3476.00    0.50329   0.51265   -1.000
 3477.00    0.51915   0.51733   -1.000
 3478.00    0.53671   0.52406   -1.000
 3479.00    0.54891   0.53001   -1.000
 3480.00    0.56340   0.53335   -1.000
 3481.00    0.56786   0.53368   -1.000
 3482.00    0.55772   0.53236   -1.000
 3483.00    0.55053   0.53200   -1.000
 3484.00    0.55059   0.53486   -1.000
 3485.00    0.55402   0.54067   -1.000
 3486.00    0.55726   0.54617   -1.000
 3487.00    0.55688   0.54760   -1.000
 3488.00    0.55328   0.54363   -1.000
 3489.00    0.53758   0.53684  872.295
 3490.00    0.53219   0.53118   -1.000
 3491.00    0.53978   0.52884   -1.000
 3492.00    0.55044   0.52879   -1.000
 3493.00    0.54944   0.52834   -1.000
 3494.00    0.53882   0.52638   -1.000
 3495.00    0.52889   0.52442   -1.000
 3496.00    0.52012   0.52534  872.295
 3497.00    0.52648   0.53010  872.295
 3498.00    0.54183   0.53650   -1.000
 3499.00    0.54998   0.54172   -1.000
 3500.00    0.55029   0.54454   -1.000
 3501.00    0.55727   0.54594   -1.000
 3502.00    0.55858   0.54676   -1.000
 3503.00    0.55591   0.54623   -1.000
 3504.00    0.55624   0.54378   -1.000
 3505.00    0.55094   0.54024   -1.000
 3506.00    0.55104   0.53741   -1.000
 3507.00    0.55914   0.53610   -1.000
 3508.00    0.56078   0.53538   -1.000
 3509.00    0.55291   0.53383   -1.000
 3510.00    0.55112   0.53080   -1.000
 3511.00    0.54227   0.52670   -1.000
 3512.00    0.53113   0.52286   -1.000
 3513.00    0.53055   0.52156   -1.000
 3514.00    0.53642   0.52455   -1.000
 3515.00    0.54595   0.53206   -1.000
 3516.00    0.55450   0.54155   -1.000
 3517.00    0.55662   0.54895   -1.000
 3518.00    0.55685   0.55131   -1.000
 3519.00    0.55730   0.54797   -1.000
 3520.00    0.53462   0.54085  237.653
 3521.00    0.52343   0.53233  155.508
 3522.00    0.53081   0.52422  157.100
 3523.00    0.53216   0.51767   -1.000
 3524.00    0.52728   0.51384   -1.000
 3525.00    0.51157   0.51431  872.295
 3526.00    0.50393   0.51972   -1.000
 3527.00    0.52017   0.52878   -1.000
 3528.00    0.54482   0.53850   -1.000
 3529.00    0.55179   0.54598   -1.000
 3530.00    0.54732   0.55020  872.295
 3531.00    0.55053   0.55222  872.295
 3532.00    0.55636   0.55373   -1.000
 3533.00    0.55477   0.55565  872.295
 3534.00    0.55977   0.55786  872.295
 3535.00    0.56292   0.55999   -1.000
 3536.00    0.55603   0.56225   -1.000
 3537.00    0.55747   0.56495   -1.000
 3538.00    0.56954   0.56782  872.295
 3539.00    0.57066   0.57001  872.295
 3540.00    0.56156   0.57107   -1.000
 3541.00    0.55667   0.57167   -1.000
 3542.00    0.56368   0.57274   -1.000
 3543.00    0.56746   0.57458   -1.000
 3544.00    0.56422   0.57621   -1.000
 3545.00    0.57114   0.57696   -1.000
 3546.00    0.56962   0.57684   -1.000
 3547.00    0.55477   0.57655   -1.000
 3548.00    0.55421   0.57663   -1.000
 3549.00    0.56230   0.57687   -1.000
 3550.00    0.55280   0.57653   -1.000
 3551.00    0.55445   0.57482   -1.000
 3552.00    0.56266   0.57181   -1.000
 3553.00    0.54553   0.56835   -1.000
 3554.00    0.53964   0.56578   -1.000
 3555.00    0.54420   0.56465   -1.000
 3556.00    0.54166   0.56442   -1.000
 3557.00    0.53928   0.56424   -1.000
 3558.00    0.54684   0.56399   -1.000
 3559.00    0.54879   0.56473   -1.000
 3560.00    0.54183   0.56706   -1.000
 3561.00    0.54815   0.56944   -1.000
 3562.00    0.55449   0.56853  157.798
 3563.00    0.55311   0.56156  158.871
 3564.00    0.54495   0.55011  157.623
 3565.00    0.52953   0.53833  160.801
 3566.00    0.52046   0.53006  164.689
 3567.00    0.51946   0.52525  162.285
 3568.00    0.52259   0.52114  155.704
 3569.00    0.52653   0.51644   -1.000
 3570.00    0.51905   0.51213   -1.000
 3571.00    0.51113   0.51029   -1.000
 3572.00    0.51085   0.51144  872.295
 3573.00    0.51238   0.51421  872.295
 3574.00    0.51823   0.51703   -1.000
 3575.00    0.52710   0.51894  229.762
 3576.00    0.53640   0.51929   -1.000
 3577.00    0.53776   0.51724   -1.000
 3578.00    0.53888   0.51207   -1.000
 3579.00    0.53880   0.50465   -1.000
 3580.00    0.52189   0.49713   -1.000
 3581.00    0.50766   0.49177   -1.000
 3582.00    0.51424   0.48906   -1.000
 3583.00    0.51514   0.48736   -1.000
 3584.00    0.50813   0.48531   -1.000
 3585.00    0.49906   0.48313   -1.000
 3586.00    0.49071   0.48277  157.535
 3587.00    0.49122   0.48632   -1.000
 3588.00    0.50299   0.49412   -1.000
 3589.00    0.50596   0.50494   -1.000
 3590.00    0.51424   0.51618  872.295
 3591.00    0.53070   0.52561   -1.000
 3592.00    0.54573   0.53229   -1.000
 3593.00    0.55238   0.53726   -1.000
 3594.00    0.55449   0.54245   -1.000
 3595.00    0.55769   0.54877   -1.000
 3596.00    0.56122   0.55588   -1.000
 3597.00    0.56401   0.56228  872.295
 3598.00    0.57088   0.56629   -1.000
 3599.00    0.57773   0.56660   -1.000
 3600.00    0.56840   0.56251   -1.000
 3601.00    0.55978   0.55490   -1.000
 3602.00    0.55256   0.54592   -1.000
 3603.00    0.55025   0.53838   -1.000
 3604.00    0.54313   0.53394   -1.000
 3605.00    0.53730   0.53212   -1.000
 3606.00    0.53755   0.53116   -1.000
 3607.00    0.53918   0.52957   -1.000
 3608.00    0.53775   0.52787   -1.000
 3609.00    0.53118   0.52774   -1.000
 3610.00    0.53114   0.52986   -1.000
 3611.00    0.53348   0.53380  872.295
 3612.00    0.53998   0.53833   -1.000
 3613.00    0.54666   0.54276   -1.000
 3614.00    0.55312   0.54631   -1.000
 3615.00    0.56862   0.54715   -1.000
 3616.00    0.56346   0.54378   -1.000
 3617.00    0.55336   0.53784   -1.000
 3618.00    0.53795   0.53312   -1.000
 3619.00    0.52411   0.53383   -1.000
 3620.00    0.53133   0.54044   -1.000
 3621.00    0.55109   0.55042  872.295
 3622.00    0.56719   0.56066   -1.000
 3623.00    0.56512   0.57002   -1.000
 3624.00    0.56150   0.57912   -1.000
 3625.00    0.56652   0.58813   -1.000
 3626.00    0.57842   0.59535   -1.000
 3627.00    0.59559   0.59695  872.295
 3628.00    0.59732   0.59025   -1.000
 3629.00    0.58411   0.57663   -1.000
 3630.00    0.56270   0.56113  872.295
 3631.00    0.53951   0.55026   -1.000
 3632.00    0.54189   0.54689   -1.000
 3633.00    0.55147   0.54973  872.295
 3634.00    0.54893   0.55479   -1.000
 3635.00    0.55395   0.55952   -1.000
 3636.00    0.56831   0.56416   -1.000
 3637.00    0.57274   0.56970  872.295
 3638.00    0.58422   0.57614   -1.000
 3639.00    0.58962   0.58081   -1.000
 3640.00    0.58380   0.58130  872.295
 3641.00    0.57390   0.57682   -1.000
 3642.00    0.56375   0.56909   -1.000
 3643.00    0.55799   0.56091  872.295
 3644.00    0.56251   0.55424   -1.000
 3645.00    0.55923   0.54963   -1.000
 3646.00    0.56070   0.54696   -1.000
 3647.00    0.56392   0.54618   -1.000
 3648.00    0.55140   0.54799   -1.000
 3649.00    0.55906   0.55280   -1.000
 3650.00    0.56327   0.56032   -1.000
 3651.00    0.56399   0.56919   -1.000
 3652.00    0.57638   0.57794  872.295
 3653.00    0.58785   0.58518  872.295
 3654.00    0.58845   0.59080   -1.000
 3655.00    0.59410   0.59546  872.295
 3656.00    0.58324   0.59956   -1.000
 3657.00    0.58362   0.60298   -1.000
 3658.00    0.59022   0.60469   -1.000
 3659.00    0.58671   0.60403   -1.000
 3660.00    0.59099   0.60112   -1.000
 3661.00    0.59120   0.59684   -1.000
 3662.00    0.58435   0.59254   -1.000
 3663.00    0.58439   0.58934   -1.000
 3664.00    0.58214   0.58751   -1.000
 3665.00    0.59481   0.58639   -1.000
 3666.00    0.60387   0.58490   -1.000
 3667.00    0.59644   0.58273   -1.000
 3668.00    0.58353   0.58125  872.295
 3669.00    0.58072   0.58198  872.295
 3670.00    0.58372   0.58557  872.295
 3671.00    0.58198   0.59045   -1.000
 3672.00    0.59109   0.59389   -1.000
 3673.00    0.59189   0.59412   -1.000
 3674.00    0.58762   0.59049   -1.000
 3675.00    0.58843   0.58409  872.295
 3676.00    0.58610   0.57648   -1.000
 3677.00    0.58444   0.56946   -1.000
 3678.00    0.57292   0.56479   -1.000
 3679.00    0.56546   0.56312  872.295
 3680.00    0.57173   0.56438   -1.000
 3681.00    0.58118   0.56704   -1.000
 3682.00    0.58424   0.56909   -1.000
 3683.00    0.58497   0.56852   -1.000
 3684.00    0.58070   0.56448   -1.000
 3685.00    0.56622   0.55896   -1.000
 3686.00    0.55697   0.55546  872.295
 3687.00    0.56193   0.55764   -1.000
 3688.00    0.56847   0.56565   -1.000
 3689.00    0.58426   0.57661   -1.000
 3690.00    0.59227   0.58625   -1.000
 3691.00    0.59766   0.59257   -1.000
 3692.00    0.60333   0.59558   -1.000
 3693.00    0.59851   0.59628  872.295
 3694.00    0.60436   0.59552   -1.000
 3695.00    0.59814   0.59430  872.295
 3696.00    0.59028   0.59531   -1.000
 3697.00    0.59388   0.60079   -1.000
 3698.00    0.59148   0.61041   -1.000
 3699.00    0.61995   0.61919  872.295
 3700.00    0.63560   0.62038   -1.000
 3701.00    0.63991   0.60953   -1.000
 3702.00    0.61370   0.58863   -1.000
 3703.00    0.57707   0.56499   -1.000
 3704.00    0.56585   0.54770   -1.000
 3705.00    0.55853   0.54184   -1.000
 3706.00    0.57022   0.54604   -1.000
 3707.00    0.58972   0.55462   -1.000
 3708.00    0.59296   0.56103   -1.000
 3709.00    0.59801   0.56328   -1.000
 3710.00    0.58253   0.56391   -1.000
 3711.00    0.56702   0.56837  872.295
 3712.00    0.58341   0.58047  872.295
 3713.00    0.61332   0.59953   -1.000
 3714.00    0.64085   0.62050   -1.000
 3715.00    0.65993   0.63633   -1.000
 3716.00    0.66479   0.64080   -1.000
 3717.00    0.65875   0.63009   -1.000
 3718.00    0.62913   0.60465   -1.000
 3719.00    0.60421   0.57117   -1.000
 3720.00    0.55855   0.54069   -1.000
 3721.00    0.52030   0.52482   -1.000
 3722.00    0.53060   0.52974  872.295
 3723.00    0.56287   0.55295   -1.000
 3724.00    0.60216   0.58531   -1.000
 3725.00    0.63614   0.61625   -1.000
 3726.00    0.65507   0.63961   -1.000
 3727.00    0.65688   0.65332  872.295
 3728.00    0.66010   0.65764  872.295
 3729.00    0.66865   0.65033   -1.000
 3730.00    0.65414   0.62875   -1.000
 3731.00    0.62441   0.59383   -1.000
 3732.00    0.59010   0.55220   -1.000
 3733.00    0.53669   0.51499   -1.000
 3734.00    0.49575   0.49374  551.380
 3735.00    0.49303   0.49507  872.295
 3736.00    0.52021   0.51917   -1.000
 3737.00    0.57152   0.55968   -1.000
 3738.00    0.61979   0.60636   -1.000
 3739.00    0.64919   0.64816   -1.000
 3740.00    0.67649   0.67728  872.295
 3741.00    0.68797   0.68990  872.295
 3742.00    0.67818   0.68720   -1.000
 3743.00    0.66998   0.67234  182.095
 3744.00    0.63958   0.64843  162.099
 3745.00    0.62337   0.61749  165.312
 3746.00    0.59748   0.58153   -1.000
 3747.00    0.56568   0.54414   -1.000
 3748.00    0.53462   0.51326   -1.000
 3749.00    0.50301   0.49822   -1.000
 3750.00    0.51076   0.50554   -1.000
 3751.00    0.55805   0.53474   -1.000
 3752.00    0.61385   0.57801   -1.000
 3753.00    0.65620   0.62410   -1.000
 3754.00    0.69207   0.66254   -1.000
 3755.00    0.71460   0.68661   -1.000
 3756.00    0.71757   0.69505   -1.000
 3757.00    0.69407   0.69271   -1.000
 3758.00    0.67753   0.68682   -1.000
 3759.00    0.67895   0.68392   -1.000
 3760.00    0.68970   0.68569  872.295
 3761.00    0.70713   0.69029   -1.000
 3762.00    0.71844   0.69332   -1.000
 3763.00    0.71347   0.69106   -1.000
 3764.00    0.71075   0.68050   -1.000
 3765.00    0.70195   0.66110   -1.000
 3766.00    0.67578   0.63398   -1.000
 3767.00    0.65146   0.60218   -1.000
 3768.00    0.62301   0.57084   -1.000
 3769.00    0.59303   0.54677   -1.000
 3770.00    0.56083   0.53742   -1.000
 3771.00    0.56061   0.54672   -1.000
 3772.00    0.60205   0.57230   -1.000
 3773.00    0.65270   0.60709   -1.000
 3774.00    0.68009   0.64401   -1.000
 3775.00    0.70201   0.67881   99.995
 3776.00    0.71662   0.71120   97.532
 3777.00    0.74243   0.74095   96.684
 3778.00    0.75836   0.76767   96.092
 3779.00    0.77457   0.79018   96.073
 3780.00    0.79405   0.80718   98.048
 3781.00    0.81578   0.81837  102.956
 3782.00    0.80239   0.82325   -1.000
 3783.00    0.79691   0.82180   -1.000
 3784.00    0.80164   0.81374  118.934
 3785.00    0.79390   0.80035  119.094
 3786.00    0.76487   0.78419   -1.000
 3787.00    0.76237   0.76860  115.869
 3788.00    0.75315   0.75534  117.339
 3789.00    0.75075   0.74377  121.520
 3790.00    0.74426   0.73096  125.760
 3791.00    0.73873   0.71301  129.638
 3792.00    0.72037   0.68739   -1.000
 3793.00    0.70190   0.65314   -1.000
 3794.00    0.66922   0.61243   -1.000
 3795.00    0.62909   0.56995   -1.000
 3796.00    0.58006   0.53280   -1.000
 3797.00    0.54185   0.51042   -1.000
 3798.00    0.52240   0.51049  110.347
 3799.00    0.55938   0.53490  107.683
 3800.00    0.61982   0.57807   -1.000
 3801.00    0.67063   0.62898   -1.000
 3802.00    0.71060   0.67689   -1.000
 3803.00    0.74506   0.71529   -1.000
 3804.00    0.76019   0.74224  112.126
 3805.00    0.76661   0.76047  107.852
 3806.00    0.76706   0.77489  106.380
 3807.00    0.77589   0.78972  108.192
 3808.00    0.79582   0.80604  113.753
 3809.00    0.80914   0.82062  120.785
 3810.00    0.82234   0.82829  128.071
 3811.00    0.81844   0.82556  134.074
 3812.00    0.81181   0.81358  132.414
 3813.00    0.79693   0.79776  127.536
 3814.00    0.78113   0.78485  129.137
 3815.00    0.77684   0.77830  137.736
 3816.00    0.77982   0.77639  145.148
 3817.00    0.80039   0.77440  142.588
 3818.00    0.81347   0.76885   -1.000
 3819.00    0.78182   0.76053  137.122
 3820.00    0.76791   0.75309  148.339
 3821.00    0.77081   0.74813   17.359
 3822.00    0.77837   0.74336   16.215
 3823.00    0.77377   0.73490   16.109
 3824.00    0.75162   0.72148   15.855
 3825.00    0.72893   0.70534   15.594
 3826.00    0.71916   0.68942   15.758
 3827.00    0.71503   0.67426   16.447
 3828.00    0.70714   0.65767   17.736
 3829.00    0.68643   0.63647   18.340
 3830.00    0.66895   0.60801   18.033
 3831.00    0.65235   0.57258   17.320
 3832.00    0.61498   0.53312   16.921
 3833.00    0.57236   0.49640   17.240
 3834.00    0.53157   0.47025   17.658
 3835.00    0.51653   0.46043   17.385
 3836.00    0.53693   0.46864   16.422
 3837.00    0.56509   0.49215   -1.000
 3838.00    0.60354   0.52661   -1.000
 3839.00    0.63667   0.56814   -1.000
 3840.00    0.66261   0.61327   -1.000
 3841.00    0.70047   0.65843   -1.000
 3842.00    0.73958   0.70022   -1.000
 3843.00    0.76927   0.73532   -1.000
 3844.00    0.78343   0.76334  126.393
 3845.00    0.78776   0.78430  131.314
 3846.00    0.80521   0.79975  133.514
 3847.00    0.81647   0.80994  130.615
 3848.00    0.81772   0.81631  127.135
 3849.00    0.81423   0.82063  127.835
 3850.00    0.81206   0.82502   -1.000
 3851.00    0.81921   0.82982   -1.000
 3852.00    0.82889   0.83329  136.984
 3853.00    0.83785   0.83338  141.324
 3854.00    0.84477   0.82964   15.915
 3855.00    0.83828   0.82323   15.968
 3856.00    0.82882   0.81623   15.663
 3857.00    0.82280   0.81044   96.556
 3858.00    0.81353   0.80743  126.467
 3859.00    0.79756   0.80894   -1.000
 3860.00    0.81381   0.81457  121.137
 3861.00    0.83613   0.82276  123.529
 3862.00    0.86212   0.82992  125.410
 3863.00    0.87350   0.83452  127.857
 3864.00    0.87309   0.83643  132.926
 3865.00    0.85880   0.83721  139.818
 3866.00    0.86223   0.83775  149.063
 3867.00    0.86770   0.83748   15.922
 3868.00    0.86349   0.83438  106.027
 3869.00    0.83797   0.82723  134.389
 3870.00    0.82005   0.81643  122.208
 3871.00    0.80717   0.80607  117.471
 3872.00    0.78561   0.80000   -1.000
 3873.00    0.78679   0.80036   -1.000
 3874.00    0.81456   0.80355  140.095
 3875.00    0.83663   0.80406  141.252
 3876.00    0.82249   0.79804  141.228
 3877.00    0.78806   0.78670  144.754
 3878.00    0.76421   0.77385   -1.000
 3879.00    0.77014   0.76196  128.704
 3880.00    0.75841   0.75003  120.958
 3881.00    0.74085   0.73537  123.137
 3882.00    0.73101   0.71563  129.795
 3883.00    0.72655   0.68878   -1.000
 3884.00    0.71404   0.65423   -1.000
 3885.00    0.68636   0.61265   -1.000
 3886.00    0.64277   0.56990   -1.000
 3887.00    0.59109   0.53464   -1.000
 3888.00    0.55879   0.51691   -1.000
 3889.00    0.54650   0.52191  102.872
 3890.00    0.59045   0.54823   -1.000
 3891.00    0.65116   0.58758   -1.000
 3892.00    0.69515   0.63001   -1.000
 3893.00    0.72046   0.66873   -1.000
 3894.00    0.73092   0.70122  100.638
 3895.00    0.74550   0.72868  102.090
 3896.00    0.76744   0.75146  100.597
 3897.00    0.78892   0.77000   99.673
 3898.00    0.79476   0.78476  100.659
 3899.00    0.79708   0.79733  105.070
 3900.00    0.80015   0.80876  107.590
 3901.00    0.82206   0.81857  110.884
 3902.00    0.83300   0.82520  109.894
 3903.00    0.84319   0.82840  103.337
 3904.00    0.83286   0.83050   96.328
 3905.00    0.82170   0.83529   94.107
 3906.00    0.81742   0.84566   -1.000
 3907.00    0.84023   0.86155   -1.000
 3908.00    0.86476   0.87912   91.850
 3909.00    0.87328   0.89415   -1.000
 3910.00    0.88702   0.90329   -1.000
 3911.00    0.89144   0.90594   -1.000
 3912.00    0.88866   0.90342   -1.000
 3913.00    0.88329   0.89835   -1.000
 3914.00    0.87420   0.89306   -1.000
 3915.00    0.88472   0.88883  107.321
 3916.00    0.87392   0.88517   -1.000
 3917.00    0.85506   0.88094   -1.000
 3918.00    0.86704   0.87560   -1.000
 3919.00    0.87255   0.86993  111.435
 3920.00    0.84623   0.86561   -1.000
 3921.00    0.84042   0.86344   -1.000
 3922.00    0.85418   0.86256   -1.000
 3923.00    0.85795   0.86037  133.737
 3924.00    0.85151   0.85364   16.874
 3925.00    0.84056   0.84023   19.791
 3926.00    0.82986   0.81934   23.158
 3927.00    0.77737   0.79157   27.418
 3928.00    0.70275   0.75826   32.037
 3929.00    0.63408   0.71990   -1.000
 3930.00    0.58732   0.67861   -1.000
 3931.00    0.55528   0.63789   28.804
 3932.00    0.50044   0.60574   23.789
 3933.00    0.44674   0.59103   19.539
 3934.00    0.44723   0.59926   16.840
 3935.00    0.51658   0.62831   -1.000
 3936.00    0.61319   0.67068   -1.000
 3937.00    0.68469   0.71632   -1.000
 3938.00    0.73852   0.75814   -1.000
 3939.00    0.78064   0.79192  128.936
 3940.00    0.82187   0.81585  122.116
 3941.00    0.82444   0.83067  110.923
 3942.00    0.82852   0.83841  104.730
 3943.00    0.82794   0.84270   -1.000
 3944.00    0.83661   0.84683  102.855
 3945.00    0.85264   0.85214   99.006
 3946.00    0.86090   0.85800   95.902
 3947.00    0.86521   0.86310   96.463
 3948.00    0.86741   0.86671   97.797
 3949.00    0.87530   0.86875   95.959
 3950.00    0.88035   0.86968   93.665
 3951.00    0.88055   0.87015   94.868
 3952.00    0.86242   0.87052   98.350
 3953.00    0.86216   0.87009   99.759
 3954.00    0.87716   0.86731   98.083
 3955.00    0.87418   0.86139  100.815
 3956.00    0.85448   0.85287  111.965
 3957.00    0.83967   0.84229  126.515
 3958.00    0.84408   0.82816  139.611
 3959.00    0.84196   0.80837  104.509
 3960.00    0.81419   0.78137   15.962
 3961.00    0.77688   0.74854   18.794
 3962.00    0.71901   0.71146   23.211
 3963.00    0.68128   0.66913   28.264
 3964.00    0.63806   0.62032   30.886
 3965.00    0.58019   0.56335   28.392
 3966.00    0.50654   0.50340   23.355
 3967.00    0.42542   0.44959   19.205
 3968.00    0.36420   0.41360   17.120
 3969.00    0.34647   0.40361   -1.000
 3970.00    0.38915   0.42172   -1.000
 3971.00    0.47512   0.46286  111.043
 3972.00    0.56797   0.51859   -1.000
 3973.00    0.64632   0.57997   -1.000
 3974.00    0.70037   0.63965   -1.000
 3975.00    0.74738   0.69428   -1.000
 3976.00    0.78507   0.74143   -1.000
 3977.00    0.80868   0.78157   86.666
 3978.00    0.83672   0.81408   88.223
 3979.00    0.86528   0.83881   87.438
 3980.00    0.87205   0.85612   85.586
 3981.00    0.88514   0.86788   83.920
 3982.00    0.88956   0.87743   82.550
 3983.00    0.89587   0.88724   81.014
 3984.00    0.90403   0.89790   80.337
 3985.00    0.92370   0.90880   80.602
 3986.00    0.92600   0.91898   79.958
 3987.00    0.92948   0.92855   78.051
 3988.00    0.93744   0.93740   76.372
 3989.00    0.94365   0.94588   77.448
 3990.00    0.95865   0.95384   79.349
 3991.00    0.96582   0.96078   81.152
 3992.00    0.96354   0.96543   82.629
 3993.00    0.97444   0.96653   83.077
 3994.00    0.96224   0.96396   80.952
 3995.00    0.94590   0.95929   77.249
 3996.00    0.94291   0.95545   74.778
 3997.00    0.93494   0.95513   -1.000
 3998.00    0.93866   0.95881   -1.000
 3999.00    0.95636   0.96517   74.625
 4000.00    0.96812   0.97096   79.748
 4001.00    0.97233   0.97332   83.396
 4002.00    0.97979   0.97032   82.196
 4003.00    0.97495   0.96323   77.452
 4004.00    0.96309   0.95499   74.624
 4005.00    0.95027   0.95117   73.712
 4006.00    0.93873   0.95421   72.973
 4007.00    0.95672   0.96328   72.821
 4008.00    1.00426   0.97463   73.357
 4009.00    0.99523   0.98435   73.655
 4010.00    0.99614   0.99086   73.023
 4011.00    0.99450   0.99465   72.138
 4012.00    0.99676   0.99722   72.842
 4013.00    0.98304   0.99980   73.622
 4014.00    0.98685   1.00263   73.144
 4015.00    0.99871   1.00593   72.123
 4016.00    1.00554   1.00947   72.432
 4017.00    1.00428   1.01349   73.459
 4018.00    1.00960   1.01726   73.876
 4019.00    1.01024   1.01974   74.374
 4020.00    1.01017   1.01938   74.677
 4021.00    1.00351   1.01559   72.653
 4022.00    0.99726   1.00906   70.158
 4023.00    0.99259   1.00198   69.006
 4024.00    0.98622   0.99750   69.946
 4025.00    0.98253   0.99720   -1.000
 4026.00    1.00000   1.00005   78.026
 4027.00    1.01028   1.00210   80.978
 4028.00    1.00554   1.00015   81.637
 4029.00    0.99036   0.99378   80.334
 4030.00    0.97021   0.98542   -1.000
 4031.00    0.96292   0.97960   -1.000
 4032.00    0.95822   0.97892   -1.000
 4033.00    0.95876   0.98496   -1.000
 4034.00    0.96719   0.99660   -1.000
 4035.00    0.98455   1.01195   -1.000
 4036.00    1.00906   1.02761   71.032
 4037.00    1.01489   1.03992   -1.000
 4038.00    1.02041   1.04603   -1.000
 4039.00    1.02147   1.04605   -1.000
 4040.00    1.01589   1.04092   -1.000
 4041.00    1.01583   1.03135   -1.000
 4042.00    1.00541   1.01784   -1.000
 4043.00    0.98578   1.00085   -1.000
 4044.00    0.96326   0.98609   -1.000
 4045.00    0.95398   0.97921   -1.000
 4046.00    0.95328   0.98380   -1.000
 4047.00    0.97132   0.99770   -1.000
 4048.00    0.99938   1.01432   72.507
 4049.00    1.01781   1.02746   74.280
 4050.00    1.01682   1.03345   -1.000
 4051.00    1.01966   1.03251   75.905
 4052.00    1.01863   1.02689   76.458
 4053.00    1.00841   1.02036   77.015
 4054.00    1.00461   1.01531   75.762
 4055.00    1.00267   1.01259   73.137
 4056.00    0.99696   1.01255   72.125
 4057.00    0.99479   1.01442   -1.000
 4058.00    1.00246   1.01703   79.594
 4059.00    1.02006   1.01761   84.063
 4060.00    1.02792   1.01273   82.100
 4061.00    1.01031   1.00245   78.283
 4062.00    0.99026   0.98854   76.393
 4063.00    0.96526   0.97631   74.249
 4064.00    0.95542   0.96908   72.067
 4065.00    0.97911   0.96851   71.777
 4066.00    0.98522   0.97265   74.815
 4067.00    0.98827   0.97854   77.625
 4068.00    1.00066   0.98221   76.562
 4069.00    1.00090   0.98116   74.064
 4070.00    0.99171   0.97636   74.374
 4071.00    0.98228   0.97073   78.562
 4072.00    0.98525   0.96682   84.694
 4073.00    0.99090   0.96367   86.197
 4074.00    0.98555   0.95846   82.639
 4075.00    0.96658   0.95051   76.857
 4076.00    0.95425   0.94245   72.072
 4077.00    0.94318   0.93980   70.541
 4078.00    0.93879   0.94520   72.045
 4079.00    0.96345   0.95733   74.332
 4080.00    0.98991   0.96995   75.029
 4081.00    1.00377   0.97790   73.584
 4082.00    1.00535   0.97899   70.983
 4083.00    0.98407   0.97575   68.318
 4084.00    0.97230   0.97274   66.580
 4085.00    0.96816   0.97293   67.148
 4086.00    0.96607   0.97663   68.554
 4087.00    0.97912   0.98064   69.742
 4088.00    0.99068   0.98183   70.381
 4089.00    0.99288   0.97781   70.650
 4090.00    0.98065   0.96903   72.351
 4091.00    0.95662   0.95636   75.595
 4092.00    0.95209   0.94006   77.728
 4093.00    0.95134   0.91970   78.367
 4094.00    0.93478   0.89384   80.240
 4095.00    0.91710   0.86258   -1.000
 4096.00    0.89268   0.82557   -1.000
 4097.00    0.87048   0.78301   -1.000
 4098.00    0.83275   0.73605   -1.000
 4099.00    0.77442   0.68865   -1.000
 4100.00    0.71445   0.65000   -1.000
 4101.00    0.65644   0.63076   76.080
 4102.00    0.64386   0.63752   74.191
 4103.00    0.70557   0.66894   74.094
 4104.00    0.78022   0.71509   -1.000
 4105.00    0.82939   0.76415   -1.000
 4106.00    0.86438   0.80782   -1.000
 4107.00    0.88416   0.84215   75.916
 4108.00    0.89389   0.86837   74.256
 4109.00    0.90702   0.88929   73.019
 4110.00    0.92058   0.90762   71.984
 4111.00    0.93949   0.92538   71.514
 4112.00    0.95701   0.94268   72.145
 4113.00    0.95972   0.95927   73.917
 4114.00    0.96947   0.97316   76.115
 4115.00    0.99149   0.98288   76.558
 4116.00    0.99237   0.98733   75.580
 4117.00    0.97586   0.98750   74.988
 4118.00    0.96903   0.98569   74.896
 4119.00    0.97242   0.98449   73.945
 4120.00    0.98351   0.98531   72.846
 4121.00    0.99161   0.98820   72.900
 4122.00    0.99071   0.99271   74.056
 4123.00    0.98982   0.99774   75.463
 4124.00    0.99771   1.00166   76.004
 4125.00    1.01140   1.00248   76.510
 4126.00    1.01363   0.99974   77.820
 4127.00    1.00877   0.99454   80.337
 4128.00    0.99577   0.98880   82.352
 4129.00    0.99356   0.98364   81.811
 4130.00    0.98847   0.97939   78.680
 4131.00    0.98085   0.97716   74.985
 4132.00    0.98104   0.97886   72.867
 4133.00    0.97474   0.98639   71.732
 4134.00    0.98680   0.99922   70.806
 4135.00    1.01619   1.01546   70.954
 4136.00    1.02612   1.03120   72.994
 4137.00    1.02333   1.04374   -1.000
 4138.00    1.03802   1.05034   83.569
 4139.00    1.04491   1.04932   86.070
 4140.00    1.03243   1.04021   82.194
 4141.00    1.01708   1.02598   77.644
 4142.00    0.99351   1.01134   -1.000
 4143.00    0.97455   1.00279   -1.000
 4144.00    0.98016   1.00323   -1.000
 4145.00    1.00978   1.01051   78.670
 4146.00    1.01750   1.02016   79.228
 4147.00    1.01377   1.02759   78.636
 4148.00    1.01420   1.03169   -1.000
 4149.00    1.00835   1.03346   -1.000
 4150.00    1.03658   1.03385   79.877
 4151.00    1.20494   1.03305   -1.000
 4152.00    1.24258   1.03084   -1.000
 4153.00    0.88674   1.02801   -1.000
 4154.00    0.78850   1.02643   -1.000
 4155.00    1.02166   1.02788   75.881
 4156.00    1.05506   1.03266   74.880
 4157.00    1.01590   1.03992   -1.000
 4158.00    1.02891   1.04761   72.463
 4159.00    1.03465   1.05411   -1.000
 4160.00    1.03718   1.05900   -1.000
 4161.00    1.04651   1.06265   75.595
 4162.00    1.04483   1.06547   -1.000
 4163.00    1.03640   1.06732   -1.000
 4164.00    1.03475   1.06745   -1.000
 4165.00    1.03855   1.06525   -1.000
 4166.00    1.03898   1.06080   -1.000
 4167.00    1.03287   1.05483   -1.000
 4168.00    1.02889   1.04694   -1.000
 4169.00    1.02528   1.03591   85.843
 4170.00    1.02870   1.02206   82.646
 4171.00    1.01649   1.00755   80.454
 4172.00    0.98485   0.99732   80.619
 4173.00    0.97395   0.99445   -1.000
 4174.00    0.98639   0.99841   80.249
 4175.00    1.00132   1.00546   79.094
 4176.00    1.00523   1.01206   78.577
 4177.00    0.99608   1.01730   -1.000
 4178.00    0.99942   1.02217   -1.000
 4179.00    1.02026   1.02708   75.793
 4180.00    1.03009   1.03177   74.869
 4181.00    1.02397   1.03550   75.706
 4182.00    1.01612   1.03843   -1.000
 4183.00    1.01258   1.04074   -1.000
 4184.00    1.01747   1.04161   -1.000
 4185.00    1.02066   1.04068   -1.000
 4186.00    1.01216   1.03817   -1.000
 4187.00    1.00756   1.03595   -1.000
 4188.00    1.00977   1.03566   -1.000
 4189.00    1.01825   1.03773   -1.000
 4190.00    1.02221   1.04179   -1.000
 4191.00    1.02295   1.04639   -1.000
 4192.00    1.03296   1.04924   -1.000
 4193.00    1.03494   1.04811   83.443
 4194.00    1.03164   1.04175   83.252
 4195.00    1.02699   1.03069   82.172
 4196.00    1.01687   1.01760   81.168
 4197.00    1.00233   1.00537   80.890
 4198.00    0.99220   0.99662   80.122
 4199.00    0.99330   0.99251   79.044
 4200.00    0.99597   0.99278   78.195
 4201.00    0.99643   0.99677   76.497
 4202.00    0.99715   1.00400   74.698
 4203.00    1.00055   1.01386   73.594
 4204.00    1.00560   1.02544   -1.000
 4205.00    1.01016   1.03757   -1.000
 4206.00    1.01468   1.04837   -1.000
 4207.00    1.01870   1.05642   -1.000
 4208.00    1.02459   1.06137   -1.000
 4209.00    1.02792   1.06401   -1.000
 4210.00    1.02777   1.06517   -1.000
 4211.00    1.03138   1.06466   -1.000
 4212.00    1.03727   1.06132   -1.000
 4213.00    1.03459   1.05466   -1.000
 4214.00    1.02169   1.04684   -1.000
 4215.00    1.01094   1.04162   -1.000
 4216.00    1.00148   1.04236   -1.000
 4217.00    1.00757   1.04934   -1.000
 4218.00    1.02512   1.05877   -1.000
 4219.00    1.03380   1.06596   -1.000
 4220.00    1.04178   1.06633   -1.000
 4221.00    1.04054   1.05724   -1.000
 4222.00    1.02582   1.03863   -1.000
 4223.00    1.00910   1.01359   91.598
 4224.00    0.99327   0.98788   80.104
 4225.00    0.96593   0.96950   73.360
 4226.00    0.93272   0.96486   -1.000
 4227.00    0.93236   0.97601   -1.000
 4228.00    0.96888   0.99696   -1.000
 4229.00    1.01002   1.01898   74.281
 4230.00    1.02778   1.03384   75.318
 4231.00    1.02809   1.03833   76.997
 4232.00    1.02248   1.03507   77.703
 4233.00    1.01458   1.02904   76.623
 4234.00    1.01305   1.02439   75.030
 4235.00    1.00954   1.02312   73.853
 4236.00    1.01025   1.02537   72.561
 4237.00    1.01121   1.03070   71.830
 4238.00    1.01518   1.03787   71.209
 4239.00    1.02426   1.04594   69.849
 4240.00    1.03740   1.05358   69.133
 4241.00    1.03701   1.06006   70.791
 4242.00    1.03227   1.06490   -1.000
 4243.00    1.03248   1.06703   -1.000
 4244.00    1.03727   1.06521   -1.000
 4245.00    1.03460   1.05887   -1.000
 4246.00    1.01679   1.04952   -1.000
 4247.00    1.00150   1.04034   -1.000
 4248.00    0.99605   1.03415   -1.000
 4249.00    0.99118   1.03237   -1.000
 4250.00    0.98935   1.03405   -1.000
 4251.00    1.00180   1.03728   -1.000
 4252.00    1.01909   1.03958   72.023
 4253.00    1.02442   1.04053   72.718
 4254.00    1.02392   1.04124   76.090
 4255.00    1.02073   1.04171   -1.000
 4256.00    1.02344   1.04104   79.658
 4257.00    1.02713   1.03781   75.735
 4258.00    1.02234   1.03260   71.368
 4259.00    1.01176   1.02890   68.666
 4260.00    1.00909   1.03067   67.650
 4261.00    1.01592   1.04002   68.005
 4262.00    1.02695   1.05430   -1.000
 4263.00    1.04035   1.06900   -1.000
 4264.00    1.05377   1.07916   -1.000
 4265.00    1.05654   1.08206   -1.000
 4266.00    1.04904   1.07728   -1.000
 4267.00    1.03528   1.06565   -1.000
 4268.00    1.02576   1.04885   -1.000
 4269.00    1.01418   1.02959   84.111
 4270.00    1.00096   1.01111   81.330
 4271.00    0.97923   0.99764   76.959
 4272.00    0.96822   0.99225   -1.000
 4273.00    0.97604   0.99566   70.420
 4274.00    0.99052   1.00691   71.702
 4275.00    1.00175   1.02319   74.768
 4276.00    1.02138   1.03977   76.407
 4277.00    1.03857   1.05246   76.019
 4278.00    1.04224   1.05878   75.051
 4279.00    1.03005   1.05940   -1.000
 4280.00    1.01564   1.05665   -1.000
 4281.00    1.01416   1.05328   -1.000
 4282.00    1.01664   1.04990   -1.000
 4283.00    1.01803   1.04581   -1.000
 4284.00    1.01559   1.03998   -1.000
 4285.00    1.00741   1.03108   -1.000
 4286.00    0.99797   1.01944   -1.000
 4287.00    0.99267   1.00615   81.689
 4288.00    0.97797   0.99365   77.926
 4289.00    0.95977   0.98583   -1.000
 4290.00    0.94827   0.98488   -1.000
 4291.00    0.96003   0.98937   -1.000
 4292.00    0.98098   0.99534   82.728
 4293.00    0.98855   0.99824   88.201
 4294.00    0.98967   0.99564   95.588
 4295.00    0.99111   0.98697  100.260
 4296.00    0.98241   0.97324   99.538
 4297.00    0.96223   0.95574   97.047
 4298.00    0.94157   0.93723   95.619
 4299.00    0.91453   0.92107   94.287
 4300.00    0.89366   0.91052   93.800
 4301.00    0.89580   0.90704   95.436
 4302.00    0.90577   0.90983   99.629
 4303.00    0.91665   0.91593  103.895
 4304.00    0.92956   0.92100  104.395
 4305.00    0.93344   0.92211  100.608
 4306.00    0.92376   0.91945   94.552
 4307.00    0.90367   0.91599   88.940
 4308.00    0.89459   0.91600   84.884
 4309.00    0.90000   0.92177   80.829
 4310.00    0.91769   0.93270   75.010
 4311.00    0.92903   0.94735   68.781
 4312.00    0.94362   0.96533   64.834
 4313.00    0.95450   0.98718   63.615
 4314.00    0.95638   1.01368   -1.000
 4315.00    0.98604   1.04195   -1.000
 4316.00    1.02565   1.06717   -1.000
 4317.00    1.04974   1.08423   -1.000
 4318.00    1.05551   1.09012   -1.000
 4319.00    1.04603   1.08507   -1.000
 4320.00    1.03767   1.07081   -1.000
 4321.00    1.03612   1.04982   85.031
 4322.00    1.02441   1.02527   77.607
 4323.00    0.99660   1.00171   70.488
 4324.00    0.96702   0.98517   67.168
 4325.00    0.95659   0.98029   66.697
 4326.00    0.96917   0.98761   66.738
 4327.00    0.99187   1.00152   65.975
 4328.00    1.01350   1.01522   65.007
 4329.00    1.02688   1.02329   64.597
 4330.00    1.01275   1.02410   65.038
 4331.00    0.99993   1.01851   67.563
 4332.00    1.00365   1.00652   73.032
 4333.00    0.99442   0.98654   80.117
 4334.00    0.98038   0.95552   87.204
 4335.00    0.95896   0.91160   -1.000
 4336.00    0.91813   0.85652   -1.000
 4337.00    0.86805   0.79798   -1.000
 4338.00    0.80417   0.74678   -1.000
 4339.00    0.73305   0.71457   71.655
 4340.00    0.69432   0.70927   69.606
 4341.00    0.71905   0.73092   68.053
 4342.00    0.79146   0.77189   67.128
 4343.00    0.85631   0.82234   66.244
 4344.00    0.89654   0.87318   65.735
 4345.00    0.93356   0.91851   67.561
 4346.00    0.96672   0.95563   72.077
 4347.00    0.98521   0.98265   75.492
 4348.00    0.99371   0.99848   74.379
 4349.00    0.99950   1.00391   71.037
 4350.00    0.99363   1.00339   68.303
 4351.00    0.98204   1.00369   66.560
 4352.00    0.97852   1.00979   65.872
 4353.00    0.99230   1.02300   66.626
 4354.00    1.01789   1.04028   67.833
 4355.00    1.03674   1.05720   67.597
 4356.00    1.04939   1.07054   65.840
 4357.00    1.05127   1.07977   64.426
 4358.00    1.04190   1.08681   -1.000
 4359.00    1.03986   1.09399   -1.000
 4360.00    1.04521   1.10244   -1.000
 4361.00    1.05435   1.11156   -1.000
 4362.00    1.06529   1.12006   -1.000
 4363.00    1.06745   1.12604   -1.000
 4364.00    1.07219   1.12746   -1.000
 4365.00    1.07982   1.12349   -1.000
 4366.00    1.07555   1.11532   -1.000
 4367.00    1.06474   1.10511   -1.000
 4368.00    1.05751   1.09512   -1.000
 4369.00    1.05638   1.08655   -1.000
 4370.00    1.05720   1.07881   73.439
 4371.00    1.05960   1.07053   71.809
 4372.00    1.05782   1.06140   68.406
 4373.00    1.04690   1.05338   66.073
 4374.00    1.03336   1.04995   65.763
 4375.00    1.02665   1.05349   66.603
 4376.00    1.03562   1.06262   68.801
 4377.00    1.05241   1.07299   74.269
 4378.00    1.06419   1.07872   82.828
 4379.00    1.07403   1.07470   87.919
 4380.00    1.07678   1.05905   83.724
 4381.00    1.06407   1.03452   75.644
 4382.00    1.03531   1.00799   70.922
 4383.00    1.00344   0.98888   69.964
 4384.00    0.99531   0.98326   70.452
 4385.00    1.01722   0.99072   70.965
 4386.00    1.04229   1.00639   70.332
 4387.00    1.05867   1.02344   68.794
 4388.00    1.07226   1.03734   68.283
 4389.00    1.07030   1.04713   69.369
 4390.00    1.05973   1.05406   70.008
 4391.00    1.06482   1.05927   68.099
 4392.00    1.07496   1.06255   65.485
 4393.00    1.06986   1.06473   65.097
 4394.00    1.05966   1.06758   66.894
 4395.00    1.05426   1.07185   69.179
 4396.00    1.06280   1.07646   69.690
 4397.00    1.07959   1.07918   68.537
 4398.00    1.07816   1.07886   69.199
 4399.00    1.06577   1.07617   72.631
 4400.00    1.06085   1.07273   75.009
 4401.00    1.06374   1.06922   73.786
 4402.00    1.07421   1.06498   71.965
 4403.00    1.07414   1.06026   71.187
 4404.00    1.05624   1.05657   69.410
 4405.00    1.04800   1.05571   66.502
 4406.00    1.05844   1.05911   63.965
 4407.00    1.06139   1.06698   62.582
 4408.00    1.06368   1.07855   63.197
 4409.00    1.07617   1.09172   66.040
 4410.00    1.08664   1.10290   69.171
 4411.00    1.09628   1.10854   70.031
 4412.00    1.09998   1.10614   68.394
 4413.00    1.09111   1.09617   65.681
 4414.00    1.06697   1.08354   63.423
 4415.00    1.04502   1.07493   -1.000
 4416.00    1.04190   1.07497   -1.000
 4417.00    1.05217   1.08419   -1.000
 4418.00    1.06695   1.09890   -1.000
 4419.00    1.08067   1.11271   -1.000
 4420.00    1.08530   1.12125   -1.000
 4421.00    1.08302   1.12418   -1.000
 4422.00    1.07957   1.12333   -1.000
 4423.00    1.07536   1.12133   -1.000
 4424.00    1.07721   1.11975   -1.000
 4425.00    1.07810   1.11899   -1.000
 4426.00    1.07274   1.11919   -1.000
 4427.00    1.07504   1.11999   -1.000
 4428.00    1.08290   1.12115   -1.000
 4429.00    1.08442   1.12219   -1.000
 4430.00    1.08691   1.12201   -1.000
 4431.00    1.09451   1.11971   69.263
 4432.00    1.09768   1.11522   65.503
 4433.00    1.08616   1.11018   62.162
 4434.00    1.06259   1.10812   -1.000
 4435.00    1.05551   1.11184   -1.000
 4436.00    1.07268   1.12117   -1.000
 4437.00    1.09627   1.13264   -1.000
 4438.00    1.11514   1.14086   68.987
 4439.00    1.12133   1.14160   67.483
 4440.00    1.11297   1.13462   64.662
 4441.00    1.09375   1.12437   -1.000
 4442.00    1.06748   1.11714   -1.000
 4443.00    1.05389   1.11758   -1.000
 4444.00    1.06657   1.12590   -1.000
 4445.00    1.08734   1.13824   -1.000
 4446.00    1.10292   1.14993   -1.000
 4447.00    1.11647   1.15757   -1.000
 4448.00    1.11969   1.16019   -1.000
 4449.00    1.10900   1.15872   -1.000
 4450.00    1.10197   1.15439   -1.000
 4451.00    1.10507   1.14727   -1.000
 4452.00    1.11189   1.13703   68.683
 4453.00    1.11042   1.12502   68.210
 4454.00    1.09106   1.11403   68.477
 4455.00    1.07866   1.10671   -1.000
 4456.00    1.08782   1.10427   69.731
 4457.00    1.09951   1.10587   69.144
 4458.00    1.10087   1.10973   66.886
 4459.00    1.09575   1.11407   64.850
 4460.00    1.09305   1.11836   64.213
 4461.00    1.09012   1.12315   -1.000
 4462.00    1.09382   1.12863   -1.000
 4463.00    1.10572   1.13388   65.777
 4464.00    1.11161   1.13736   66.539
 4465.00    1.11085   1.13769   66.102
 4466.00    1.10597   1.13457   64.425
 4467.00    1.09901   1.12978   62.238
 4468.00    1.09296   1.12651   -1.000
 4469.00    1.09245   1.12772   -1.000
 4470.00    1.09770   1.13472   -1.000
 4471.00    1.10990   1.14685   -1.000
 4472.00    1.12982   1.16157   58.632
 4473.00    1.14185   1.17555   58.830
 4474.00    1.14515   1.18619   -1.000
 4475.00    1.14834   1.19201   -1.000
 4476.00    1.14427   1.19206   -1.000
 4477.00    1.14278   1.18582   -1.000
 4478.00    1.14883   1.17383   63.356
 4479.00    1.14499   1.15898   60.801
 4480.00    1.12806   1.14661   59.134
 4481.00    1.11506   1.14196   58.736
 4482.00    1.11009   1.14699   -1.000
 4483.00    1.12011   1.15989   -1.000
 4484.00    1.13588   1.17521   -1.000
 4485.00    1.14515   1.18645   -1.000
 4486.00    1.15104   1.19010   -1.000
 4487.00    1.14182   1.18672   -1.000
 4488.00    1.12554   1.18009   -1.000
 4489.00    1.11631   1.17464   -1.000
 4490.00    1.12345   1.17299   -1.000
 4491.00    1.13941   1.17484   -1.000
 4492.00    1.14627   1.17805   -1.000
 4493.00    1.13619   1.18065   -1.000
 4494.00    1.12385   1.18258   -1.000
 4495.00    1.11835   1.18454   -1.000
 4496.00    1.12279   1.18696   -1.000
 4497.00    1.13627   1.18981   -1.000
 4498.00    1.14715   1.19213   -1.000
 4499.00    1.14678   1.19381   -1.000
 4500.00    1.13904   1.19642   -1.000
 4501.00    1.13915   1.20183   -1.000
 4502.00    1.15242   1.21032   -1.000
 4503.00    1.16628   1.22026   -1.000
 4504.00    1.16978   1.22885   -1.000
 4505.00    1.17120   1.23360   -1.000
 4506.00    1.16786   1.23418   -1.000
 4507.00    1.16394   1.23232   -1.000
 4508.00    1.16296   1.23035   -1.000
 4509.00    1.16009   1.22899   -1.000
 4510.00    1.16774   1.22759   -1.000
 4511.00    1.17189   1.22502   -1.000
 4512.00    1.16901   1.22045   -1.000
 4513.00    1.16865   1.21426   -1.000
 4514.00    1.15976   1.20799   -1.000
 4515.00    1.15136   1.20307   -1.000
 4516.00    1.14674   1.19969   -1.000
 4517.00    1.14306   1.19747   -1.000
 4518.00    1.14813   1.19616   -1.000
 4519.00    1.15442   1.19506   -1.000
 4520.00    1.15352   1.19344   -1.000
 4521.00    1.14117   1.19087   -1.000
 4522.00    1.14189   1.18705   -1.000
 4523.00    1.14808   1.18181   -1.000
 4524.00    1.14067   1.17484   -1.000
 4525.00    1.13311   1.16606   -1.000
 4526.00    1.12915   1.15615   65.207
 4527.00    1.12565   1.14664   64.599
 4528.00    1.11915   1.13946   65.726
 4529.00    1.11929   1.13577   67.892
 4530.00    1.12238   1.13478   68.048
 4531.00    1.12516   1.13461   65.025
 4532.00    1.12773   1.13415   61.161
 4533.00    1.11134   1.13479   58.885
 4534.00    1.09018   1.13917   -1.000
 4535.00    1.09361   1.14930   -1.000
 4536.00    1.11896   1.16451   -1.000
 4537.00    1.13967   1.18102   -1.000
 4538.00    1.20148   1.19429   59.780
 4539.00    0.87994   1.20170   -1.000
 4540.00    0.22053   1.20381   -1.000
 4541.00   -0.04113   1.20275    0.000
 4542.00    0.33939   1.20059   -1.000
 4543.00    0.69677   1.19807   -1.000
 4544.00    0.51454   1.19500   -1.000
 4545.00    0.91576   1.19060   -1.000
 4546.00    1.17167   1.18411   64.728
 4547.00    1.14337   1.17591   62.494
 4548.00    1.12734   1.16804   -1.000
 4549.00    1.11486   1.16302   -1.000
 4550.00    1.11626   1.16174   -1.000
 4551.00    1.13507   1.16285   61.565
 4552.00    1.14581   1.16461   59.121
 4553.00    1.13324   1.16624   57.673
 4554.00    1.12388   1.16858   -1.000
 4555.00    1.12585   1.17378   -1.000
 4556.00    1.14176   1.18311   -1.000
 4557.00    1.15711   1.19558   -1.000
 4558.00    1.16572   1.20876   -1.000
 4559.00    1.17591   1.21968   -1.000
 4560.00    1.17826   1.22573   -1.000
 4561.00    1.17723   1.22598   -1.000
 4562.00    1.16607   1.22160   -1.000
 4563.00    1.15444   1.21556   -1.000
 4564.00    1.15175   1.21118   -1.000
 4565.00    1.15619   1.21079   -1.000
 4566.00    1.16524   1.21435   -1.000
 4567.00    1.17608   1.21941   -1.000
 4568.00    1.17950   1.22265   -1.000
 4569.00    1.16954   1.22208   -1.000
 4570.00    1.15526   1.21825   -1.000
 4571.00    1.14496   1.21432   -1.000
 4572.00    1.14154   1.21325   -1.000
 4573.00    1.15113   1.21551   -1.000
 4574.00    1.17253   1.21959   -1.000
 4575.00    1.18254   1.22316   -1.000
 4576.00    1.17903   1.22373   -1.000
 4577.00    1.17491   1.21972   -1.000
 4578.00    1.17335   1.21152   -1.000
 4579.00    1.17096   1.20073   61.073
 4580.00    1.15925   1.18957   61.415
 4581.00    1.15639   1.18011   60.904
 4582.00    1.15073   1.17435   59.483
 4583.00    1.15145   1.17327   58.123
 4584.00    1.15470   1.17656   57.729
 4585.00    1.16240   1.18291   58.342
 4586.00    1.17528   1.19082   59.387
 4587.00    1.18178   1.19849   60.454
 4588.00    1.17667   1.20443   60.779
 4589.00    1.17309   1.20773   60.396
 4590.00    1.17199   1.20851   59.900
 4591.00    1.16102   1.20783   -1.000
 4592.00    1.15814   1.20730   -1.000
 4593.00    1.16260   1.20811   -1.000
 4594.00    1.16731   1.21065   -1.000
 4595.00    1.17281   1.21444   -1.000
 4596.00    1.17684   1.21839   -1.000
 4597.00    1.17969   1.22108   -1.000
 4598.00    1.18981   1.22184   59.441
 4599.00    1.19623   1.22073   59.343
 4600.00    1.18558   1.21863   59.307
 4601.00    1.17148   1.21670   -1.000
 4602.00    1.16289   1.21600   -1.000
 4603.00    1.16720   1.21707   -1.000
 4604.00    1.17708   1.22013   -1.000
 4605.00    1.18173   1.22504   -1.000
 4606.00    1.18907   1.23133   -1.000
 4607.00    1.18896   1.23819   -1.000
 4608.00    1.18686   1.24447   -1.000
 4609.00    1.19694   1.24871   -1.000
 4610.00    1.20243   1.25030   -1.000
 4611.00    1.19686   1.24956   -1.000
 4612.00    1.19325   1.24744   -1.000
 4613.00    1.19410   1.24475   -1.000
 4614.00    1.19448   1.24196   -1.000
 4615.00    1.18711   1.23898   -1.000
 4616.00    1.18574   1.23587   -1.000
 4617.00    1.18826   1.23319   -1.000
 4618.00    1.19121   1.23205   55.959
 4619.00    1.19124   1.23359   -1.000
 4620.00    1.19525   1.23795   -1.000
 4621.00    1.20351   1.24388   56.735
 4622.00    1.20896   1.24951   56.738
 4623.00    1.20998   1.25341   -1.000
 4624.00    1.20195   1.25471   -1.000
 4625.00    1.19515   1.25348   -1.000
 4626.00    1.19480   1.25059   -1.000
 4627.00    1.19873   1.24728   -1.000
 4628.00    1.19489   1.24470   -1.000
 4629.00    1.18208   1.24383   -1.000
 4630.00    1.18482   1.24456   -1.000
 4631.00    1.20166   1.24559   -1.000
 4632.00    1.20335   1.24557   -1.000
 4633.00    1.20369   1.24414   -1.000
 4634.00    1.19828   1.24183   -1.000
 4635.00    1.19505   1.23944   -1.000
 4636.00    1.19450   1.23812   -1.000
 4637.00    1.19452   1.23866   -1.000
 4638.00    1.19903   1.24127   -1.000
 4639.00    1.20614   1.24555   57.181
 4640.00    1.20627   1.25075   -1.000
 4641.00    1.20762   1.25520   -1.000
 4642.00    1.20642   1.25698   -1.000
 4643.00    1.20905   1.25485   -1.000
 4644.00    1.21187   1.24881   58.707
 4645.00    1.20008   1.24024   -1.000
 4646.00    1.19286   1.23219   -1.000
 4647.00    1.18702   1.22770   -1.000
 4648.00    1.18961   1.22807   57.963
 4649.00    1.19554   1.23251   59.194
 4650.00    1.19799   1.23866   -1.000
 4651.00    1.19698   1.24385   -1.000
 4652.00    1.18876   1.24622   -1.000
 4653.00    1.18849   1.24572   -1.000
 4654.00    1.18480   1.24406   -1.000
 4655.00    1.17872   1.24407   -1.000
 4656.00    1.18262   1.24789   -1.000
 4657.00    1.19761   1.25593   -1.000
 4658.00    1.21519   1.26599   -1.000
 4659.00    1.21459   1.27475   -1.000
 4660.00    1.21327   1.27916   -1.000
 4661.00    1.21353   1.27778   -1.000
 4662.00    1.20946   1.27077   -1.000
 4663.00    1.21239   1.25960   -1.000
 4664.00    1.21558   1.24571   61.953
 4665.00    1.20943   1.23093   59.449
 4666.00    1.19757   1.21781   57.673
 4667.00    1.18602   1.20932   57.123
 4668.00    1.17616   1.20734   57.114
 4669.00    1.18428   1.21232   57.077
 4670.00    1.19363   1.22245   56.449
 4671.00    1.19938   1.23474   55.608
 4672.00    1.21066   1.24626   55.691
 4673.00    1.20557   1.25547   -1.000
 4674.00    1.21025   1.26174   -1.000
 4675.00    1.21750   1.26451   -1.000
 4676.00    1.21931   1.26344   -1.000
 4677.00    1.21856   1.25885   59.014
 4678.00    1.21127   1.25198   57.627
 4679.00    1.20616   1.24470   56.746
 4680.00    1.20101   1.23895   56.793
 4681.00    1.19799   1.23615   56.855
 4682.00    1.20160   1.23644   57.129
 4683.00    1.21072   1.23888   57.188
 4684.00    1.21327   1.24216   57.189
 4685.00    1.21744   1.24543   57.539
 4686.00    1.23072   1.24823   57.710
 4687.00    1.22791   1.25040   57.146
 4688.00    1.22190   1.25203   56.310
 4689.00    1.22388   1.25316   55.113
 4690.00    1.22114   1.25409   54.324
 4691.00    1.21518   1.25528   54.450
 4692.00    1.21120   1.25697   -1.000
 4693.00    1.21649   1.25888   57.534
 4694.00    1.22716   1.26039   58.368
 4695.00    1.23283   1.26041   58.056
 4696.00    1.23651   1.25777   58.346
 4697.00    1.22583   1.25248   59.306
 4698.00    1.22466   1.24521   59.731
 4699.00    1.21861   1.23706   58.792
 4700.00    1.21153   1.22904   57.873
 4701.00    1.21125   1.22254   58.445
 4702.00    1.20765   1.21877   59.592
 4703.00    1.19993   1.21804   60.260
 4704.00    1.20596   1.21924   60.061
 4705.00    1.21282   1.22076   58.474
 4706.00    1.21131   1.22158   56.837
 4707.00    1.20647   1.22202   56.141
 4708.00    1.19491   1.22315   56.541
 4709.00    1.19900   1.22585   57.557
 4710.00    1.21691   1.23038   57.709
 4711.00    1.22427   1.23558   56.697
 4712.00    1.22767   1.24012   55.590
 4713.00    1.22986   1.24373   55.153
 4714.00    1.22042   1.24732   54.946
 4715.00    1.21692   1.25202   54.758
 4716.00    1.22030   1.25792   55.143
 4717.00    1.21938   1.26447   55.553
 4718.00    1.22367   1.27043   -1.000
 4719.00    1.22204   1.27493   -1.000
 4720.00    1.21616   1.27767   -1.000
 4721.00    1.21804   1.27911   -1.000
 4722.00    1.21137   1.27977   -1.000
 4723.00    1.21176   1.27948   -1.000
 4724.00    1.22386   1.27747   -1.000
 4725.00    1.22463   1.27269   -1.000
 4726.00    1.22661   1.26514   58.298
 4727.00    1.22298   1.25606   57.622
 4728.00    1.21476   1.24740   57.097
 4729.00    1.21809   1.24088   56.755
 4730.00    1.22474   1.23784   56.439
 4731.00    1.22588   1.23844   56.947
 4732.00    1.22116   1.24142   57.087
 4733.00    1.22669   1.24503   56.426
 4734.00    1.22530   1.24808   56.364
 4735.00    1.22154   1.25011   56.668
 4736.00    1.21876   1.25155   56.772
 4737.00    1.21320   1.25319   56.368
 4738.00    1.22792   1.25552   55.762
 4739.00    1.23575   1.25841   55.801
 4740.00    1.23195   1.26167   55.863
 4741.00    1.23283   1.26505   55.489
 4742.00    1.23595   1.26834   54.936
 4743.00    1.23825   1.27147   54.777
 4744.00    1.23339   1.27455   54.845
 4745.00    1.22823   1.27782   -1.000
 4746.00    1.23711   1.28160   55.254
 4747.00    1.23893   1.28565   -1.000
 4748.00    1.23375   1.28967   -1.000
 4749.00    1.23020   1.29288   -1.000
 4750.00    1.23753   1.29420   -1.000
 4751.00    1.23997   1.29288   -1.000
 4752.00    1.23572   1.28907   -1.000
 4753.00    1.23042   1.28408   -1.000
 4754.00    1.21814   1.27951   -1.000
 4755.00    1.21886   1.27687   -1.000
 4756.00    1.21644   1.27662   -1.000
 4757.00    1.22108   1.27824   -1.000
 4758.00    1.21529   1.28003   -1.000
 4759.00    1.21275   1.27979   -1.000
 4760.00    1.21780   1.27598   -1.000
 4761.00    1.22503   1.26846   -1.000
 4762.00    1.21570   1.25932   -1.000
 4763.00    1.20392   1.25109   -1.000
 4764.00    1.20741   1.24618   56.546
 4765.00    1.21722   1.24595   56.579
 4766.00    1.22564   1.25061   57.038
 4767.00    1.22409   1.25869   57.545
 4768.00    1.22609   1.26790   56.961
 4769.00    1.23466   1.27596   55.769
 4770.00    1.24151   1.28199   55.328
 4771.00    1.23652   1.28618   -1.000
 4772.00    1.22841   1.28975   -1.000
 4773.00    1.23354   1.29348   -1.000
 4774.00    1.23855   1.29741   -1.000
 4775.00    1.23846   1.30082   -1.000
 4776.00    1.24455   1.30255   -1.000
 4777.00    1.24758   1.30208   -1.000
 4778.00    1.24159   1.29975   -1.000
 4779.00    1.23074   1.29666   -1.000
 4780.00    1.22739   1.29341   -1.000
 4781.00    1.23129   1.29024   -1.000
 4782.00    1.22942   1.28714   -1.000
 4783.00    1.23885   1.28392   -1.000
 4784.00    1.23811   1.28066   -1.000
 4785.00    1.22265   1.27778   -1.000
 4786.00    1.22515   1.27612   -1.000
 4787.00    1.22795   1.27625   -1.000
 4788.00    1.22688   1.27846   -1.000
 4789.00    1.23212   1.28288   -1.000
 4790.00    1.23352   1.28934   -1.000
 4791.00    1.23508   1.29746   -1.000
 4792.00    1.24160   1.30635   -1.000
 4793.00    1.24731   1.31486   -1.000
 4794.00    1.25172   1.32137   -1.000
 4795.00    1.25610   1.32450   -1.000
 4796.00    1.24735   1.32390   -1.000
 4797.00    1.23968   1.32044   -1.000
 4798.00    1.23968   1.31615   -1.000
 4799.00    1.24069   1.31308   -1.000
 4800.00    1.24413   1.31227   -1.000
 4801.00    1.25200   1.31315   -1.000
 4802.00    1.25143   1.31427   -1.000
 4803.00    1.24476   1.31432   -1.000
 4804.00    1.24592   1.31309   -1.000
 4805.00    1.24518   1.31121   -1.000
 4806.00    1.24088   1.30965   -1.000
 4807.00    1.24320   1.30926   -1.000
 4808.00    1.24692   1.31018   -1.000
 4809.00    1.24892   1.31194   -1.000
 4810.00    1.25120   1.31404   -1.000
 4811.00    1.24458   1.31653   -1.000
 4812.00    1.24801   1.31956   -1.000
 4813.00    1.25266   1.32332   -1.000
 4814.00    1.25739   1.32771   -1.000
 4815.00    1.26145   1.33223   -1.000
 4816.00    1.25701   1.33614   -1.000
 4817.00    1.25131   1.33874   -1.000
 4818.00    1.25714   1.33947   -1.000
 4819.00    1.26261   1.33755   -1.000
 4820.00    1.25453   1.33234   -1.000
 4821.00    1.24575   1.32400   -1.000
 4822.00    1.24474   1.31410   -1.000
 4823.00    1.24104   1.30552   -1.000
 4824.00    1.23696   1.30054   -1.000
 4825.00    1.24448   1.29969   -1.000
 4826.00    1.25259   1.30182   -1.000
 4827.00    1.25771   1.30474   -1.000
 4828.00    1.25286   1.30665   -1.000
 4829.00    1.24500   1.30630   -1.000
 4830.00    1.25239   1.30391   -1.000
 4831.00    1.24822   1.30088   -1.000
 4832.00    1.24214   1.29852   -1.000
 4833.00    1.24365   1.29758   -1.000
 4834.00    1.24537   1.29784   -1.000
 4835.00    1.25393   1.29849   57.334
 4836.00    1.26149   1.29840   57.211
 4837.00    1.25802   1.29653   56.923
 4838.00    1.24521   1.29277   56.497
 4839.00    1.22849   1.28787   -1.000
 4840.00    1.22971   1.28315   -1.000
 4841.00    1.22689   1.27954   -1.000
 4842.00    1.23654   1.27747   55.887
 4843.00    1.23579   1.27686   56.725
 4844.00    1.23551   1.27687   56.716
 4845.00    1.23423   1.27598   55.912
 4846.00    1.23620   1.27315   55.784
 4847.00    1.22937   1.26849   56.108
 4848.00    1.21937   1.26272   56.589
 4849.00    1.21260   1.25630   58.299
 4850.00    1.22147   1.24863   59.958
 4851.00    1.21265   1.23837   59.807
 4852.00    1.20417   1.22360   59.190
 4853.00    1.19492   1.20311   60.842
 4854.00    1.17415   1.17721   66.162
 4855.00    1.15126   1.14665   74.039
 4856.00    1.13432   1.11151   77.566
 4857.00    1.11363   1.07050   72.711
 4858.00    1.08888   1.02392   -1.000
 4859.00    1.01029   0.97639   62.303
 4860.00    0.89584   0.93674   60.121
 4861.00    0.82425   0.91511   -1.000
 4862.00    0.86392   0.91710   -1.000
 4863.00    0.97124   0.94236   58.091
 4864.00    1.06073   0.98434   -1.000
 4865.00    1.10682   1.03338   -1.000
 4866.00    1.13541   1.08024   -1.000
 4867.00    1.16158   1.11836   61.207
 4868.00    1.17563   1.14519   59.424
 4869.00    1.17368   1.16133   58.408
 4870.00    1.16620   1.17018   57.969
 4871.00    1.15890   1.17664   57.655
 4872.00    1.15752   1.18453   57.466
 4873.00    1.17494   1.19550   56.606
 4874.00    1.19974   1.20878   56.009
 4875.00    1.20954   1.22289   56.541
 4876.00    1.20597   1.23675   57.496
 4877.00    1.20077   1.24970   57.820
 4878.00    1.20780   1.26142   -1.000
 4879.00    1.22228   1.27122   57.934
 4880.00    1.23056   1.27816   58.856
 4881.00    1.22784   1.28173   -1.000
 4882.00    1.22643   1.28194   -1.000
 4883.00    1.23131   1.27958   -1.000
 4884.00    1.23370   1.27591   59.648
 4885.00    1.23247   1.27197   60.998
 4886.00    1.23942   1.26823   60.527
 4887.00    1.23953   1.26430   58.015
 4888.00    1.23534   1.26002   55.288
 4889.00    1.21932   1.25666   53.693
 4890.00    1.20524   1.25687   52.707
 4891.00    1.20425   1.26350   -1.000
 4892.00    1.21843   1.27743   -1.000
 4893.00    1.24183   1.29666   -1.000
 4894.00    1.25740   1.31754   -1.000
 4895.00    1.27485   1.33569   -1.000
 4896.00    1.27110   1.34791   -1.000
 4897.00    1.27271   1.35305   -1.000
 4898.00    1.27647   1.35220   -1.000
 4899.00    1.26166   1.34783   -1.000
 4900.00    1.25716   1.34228   -1.000
 4901.00    1.26790   1.33723   -1.000
 4902.00    1.26274   1.33404   -1.000
 4903.00    1.25400   1.33373   -1.000
 4904.00    1.26115   1.33597   -1.000
 4905.00    1.26957   1.33910   -1.000
 4906.00    1.27436   1.34075   -1.000
 4907.00    1.27315   1.33887   -1.000
 4908.00    1.27721   1.33316   -1.000
 4909.00    1.27198   1.32533   -1.000
 4910.00    1.26233   1.31860   -1.000
 4911.00    1.26476   1.31580   -1.000
 4912.00    1.26893   1.31776   56.612
 4913.00    1.27214   1.32295   -1.000
 4914.00    1.27656   1.32762   -1.000
 4915.00    1.27451   1.32729   -1.000
 4916.00    1.27610   1.31876   60.963
 4917.00    1.26907   1.30185   58.771
 4918.00    1.24558   1.27997   57.968
 4919.00    1.22191   1.25870   57.920
 4920.00    1.21238   1.24330   57.129
 4921.00    1.22399   1.23671   55.616
 4922.00    1.23465   1.23910   54.654
 4923.00    1.23441   1.24915   54.161
 4924.00    1.23630   1.26460   53.796
 4925.00    1.24552   1.28309   53.503
 4926.00    1.26570   1.30249   54.099
 4927.00    1.28179   1.32054   55.635
 4928.00    1.28210   1.33512   -1.000
 4929.00    1.29312   1.34411   57.642
 4930.00    1.30118   1.34605   56.602
 4931.00    1.28338   1.34128   -1.000
 4932.00    1.27123   1.33203   -1.000
 4933.00    1.25190   1.32157   -1.000
 4934.00    1.24428   1.31238   -1.000
 4935.00    1.24782   1.30513   -1.000
 4936.00    1.26910   1.29969   55.390
 4937.00    1.26523   1.29639   54.417
 4938.00    1.24074   1.29625   -1.000
 4939.00    1.23621   1.30064   -1.000
 4940.00    1.25407   1.30971   -1.000
 4941.00    1.27797   1.32197   54.499
 4942.00    1.27806   1.33473   -1.000
 4943.00    1.28384   1.34521   -1.000
 4944.00    1.28892   1.35214   -1.000
 4945.00    1.28933   1.35614   -1.000
 4946.00    1.28138   1.35888   -1.000
 4947.00    1.28560   1.36170   -1.000
 4948.00    1.29548   1.36478   -1.000
 4949.00    1.29828   1.36738   -1.000
 4950.00    1.29041   1.36843   -1.000
 4951.00    1.29317   1.36706   -1.000
 4952.00    1.29600   1.36256   -1.000
 4953.00    1.29599   1.35405   -1.000
 4954.00    1.28947   1.34093   -1.000
 4955.00    1.27721   1.32452   54.975
 4956.00    1.25239   1.30867   -1.000
 4957.00    1.22121   1.29837   -1.000
 4958.00    1.22477   1.29717   -1.000
 4959.00    1.25564   1.30502   56.096
 4960.00    1.27713   1.31860   57.277
 4961.00    1.28657   1.33285   57.953
 4962.00    1.29478   1.34311   57.930
 4963.00    1.29423   1.34713   -1.000
 4964.00    1.28845   1.34536   -1.000
 4965.00    1.28244   1.34010   -1.000
 4966.00    1.27869   1.33407   -1.000
 4967.00    1.28929   1.32946   55.386
 4968.00    1.29312   1.32763   54.892
 4969.00    1.29014   1.32906   54.727
 4970.00    1.29060   1.33343   55.145
 4971.00    1.29204   1.33979   55.748
 4972.00    1.29900   1.34673   56.526
 4973.00    1.29812   1.35275   -1.000
 4974.00    1.30251   1.35653   -1.000
 4975.00    1.30205   1.35717   -1.000
 4976.00    1.29241   1.35428   -1.000
 4977.00    1.29463   1.34780   -1.000
 4978.00    1.29535   1.33767   62.697
 4979.00    1.27845   1.32389   61.425
 4980.00    1.27211   1.30718   59.657
 4981.00    1.25918   1.28970   57.793
 4982.00    1.23958   1.27501   56.512
 4983.00    1.22735   1.26681   56.680
 4984.00    1.24089   1.26714   57.518
 4985.00    1.25454   1.27545   58.047
 4986.00    1.27011   1.28853   58.001
 4987.00    1.28477   1.30189   57.494
 4988.00    1.29139   1.31192   57.281
 4989.00    1.28316   1.31723   57.232
 4990.00    1.27889   1.31874   56.929
 4991.00    1.26770   1.31867   56.713
 4992.00    1.27374   1.31906   57.120
 4993.00    1.27282   1.32089   57.942
 4994.00    1.27073   1.32381   -1.000
 4995.00    1.27814   1.32639   59.734
 4996.00    1.28584   1.32672   59.688
 4997.00    1.29382   1.32343   59.122
 4998.00    1.28646   1.31643   58.876
 4999.00    1.27995   1.30709   59.833
 5000.00    1.26380   1.29762   61.250
 5001.00    1.26349   1.28974   61.340
 5002.00    1.27473   1.28388   59.738
 5003.00    1.27849   1.27934   58.043
 5004.00    1.26911   1.27565   57.619
 5005.00    1.25655   1.27337   58.531
 5006.00    1.24652   1.27360   60.379
 5007.00    1.25319   1.27683   62.563
 5008.00    1.26864   1.28170   63.780
 5009.00    1.28506   1.28539   63.282
 5010.00    1.29154   1.28499   61.856
 5011.00    1.27149   1.27949   60.693
 5012.00    1.24859   1.27028   60.500
 5013.00    1.24193   1.26028   60.428
 5014.00    1.23858   1.25219   59.744
 5015.00    1.24821   1.24729   59.359
 5016.00    1.26181   1.24580   59.628
 5017.00    1.26005   1.24752   59.692
 5018.00    1.25720   1.25196   59.296
 5019.00    1.26305   1.25857   58.690
 5020.00    1.27445   1.26659   58.394
 5021.00    1.27908   1.27536   58.694
 5022.00    1.28611   1.28430   58.861
 5023.00    1.28379   1.29261   58.216
 5024.00    1.28572   1.29956   57.138
 5025.00    1.29695   1.30487   56.313
 5026.00    1.29740   1.30867   55.431
 5027.00    1.29212   1.31169   54.904
 5028.00    1.29949   1.31500   55.254
 5029.00    1.30003   1.31948   57.145
 5030.00    1.29361   1.32517   59.246
 5031.00    1.29212   1.33086   60.075
 5032.00    1.29620   1.33435   60.344
 5033.00    1.30637   1.33382   61.348
 5034.00    1.29328   1.32846   63.835
 5035.00    1.28228   1.31895   66.053
 5036.00    1.27756   1.30637   65.489
 5037.00    1.27801   1.29172   62.081
 5038.00    1.27469   1.27657   58.419
 5039.00    1.26590   1.26340   56.253
 5040.00    1.08998   1.25570   -1.000
 5041.00    0.33371   1.25665   -1.000
 5042.00    0.08161   1.26723   -1.000
 5043.00    0.16046   1.28545   -1.000
 5044.00    0.97862   1.30645   -1.000
 5045.00    1.33672   1.32445   58.327
 5046.00    1.31614   1.33488   59.054
 5047.00    1.31217   1.33631   57.663
 5048.00    1.30732   1.33032   56.268
 5049.00    1.28986   1.32081   55.336
 5050.00    1.28030   1.31255   54.882
 5051.00    1.28235   1.30923   54.763
 5052.00    1.29409   1.31190   54.873
 5053.00    1.30867   1.31971   54.953
 5054.00    1.32454   1.33035   54.866
 5055.00    1.32976   1.34142   54.550
 5056.00    1.32808   1.35131   54.717
 5057.00    1.32578   1.35941   55.630
 5058.00    1.32256   1.36555   57.350
 5059.00    1.32098   1.36953   59.169
 5060.00    1.31917   1.37065   59.551
 5061.00    1.32213   1.36793   58.749
 5062.00    1.32495   1.36130   57.980
 5063.00    1.32003   1.35163   57.801
 5064.00    1.30976   1.34104   57.503
 5065.00    1.30546   1.33171   57.275
 5066.00    1.30599   1.32521   57.767
 5067.00    1.30841   1.32196   58.002
 5068.00    1.30625   1.32117   57.297
 5069.00    1.30682   1.32144   56.928
 5070.00    1.31727   1.32162   56.870
 5071.00    1.32015   1.32149   56.941
 5072.00    1.31817   1.32130   57.789
 5073.00    1.31716   1.32144   60.004
 5074.00    1.31948   1.32168   62.482
 5075.00    1.31864   1.32095   62.721
 5076.00    1.31677   1.31768   61.327
 5077.00    1.32006   1.31125   60.113
 5078.00    1.30623   1.30261   59.253
 5079.00    1.27894   1.29394   58.141
 5080.00    1.26927   1.28795   57.265
 5081.00    1.28553   1.28654   56.942
 5082.00    1.29231   1.29033   56.831
 5083.00    1.30443   1.29841   56.511
 5084.00    1.31607   1.30901   56.117
 5085.00    1.32410   1.32031   55.815
 5086.00    1.32594   1.33087   55.450
 5087.00    1.33012   1.33993   54.826
 5088.00    1.32993   1.34735   54.547
 5089.00    1.32587   1.35349   55.216
 5090.00    1.33251   1.35870   56.405
 5091.00    1.33615   1.36290   57.659
 5092.00    1.33839   1.36529   59.026
 5093.00    1.34234   1.36455   60.031
 5094.00    1.34058   1.35961   59.815
 5095.00    1.34069   1.35041   58.227
 5096.00    1.33420   1.33853   56.788
 5097.00    1.31984   1.32677   56.513
 5098.00    1.31180   1.31828   56.966
 5099.00    1.31253   1.31509   57.728
 5100.00    1.32144   1.31715   58.453
 5101.00    1.33311   1.32259   59.173
 5102.00    1.33902   1.32846   59.729
 5103.00    1.33559   1.33205   59.541
 5104.00    1.33221   1.33190   59.138
 5105.00    1.32704   1.32828   58.612
 5106.00    1.30820   1.32278   57.781
 5107.00    1.29469   1.31764   57.078
 5108.00    1.29983   1.31498   56.424
 5109.00    1.30515   1.31611   55.969
 5110.00    1.30510   1.32115   55.607
 5111.00    1.31509   1.32930   55.036
 5112.00    1.32886   1.33912   54.728
 5113.00    1.33717   1.34921   55.045
 5114.00    1.34435   1.35843   55.814
 5115.00    1.34310   1.36597   56.680
 5116.00    1.35167   1.37122   57.746
 5117.00    1.35252   1.37355   59.319
 5118.00    1.35487   1.37245   60.789
 5119.00    1.35673   1.36767   60.922
 5120.00    1.35060   1.35950   60.405
 5121.00    1.33519   1.34876   60.103
 5122.00    1.32188   1.33694   59.852
 5123.00    1.31380   1.32565   59.920
 5124.00    1.30836   1.31624   59.676
 5125.00    1.30501   1.30947   58.807
 5126.00    1.30899   1.30551   57.927
 5127.00    1.30978   1.30417   57.454
 5128.00    1.30853   1.30517   56.913
 5129.00    1.31796   1.30824   56.504
 5130.00    1.32173   1.31304   56.668
 5131.00    1.32871   1.31905   57.829
 5132.00    1.33442   1.32538   59.130
 5133.00    1.33375   1.33086   59.831
 5134.00    1.33963   1.33423   59.717
 5135.00    1.34276   1.33458   59.413
 5136.00    1.33930   1.33172   60.034
 5137.00    1.32483   1.32644   60.681
 5138.00    1.30631   1.32018   60.094
 5139.00    1.29650   1.31451   59.271
 5140.00    1.30716   1.31059   59.300
 5141.00    1.31763   1.30883   59.776
 5142.00    1.30958   1.30888   59.665
 5143.00    1.31006   1.30992   59.006
 5144.00    1.32496   1.31109   58.978
 5145.00    1.33309   1.31198   59.847
 5146.00    1.33602   1.31250   60.765
 5147.00    1.33620   1.31265   60.941
 5148.00    1.33242   1.31239   60.363
 5149.00    1.33153   1.31152   59.067
 5150.00    1.32406   1.30989   57.549
 5151.00    1.31151   1.30799   56.194
 5152.00    1.31357   1.30713   55.336
 5153.00    1.32478   1.30902   55.064
 5154.00    1.33441   1.31479   55.125
 5155.00    1.34365   1.32439   55.355
 5156.00    1.35493   1.33636   55.767
 5157.00    1.36153   1.34828   56.477
 5158.00    1.36655   1.35770   57.727
 5159.00    1.37245   1.36272   60.699
 5160.00    1.36560   1.36217   66.213
 5161.00    1.35664   1.35515   72.533
 5162.00    1.35330   1.34053   75.421
 5163.00    1.34795   1.31745   72.786
 5164.00    1.34370   1.28637   -1.000
 5165.00    1.31609   1.25036   -1.000
 5166.00    1.25877   1.21493   -1.000
 5167.00    1.21762   1.18569   77.630
 5168.00    1.21560   1.16604   -1.000
 5169.00    1.24182   1.15609   -1.000
 5170.00    1.26256   1.15403   -1.000
 5171.00    1.25994   1.15870   -1.000
 5172.00    1.23552   1.17056   -1.000
 5173.00    1.24500   1.19079   -1.000
 5174.00    1.29164   1.21887   -1.000
 5175.00    1.34025   1.25102   -1.000
 5176.00    1.36461   1.28105   -1.000
 5177.00    1.37487   1.30249   -1.000
 5178.00    1.37137   1.31071   -1.000
 5179.00    1.37372   1.30386   -1.000
 5180.00    1.36617   1.28364   -1.000
 5181.00    1.34367   1.25554   -1.000
 5182.00    1.30318   1.22792   -1.000
 5183.00    1.25936   1.20953   58.450
 5184.00    1.25240   1.20600   58.492
 5185.00    1.29659   1.21762   -1.000
 5186.00    1.33879   1.23957   -1.000
 5187.00    1.34793   1.26418   -1.000
 5188.00    1.35049   1.28468   -1.000
 5189.00    1.35075   1.29752   -1.000
 5190.00    1.34100   1.30267   59.728
 5191.00    1.32305   1.30251   58.745
 5192.00    1.31335   1.30024   57.608
 5193.00    1.32423   1.29873   56.803
 5194.00    1.33756   1.29992   56.493
 5195.00    1.34300   1.30451   56.622
 5196.00    1.34798   1.31221   57.290
 5197.00    1.35363   1.32199   58.446
 5198.00    1.35522   1.33214   59.964
 5199.00    1.36252   1.34031   61.866
 5200.00    1.36750   1.34397   63.206
 5201.00    1.36740   1.34123   63.401
 5202.00    1.35979   1.33172   63.763
 5203.00    1.34282   1.31688   63.698
 5204.00    1.32123   1.29962   62.311
 5205.00    1.30773   1.28347   60.062
 5206.00    1.31212   1.27169   57.647
 5207.00    1.31862   1.26658   55.763
 5208.00    1.31706   1.26928   55.257
 5209.00    1.31952   1.27952   56.185
 5210.00    1.33326   1.29559   57.325
 5211.00    1.35556   1.31430   57.582
 5212.00    1.37081   1.33172   56.782
 5213.00    1.38165   1.34466   55.651
 5214.00    1.37705   1.35196   54.971
 5215.00    1.36315   1.35511   54.636
 5216.00    1.35079   1.35723   54.751
 5217.00    1.36049   1.36134   55.841
 5218.00    1.38034   1.36843   57.804
 5219.00    1.39028   1.37703   60.338
 5220.00    1.39792   1.38383   62.779
 5221.00    1.40278   1.38510   63.345
 5222.00    1.39596   1.37826   61.052
 5223.00    1.38606   1.36324   57.898
 5224.00    1.36702   1.34284   56.058
 5225.00    1.33445   1.32233   55.445
 5226.00    1.30429   1.30745   55.834
 5227.00    1.29889   1.30212   56.972
 5228.00    1.32423   1.30644   57.560
 5229.00    1.35508   1.31676   56.935
 5230.00    1.37352   1.32781   55.558
 5231.00    1.37663   1.33575   54.492
 5232.00    1.36303   1.33994   54.119
 5233.00    1.34953   1.34259   54.175
 5234.00    1.35493   1.34694   54.256
 5235.00    1.37155   1.35495   54.061
 5236.00    1.38738   1.36633   53.884
 5237.00    1.39664   1.37901   53.911
 5238.00    1.39818   1.39047   53.800
 5239.00    1.40299   1.39915   54.157
 5240.00    1.39627   1.40477   55.532
 5241.00    1.39143   1.40791   57.135
 5242.00    1.39747   1.40909   57.989
 5243.00    1.40145   1.40840   58.070
 5244.00    1.40222   1.40541   58.282
 5245.00    1.39492   1.39980   58.416
 5246.00    1.38189   1.39185   57.898
 5247.00    1.37301   1.38281   57.162
 5248.00    1.36887   1.37444   56.832
 5249.00    1.36336   1.36829   56.701
 5250.00    1.36288   1.36505   55.905
 5251.00    1.36914   1.36462   54.475
 5252.00    1.37836   1.36658   53.388
 5253.00    1.37949   1.37049   53.344
 5254.00    1.37874   1.37615   54.265
 5255.00    1.38556   1.38323   56.119
 5256.00    1.39228   1.39067   58.658
 5257.00    1.40172   1.39627   61.170
 5258.00    1.40752   1.39711   62.913
 5259.00    1.40468   1.39061   63.721
 5260.00    1.39199   1.37580   63.322
 5261.00    1.37660   1.35404   62.154
 5262.00    1.35796   1.32874   62.037
 5263.00    1.34118   1.30421   63.966
 5264.00    1.32809   1.28397   -1.000
 5265.00    1.32717   1.26969   -1.000
 5266.00    1.33491   1.26093   -1.000
 5267.00    1.33935   1.25638   -1.000
 5268.00    1.32602   1.25515   -1.000
 5269.00    1.29795   1.25747   57.278
 5270.00    1.29261   1.26431   56.727
 5271.00    1.32616   1.27589   -1.000
 5272.00    1.36011   1.29108   -1.000
 5273.00    1.37318   1.30793   -1.000
 5274.00    1.37820   1.32485   -1.000
 5275.00    1.38010   1.34121   55.431
 5276.00    1.38590   1.35668   56.701
 5277.00    1.40173   1.37024   57.399
 5278.00    1.41398   1.38000   57.027
 5279.00    1.40561   1.38425   55.555
 5280.00    1.39404   1.38291   53.809
 5281.00    1.39197   1.37824   52.666
 5282.00    1.38652   1.37409   52.613
 5283.00    1.38515   1.37418   52.795
 5284.00    1.38976   1.38047   52.642
 5285.00    1.40489   1.39238   52.406
 5286.00    1.42405   1.40730   52.486
 5287.00    1.43205   1.42188   52.895
 5288.00    1.42762   1.43358   53.492
 5289.00    1.42220   1.44125   54.535
 5290.00    1.42289   1.44488   56.320
 5291.00    1.42184   1.44485   58.234
 5292.00    1.42069   1.44127   58.913
 5293.00    1.42550   1.43402   57.957
 5294.00    1.42105   1.42322   56.618
 5295.00    1.41257   1.40980   55.891
 5296.00    1.40269   1.39587   55.412
 5297.00    1.39300   1.38424   54.343
 5298.00    1.39024   1.37740   53.054
 5299.00    1.39906   1.37658   52.476
 5300.00    1.40871   1.38133   52.666
 5301.00    1.40725   1.39001   53.182
 5302.00    1.40620   1.40060   53.272
 5303.00    1.41927   1.41121   52.793
 5304.00    1.42322   1.42044   52.329
 5305.00    1.41778   1.42755   52.181
 5306.00    1.41624   1.43262   52.359
 5307.00    1.41820   1.43642   52.633
 5308.00    1.42467   1.43979   52.929
 5309.00    1.43133   1.44293   53.385
 5310.00    1.43150   1.44516   53.896
 5311.00    1.42798   1.44525   54.158
 5312.00    1.42789   1.44224   53.960
 5313.00    1.42633   1.43613   53.622
 5314.00    1.42435   1.42818   53.600
 5315.00    1.41788   1.42048   53.900
 5316.00    1.40701   1.41517   54.407
 5317.00    1.40892   1.41339   55.206
 5318.00    1.42244   1.41453   55.975
 5319.00    1.42848   1.41640   56.218
 5320.00    1.42461   1.41625   56.908
 5321.00    1.41966   1.41199   59.522
 5322.00    1.41136   1.40289   62.564
 5323.00    1.39840   1.38947   62.320
 5324.00    1.39421   1.37313   59.086
 5325.00    1.40028   1.35569   56.299
 5326.00    1.39362   1.33958   -1.000
 5327.00    1.35976   1.32782   54.629
 5328.00    1.33406   1.32344   54.050
 5329.00    1.35558   1.32810   53.607
 5330.00    1.38968   1.34092   -1.000
 5331.00    1.41105   1.35853   -1.000
 5332.00    1.41877   1.37661   -1.000
 5333.00    1.41706   1.39169   55.498
 5334.00    1.41828   1.40190   56.731
 5335.00    1.42704   1.40681   56.984
 5336.00    1.43144   1.40686   55.918
 5337.00    1.41526   1.40301   54.618
 5338.00    1.40883   1.39691   54.143
 5339.00    1.40979   1.39073   54.355
 5340.00    1.39752   1.38675   54.721
 5341.00    1.40148   1.38638   55.031
 5342.00    1.41645   1.38936   55.412
 5343.00    1.42502   1.39394   55.739
 5344.00    1.43295   1.39787   55.352
 5345.00    1.42977   1.39976   54.235
 5346.00    1.42302   1.39978   53.254
 5347.00    1.42386   1.39935   52.865
 5348.00    1.41975   1.40025   52.588
 5349.00    1.41813   1.40373   52.029
 5350.00    1.42314   1.41005   51.493
 5351.00    1.43154   1.41859   51.338
 5352.00    1.44058   1.42823   51.418
 5353.00    1.44026   1.43789   51.554
 5354.00    1.43887   1.44676   51.961
 5355.00    1.44429   1.45426   52.725
 5356.00    1.44789   1.45977   53.565
 5357.00    1.45122   1.46262   54.134
 5358.00    1.45182   1.46220   54.464
 5359.00    1.44849   1.45818   54.785
 5360.00    1.44601   1.45081   54.856
 5361.00    1.43991   1.44101   54.753
 5362.00    1.43262   1.43022   55.051
 5363.00    1.42726   1.41997   56.059
 5364.00    1.42404   1.41128   57.656
 5365.00    1.42318   1.40416   58.595
 5366.00    1.42324   1.39770   57.457
 5367.00    1.42523   1.39070   54.967
 5368.00    1.42205   1.38267   53.051
 5369.00    1.40649   1.37467   52.282
 5370.00    1.38908   1.36920   52.216
 5371.00    1.38448   1.36917   52.320
 5372.00    1.39849   1.37622   52.378
 5373.00    1.42458   1.38954   52.593
 5374.00    1.44605   1.40605   53.023
 5375.00    1.45598   1.42174   53.557
 5376.00    1.45719   1.43339   53.941
 5377.00    1.45757   1.43955   54.031
 5378.00    1.45541   1.44055   53.864
 5379.00    1.44927   1.43789   53.422
 5380.00    1.44539   1.43352   53.090
 5381.00    1.43914   1.42937   53.195
 5382.00    1.43056   1.42698   53.600
 5383.00    1.43171   1.42715   54.297
 5384.00    1.44243   1.42971   55.020
 5385.00    1.45446   1.43347   55.423
 5386.00    1.45888   1.43661   55.534
 5387.00    1.45394   1.43746   55.632
 5388.00    1.45130   1.43515   55.945
 5389.00    1.45319   1.42986   56.551
 5390.00    1.45383   1.42252   57.536
 5391.00    1.44696   1.41427   58.091
 5392.00    1.43749   1.40591   57.078
 5393.00    1.43426   1.39779   55.344
 5394.00    1.43045   1.39011   54.469
 5395.00    1.41743   1.38339   54.434
 5396.00    1.40104   1.37869   54.737
 5397.00    1.39912   1.37720   55.878
 5398.00    1.41028   1.37927   57.705
 5399.00    1.42378   1.38374   -1.000
 5400.00    1.43496   1.38802   -1.000
 5401.00    1.44025   1.38927   -1.000
 5402.00    1.44067   1.38581   -1.000
 5403.00    1.42404   1.37812   -1.000
 5404.00    1.40063   1.36864   57.307
 5405.00    1.39188   1.36053   56.270
 5406.00    1.39788   1.35611   54.836
 5407.00    1.41373   1.35603   -1.000
 5408.00    1.42262   1.35957   -1.000
 5409.00    1.41571   1.36554   -1.000
 5410.00    1.41368   1.37311   53.610
 5411.00    1.42731   1.38182   -1.000
 5412.00    1.43891   1.39123   -1.000
 5413.00    1.43535   1.40077   53.642
 5414.00    1.43011   1.40989   54.063
 5415.00    1.42887   1.41818   54.057
 5416.00    1.43938   1.42530   53.818
 5417.00    1.44548   1.43085   54.176
 5418.00    1.44490   1.43435   54.822
 5419.00    1.44693   1.43553   54.662
 5420.00    1.44153   1.43450   53.829
 5421.00    1.44258   1.43184   53.550
 5422.00    1.44422   1.42850   54.545
 5423.00    1.43855   1.42552   56.256
 5424.00    1.43261   1.42356   57.048
 5425.00    1.43719   1.42241   56.397
 5426.00    1.44862   1.42094   55.938
 5427.00    1.44859   1.41784   56.453
 5428.00    1.43253   1.41263   57.199
 5429.00    1.40625   1.40606   57.323
 5430.00    1.40379   1.39966   56.508
 5431.00    1.42252   1.39479   55.079
 5432.00    1.42590   1.39219   53.769
 5433.00    1.41684   1.39228   52.887
 5434.00    1.40882   1.39565   52.344
 5435.00    1.41183   1.40288   52.132
 5436.00    1.42671   1.41395   52.109
 5437.00    1.44221   1.42764   52.449
 5438.00    1.45425   1.44173   53.546
 5439.00    1.46189   1.45363   55.494
 5440.00    1.46434   1.46121   57.543
 5441.00    1.46448   1.46312   57.981
 5442.00    1.46400   1.45889   56.557
 5443.00    1.45777   1.44913   54.837
 5444.00    1.44081   1.43582   53.948
 5445.00    1.41568   1.42228   53.797
 5446.00    1.39604   1.41223   54.106
 5447.00    1.39755   1.40845   55.086
 5448.00    1.42022   1.41132   56.595
 5449.00    1.45045   1.41861   57.988
 5450.00    1.46740   1.42643   -1.000
 5451.00    1.46626   1.43104   56.231
 5452.00    1.45831   1.43059   54.505
 5453.00    1.44581   1.42580   53.785
 5454.00    1.42452   1.41959   54.119
 5455.00    1.41115   1.41557   55.035
 5456.00    1.41285   1.41613   55.901
 5457.00    1.43602   1.42120   56.358
 5458.00    1.46063   1.42837   56.000
 5459.00    1.46643   1.43438   55.294
 5460.00    1.46017   1.43694   54.901
 5461.00    1.45599   1.43589   54.426
 5462.00    1.45689   1.43300   54.049
 5463.00    1.45297   1.43075   54.314
 5464.00    1.44975   1.43092   54.891
 5465.00    1.45756   1.43388   55.219
 5466.00    1.46394   1.43868   55.457
 5467.00    1.47034   1.44370   55.932
 5468.00    1.47396   1.44744   56.662
 5469.00    1.47092   1.44883   57.744
 5470.00    1.46531   1.44736   58.780
 5471.00    1.46214   1.44295   58.727
 5472.00    1.46009   1.43583   57.296
 5473.00    1.45147   1.42665   55.940
 5474.00    1.44633   1.41665   55.885
 5475.00    1.43702   1.40767   56.544
 5476.00    1.42447   1.40172   56.715
 5477.00    1.42688   1.40017   55.984
 5478.00    1.44251   1.40300   54.861
 5479.00    1.45163   1.40894   -1.000
 5480.00    1.45530   1.41624   54.381
 5481.00    1.45210   1.42359   55.117
 5482.00    1.43978   1.43042   55.602
 5483.00    1.44704   1.43657   55.697
 5484.00    1.46356   1.44168   55.425
 5485.00    1.46924   1.44522   55.011
 5486.00    1.46842   1.44694   54.744
 5487.00    1.46509   1.44721   54.768
 5488.00    1.46229   1.44697   54.833
 5489.00    1.45713   1.44712   54.829
 5490.00    1.45963   1.44809   55.100
 5491.00    1.46304   1.44960   55.509
 5492.00    1.46314   1.45101   55.426
 5493.00    1.46677   1.45164   54.874
 5494.00    1.46653   1.45112   54.968
 5495.00    1.46257   1.44945   55.756
 5496.00    1.45267   1.44698   56.118
 5497.00    1.43891   1.44411   55.796
 5498.00    1.44060   1.44113   55.556
 5499.00    1.45246   1.43807   56.055
 5500.00    1.44616   1.43486   56.707
 5501.00    1.43434   1.43154   56.506
 5502.00    1.43976   1.42831   55.675
 5503.00    1.45253   1.42537   55.225
 5504.00    1.45854   1.42288   55.431
 5505.00    1.45143   1.42103   56.322
 5506.00    1.43506   1.42010   57.334
 5507.00    1.43958   1.42031   57.968
 5508.00    1.45327   1.42138   57.621
 5509.00    1.46657   1.42252   -1.000
 5510.00    1.46873   1.42288   -1.000
 5511.00    1.46374   1.42224   -1.000
 5512.00    1.45720   1.42139   53.821
 5513.00    1.45360   1.42178   53.469
 5514.00    1.45707   1.42472   53.513
 5515.00    1.46390   1.43066   53.618
 5516.00    1.46948   1.43896   53.783
 5517.00    1.47229   1.44824   53.905
 5518.00    1.47424   1.45690   54.160
 5519.00    1.47327   1.46364   54.788
 5520.00    1.47460   1.46765   55.920
 5521.00    1.47618   1.46854   57.344
 5522.00    1.47227   1.46614   58.003
 5523.00    1.47412   1.46043   57.147
 5524.00    1.47913   1.45172   55.659
 5525.00    1.46919   1.44112   54.722
 5526.00    1.44776   1.43064   54.629
 5527.00    1.42662   1.42278   55.057
 5528.00    1.42153   1.41958   55.407
 5529.00    1.43622   1.42153   55.335
 5530.00    1.45565   1.42722   54.937
 5531.00    1.46711   1.43413   54.708
 5532.00    1.46746   1.43994   54.508
 5533.00    1.46644   1.44363   54.048
 5534.00    1.46823   1.44569   53.584
 5535.00    1.46453   1.44742   53.492
 5536.00    1.46537   1.44992   53.919
 5537.00    1.47498   1.45352   54.486
 5538.00    1.47304   1.45773   54.734
 5539.00    1.47456   1.46166   54.645
 5540.00    1.47805   1.46446   54.506
 5541.00    1.47798   1.46568   54.220
 5542.00    1.47637   1.46549   53.724
 5543.00    1.47451   1.46467   53.247
 5544.00    1.47400   1.46426   53.044
 5545.00    1.47320   1.46514   53.234
 5546.00    1.47034   1.46761   53.666
 5547.00    1.47738   1.47132   54.252
 5548.00    1.48156   1.47541   54.609
 5549.00    1.48463   1.47888   54.603
 5550.00    1.48619   1.48092   54.443
 5551.00    1.48992   1.48124   54.328
 5552.00    1.49135   1.48010   54.257
 5553.00    1.48616   1.47826   54.196
 5554.00    1.48018   1.47655   54.270
 5555.00    1.48002   1.47557   54.516
 5556.00    1.48516   1.47539   55.012
 5557.00    1.48744   1.47564   55.448
 5558.00    1.48602   1.47562   55.655
 5559.00    1.48736   1.47471   55.773
 5560.00    1.48485   1.47253   55.843
 5561.00    1.48830   1.46917   55.765
 5562.00    1.48573   1.46505   55.642
 5563.00    1.47819   1.46079   55.740
 5564.00    1.47293   1.45689   55.754
 5565.00    1.47181   1.45358   55.743
 5566.00    1.46957   1.45082   55.873
 5567.00    1.46329   1.44844   55.730
 5568.00    1.43004   1.44627   55.200
 5569.00    1.30885   1.44429   -1.000
 5570.00    1.23349   1.44262   -1.000
 5571.00    1.30010   1.44158   -1.000
 5572.00    1.60900   1.44156   -1.000
 5573.00    1.83201   1.44287   -1.000
 5574.00    1.65857   1.44557   -1.000
 5575.00    1.48576   1.44945   -1.000
 5576.00    1.47640   1.45404   55.155
 5577.00    1.47319   1.45875   54.933
 5578.00    1.47626   1.46297   55.169
 5579.00    1.48277   1.46614   56.217
 5580.00    1.48038   1.46775   57.636
 5581.00    1.47617   1.46732   58.971
 5582.00    1.47624   1.46435   59.601
 5583.00    1.48220   1.45831   59.114
 5584.00    1.47730   1.44897   58.090
 5585.00    1.46274   1.43687   57.218
 5586.00    1.44907   1.42370   56.922
 5587.00    1.43721   1.41200   57.086
 5588.00    1.43698   1.40427   56.868
 5589.00    1.43940   1.40189   -1.000
 5590.00    1.45299   1.40459   -1.000
 5591.00    1.46693   1.41074   -1.000
 5592.00    1.47098   1.41828   -1.000
 5593.00    1.46323   1.42552   -1.000
 5594.00    1.45570   1.43144   57.608
 5595.00    1.46820   1.43548   -1.000
 5596.00    1.47667   1.43732   -1.000
 5597.00    1.47127   1.43686   -1.000
 5598.00    1.46510   1.43450   55.934
 5599.00    1.45614   1.43128   54.593
 5600.00    1.45213   1.42881   53.837
 5601.00    1.45521   1.42891   53.636
 5602.00    1.45511   1.43302   53.693
 5603.00    1.46328   1.44160   53.802
 5604.00    1.47759   1.45380   53.778
 5605.00    1.49087   1.46771   53.625
 5606.00    1.50281   1.48100   53.802
 5607.00    1.50408   1.49180   54.774
 5608.00    1.50248   1.49899   56.572
 5609.00    1.49541   1.50217   58.026
 5610.00    1.49699   1.50119   57.852
 5611.00    1.50019   1.49597   56.573
 5612.00    1.49481   1.48680   55.675
 5613.00    1.48803   1.47492   55.451
 5614.00    1.46831   1.46268   55.233
 5615.00    1.45271   1.45303   54.956
 5616.00    1.45823   1.44826   55.107
 5617.00    1.47374   1.44898   56.073
 5618.00    1.48917   1.45386   -1.000
 5619.00    1.49408   1.46040   -1.000
 5620.00    1.49540   1.46604   56.228
 5621.00    1.49585   1.46917   55.379
 5622.00    1.48904   1.46952   54.716
 5623.00    1.48243   1.46809   54.278
 5624.00    1.47970   1.46665   54.092
 5625.00    1.48221   1.46694   53.888
 5626.00    1.48843   1.46989   53.901
 5627.00    1.49483   1.47526   54.276
 5628.00    1.50054   1.48179   54.680
 5629.00    1.50124   1.48782   55.030
 5630.00    1.50432   1.49194   55.427
 5631.00    1.50365   1.49344   55.810
 5632.00    1.49753   1.49233   55.869
 5633.00    1.49547   1.48922   55.811
 5634.00    1.49231   1.48499   55.965
 5635.00    1.49931   1.48047   56.024
 5636.00    1.49173   1.47632   55.830
 5637.00    1.48714   1.47293   55.570
 5638.00    1.49326   1.47045   55.459
 5639.00    1.48937   1.46894   55.113
 5640.00    1.48893   1.46838   54.921
 5641.00    1.48454   1.46878   54.781
 5642.00    1.48767   1.47008   54.692
 5643.00    1.49171   1.47213   54.800
 5644.00    1.49920   1.47458   54.818
 5645.00    1.49947   1.47704   54.432
 5646.00    1.49730   1.47911   54.242
 5647.00    1.49807   1.48059   54.414
 5648.00    1.49266   1.48144   54.831
 5649.00    1.49130   1.48174   55.353
 5650.00    1.49770   1.48149   56.357
 5651.00    1.49947   1.48044   58.034
 5652.00    1.50268   1.47806   59.096
 5653.00    1.49750   1.47372   58.439
 5654.00    1.49452   1.46712   57.174
 5655.00    1.48813   1.45858   56.829
 5656.00    1.48093   1.44925   56.907
 5657.00    1.46591   1.44085   56.355
 5658.00    1.45226   1.43511   55.557
 5659.00    1.45646   1.43307   55.271
 5660.00    1.46747   1.43478   55.520
 5661.00    1.47043   1.43940   55.858
 5662.00    1.47388   1.44570   55.955
 5663.00    1.47762   1.45247   55.829
 5664.00    1.48822   1.45875   55.485
 5665.00    1.50091   1.46386   -1.000
 5666.00    1.49656   1.46759   54.462
 5667.00    1.48552   1.47024   53.934
 5668.00    1.48476   1.47254   53.896
 5669.00    1.48876   1.47523   54.069
 5670.00    1.49269   1.47872   53.933
 5671.00    1.49830   1.48287   53.834
 5672.00    1.50272   1.48713   54.078
 5673.00    1.51152   1.49089   54.309
 5674.00    1.51412   1.49367   54.621
 5675.00    1.50465   1.49521   55.236
 5676.00    1.50336   1.49540   55.899
 5677.00    1.50628   1.49411   56.071
 5678.00    1.50274   1.49116   55.773
 5679.00    1.50302   1.48654   55.512
 5680.00    1.49761   1.48055   55.736
 5681.00    1.50121   1.47393   56.374
 5682.00    1.50028   1.46770   -1.000
 5683.00    1.49238   1.46279   56.023
 5684.00    1.48760   1.45967   55.003
 5685.00    1.49095   1.45828   54.442
 5686.00    1.49141   1.45830   54.089
 5687.00    1.48652   1.45955   53.975
 5688.00    1.49133   1.46213   54.033
 5689.00    1.49746   1.46617   54.078
 5690.00    1.49988   1.47153   54.225
 5691.00    1.50048   1.47760   54.740
 5692.00    1.50261   1.48347   55.376
 5693.00    1.50769   1.48824   55.875
 5694.00    1.51116   1.49126   56.470
 5695.00    1.50994   1.49219   56.751
 5696.00    1.50330   1.49101   56.364
 5697.00    1.49837   1.48798   55.774
 5698.00    1.49172   1.48362   55.612
 5699.00    1.48203   1.47872   55.964
 5700.00    1.47965   1.47408   56.742
 5701.00    1.48548   1.47026   57.796
 5702.00    1.48865   1.46733   58.711
 5703.00    1.49722   1.46478   -1.000
 5704.00    1.50623   1.46175   -1.000
 5705.00    1.49805   1.45745   -1.000
 5706.00    1.49214   1.45171   -1.000
 5707.00    1.48545   1.44518   -1.000
 5708.00    1.47406   1.43928   -1.000
 5709.00    1.46782   1.43570   54.671
 5710.00    1.46826   1.43585   54.554
 5711.00    1.47670   1.44027   -1.000
 5712.00    1.48677   1.44841   -1.000
 5713.00    1.49229   1.45883   -1.000
 5714.00    1.50382   1.46980   -1.000
 5715.00    1.50968   1.47990   53.383
 5716.00    1.51184   1.48843   53.300
 5717.00    1.51273   1.49541   53.236
 5718.00    1.50994   1.50120   53.358
 5719.00    1.51661   1.50618   53.802
 5720.00    1.52096   1.51045   54.373
 5721.00    1.51740   1.51382   54.810
 5722.00    1.51671   1.51595   54.532
 5723.00    1.52583   1.51657   54.200
 5724.00    1.52083   1.51562   54.339
 5725.00    1.51376   1.51345   54.618
 5726.00    1.50946   1.51071   54.422
 5727.00    1.50742   1.50813   53.892
 5728.00    1.51043   1.50630   53.547
 5729.00    1.51551   1.50550   53.590
 5730.00    1.51526   1.50572   53.655
 5731.00    1.51359   1.50683   53.817
 5732.00    1.51014   1.50868   53.858
 5733.00    1.51353   1.51105   53.976
 5734.00    1.51884   1.51357   54.056
 5735.00    1.51722   1.51582   54.179
 5736.00    1.51733   1.51744   54.051
 5737.00    1.51748   1.51831   54.000
 5738.00    1.51684   1.51852   53.600
 5739.00    1.51351   1.51830   53.311
 5740.00    1.50779   1.51791   53.602
 5741.00    1.50543   1.51755   54.141
 5742.00    1.51066   1.51734   54.347
 5743.00    1.52153   1.51729   54.025
 5744.00    1.52427   1.51725   53.859
 5745.00    1.52430   1.51703   54.287
 5746.00    1.52176   1.51647   54.954
 5747.00    1.51706   1.51547   55.504
 5748.00    1.51780   1.51392   55.489
 5749.00    1.51650   1.51166   54.772
 5750.00    1.52340   1.50862   53.747
 5751.00    1.52566   1.50510   53.115
 5752.00    1.51768   1.50192   53.288
 5753.00    1.50682   1.50022   53.894
 5754.00    1.50718   1.50086   54.605
 5755.00    1.51289   1.50383   55.354
 5756.00    1.52343   1.50812   55.623
 5757.00    1.52536   1.51214   55.008
 5758.00    1.52203   1.51445   54.015
 5759.00    1.52273   1.51449   53.360
 5760.00    1.52106   1.51278   53.203
 5761.00    1.50575   1.51068   53.150
 5762.00    1.50042   1.50976   53.059
 5763.00    1.50824   1.51102   53.173
 5764.00    1.52121   1.51448   53.350
 5765.00    1.52391   1.51924   53.652
 5766.00    1.51789   1.52397   53.987
 5767.00    1.52153   1.52751   54.116
 5768.00    1.52262   1.52921   54.181
 5769.00    1.51878   1.52901   54.062
 5770.00    1.51448   1.52727   53.785
 5771.00    1.50810   1.52453   53.741
 5772.00    1.49450   1.52138   53.918
 5773.00    1.47506   1.51834   54.726
 5774.00    1.46454   1.51562   55.983
 5775.00    1.47700   1.51303   56.693
 5776.00    1.49677   1.50998   56.567
 5777.00    1.51042   1.50581   56.344
 5778.00    1.52071   1.50020   56.143
 5779.00    1.52546   1.49350   -1.000
 5780.00    1.51683   1.48674   55.295
 5781.00    1.51926   1.48120   -1.000
 5782.00    1.52345   1.47794   -1.000
 5783.00    1.51943   1.47738   -1.000
 5784.00    1.52382   1.47937   -1.000
 5785.00    1.52764   1.48329   -1.000
 5786.00    1.52585   1.48831   -1.000
 5787.00    1.53602   1.49356   -1.000
 5788.00    1.52583   1.49833   53.231
 5789.00    1.50707   1.50229   53.207
 5790.00    1.50770   1.50559   53.542
 5791.00    1.51049   1.50866   53.886
 5792.00    1.52124   1.51188   53.600
 5793.00    1.53560   1.51528   52.896
 5794.00    1.53405   1.51853   52.166
 5795.00    1.53336   1.52125   52.075
 5796.00    1.54562   1.52330   52.539
 5797.00    1.53956   1.52493   52.944
 5798.00    1.53903   1.52653   53.381
 5799.00    1.54235   1.52831   53.607
 5800.00    1.53959   1.53008   53.465
 5801.00    1.54170   1.53136   53.260
 5802.00    1.53810   1.53173   53.104
 5803.00    1.53074   1.53112   53.111
 5804.00    1.53365   1.52995   53.055
 5805.00    1.53882   1.52884   52.845
 5806.00    1.54251   1.52838   52.694
 5807.00    1.54039   1.52880   52.815
 5808.00    1.54161   1.52994   53.278
 5809.00    1.53856   1.53136   53.507
 5810.00    1.54357   1.53255   53.200
 5811.00    1.55255   1.53309   52.830
 5812.00    1.55145   1.53278   52.547
 5813.00    1.54838   1.53182   52.289
 5814.00    1.54390   1.53068   52.121
 5815.00    1.54251   1.53005   52.224
 5816.00    1.55406   1.53048   52.415
 5817.00    1.55651   1.53215   52.298
 5818.00    1.54759   1.53478   52.226
 5819.00    1.54768   1.53778   52.125
 5820.00    1.54955   1.54055   52.080
 5821.00    1.54829   1.54274   52.099
 5822.00    1.55429   1.54428   52.213
 5823.00    1.55613   1.54532   52.088
 5824.00    1.54938   1.54608   52.116
 5825.00    1.54639   1.54674   52.033
 5826.00    1.54745   1.54737   52.156
 5827.00    1.55646   1.54794   52.529
 5828.00    1.55550   1.54836   52.586
 5829.00    1.55550   1.54852   52.390
 5830.00    1.56533   1.54831   52.297
 5831.00    1.56412   1.54775   52.492
 5832.00    1.55180   1.54693   52.603
 5833.00    1.55297   1.54608   52.408
 5834.00    1.55248   1.54548   52.001
 5835.00    1.54385   1.54535   51.744
 5836.00    1.55616   1.54574   51.783
 5837.00    1.55203   1.54654   51.969
 5838.00    1.54737   1.54749   52.173
 5839.00    1.54159   1.54835   52.540
 5840.00    1.54662   1.54886   52.789
 5841.00    1.55574   1.54883   53.053
 5842.00    1.55959   1.54808   52.957
 5843.00    1.54814   1.54655   53.065
 5844.00    1.54733   1.54432   53.391
 5845.00    1.54998   1.54164   53.726
 5846.00    1.55985   1.53879   54.284
 5847.00    1.56492   1.53592   -1.000
 5848.00    1.55373   1.53294   54.586
 5849.00    1.55401   1.52954   54.642
 5850.00    1.55522   1.52535   -1.000
 5851.00    1.54540   1.52019   55.766
 5852.00    1.53820   1.51415   55.274
 5853.00    1.53645   1.50753   -1.000
 5854.00    1.53684   1.50080   -1.000
 5855.00    1.53850   1.49456   -1.000
 5856.00    1.53137   1.48958   -1.000
 5857.00    1.52866   1.48676   -1.000
 5858.00    1.54014   1.48675   -1.000
 5859.00    1.54593   1.48964   -1.000
 5860.00    1.55427   1.49472   -1.000
 5861.00    1.55302   1.50078   -1.000
 5862.00    1.55289   1.50654   -1.000
 5863.00    1.55077   1.51108   -1.000
 5864.00    1.54952   1.51409   -1.000
 5865.00    1.54400   1.51591   53.037
 5866.00    1.54869   1.51724   -1.000
 5867.00    1.55034   1.51881   -1.000
 5868.00    1.55457   1.52097   -1.000
 5869.00    1.56675   1.52352   -1.000
 5870.00    1.56416   1.52579   -1.000
 5871.00    1.55454   1.52705   53.578
 5872.00    1.54943   1.52686   54.055
 5873.00    1.54954   1.52530   54.382
 5874.00    1.55575   1.52280   -1.000
 5875.00    1.55217   1.51992   -1.000
 5876.00    1.54066   1.51705   54.200
 5877.00    1.53756   1.51430   54.461
 5878.00    1.53374   1.51149   54.482
 5879.00    1.51721   1.50834   54.703
 5880.00    1.48284   1.50450   55.451
 5881.00    1.41123   1.49955   -1.000
 5882.00    1.29542   1.49288   -1.000
 5883.00    1.19618   1.48346   -1.000
 5884.00    1.22263   1.46990   -1.000
 5885.00    1.35285   1.45078   -1.000
 5886.00    1.44845   1.42562   61.461
 5887.00    1.42934   1.39590   -1.000
 5888.00    1.33415   1.36535   61.496
 5889.00    1.23232   1.33887   -1.000
 5890.00    1.23494   1.32043   -1.000
 5891.00    1.35235   1.31113   -1.000
 5892.00    1.45135   1.30917   -1.000
 5893.00    1.47888   1.31148   -1.000
 5894.00    1.46218   1.31609   -1.000
 5895.00    1.44598   1.32327   -1.000
 5896.00    1.44426   1.33471   -1.000
 5897.00    1.47542   1.35179   -1.000
 5898.00    1.51409   1.37411   -1.000
 5899.00    1.54058   1.39946   -1.000
 5900.00    1.53880   1.42477   -1.000
 5901.00    1.54107   1.44738   -1.000
 5902.00    1.54291   1.46578   -1.000
 5903.00    1.53343   1.47963   -1.000
 5904.00    1.54112   1.48947   -1.000
 5905.00    1.54023   1.49627   -1.000
 5906.00    1.54165   1.50096   -1.000
 5907.00    1.54558   1.50420   -1.000
 5908.00    1.54506   1.50627   -1.000
 5909.00    1.54328   1.50710   -1.000
 5910.00    1.54717   1.50653   -1.000
 5911.00    1.53478   1.50455   -1.000
 5912.00    1.51713   1.50148   55.230
 5913.00    1.51492   1.49806   55.115
 5914.00    1.52334   1.49526   54.904
 5915.00    1.52548   1.49392   -1.000
 5916.00    1.52675   1.49446   -1.000
 5917.00    1.52946   1.49668   -1.000
 5918.00    1.52859   1.49996   -1.000
 5919.00    1.53039   1.50352   54.497
 5920.00    1.54643   1.50672   -1.000
 5921.00    1.55491   1.50931   -1.000
 5922.00    1.55042   1.51132   -1.000
 5923.00    1.54604   1.51284   -1.000
 5924.00    1.54771   1.51389   -1.000
 5925.00    1.54631   1.51427   -1.000
 5926.00    1.54705   1.51377   -1.000
 5927.00    1.55531   1.51239   -1.000
 5928.00    1.54814   1.51053   -1.000
 5929.00    1.54642   1.50881   -1.000
 5930.00    1.54938   1.50783   -1.000
 5931.00    1.54780   1.50788   -1.000
 5932.00    1.54728   1.50886   -1.000
 5933.00    1.53845   1.51044   -1.000
 5934.00    1.53484   1.51230   55.276
 5935.00    1.52750   1.51416   55.501
 5936.00    1.52065   1.51572   55.395
 5937.00    1.53043   1.51664   55.030
 5938.00    1.53624   1.51671   54.723
 5939.00    1.53722   1.51594   54.555
 5940.00    1.53609   1.51468   54.794
 5941.00    1.53414   1.51344   55.341
 5942.00    1.53450   1.51263   55.894
 5943.00    1.53654   1.51231   55.906
 5944.00    1.54391   1.51224   -1.000
 5945.00    1.55038   1.51202   -1.000
 5946.00    1.55312   1.51143   -1.000
 5947.00    1.55261   1.51049   -1.000
 5948.00    1.54414   1.50945   -1.000
 5949.00    1.54211   1.50858   -1.000
 5950.00    1.54228   1.50799   -1.000
 5951.00    1.53868   1.50762   -1.000
 5952.00    1.54191   1.50733   -1.000
 5953.00    1.53776   1.50704   -1.000
 5954.00    1.54269   1.50683   -1.000
 5955.00    1.55697   1.50698   -1.000
 5956.00    1.54694   1.50781   -1.000
 5957.00    1.53567   1.50963   54.268
 5958.00    1.54254   1.51248   -1.000
 5959.00    1.55161   1.51605   -1.000
 5960.00    1.54520   1.51973   -1.000
 5961.00    1.54468   1.52284   54.699
 5962.00    1.54245   1.52485   54.276
 5963.00    1.54286   1.52567   54.209
 5964.00    1.55059   1.52558   54.191
 5965.00    1.55863   1.52513   -1.000
 5966.00    1.55508   1.52493   -1.000
 5967.00    1.55886   1.52535   -1.000
 5968.00    1.56036   1.52645   -1.000
 5969.00    1.55169   1.52789   55.275
 5970.00    1.54281   1.52910   55.649
 5971.00    1.54592   1.52944   55.815
 5972.00    1.55133   1.52847   55.462
 5973.00    1.55926   1.52611   -1.000
 5974.00    1.56204   1.52277   -1.000
 5975.00    1.56006   1.51923   -1.000
 5976.00    1.55399   1.51635   -1.000
 5977.00    1.54144   1.51473   -1.000
 5978.00    1.54989   1.51439   -1.000
 5979.00    1.56153   1.51477   -1.000
 5980.00    1.55888   1.51504   -1.000
 5981.00    1.55286   1.51454   -1.000
 5982.00    1.54867   1.51319   -1.000
 5983.00    1.54688   1.51151   -1.000
 5984.00    1.54560   1.51033   -1.000
 5985.00    1.54403   1.51035   -1.000
 5986.00    1.54659   1.51176   -1.000
 5987.00    1.54958   1.51426   -1.000
 5988.00    1.54956   1.51729   -1.000
 5989.00    1.54929   1.52035   -1.000
 5990.00    1.55270   1.52322   -1.000
 5991.00    1.55553   1.52580   -1.000
 5992.00    1.55469   1.52804   -1.000
 5993.00    1.55608   1.52972   -1.000
 5994.00    1.56023   1.53059   -1.000
 5995.00    1.55764   1.53051   -1.000
 5996.00    1.55772   1.52960   -1.000
 5997.00    1.56123   1.52819   -1.000
 5998.00    1.56043   1.52661   -1.000
 5999.00    1.56220   1.52505   -1.000
 6000.00    1.55560   1.52351   -1.000
 6001.00    1.54774   1.52188   -1.000
 6002.00    1.54681   1.52001   -1.000
 6003.00    1.54329   1.51785   -1.000
 6004.00    1.54702   1.51545   -1.000
 6005.00    1.55369   1.51298   -1.000
 6006.00    1.55451   1.51083   -1.000
 6007.00    1.54567   1.50949   -1.000
 6008.00    1.54082   1.50931   -1.000
 6009.00    1.54833   1.51030   -1.000
 6010.00    1.55396   1.51202   -1.000
 6011.00    1.55189   1.51381   -1.000
 6012.00    1.56520   1.51506   -1.000
 6013.00    1.56728   1.51552   -1.000
 6014.00    1.56074   1.51522   -1.000
 6015.00    1.56241   1.51435   -1.000
 6016.00    1.55960   1.51306   -1.000
 6017.00    1.56317   1.51147   -1.000
 6018.00    1.56589   1.50971   -1.000
 6019.00    1.55976   1.50806   -1.000
 6020.00    1.55197   1.50693   -1.000
 6021.00    1.55280   1.50678   -1.000
 6022.00    1.55930   1.50795   -1.000
 6023.00    1.54878   1.51055   -1.000
 6024.00    1.54510   1.51447   -1.000
 6025.00    1.55046   1.51933   -1.000
 6026.00    1.55632   1.52467   -1.000
 6027.00    1.55380   1.53002   -1.000
 6028.00    1.56153   1.53498   -1.000
 6029.00    1.56329   1.53930   -1.000
 6030.00    1.55849   1.54289   53.944
 6031.00    1.56294   1.54578   54.077
 6032.00    1.56069   1.54803   54.379
 6033.00    1.56399   1.54965   54.468
 6034.00    1.56672   1.55061   54.599
 6035.00    1.57073   1.55083   54.447
 6036.00    1.56932   1.55027   54.346
 6037.00    1.56848   1.54898   54.003
 6038.00    1.56925   1.54719   53.650
 6039.00    1.57049   1.54530   -1.000
 6040.00    1.56517   1.54376   53.721
 6041.00    1.55753   1.54302   53.650
 6042.00    1.56027   1.54331   53.753
 6043.00    1.56477   1.54466   53.943
 6044.00    1.56221   1.54679   54.037
 6045.00    1.56881   1.54933   54.090
 6046.00    1.57236   1.55182   -1.000
 6047.00    1.57129   1.55387   54.453
 6048.00    1.57274   1.55521   54.638
 6049.00    1.57326   1.55563   54.934
 6050.00    1.57135   1.55504   55.021
 6051.00    1.56664   1.55348   54.853
 6052.00    1.56487   1.55111   54.542
 6053.00    1.56205   1.54832   54.343
 6054.00    1.55896   1.54565   54.465
 6055.00    1.54992   1.54365   54.735
 6056.00    1.53253   1.54268   55.675
 6057.00    1.52761   1.54269   56.110
 6058.00    1.40959   1.54319   -1.000
 6059.00    1.43493   1.54340   -1.000
 6060.00    1.50832   1.54256   18.912
 6061.00    1.54489   1.54030   61.654
 6062.00    1.58995   1.53686   -1.000
 6063.00    1.45858   1.53311   54.202
 6064.00    0.66759   1.53031   -1.000
 6065.00    0.95485   1.52957   -1.000
 6066.00    1.62063   1.53141   -1.000
 6067.00    1.54112   1.53558   53.930
 6068.00    1.56060   1.54118   53.996
 6069.00    1.56239   1.54706   54.221
 6070.00    1.56811   1.55222   54.520
 6071.00    1.57027   1.55607   54.862
 6072.00    1.56608   1.55835   55.281
 6073.00    1.56952   1.55902   55.531
 6074.00    1.56795   1.55815   55.531
 6075.00    1.56843   1.55591   55.617
 6076.00    1.56903   1.55260   55.749
 6077.00    1.56179   1.54864   55.714
 6078.00    1.55851   1.54453   55.668
 6079.00    1.55300   1.54071   55.581
 6080.00    1.55679   1.53745   55.391
 6081.00    1.56248   1.53495   -1.000
 6082.00    1.55547   1.53328   -1.000
 6083.00    1.55586   1.53251   -1.000
 6084.00    1.55563   1.53264   -1.000
 6085.00    1.55938   1.53349   -1.000
 6086.00    1.55588   1.53475   -1.000
 6087.00    1.55519   1.53600   55.151
 6088.00    1.56176   1.53697   -1.000
 6089.00    1.56093   1.53760   -1.000
 6090.00    1.56362   1.53815   -1.000
 6091.00    1.56381   1.53896   -1.000
 6092.00    1.56342   1.54033   -1.000
 6093.00    1.56078   1.54226   55.077
 6094.00    1.56025   1.54444   55.997
 6095.00    1.55758   1.54622   57.321
 6096.00    1.55722   1.54680   57.816
 6097.00    1.56094   1.54534   57.073
 6098.00    1.56175   1.54136   -1.000
 6099.00    1.55642   1.53499   -1.000
 6100.00    1.55090   1.52723   -1.000
 6101.00    1.53499   1.51981   55.564
 6102.00    1.51977   1.51467   55.643
 6103.00    1.52198   1.51322   55.577
 6104.00    1.53724   1.51580   -1.000
 6105.00    1.54787   1.52160   -1.000
 6106.00    1.55211   1.52909   -1.000
 6107.00    1.54859   1.53666   54.874
 6108.00    1.54502   1.54318   54.861
 6109.00    1.55017   1.54814   55.152
 6110.00    1.55576   1.55157   55.448
 6111.00    1.55105   1.55379   55.546
 6112.00    1.54799   1.55512   55.996
 6113.00    1.55441   1.55571   56.842
 6114.00    1.56580   1.55547   57.507
 6115.00    1.56087   1.55409   57.891
 6116.00    1.55653   1.55108   57.596
 6117.00    1.55412   1.54604   56.622
 6118.00    1.54918   1.53892   56.135
 6119.00    1.54130   1.53029   56.289
 6120.00    1.53248   1.52137   56.527
 6121.00    1.52264   1.51381   56.393
 6122.00    1.51540   1.50912   56.169
 6123.00    1.52653   1.50808   55.652
 6124.00    1.54182   1.51053   -1.000
 6125.00    1.54450   1.51546   -1.000
 6126.00    1.54917   1.52167   -1.000
 6127.00    1.55290   1.52812   -1.000
 6128.00    1.54671   1.53417   57.753
 6129.00    1.54828   1.53933   59.425
 6130.00    1.55262   1.54289   60.482
 6131.00    1.55262   1.54382   59.995
 6132.00    1.54799   1.54112   58.278
 6133.00    1.54184   1.53435   56.941
 6134.00    1.52925   1.52415   56.637
 6135.00    1.51344   1.51232   56.795
 6136.00    1.49792   1.50126   56.667
 6137.00    1.49080   1.49327   55.992
 6138.00    1.50821   1.48975   55.505
 6139.00    1.51957   1.49097   -1.000
 6140.00    1.51839   1.49623   -1.000
 6141.00    1.51734   1.50415   56.283
 6142.00    1.52208   1.51313   56.670
 6143.00    1.53877   1.52159   -1.000
 6144.00    1.55227   1.52824   -1.000
 6145.00    1.55685   1.53233   -1.000
 6146.00    1.55438   1.53384   -1.000
 6147.00    1.54761   1.53335   56.341
 6148.00    1.54412   1.53187   56.811
 6149.00    1.54264   1.53032   56.992
 6150.00    1.54342   1.52925   57.077
 6151.00    1.55100   1.52867   -1.000
 6152.00    1.54974   1.52817   -1.000
 6153.00    1.54396   1.52715   -1.000
 6154.00    1.54299   1.52501   -1.000
 6155.00    1.53983   1.52119   -1.000
 6156.00    1.53700   1.51520   -1.000
 6157.00    1.53678   1.50665   -1.000
 6158.00    1.53264   1.49548   -1.000
 6159.00    1.52051   1.48237   -1.000
 6160.00    1.50764   1.46886   -1.000
 6161.00    1.49210   1.45711   -1.000
 6162.00    1.48022   1.44914   -1.000
 6163.00    1.48430   1.44596   -1.000
 6164.00    1.50512   1.44723   -1.000
 6165.00    1.52295   1.45140   -1.000
 6166.00    1.52198   1.45659   -1.000
 6167.00    1.51661   1.46153   -1.000
 6168.00    1.50764   1.46595   -1.000
 6169.00    1.50664   1.47043   -1.000
 6170.00    1.51005   1.47578   -1.000
 6171.00    1.51002   1.48235   -1.000
 6172.00    1.51612   1.48987   -1.000
 6173.00    1.52275   1.49760   -1.000
 6174.00    1.52771   1.50479   -1.000
 6175.00    1.52811   1.51093   57.035
 6176.00    1.52825   1.51598   57.000
 6177.00    1.52214   1.52014   57.171
 6178.00    1.52596   1.52372   57.472
 6179.00    1.53291   1.52689   58.022
 6180.00    1.52880   1.52964   58.660
 6181.00    1.52404   1.53173   59.242
 6182.00    1.52868   1.53280   59.752
 6183.00    1.53541   1.53245   60.303
 6184.00    1.53472   1.53044   60.985
 6185.00    1.53664   1.52669   60.917
 6186.00    1.53903   1.52140   59.815
 6187.00    1.53078   1.51504   58.453
 6188.00    1.51694   1.50842   57.789
 6189.00    1.50973   1.50260   57.585
 6190.00    1.50693   1.49871   57.696
 6191.00    1.49564   1.49762   58.233
 6192.00    1.50108   1.49958   58.858
 6193.00    1.51515   1.50406   59.104
 6194.00    1.52039   1.50988   58.785
 6195.00    1.51820   1.51562   58.084
 6196.00    1.51397   1.52021   57.569
 6197.00    1.51762   1.52319   57.532
 6198.00    1.51560   1.52486   57.504
 6199.00    1.51276   1.52598   57.431
 6200.00    1.51380   1.52739   57.531
 6201.00    1.52019   1.52965   57.685
 6202.00    1.53515   1.53287   57.757
 6203.00    1.53456   1.53666   58.155
 6204.00    1.53073   1.54043   58.681
 6205.00    1.52990   1.54347   59.174
 6206.00    1.53389   1.54520   59.902
 6207.00    1.54091   1.54516   60.724
 6208.00    1.53642   1.54309   61.114
 6209.00    1.53534   1.53892   60.840
 6210.00    1.53015   1.53291   60.159
 6211.00    1.52609   1.52564   60.242
 6212.00    1.51431   1.51797   60.485
 6213.00    1.50829   1.51081   60.087
 6214.00    1.50823   1.50488   59.971
 6215.00    1.46605   1.50054   62.070
 6216.00    1.42899   1.49782   64.303
 6217.00    1.50143   1.49656   61.104
 6218.00    1.51944   1.49658   -1.000
 6219.00    1.51430   1.49769   59.583
 6220.00    1.51373   1.49970   59.722
 6221.00    1.52150   1.50225   -1.000
 6222.00    1.52847   1.50479   -1.000
 6223.00    1.52868   1.50663   -1.000
 6224.00    1.53243   1.50705   -1.000
 6225.00    1.52903   1.50551   -1.000
 6226.00    1.52109   1.50185   -1.000
 6227.00    1.52119   1.49645   -1.000
 6228.00    1.50741   1.49025   59.042
 6229.00    1.48999   1.48459   59.116
 6230.00    1.49016   1.48085   59.654
 6231.00    1.49726   1.47987   60.271
 6232.00    1.50660   1.48166   -1.000
 6233.00    1.51120   1.48534   -1.000
 6234.00    1.51128   1.48948   -1.000
 6235.00    1.51699   1.49273   -1.000
 6236.00    1.51314   1.49421   -1.000
 6237.00    1.51284   1.49374   -1.000
 6238.00    1.51118   1.49166   -1.000
 6239.00    1.50888   1.48849   -1.000
 6240.00    1.51211   1.48469   -1.000
 6241.00    1.50824   1.48061   -1.000
 6242.00    1.50082   1.47666   -1.000
 6243.00    1.49727   1.47335   -1.000
 6244.00    1.49634   1.47139   -1.000
 6245.00    1.49384   1.47133   -1.000
 6246.00    1.49120   1.47324   -1.000
 6247.00    1.50072   1.47654   -1.000
 6248.00    1.50801   1.48002   -1.000
 6249.00    1.50303   1.48234   -1.000
 6250.00    1.49499   1.48257   63.669
 6251.00    1.48577   1.48053   63.847
 6252.00    1.47842   1.47685   63.191
 6253.00    1.47810   1.47263   62.192
 6254.00    1.47799   1.46904   61.306
 6255.00    1.47250   1.46693   60.425
 6256.00    1.46982   1.46678   59.766
 6257.00    1.48020   1.46874   59.875
 6258.00    1.48818   1.47269   60.372
 6259.00    1.48891   1.47829   60.449
 6260.00    1.49263   1.48496   60.048
 6261.00    1.49584   1.49199   59.903
 6262.00    1.49240   1.49864   60.211
 6263.00    1.49253   1.50436   60.338
 6264.00    1.49567   1.50881   60.168
 6265.00    1.49026   1.51195   59.985
 6266.00    1.48704   1.51386   59.990
 6267.00    1.48856   1.51473   60.301
 6268.00    1.48150   1.51469   60.782
 6269.00    1.46526   1.51380   61.502
 6270.00    1.44024   1.51198   62.799
 6271.00    1.41350   1.50900   -1.000
 6272.00    1.40935   1.50456   -1.000
 6273.00    1.41596   1.49847   -1.000
 6274.00    1.41599   1.49090   64.365
 6275.00    1.41783   1.48252   63.251
 6276.00    1.42195   1.47440   62.214
 6277.00    1.42481   1.46783   61.363
 6278.00    1.42938   1.46394   60.750
 6279.00    1.43686   1.46343   60.238
 6280.00    1.44733   1.46639   59.743
 6281.00    1.45994   1.47229   59.481
 6282.00    1.46705   1.48014   59.593
 6283.00    1.47077   1.48876   60.033
 6284.00    1.47920   1.49698   60.524
 6285.00    1.48420   1.50388   60.807
 6286.00    1.48207   1.50888   60.877
 6287.00    1.48400   1.51181   60.963
 6288.00    1.49039   1.51283   61.254
 6289.00    1.50356   1.51237   61.721
 6290.00    1.52850   1.51090   -1.000
 6291.00    1.57634   1.50886   -1.000
 6292.00    1.65722   1.50646   -1.000
 6293.00    1.75313   1.50373   -1.000
 6294.00    1.81236   1.50061   -1.000
 6295.00    1.76829   1.49708   -1.000
 6296.00    1.64334   1.49331   -1.000
 6297.00    1.53668   1.48966   -1.000
 6298.00    1.48863   1.48664   60.645
 6299.00    1.47343   1.48486   60.032
 6300.00    1.46489   1.48486   59.514
 6301.00    1.46571   1.48696   59.192
 6302.00    1.47312   1.49113   59.307
 6303.00    1.47789   1.49693   59.661
 6304.00    1.48306   1.50354   59.986
 6305.00    1.48645   1.51003   60.212
 6306.00    1.48914   1.51555   60.366
 6307.00    1.49335   1.51952   60.664
 6308.00    1.49094   1.52172   61.088
 6309.00    1.48448   1.52216   61.146
 6310.00    1.47881   1.52102   61.082
 6311.00    1.47547   1.51857   61.098
 6312.00    1.47539   1.51512   61.034
 6313.00    1.47549   1.51110   60.520
 6314.00    1.47383   1.50707   59.829
 6315.00    1.47331   1.50372   59.440
 6316.00    1.46949   1.50173   59.248
 6317.00    1.46758   1.50167   58.984
 6318.00    1.47051   1.50373   58.726
 6319.00    1.47599   1.50775   58.631
 6320.00    1.47778   1.51324   58.469
 6321.00    1.47600   1.51950   58.340
 6322.00    1.48045   1.52579   58.413
 6323.00    1.48881   1.53149   58.450
 6324.00    1.49380   1.53618   58.357
 6325.00    1.49559   1.53969   58.189
 6326.00    1.50708   1.54203   58.237
 6327.00    1.54199   1.54335   58.404
 6328.00    1.53285   1.54379   59.191
 6329.00    1.49470   1.54335   59.994
 6330.00    1.49484   1.54192   59.702
 6331.00    1.49295   1.53941   59.115
 6332.00    1.48738   1.53582   58.481
 6333.00    1.48422   1.53155   58.026
 6334.00    1.47341   1.52732   57.764
 6335.00    1.46847   1.52406   57.653
 6336.00    1.47096   1.52257   57.976
 6337.00    1.47550   1.52314   58.290
 6338.00    1.48110   1.52549   58.212
 6339.00    1.48559   1.52878   57.956
 6340.00    1.48513   1.53200   57.583
 6341.00    1.48498   1.53435   57.274
 6342.00    1.49008   1.53554   57.193
 6343.00    1.48440   1.53585   57.142
 6344.00    1.47979   1.53599   57.105
 6345.00    1.48485   1.53679   57.275
 6346.00    1.48685   1.53877   57.541
 6347.00    1.48450   1.54194   58.025
 6348.00    1.48426   1.54578   58.627
 6349.00    1.48787   1.54944   58.857
 6350.00    1.48716   1.55207   58.938
 6351.00    1.48766   1.55305   59.399
 6352.00    1.49156   1.55224   59.871
 6353.00    1.49276   1.54988   59.825
 6354.00    1.49885   1.54643   59.587
 6355.00    1.51551   1.54243   59.476
 6356.00    1.54360   1.53831   59.343
 6357.00    1.56504   1.53436   -1.000
 6358.00    1.55655   1.53080   -1.000
 6359.00    1.52121   1.52779   58.292
 6360.00    1.48809   1.52554   57.949
 6361.00    1.47049   1.52426   57.566
 6362.00    1.46271   1.52409   57.314
 6363.00    1.46266   1.52505   57.285
 6364.00    1.45873   1.52693   57.201
 6365.00    1.45282   1.52938   56.976
 6366.00    1.45261   1.53198   56.963
 6367.00    1.45239   1.53445   57.073
 6368.00    1.45217   1.53668   57.155
 6369.00    1.44586   1.53878   -1.000
 6370.00    1.44049   1.54095   -1.000
 6371.00    1.44296   1.54329   -1.000
 6372.00    1.44028   1.54568   -1.000
 6373.00    1.43633   1.54778   -1.000
 6374.00    1.43603   1.54916   -1.000
 6375.00    1.43507   1.54953   -1.000
 6376.00    1.43226   1.54883   -1.000
 6377.00    1.42931   1.54724   -1.000
 6378.00    1.41993   1.54518   -1.000
 6379.00    1.41146   1.54313   -1.000
 6380.00    1.41309   1.54151   -1.000
 6381.00    1.40953   1.54062   -1.000
 6382.00    1.40194   1.54057   -1.000
 6383.00    1.40065   1.54134   -1.000
 6384.00    1.39773   1.54269   -1.000
 6385.00    1.39200   1.54423   -1.000
 6386.00    1.38709   1.54543   -1.000
 6387.00    1.38136   1.54579   -1.000
 6388.00    1.37283   1.54494   -1.000
 6389.00    1.36879   1.54287   -1.000
 6390.00    1.36435   1.53993   -1.000
 6391.00    1.35062   1.53673   -1.000
 6392.00    1.33453   1.53399   -1.000
 6393.00    1.32144   1.53212   -1.000
 6394.00    1.32085   1.53118   -1.000
 6395.00    1.32742   1.53081   -1.000
 6396.00    1.32274   1.53056   -1.000
 6397.00    1.30807   1.53020   -1.000
 6398.00    1.29112   1.52994   -1.000
 6399.00    1.27450   1.53026   -1.000
 6400.00    1.26572   1.53162   -1.000
 6401.00    1.26911   1.53412   -1.000
 6402.00    1.26980   1.53736   -1.000
 6403.00    1.26571   1.54055   -1.000
 6404.00    1.26220   1.54283   -1.000
 6405.00    1.25295   1.54370   -1.000
 6406.00    1.24313   1.54317   -1.000
 6407.00    1.23247   1.54171   -1.000
 6408.00    1.21888   1.54004   -1.000
 6409.00    1.21277   1.53871   -1.000
 6410.00    1.20854   1.53805   -1.000
 6411.00    1.19742   1.53815   -1.000
 6412.00    1.18234   1.53879   -1.000
 6413.00    1.17252   1.53964   -1.000
 6414.00    1.17116   1.54028   -1.000
 6415.00    1.16354   1.54038   -1.000
 6416.00    1.15285   1.53986   -1.000
 6417.00    1.14364   1.53889   -1.000
 6418.00    1.13080   1.53792   -1.000
 6419.00    1.11327   1.53767   -1.000
 6420.00    1.09389   1.53885   -1.000
 6421.00    1.07751   1.54178   -1.000
 6422.00    1.07149   1.54627   -1.000
 6423.00    1.06739   1.55153   -1.000
 6424.00    0.45933   1.55642   -1.000
 6425.00    0.00000   1.55976   -2.000
 6426.00    0.00000   1.56074   -2.000
 6427.00    0.00000   1.55924   -2.000
 6428.00    0.00000   1.55586   -2.000
