###################################################################
## OUTPUT of StarlightChains_v04.for    [Cid@UFSC - 01/Apr/2007] ##
###################################################################

## Some input info
NGC6528_a_1.cxt                          [arq_obs]
Base.BC03.N                              [arq_base]
NGC6528_a_1.msk                          [arq_masks]
StCv04.C11.config                        [arq_config]
   45                                    [N_base]
    0                                    [N_YAV_components = # of components with extra extinction!]
    0                                    [i_FitPowerLaw (1/0 = Yes/No)]
-9.99                                    [alpha_PowerLaw]
CCM                                      [red_law_option]
 1.458241                                [q_norm = A(l_norm)/A(V)]

## (Re)Sampling Parameters
 3359.00                                 [l_ini (A)]
 6428.00                                 [l_fin (A)]
    1.00                                 [dl    (A)]     (OBS: dl_cushion =    50.00 A)

## Normalization info
 4020.00                                 [l_norm (A) - for base]
 4010.00                                 [llow_norm (A) - window for f_obs]
 4060.00                                 [lupp_norm (A) - window for f_obs]
3.287291E-15                             [fobs_norm (in input units)]

## S/N
 4730.00                                 [llow_SN (A) - window for S/N]
 4780.00                                 [lupp_SN (A) - window for S/N]
  27.037                                 [S/N in S/N window]
  13.551                                 [S/N in norm. window]
 247.699                                 [S/N_err in S/N window]
 124.147                                 [S/N_err in norm. window]
  1.0000                                 [fscale_chi2]

## etc...
  2147483606                             [idum_orig]
  3069                                   [NOl_eff]
   677                                   [Nl_eff]
  2392    NSIGMA                         [Ntot_cliped & clip_method]
   960540                                [Nglobal_steps]
   7                                     [N_chains]
  12                                     [NEX0s_base = N_base in EX0s-fits]
 0   0   1      104   2.0   2.944E+02    [Clip-Bug, RC-Crash & Burn-In warning-flags, n_censored_weights, wei_nsig_threshold & wei_limit]
    10      9.991      9.979      0.012  [idt_all, wdt_TotTime, wdt_UsrTime & wdt_SysTime (sec)]

## Synthesis Results - Best model ##

 2.76964E+00                             [chi2/Nl_eff]
     2.40966                             [adev (%)]

   104.35464                             [sum-of-x (%)]
 2.18535E-14                             [Flux_tot (units of input spectrum!)]
 1.46392E-09                             [Mini_tot (???)]
 7.48570E-10                             [Mcor_tot (???)]

  -5.21                                  [v0_min  (km/s)]
 107.76                                  [vd_min  (km/s)]
 1.3787                                  [AV_min  (mag)]
 0.0000                                  [YAV_min (mag)]

# j     x_j(%)      Mini_j(%)     Mcor_j(%)     age_j(yr)     Z_j      (L/M)_j    YAV?  Mstars   component_j        a/Fe...       SSP_chi2r SSP_adev(%)   SSP_AV   SSP_x(%)
  1      4.5005     5.7792E-03    1.1302E-02    1.000000E+06  0.00400  1.114E-02    0   1.0000   age020_m42            0.0000     4.1023E+03    52.3931   4.0000   100.7036
  2      0.0000     0.0000E+00    0.0000E+00    3.160000E+06  0.00400  4.073E-02    0   0.9999   age045_m42            0.0000     1.4388E+03    29.3461   4.0000   110.0505
  3      0.0000     0.0000E+00    0.0000E+00    5.010000E+06  0.00400  2.534E-02    0   0.9488   age055_m42            0.0000     2.4276E+03    40.3739   4.0000   107.1501
  4      0.0000     0.0000E+00    0.0000E+00    1.000000E+07  0.00400  1.271E-02    0   0.8862   age070_m42            0.0000     1.1510E+03    25.9777   4.0000   104.1493
  5      0.0000     0.0000E+00    0.0000E+00    2.512000E+07  0.00400  5.070E-03    0   0.8174   age090_m42            0.0000     9.2843E+02    23.3911   4.0000   104.1733
  6      0.0000     0.0000E+00    0.0000E+00    4.000000E+07  0.00400  3.505E-03    0   0.7851   age104_m42            0.0000     5.5818E+02    18.0541   4.0000   102.0547
  7      0.0000     0.0000E+00    0.0000E+00    1.015200E+08  0.00400  2.268E-03    0   0.7207   age116_m42            0.0000     7.9000E+02    18.3750   4.0000   108.2202
  8      0.0000     0.0000E+00    0.0000E+00    2.861200E+08  0.00400  1.079E-03    0   0.6613   age125_m42            0.0000     7.1927E+02    18.4716   3.7465   105.8463
  9      0.0000     0.0000E+00    0.0000E+00    6.405400E+08  0.00400  5.077E-04    0   0.6197   age132_m42            0.0000     7.1712E+02    18.8834   3.3961   109.8180
 10      0.0000     0.0000E+00    0.0000E+00    9.047900E+08  0.00400  3.535E-04    0   0.6024   age135_m42            0.0000     5.4923E+02    16.3977   3.1391   109.4226
 11      0.0000     0.0000E+00    0.0000E+00    1.434000E+09  0.00400  1.910E-04    0   0.5716   age139_m42            0.0000     2.9569E+02    11.8227   2.5351   108.5272
 12      3.2946     4.8004E-01    5.1285E-01    2.500000E+09  0.00400  9.818E-05    0   0.5463   age150_m42            0.0000     1.2910E+02     7.2109   2.2017   104.8240
 13      6.7426     2.0444E+00    2.0902E+00    5.000000E+09  0.00400  4.718E-05    0   0.5228   age161_m42            0.0000     7.0372E+01     5.2859   2.0207   101.8474
 14      1.9507     1.2655E+00    1.2325E+00    1.100000E+10  0.00400  2.205E-05    0   0.4980   age185_m42            0.0000     2.8555E+01     3.7204   1.6904   100.1582
 15      0.0000     0.0000E+00    0.0000E+00    1.300000E+10  0.00400  1.883E-05    0   0.4927   age193_m42            0.0000     2.5897E+01     3.6608   1.6690   100.0637
 16      1.4611     1.0508E-03    2.0550E-03    1.000000E+06  0.02000  1.989E-02    0   1.0000   age020_m62            0.0000     3.9983E+03    51.5026   4.0000   101.6722
 17      1.1608     4.4023E-04    8.4869E-04    3.160000E+06  0.02000  3.772E-02    0   0.9858   age045_m62            0.0000     3.5950E+03    49.3153   4.0000   103.8855
 18      0.0000     0.0000E+00    0.0000E+00    5.010000E+06  0.02000  3.227E-02    0   0.9342   age055_m62            0.0000     2.0533E+03    36.5011   4.0000   109.0348
 19      0.0000     0.0000E+00    0.0000E+00    1.000000E+07  0.02000  1.011E-02    0   0.8751   age070_m62            0.0000     1.4607E+03    31.1346   4.0000   102.4451
 20      0.0000     0.0000E+00    0.0000E+00    2.512000E+07  0.02000  4.206E-03    0   0.8099   age090_m62            0.0000     1.1503E+03    28.0811   4.0000   101.9836
 21      0.0000     0.0000E+00    0.0000E+00    4.000000E+07  0.02000  3.373E-03    0   0.7799   age104_m62            0.0000     7.8933E+02    19.9799   4.0000   106.6178
 22      0.0000     0.0000E+00    0.0000E+00    1.015200E+08  0.02000  1.878E-03    0   0.7221   age116_m62            0.0000     8.1842E+02    18.0260   4.0000   109.7759
 23      0.0000     0.0000E+00    0.0000E+00    2.861200E+08  0.02000  8.869E-04    0   0.6700   age125_m62            0.0000     9.4916E+02    21.2818   3.7547   110.3049
 24      0.0000     0.0000E+00    0.0000E+00    6.405400E+08  0.02000  3.657E-04    0   0.6322   age132_m62            0.0000     6.0831E+02    16.2261   2.9571   114.7785
 25      0.0000     0.0000E+00    0.0000E+00    9.047900E+08  0.02000  2.312E-04    0   0.6152   age135_m62            0.0000     3.7744E+02    12.5616   2.5588   114.0629
 26      0.0000     0.0000E+00    0.0000E+00    1.434000E+09  0.02000  1.168E-04    0   0.5865   age139_m62            0.0000     1.4794E+02     7.4982   2.1130   108.9049
 27      0.0098     2.5570E-03    2.8053E-03    2.500000E+09  0.02000  5.505E-05    0   0.5610   age150_m62            0.0000     4.8542E+01     4.8930   1.6777   106.6477
 28     15.7887     8.7003E+00    9.1079E+00    5.000000E+09  0.02000  2.596E-05    0   0.5353   age161_m62            0.0000     1.7999E+01     4.7408   1.2579   107.2031
 29     50.2481     6.1489E+01    6.1363E+01    1.100000E+10  0.02000  1.169E-05    0   0.5103   age185_m62            0.0000     4.4316E+01     7.2841   0.8116   109.0763
 30     17.2143     2.5410E+01    2.5080E+01    1.300000E+10  0.02000  9.691E-06    0   0.5047   age193_m62            0.0000     5.4926E+01     7.8144   0.7540   109.3682
 31      1.7095     9.2247E-04    1.8036E-03    1.000000E+06  0.05000  2.651E-02    0   0.9998   age020_m72            0.0000     3.9057E+03    51.1295   4.0000   102.9277
 32      0.0000     0.0000E+00    0.0000E+00    3.160000E+06  0.05000  4.817E-02    0   0.9577   age045_m72            0.0000     3.0266E+03    45.4118   4.0000   107.0531
 33      0.0000     0.0000E+00    0.0000E+00    5.010000E+06  0.05000  3.101E-02    0   0.9147   age055_m72            0.0000     2.2448E+03    38.9732   4.0000   108.0026
 34      0.0000     0.0000E+00    0.0000E+00    1.000000E+07  0.05000  8.954E-03    0   0.8524   age070_m72            0.0000     2.6417E+03    42.6190   4.0000   108.2860
 35      0.0000     0.0000E+00    0.0000E+00    2.512000E+07  0.05000  4.207E-03    0   0.7902   age090_m72            0.0000     1.5600E+03    31.8200   4.0000   110.6153
 36      0.0000     0.0000E+00    0.0000E+00    4.000000E+07  0.05000  3.198E-03    0   0.7618   age104_m72            0.0000     9.1893E+02    18.8319   4.0000   111.4429
 37      0.0000     0.0000E+00    0.0000E+00    1.015200E+08  0.05000  1.716E-03    0   0.7092   age116_m72            0.0000     9.0952E+02    18.7659   4.0000   111.2144
 38      0.0000     0.0000E+00    0.0000E+00    2.861200E+08  0.05000  7.047E-04    0   0.6618   age125_m72            0.0000     8.6489E+02    19.9004   3.4952   111.0495
 39      0.0000     0.0000E+00    0.0000E+00    6.405400E+08  0.05000  2.633E-04    0   0.6253   age132_m72            0.0000     4.3757E+02    13.5935   2.5410   114.3087
 40      0.0000     0.0000E+00    0.0000E+00    9.047900E+08  0.05000  1.484E-04    0   0.6088   age135_m72            0.0000     1.6763E+02     8.5117   1.9956   110.0867
 41      0.0000     0.0000E+00    0.0000E+00    1.434000E+09  0.05000  7.827E-05    0   0.5847   age139_m72            0.0000     4.9075E+01     5.5520   1.5196   107.5467
 42      0.0000     0.0000E+00    0.0000E+00    2.500000E+09  0.05000  3.759E-05    0   0.5583   age150_m72            0.0000     2.1655E+01     5.1982   1.1414   107.3297
 43      0.0000     0.0000E+00    0.0000E+00    5.000000E+09  0.05000  1.548E-05    0   0.5320   age161_m72            0.0000     5.9551E+01     7.5405   0.6826   106.9061
 44      0.2738     5.9972E-01    5.9463E-01    1.100000E+10  0.05000  6.532E-06    0   0.5070   age185_m72            0.0000     1.4585E+02    10.5736   0.1715   107.4792
 45      0.0000     0.0000E+00    0.0000E+00    1.300000E+10  0.05000  5.316E-06    0   0.5018   age193_m72            0.0000     1.8834E+02    11.7752  -0.0004   107.9796


## Synthesis Results - Average & Chains ##

# j      x_j: min, <> & last-chain-values for 1 ...  7 chains
  1      4.5005      4.1789      4.2848      4.1720      4.5094      4.3379      4.0648      4.1751      4.2655
  2      0.0000      0.0663      0.1200      0.2210      0.0000      0.0182      0.0000      0.0000      0.2306
  3      0.0000      0.0465      0.0000      0.0000      0.0373      0.0000      0.0000      0.0000      0.0414
  4      0.0000      0.0489      0.0000      0.0343      0.0000      0.0000      0.0272      0.0000      0.2462
  5      0.0000      0.1166      0.1724      0.2001      0.0976      0.1826      0.0000      0.2920      0.0000
  6      0.0000      0.0743      0.0000      0.0629      0.0000      0.0000      0.1468      0.3109      0.0000
  7      0.0000      0.0425      0.3719      0.1425      0.0000      0.0000      0.0000      0.0000      0.0000
  8      0.0000      0.0818      0.0000      0.0000      0.3058      0.1607      0.0000      0.0000      0.0503
  9      0.0000      0.0464      0.0000      0.0000      0.0000      0.0571      0.0000      0.0000      0.1610
 10      0.0000      0.1142      0.3807      0.3879      0.0000      0.0000      0.0459      0.2007      0.0000
 11      0.0000      0.1256      0.0000      0.0341      0.6415      0.0696      0.0513      0.1199      0.0119
 12      3.2946      0.3132      0.0000      0.2716      0.5531      0.0000      0.1802      0.2869      1.0965
 13      6.7426      3.0561      4.3051      3.2263      3.3111      4.1048      3.2150      3.0811      3.0847
 14      1.9507      3.3590      2.5953      3.7050      3.2760      3.4255      3.5116      3.9297      3.8197
 15      0.0000      0.5083      1.0165      0.0000      0.7499      0.0000      0.8802      0.5287      0.0000
 16      1.4611      2.0699      2.0552      1.9991      1.6740      2.0546      2.0902      2.1069      2.2202
 17      1.1608      0.9377      0.9417      0.7402      1.0204      0.9437      0.7886      1.0619      0.9919
 18      0.0000      0.0739      0.0000      0.0000      0.2708      0.0928      0.3836      0.0557      0.0000
 19      0.0000      0.2347      0.4019      0.2401      0.4442      0.1942      0.2403      0.2912      0.3754
 20      0.0000      0.0439      0.0000      0.1168      0.0000      0.0000      0.2344      0.0000      0.0000
 21      0.0000      0.0314      0.1493      0.1613      0.0000      0.0194      0.0000      0.0000      0.0000
 22      0.0000      0.0538      0.1443      0.0000      0.0000      0.0000      0.0000      0.0000      0.2863
 23      0.0000      0.0479      0.0000      0.0000      0.0004      0.1984      0.1629      0.0662      0.0000
 24      0.0000      0.0727      0.0000      0.0983      0.1785      0.0000      0.1490      0.0000      0.0000
 25      0.0000      0.0834      0.0000      0.2868      0.0000      0.2025      0.2278      0.2364      0.0427
 26      0.0000      0.2102      0.0000      0.0000      0.0000      0.0000      0.3367      0.6626      0.2352
 27      0.0098      0.3411      0.0000      0.4041      0.2239      0.1914      0.0000      0.0000      0.3824
 28     15.7887     21.3491     20.2854     20.6118     20.7875     19.8909     20.2674     20.7636     18.9752
 29     50.2481     51.2657     51.9381     51.1260     51.3138     51.8142     51.0620     51.7924     52.2891
 30     17.2143     12.7793     13.3551     13.7877     12.5519     13.7443     13.7972     12.9437     13.8902
 31      1.7095      1.1075      1.1110      1.1612      1.0144      1.1580      1.1772      1.1204      0.9821
 32      0.0000      0.0274      0.0000      0.1173      0.0000      0.0000      0.1162      0.0000      0.0000
 33      0.0000      0.0676      0.0000      0.0000      0.0000      0.0230      0.1467      0.0000      0.0000
 34      0.0000      0.1303      0.0000      0.3525      0.2167      0.2454      0.0521      0.0000      0.0000
 35      0.0000      0.0268      0.0000      0.0224      0.0000      0.0000      0.0000      0.0000      0.0000
 36      0.0000      0.0280      0.0000      0.0000      0.0000      0.1320      0.0000      0.0624      0.0000
 37      0.0000      0.0701      0.0000      0.0000      0.0000      0.0561      0.0000      0.0000      0.0625
 38      0.0000      0.0415      0.0888      0.0395      0.1228      0.0183      0.1528      0.0170      0.0000
 39      0.0000      0.0658      0.0000      0.0000      0.0000      0.3837      0.0000      0.0072      0.1474
 40      0.0000      0.1055      0.1679      0.0196      0.0000      0.0000      0.3510      0.0000      0.0000
 41      0.0000      0.1410      0.0000      0.0679      0.0709      0.5664      0.0000      0.0000      0.0000
 42      0.0000      0.1890      0.0000      0.0000      0.0000      0.0000      0.0000      0.0000      0.0000
 43      0.0000      0.2090      0.4587      0.0836      0.0181      0.0250      0.0000      0.0000      0.0000
 44      0.2738      0.2539      0.0822      0.4137      0.6506      0.1541      0.4739      0.0629      0.5216
 45      0.0000      0.2246      0.0000      0.1389      0.3478      0.0000      0.0902      0.2198      0.0000

# j      m_j: min, <> & last-chain-values for 1 ...  7 chains
  1  1.1302E-02  1.0635E-02  1.0870E-02  1.0546E-02  1.1417E-02  1.1024E-02  1.0264E-02  1.0610E-02  1.0723E-02
  2  0.0000E+00  4.6150E-05  8.3288E-05  1.5276E-04  0.0000E+00  1.2651E-05  0.0000E+00  0.0000E+00  1.5852E-04
  3  0.0000E+00  4.9311E-05  0.0000E+00  0.0000E+00  3.9350E-05  0.0000E+00  0.0000E+00  0.0000E+00  4.3370E-05
  4  0.0000E+00  9.6606E-05  0.0000E+00  6.7399E-05  0.0000E+00  0.0000E+00  5.3353E-05  0.0000E+00  4.8076E-04
  5  0.0000E+00  5.3276E-04  7.8558E-04  9.0854E-04  4.4402E-04  8.3349E-04  0.0000E+00  1.3326E-03  0.0000E+00
  6  0.0000E+00  4.7200E-04  0.0000E+00  3.9661E-04  0.0000E+00  0.0000E+00  9.2489E-04  1.9717E-03  0.0000E+00
  7  0.0000E+00  3.8278E-04  3.3397E-03  1.2754E-03  0.0000E+00  0.0000E+00  0.0000E+00  0.0000E+00  0.0000E+00
  8  0.0000E+00  1.4218E-03  0.0000E+00  0.0000E+00  5.2864E-03  2.7886E-03  0.0000E+00  0.0000E+00  8.6282E-04
  9  0.0000E+00  1.6045E-03  0.0000E+00  0.0000E+00  0.0000E+00  1.9748E-03  0.0000E+00  0.0000E+00  5.5046E-03
 10  0.0000E+00  5.5163E-03  1.8337E-02  1.8615E-02  0.0000E+00  0.0000E+00  2.2011E-03  9.6834E-03  0.0000E+00
 11  0.0000E+00  1.0657E-02  0.0000E+00  2.8770E-03  5.4145E-02  5.8931E-03  4.3194E-03  1.0159E-02  9.9985E-04
 12  5.1285E-01  4.9399E-02  0.0000E+00  4.2556E-02  8.6794E-02  0.0000E+00  2.8200E-02  4.5198E-02  1.7086E-01
 13  2.0902E+00  9.6008E-01  1.3482E+00  1.0068E+00  1.0348E+00  1.2877E+00  1.0022E+00  9.6650E-01  9.5725E-01
 14  1.2325E+00  2.1507E+00  1.6566E+00  2.3564E+00  2.0868E+00  2.1902E+00  2.2310E+00  2.5125E+00  2.4159E+00
 15  0.0000E+00  3.7704E-01  7.5168E-01  0.0000E+00  5.5341E-01  0.0000E+00  6.4786E-01  3.9161E-01  0.0000E+00
 16  2.0550E-03  2.9504E-03  2.9202E-03  2.8303E-03  2.3737E-03  2.9244E-03  2.9562E-03  2.9987E-03  3.1261E-03
 17  8.4869E-04  6.9480E-04  6.9555E-04  5.4479E-04  7.5216E-04  6.9823E-04  5.7975E-04  7.8566E-04  7.2598E-04
 18  0.0000E+00  6.0690E-05  0.0000E+00  0.0000E+00  2.2112E-04  7.6015E-05  3.1240E-04  4.5658E-05  0.0000E+00
 19  0.0000E+00  5.7594E-04  9.8318E-04  5.8529E-04  1.0845E-03  4.7591E-04  5.8501E-04  7.1364E-04  9.0994E-04
 20  0.0000E+00  2.3989E-04  0.0000E+00  6.3355E-04  0.0000E+00  0.0000E+00  1.2697E-03  0.0000E+00  0.0000E+00
 21  0.0000E+00  2.0590E-04  9.7592E-04  1.0503E-03  0.0000E+00  1.2727E-04  0.0000E+00  0.0000E+00  0.0000E+00
 22  0.0000E+00  5.8636E-04  1.5684E-03  0.0000E+00  0.0000E+00  0.0000E+00  0.0000E+00  0.0000E+00  3.0830E-03
 23  0.0000E+00  1.0262E-03  0.0000E+00  0.0000E+00  8.4456E-06  4.2438E-03  3.4611E-03  1.4152E-03  0.0000E+00
 24  0.0000E+00  3.5619E-03  0.0000E+00  4.7843E-03  8.7018E-03  0.0000E+00  7.2455E-03  0.0000E+00  0.0000E+00
 25  0.0000E+00  6.2893E-03  0.0000E+00  2.1494E-02  0.0000E+00  1.5254E-02  1.7052E-02  1.7804E-02  3.1837E-03
 26  0.0000E+00  2.9920E-02  0.0000E+00  0.0000E+00  0.0000E+00  0.0000E+00  4.7555E-02  9.4191E-02  3.3072E-02
 27  2.8053E-03  9.8546E-02  0.0000E+00  1.1597E-01  6.4351E-02  5.5208E-02  0.0000E+00  0.0000E+00  1.0914E-01
 28  9.1079E+00  1.2480E+01  1.1822E+01  1.1969E+01  1.2089E+01  1.1611E+01  1.1756E+01  1.2120E+01  1.0958E+01
 29  6.1363E+01  6.3445E+01  6.4076E+01  6.2848E+01  6.3176E+01  6.4033E+01  6.2702E+01  6.4002E+01  6.3923E+01
 30  2.5080E+01  1.8868E+01  1.9657E+01  2.0221E+01  1.8437E+01  2.0264E+01  2.0213E+01  1.9083E+01  2.0258E+01
 31  1.8036E-03  1.1841E-03  1.1842E-03  1.2333E-03  1.0790E-03  1.2364E-03  1.2490E-03  1.1962E-03  1.0372E-03
 32  0.0000E+00  1.5448E-05  0.0000E+00  6.5666E-05  0.0000E+00  0.0000E+00  6.4967E-05  0.0000E+00  0.0000E+00
 33  0.0000E+00  5.6555E-05  0.0000E+00  0.0000E+00  0.0000E+00  1.9216E-05  1.2171E-04  0.0000E+00  0.0000E+00
 34  0.0000E+00  3.5167E-04  0.0000E+00  9.4488E-04  5.8180E-04  6.6130E-04  1.3958E-04  0.0000E+00  0.0000E+00
 35  0.0000E+00  1.4288E-04  0.0000E+00  1.1868E-04  0.0000E+00  0.0000E+00  0.0000E+00  0.0000E+00  0.0000E+00
 36  0.0000E+00  1.8897E-04  0.0000E+00  0.0000E+00  0.0000E+00  8.9050E-04  0.0000E+00  4.2062E-04  0.0000E+00
 37  0.0000E+00  8.2192E-04  0.0000E+00  0.0000E+00  0.0000E+00  6.5678E-04  0.0000E+00  0.0000E+00  7.2387E-04
 38  0.0000E+00  1.1043E-03  2.3565E-03  1.0438E-03  3.2516E-03  4.8656E-04  4.0369E-03  4.5205E-04  0.0000E+00
 39  0.0000E+00  4.4328E-03  0.0000E+00  0.0000E+00  0.0000E+00  2.5797E-02  0.0000E+00  4.8371E-04  9.8012E-03
 40  0.0000E+00  1.2273E-02  1.9466E-02  2.2673E-03  0.0000E+00  0.0000E+00  4.0512E-02  0.0000E+00  0.0000E+00
 41  0.0000E+00  2.9872E-02  0.0000E+00  1.4282E-02  1.4940E-02  1.1979E-01  0.0000E+00  0.0000E+00  0.0000E+00
 42  0.0000E+00  7.9565E-02  0.0000E+00  0.0000E+00  0.0000E+00  0.0000E+00  0.0000E+00  0.0000E+00  0.0000E+00
 43  0.0000E+00  2.0360E-01  4.4550E-01  8.0927E-02  1.7544E-02  2.4301E-02  0.0000E+00  0.0000E+00  0.0000E+00
 44  5.9463E-01  5.5873E-01  1.8025E-01  9.0428E-01  1.4242E+00  3.3852E-01  1.0346E+00  1.3823E-01  1.1339E+00
 45  0.0000E+00  6.0103E-01  0.0000E+00  3.6919E-01  9.2585E-01  0.0000E+00  2.3953E-01  5.8734E-01  0.0000E+00

# AV, chi2 & Mass for <> & i_chain = 1 ...  7 solutions
AV       1.3787      1.3732      1.3766      1.3762      1.3755      1.3793      1.3757      1.3778      1.3743
chi2 2.7696E+00  2.7882E+00  2.7770E+00  2.7797E+00  2.7785E+00  2.7816E+00  2.7799E+00  2.7793E+00  2.7737E+00
Mass 7.4857E-10  7.3330E-10  7.3892E-10  7.4119E-10  7.3938E-10  7.4039E-10  7.4144E-10  7.3891E-10  7.4337E-10
  -5.21                                  [v0_min (km/s) before EX0s...]
 107.76                                  [vd_min (km/s) before EX0s...]


## Synthetic spectrum (Best Model) ##l_obs f_obs f_syn wei
 3070    [Nl_obs]
 3359.00    0.27550   0.37591   -1.000
 3360.00    0.29354   0.35594   -1.000
 3361.00    0.26740   0.36043   -1.000
 3362.00    0.30693   0.38550   -1.000
 3363.00    0.25897   0.41682   -1.000
 3364.00    0.27761   0.43777   -1.000
 3365.00    0.30928   0.43899   -1.000
 3366.00    0.34674   0.42298   -1.000
 3367.00    0.30956   0.39984   -1.000
 3368.00    0.28230   0.37895   -1.000
 3369.00    0.30957   0.36485   -1.000
 3370.00    0.32977   0.35822   63.204
 3371.00    0.27338   0.35943   -1.000
 3372.00    0.29368   0.37036   -1.000
 3373.00    0.31489   0.39170   -1.000
 3374.00    0.31023   0.41959   -1.000
 3375.00    0.31749   0.44549   -1.000
 3376.00    0.33289   0.45922   -1.000
 3377.00    0.33455   0.45495   -1.000
 3378.00    0.35267   0.43676   -1.000
 3379.00    0.32982   0.41706   -1.000
 3380.00    0.33127   0.40784   -1.000
 3381.00    0.32776   0.41287   -1.000
 3382.00    0.36483   0.42722   47.125
 3383.00    0.39938   0.44368   44.926
 3384.00    0.39081   0.45781   45.208
 3385.00    0.37773   0.46777   -1.000
 3386.00    0.36870   0.47264   -1.000
 3387.00    0.36469   0.47296   -1.000
 3388.00    0.33830   0.47028   -1.000
 3389.00    0.35714   0.46460   -1.000
 3390.00    0.36667   0.45426   -1.000
 3391.00    0.37011   0.44032   43.890
 3392.00    0.36762   0.42937   42.441
 3393.00    0.34967   0.42901   -1.000
 3394.00    0.35323   0.44141   -1.000
 3395.00    0.38791   0.46197   37.224
 3396.00    0.41060   0.48394   36.047
 3397.00    0.41419   0.50293   -1.000
 3398.00    0.42279   0.51646   -1.000
 3399.00    0.46155   0.52231   34.810
 3400.00    0.44853   0.51947   36.269
 3401.00    0.45688   0.50917   36.644
 3402.00    0.45648   0.49497   37.297
 3403.00    0.44676   0.48100   37.973
 3404.00    0.44827   0.46937   38.550
 3405.00    0.45155   0.45976   38.758
 3406.00    0.38486   0.45171   39.354
 3407.00    0.39290   0.44668   39.518
 3408.00    0.41045   0.44675   39.172
 3409.00    0.42197   0.45127   38.045
 3410.00    0.42469   0.45500   37.941
 3411.00    0.44182   0.45121   39.545
 3412.00    0.45105   0.43847   40.175
 3413.00    0.43666   0.42340   39.980
 3414.00    0.41843   0.41600   38.893
 3415.00    0.42473   0.42238   37.188
 3416.00    0.42478   0.44118   35.411
 3417.00    0.41714   0.46597   33.779
 3418.00    0.42053   0.48939   33.660
 3419.00    0.43882   0.50524   33.467
 3420.00    0.48967   0.50909   33.757
 3421.00    0.49874   0.50076   34.744
 3422.00    0.48697   0.48639   35.342
 3423.00    0.47344   0.47471   34.306
 3424.00    0.47207   0.47017   33.476
 3425.00    0.47764   0.47222   36.634
 3426.00    0.48308   0.47957  294.398
 3427.00    0.48673   0.49223  294.398
 3428.00    0.47054   0.50822   -1.000
 3429.00    0.51627   0.52004  294.398
 3430.00    0.51959   0.51925  171.223
 3431.00    0.50360   0.50569   33.441
 3432.00    0.46630   0.48902   36.689
 3433.00    0.45774   0.47997   -1.000
 3434.00    0.47183   0.48038  167.853
 3435.00    0.45818   0.48244   33.386
 3436.00    0.48435   0.47695   35.015
 3437.00    0.47576   0.45952   37.203
 3438.00    0.46808   0.43128   40.028
 3439.00    0.45463   0.39804   41.453
 3440.00    0.41705   0.36838   41.477
 3441.00    0.38871   0.35033   41.127
 3442.00    0.37622   0.34774   39.402
 3443.00    0.39156   0.35830   37.233
 3444.00    0.37476   0.37620   35.260
 3445.00    0.38949   0.39694   38.012
 3446.00    0.42864   0.41912   -1.000
 3447.00    0.45490   0.44252   -1.000
 3448.00    0.46902   0.46501  294.398
 3449.00    0.46270   0.48094   -1.000
 3450.00    0.46661   0.48491   -1.000
 3451.00    0.48544   0.47847  294.398
 3452.00    0.48000   0.47040   -1.000
 3453.00    0.46408   0.46852  294.398
 3454.00    0.49443   0.47245   -1.000
 3455.00    0.49815   0.47440   -1.000
 3456.00    0.51382   0.46725   -1.000
 3457.00    0.48974   0.45074   33.377
 3458.00    0.47829   0.43081   33.751
 3459.00    0.45278   0.41513   37.649
 3460.00    0.48296   0.40918   -1.000
 3461.00    0.47684   0.41515   -1.000
 3462.00    0.45434   0.43035   -1.000
 3463.00    0.50630   0.44650   -1.000
 3464.00    0.52553   0.45579   -1.000
 3465.00    0.49362   0.45854   -1.000
 3466.00    0.49328   0.46152   -1.000
 3467.00    0.49873   0.46990   -1.000
 3468.00    0.48617   0.48238  281.965
 3469.00    0.52763   0.49256   -1.000
 3470.00    0.53372   0.49384   -1.000
 3471.00    0.52438   0.48292   -1.000
 3472.00    0.50893   0.46105   -1.000
 3473.00    0.50895   0.43384   33.761
 3474.00    0.48471   0.40974   34.773
 3475.00    0.44524   0.39737   38.613
 3476.00    0.44233   0.40149   -1.000
 3477.00    0.45493   0.41933   -1.000
 3478.00    0.46049   0.44191   -1.000
 3479.00    0.50384   0.45972   -1.000
 3480.00    0.51409   0.46751   -1.000
 3481.00    0.50259   0.46547   -1.000
 3482.00    0.50706   0.45822   -1.000
 3483.00    0.50110   0.45301   -1.000
 3484.00    0.49906   0.45602   -1.000
 3485.00    0.49033   0.46710   -1.000
 3486.00    0.50687   0.47815   -1.000
 3487.00    0.53394   0.47875   -1.000
 3488.00    0.51971   0.46484   -1.000
 3489.00    0.47642   0.44281   -1.000
 3490.00    0.47731   0.42466   -1.000
 3491.00    0.45374   0.41869   -1.000
 3492.00    0.46634   0.42415   -1.000
 3493.00    0.49758   0.43335   -1.000
 3494.00    0.47413   0.43844   -1.000
 3495.00    0.45619   0.43796   -1.000
 3496.00    0.46180   0.43857   -1.000
 3497.00    0.47127   0.44891   -1.000
 3498.00    0.48150   0.47028   -1.000
 3499.00    0.48752   0.49476  262.633
 3500.00    0.53561   0.51382   -1.000
 3501.00    0.54009   0.52597   -1.000
 3502.00    0.53808   0.53308  266.098
 3503.00    0.57850   0.53470   -1.000
 3504.00    0.56064   0.52979   -1.000
 3505.00    0.53172   0.52077   -1.000
 3506.00    0.52802   0.51206   -1.000
 3507.00    0.53906   0.50508   -1.000
 3508.00    0.54208   0.49714   -1.000
 3509.00    0.52413   0.48580   -1.000
 3510.00    0.50975   0.47169   -1.000
 3511.00    0.51781   0.45682   -1.000
 3512.00    0.50817   0.44374   -1.000
 3513.00    0.48153   0.43685   -1.000
 3514.00    0.48445   0.44214   -1.000
 3515.00    0.44810   0.46217   -1.000
 3516.00    0.47202   0.49065   -1.000
 3517.00    0.52345   0.51446   -1.000
 3518.00    0.56405   0.52232   -1.000
 3519.00    0.55105   0.51153   -1.000
 3520.00    0.53628   0.48766   -1.000
 3521.00    0.51461   0.45918   -1.000
 3522.00    0.51232   0.43224   33.497
 3523.00    0.48785   0.40995   34.480
 3524.00    0.45574   0.39609   40.040
 3525.00    0.42886   0.39626   -1.000
 3526.00    0.44789   0.41321   -1.000
 3527.00    0.45373   0.44244   -1.000
 3528.00    0.47695   0.47332  277.565
 3529.00    0.50711   0.49494   -1.000
 3530.00    0.52991   0.50317   -1.000
 3531.00    0.52352   0.50309   -1.000
 3532.00    0.49939   0.50389  275.433
 3533.00    0.50221   0.51054  269.824
 3534.00    0.53228   0.52095   -1.000
 3535.00    0.54714   0.53030   -1.000
 3536.00    0.55204   0.53697   -1.000
 3537.00    0.50382   0.54277   -1.000
 3538.00    0.50940   0.54792   -1.000
 3539.00    0.56506   0.54937   -1.000
 3540.00    0.53768   0.54568  270.992
 3541.00    0.53588   0.54079  268.787
 3542.00    0.53591   0.54058  265.243
 3543.00    0.51320   0.54610   -1.000
 3544.00    0.53849   0.55236   -1.000
 3545.00    0.52915   0.55406   -1.000
 3546.00    0.55375   0.55090  276.760
 3547.00    0.54729   0.54681  275.902
 3548.00    0.50661   0.54477   -1.000
 3549.00    0.50975   0.54336   -1.000
 3550.00    0.52179   0.53852   -1.000
 3551.00    0.49219   0.52804   -1.000
 3552.00    0.48951   0.51437   -1.000
 3553.00    0.49987   0.50336  294.398
 3554.00    0.48629   0.49947   -1.000
 3555.00    0.45562   0.50160   -1.000
 3556.00    0.45677   0.50459   -1.000
 3557.00    0.49284   0.50490   -1.000
 3558.00    0.47767   0.50399   -1.000
 3559.00    0.47538   0.50634   -1.000
 3560.00    0.49170   0.51359   -1.000
 3561.00    0.50485   0.52057   -1.000
 3562.00    0.50608   0.51755  123.078
 3563.00    0.49524   0.49789   33.897
 3564.00    0.48950   0.46570   34.956
 3565.00    0.46887   0.43443   34.575
 3566.00    0.44919   0.41519   34.638
 3567.00    0.42200   0.40686   35.737
 3568.00    0.41676   0.40114   36.042
 3569.00    0.42987   0.39477   34.797
 3570.00    0.41774   0.39255   40.385
 3571.00    0.41980   0.39981   -1.000
 3572.00    0.43397   0.41530   -1.000
 3573.00    0.46003   0.43246   -1.000
 3574.00    0.45793   0.44546   -1.000
 3575.00    0.44502   0.45112  294.398
 3576.00    0.45208   0.44727  124.820
 3577.00    0.48092   0.43257   35.286
 3578.00    0.45233   0.40823   37.951
 3579.00    0.40783   0.37979   39.665
 3580.00    0.38282   0.35606   39.885
 3581.00    0.36680   0.34351   40.214
 3582.00    0.36715   0.34132   41.303
 3583.00    0.38359   0.34271   42.519
 3584.00    0.39498   0.34221   42.536
 3585.00    0.36659   0.34078   40.332
 3586.00    0.36848   0.34414   38.221
 3587.00    0.37483   0.35730   36.030
 3588.00    0.39485   0.38116   40.719
 3589.00    0.42055   0.41222   -1.000
 3590.00    0.42408   0.44347   -1.000
 3591.00    0.44005   0.46773   -1.000
 3592.00    0.47035   0.48255  289.809
 3593.00    0.46720   0.49254   -1.000
 3594.00    0.45978   0.50480   -1.000
 3595.00    0.48189   0.52218   -1.000
 3596.00    0.50600   0.54165   -1.000
 3597.00    0.53203   0.55868   -1.000
 3598.00    0.56332   0.57069  255.397
 3599.00    0.56741   0.57495  268.297
 3600.00    0.56068   0.56734  282.915
 3601.00    0.56575   0.54666   -1.000
 3602.00    0.52148   0.51826  294.398
 3603.00    0.49704   0.49112  294.398
 3604.00    0.48987   0.47172   -1.000
 3605.00    0.50091   0.45984   -1.000
 3606.00    0.47798   0.45019   -1.000
 3607.00    0.45233   0.43899   -1.000
 3608.00    0.45055   0.42925   -1.000
 3609.00    0.44934   0.42839   -1.000
 3610.00    0.44391   0.44016  292.306
 3611.00    0.48901   0.46035   -1.000
 3612.00    0.50872   0.48156   -1.000
 3613.00    0.50832   0.49968  271.494
 3614.00    0.51072   0.51218  276.971
 3615.00    0.52068   0.51332   -1.000
 3616.00    0.51662   0.49727  111.403
 3617.00    0.48623   0.46752   41.172
 3618.00    0.45828   0.44023   -1.000
 3619.00    0.43059   0.43344  280.015
 3620.00    0.46173   0.45210  266.229
 3621.00    0.51510   0.48603   -1.000
 3622.00    0.51984   0.52178  255.975
 3623.00    0.53174   0.55339   -1.000
 3624.00    0.55699   0.58298   -1.000
 3625.00    0.57353   0.61204   -1.000
 3626.00    0.59368   0.63465   -1.000
 3627.00    0.63993   0.63955  260.327
 3628.00    0.62924   0.61854   -1.000
 3629.00    0.59113   0.57439   -1.000
 3630.00    0.54023   0.52273   -1.000
 3631.00    0.49147   0.48393  294.398
 3632.00    0.47689   0.46994  289.614
 3633.00    0.47947   0.47836  281.979
 3634.00    0.49490   0.49861  270.669
 3635.00    0.49558   0.52140   -1.000
 3636.00    0.53762   0.54411  247.067
 3637.00    0.57293   0.56802  240.686
 3638.00    0.57589   0.59212   -1.000
 3639.00    0.60113   0.61052  248.662
 3640.00    0.61596   0.61630  258.287
 3641.00    0.61524   0.60698  270.954
 3642.00    0.56938   0.58630   -1.000
 3643.00    0.53766   0.56111   -1.000
 3644.00    0.52020   0.53644   -1.000
 3645.00    0.50988   0.51412  291.238
 3646.00    0.50678   0.49538   -1.000
 3647.00    0.52462   0.48382   -1.000
 3648.00    0.50727   0.48499   -1.000
 3649.00    0.49678   0.50221  255.835
 3650.00    0.51658   0.53288   -1.000
 3651.00    0.54740   0.56924   -1.000
 3652.00    0.57370   0.60206   -1.000
 3653.00    0.59280   0.62587   -1.000
 3654.00    0.61107   0.64173   -1.000
 3655.00    0.61146   0.65507   -1.000
 3656.00    0.61422   0.66960   -1.000
 3657.00    0.63566   0.68446   -1.000
 3658.00    0.64789   0.69562   -1.000
 3659.00    0.65315   0.69939   -1.000
 3660.00    0.64976   0.69454   -1.000
 3661.00    0.65073   0.68237   -1.000
 3662.00    0.63464   0.66719   -1.000
 3663.00    0.61180   0.65450   -1.000
 3664.00    0.60561   0.64727   -1.000
 3665.00    0.61660   0.64354   -1.000
 3666.00    0.61895   0.63848   -1.000
 3667.00    0.61620   0.62920   -1.000
 3668.00    0.60601   0.61887   -1.000
 3669.00    0.59452   0.61510   -1.000
 3670.00    0.59389   0.62281   -1.000
 3671.00    0.60941   0.63872   -1.000
 3672.00    0.60779   0.65387   -1.000
 3673.00    0.63683   0.66099   -1.000
 3674.00    0.65774   0.65741  243.691
 3675.00    0.63221   0.64331  251.240
 3676.00    0.61744   0.62056  258.551
 3677.00    0.60926   0.59341   -1.000
 3678.00    0.59302   0.56891   -1.000
 3679.00    0.55456   0.55479  253.604
 3680.00    0.54445   0.55528   -1.000
 3681.00    0.56111   0.56721  247.497
 3682.00    0.58148   0.58092  254.755
 3683.00    0.58194   0.58566  265.334
 3684.00    0.58468   0.57590  274.658
 3685.00    0.56456   0.55496  276.063
 3686.00    0.52666   0.53471  265.142
 3687.00    0.51548   0.52905   -1.000
 3688.00    0.51601   0.54530   -1.000
 3689.00    0.54659   0.57891   -1.000
 3690.00    0.58932   0.61614   -1.000
 3691.00    0.62800   0.64123   -1.000
 3692.00    0.64939   0.64665  239.637
 3693.00    0.63455   0.63757  238.218
 3694.00    0.62546   0.62667  235.857
 3695.00    0.60585   0.62399   -1.000
 3696.00    0.60719   0.63299   -1.000
 3697.00    0.61651   0.65145   -1.000
 3698.00    0.62658   0.67222   -1.000
 3699.00    0.66787   0.68583   -1.000
 3700.00    0.70009   0.68392   -1.000
 3701.00    0.67160   0.66247  260.643
 3702.00    0.62860   0.62253  282.759
 3703.00    0.59243   0.57176   -1.000
 3704.00    0.54468   0.52276   -1.000
 3705.00    0.50836   0.48744   -1.000
 3706.00    0.49282   0.47078   -1.000
 3707.00    0.49239   0.47143   -1.000
 3708.00    0.51493   0.48597   -1.000
 3709.00    0.52513   0.51342  242.577
 3710.00    0.53887   0.55219   -1.000
 3711.00    0.58857   0.59684  219.902
 3712.00    0.63297   0.63828  215.889
 3713.00    0.67656   0.66687  217.062
 3714.00    0.68401   0.67529  224.055
 3715.00    0.66315   0.66136  237.280
 3716.00    0.66088   0.62676   -1.000
 3717.00    0.61303   0.57528   -1.000
 3718.00    0.53225   0.51442   95.357
 3719.00    0.48505   0.45739   45.125
 3720.00    0.45879   0.42022   -1.000
 3721.00    0.42693   0.41445  270.310
 3722.00    0.43969   0.43981  247.497
 3723.00    0.49501   0.48283  240.872
 3724.00    0.56568   0.52440   -1.000
 3725.00    0.60427   0.54959   -1.000
 3726.00    0.60105   0.55568   -1.000
 3727.00    0.57143   0.55154   -1.000
 3728.00    0.54808   0.54643  254.108
 3729.00    0.57695   0.53949   -1.000
 3730.00    0.57155   0.52193   -1.000
 3731.00    0.53738   0.48795   34.267
 3732.00    0.50575   0.44146   37.621
 3733.00    0.46598   0.39485   38.013
 3734.00    0.41579   0.36195   35.559
 3735.00    0.37572   0.35187   44.678
 3736.00    0.37876   0.36768   -1.000
 3737.00    0.39778   0.40511  258.992
 3738.00    0.44799   0.45399  248.116
 3739.00    0.52119   0.50008   -1.000
 3740.00    0.57743   0.52917   -1.000
 3741.00    0.58351   0.53278   -1.000
 3742.00    0.56317   0.51307   -1.000
 3743.00    0.50773   0.48014   -1.000
 3744.00    0.48053   0.44574   -1.000
 3745.00    0.46002   0.41674   34.291
 3746.00    0.43799   0.39413   35.974
 3747.00    0.43783   0.37752   -1.000
 3748.00    0.41953   0.37176   -1.000
 3749.00    0.40064   0.38477   -1.000
 3750.00    0.43988   0.41979   -1.000
 3751.00    0.48685   0.47076   -1.000
 3752.00    0.51243   0.52536   -1.000
 3753.00    0.56936   0.57104  224.667
 3754.00    0.62609   0.59688   -1.000
 3755.00    0.64098   0.59445   -1.000
 3756.00    0.61463   0.56509   -1.000
 3757.00    0.55555   0.52432   -1.000
 3758.00    0.50593   0.49301   -1.000
 3759.00    0.49944   0.48284   -1.000
 3760.00    0.51398   0.48961   -1.000
 3761.00    0.52916   0.50050   -1.000
 3762.00    0.54350   0.50646   -1.000
 3763.00    0.54554   0.50638   -1.000
 3764.00    0.52735   0.50327   -1.000
 3765.00    0.54391   0.49956   -1.000
 3766.00    0.54723   0.49776   -1.000
 3767.00    0.52337   0.50110   -1.000
 3768.00    0.52571   0.51121   -1.000
 3769.00    0.56738   0.52730   -1.000
 3770.00    0.57331   0.54784   -1.000
 3771.00    0.58601   0.57077   -1.000
 3772.00    0.60941   0.59227   -1.000
 3773.00    0.63736   0.60805   -1.000
 3774.00    0.63955   0.61672   -1.000
 3775.00    0.62996   0.62094  227.668
 3776.00    0.63828   0.62543  222.952
 3777.00    0.61691   0.63336   -1.000
 3778.00    0.62329   0.64526   -1.000
 3779.00    0.64471   0.65930   -1.000
 3780.00    0.67022   0.67245  210.122
 3781.00    0.69268   0.68174  211.793
 3782.00    0.68204   0.68417  218.818
 3783.00    0.69100   0.67589   -1.000
 3784.00    0.68147   0.65364   -1.000
 3785.00    0.64024   0.61893   -1.000
 3786.00    0.58553   0.57981  260.739
 3787.00    0.53598   0.54671  258.980
 3788.00    0.52300   0.52699  254.929
 3789.00    0.51332   0.52197  254.496
 3790.00    0.53829   0.52611   -1.000
 3791.00    0.56062   0.52983   -1.000
 3792.00    0.57300   0.52559   -1.000
 3793.00    0.54947   0.51215   -1.000
 3794.00    0.51036   0.49361   -1.000
 3795.00    0.49570   0.47451   -1.000
 3796.00    0.47980   0.45741   -1.000
 3797.00    0.47350   0.44623   -1.000
 3798.00    0.46613   0.44789   -1.000
 3799.00    0.46173   0.46786  247.358
 3800.00    0.48196   0.50381   -1.000
 3801.00    0.51398   0.54559   -1.000
 3802.00    0.54563   0.58153   -1.000
 3803.00    0.56960   0.60347   -1.000
 3804.00    0.57671   0.60859   -1.000
 3805.00    0.57444   0.60112   -1.000
 3806.00    0.55427   0.59096   -1.000
 3807.00    0.52987   0.58827   -1.000
 3808.00    0.53937   0.59584   -1.000
 3809.00    0.57582   0.60658   -1.000
 3810.00    0.59598   0.60860  255.421
 3811.00    0.58632   0.59405  271.198
 3812.00    0.57228   0.56409   -1.000
 3813.00    0.53512   0.52789   -1.000
 3814.00    0.49277   0.49672  285.259
 3815.00    0.47329   0.47775  279.668
 3816.00    0.46097   0.46992  289.720
 3817.00    0.46677   0.46454  294.398
 3818.00    0.47237   0.45374   -1.000
 3819.00    0.44586   0.43865   -1.000
 3820.00    0.42609   0.42772  294.398
 3821.00    0.43028   0.42535  294.398
 3822.00    0.44239   0.42566   84.172
 3823.00    0.45149   0.41905   35.060
 3824.00    0.43704   0.40345   35.432
 3825.00    0.40840   0.38663   35.015
 3826.00    0.40083   0.37716   34.440
 3827.00    0.40399   0.37724   34.224
 3828.00    0.40372   0.38287   35.064
 3829.00    0.41839   0.38720   37.107
 3830.00    0.42114   0.38471   39.473
 3831.00    0.40340   0.37463   39.930
 3832.00    0.37844   0.36160   38.804
 3833.00    0.37175   0.35232   37.479
 3834.00    0.37977   0.35068   37.246
 3835.00    0.38800   0.35480   38.110
 3836.00    0.41395   0.35961   38.451
 3837.00    0.41233   0.36214   37.169
 3838.00    0.40716   0.36500   52.195
 3839.00    0.38284   0.37508   -1.000
 3840.00    0.39207   0.39765  286.189
 3841.00    0.42929   0.43168  272.869
 3842.00    0.46171   0.46960  269.822
 3843.00    0.47954   0.50248   -1.000
 3844.00    0.51965   0.52518  269.920
 3845.00    0.52363   0.53765  272.647
 3846.00    0.50756   0.54230   -1.000
 3847.00    0.51441   0.54052   -1.000
 3848.00    0.50940   0.53390   -1.000
 3849.00    0.49635   0.52700   -1.000
 3850.00    0.49365   0.52492   -1.000
 3851.00    0.47938   0.52802   -1.000
 3852.00    0.49121   0.53067   -1.000
 3853.00    0.50464   0.52685   -1.000
 3854.00    0.48497   0.51525   -1.000
 3855.00    0.46818   0.49838   76.316
 3856.00    0.46682   0.47893   33.699
 3857.00    0.45077   0.45920   34.755
 3858.00    0.43258   0.44419   50.706
 3859.00    0.41469   0.44201   -1.000
 3860.00    0.41524   0.45751   -1.000
 3861.00    0.44412   0.48618   -1.000
 3862.00    0.48209   0.51562   -1.000
 3863.00    0.51784   0.53426   -1.000
 3864.00    0.53503   0.53915  276.586
 3865.00    0.53462   0.53530  284.143
 3866.00    0.50551   0.52869   -1.000
 3867.00    0.48744   0.52052   -1.000
 3868.00    0.48695   0.50849   76.548
 3869.00    0.47083   0.49208   50.138
 3870.00    0.44352   0.47589   -1.000
 3871.00    0.43179   0.46887   -1.000
 3872.00    0.45279   0.47757   -1.000
 3873.00    0.48295   0.49960   -1.000
 3874.00    0.51113   0.52330  273.327
 3875.00    0.54616   0.53518   -1.000
 3876.00    0.55811   0.52964   -1.000
 3877.00    0.52196   0.51310   -1.000
 3878.00    0.48398   0.49774   -1.000
 3879.00    0.46972   0.49035   -1.000
 3880.00    0.47525   0.49040   -1.000
 3881.00    0.47243   0.49500   -1.000
 3882.00    0.46896   0.50163   -1.000
 3883.00    0.50084   0.50608  275.088
 3884.00    0.53679   0.50192   -1.000
 3885.00    0.54053   0.48681   -1.000
 3886.00    0.51704   0.46846   -1.000
 3887.00    0.50732   0.46000   -1.000
 3888.00    0.51267   0.47105   -1.000
 3889.00    0.53792   0.50222   -1.000
 3890.00    0.58850   0.54487   -1.000
 3891.00    0.63856   0.58579   -1.000
 3892.00    0.65470   0.61413   -1.000
 3893.00    0.66108   0.62647   -1.000
 3894.00    0.65987   0.62800   -1.000
 3895.00    0.63644   0.62722  217.663
 3896.00    0.62879   0.62826  221.493
 3897.00    0.64159   0.63004  222.100
 3898.00    0.65304   0.63069   -1.000
 3899.00    0.64944   0.63074   -1.000
 3900.00    0.64988   0.63101   -1.000
 3901.00    0.65292   0.62914   -1.000
 3902.00    0.65010   0.62186   -1.000
 3903.00    0.63618   0.61013   -1.000
 3904.00    0.60886   0.60004  234.511
 3905.00    0.60546   0.59990  219.657
 3906.00    0.62457   0.61438  208.725
 3907.00    0.63874   0.64109  205.161
 3908.00    0.68104   0.67205  203.313
 3909.00    0.70371   0.69898  201.668
 3910.00    0.71737   0.71770  201.943
 3911.00    0.74560   0.72842   -1.000
 3912.00    0.76268   0.73244   -1.000
 3913.00    0.75331   0.73019   -1.000
 3914.00    0.73951   0.72195   -1.000
 3915.00    0.73335   0.70859   -1.000
 3916.00    0.70817   0.69087   -1.000
 3917.00    0.68698   0.66890   -1.000
 3918.00    0.67466   0.64285   -1.000
 3919.00    0.64653   0.61544   -1.000
 3920.00    0.60319   0.59265   -1.000
 3921.00    0.58315   0.57956  244.655
 3922.00    0.58343   0.57623  250.896
 3923.00    0.59953   0.57608   -1.000
 3924.00    0.61147   0.56920   -1.000
 3925.00    0.60470   0.54877   -1.000
 3926.00    0.57004   0.51405   39.205
 3927.00    0.50416   0.47004   45.938
 3928.00    0.45481   0.42310   53.983
 3929.00    0.40372   0.37794   63.630
 3930.00    0.34273   0.33704   72.481
 3931.00    0.29624   0.30204   74.970
 3932.00    0.28580   0.27664   68.682
 3933.00    0.28347   0.26585   58.237
 3934.00    0.27423   0.27357   47.973
 3935.00    0.30355   0.29982   39.815
 3936.00    0.34895   0.34027   57.024
 3937.00    0.39010   0.38813  294.398
 3938.00    0.45204   0.43644   -1.000
 3939.00    0.50923   0.47789   -1.000
 3940.00    0.53904   0.50754   -1.000
 3941.00    0.54415   0.52483   -1.000
 3942.00    0.53862   0.53451  257.019
 3943.00    0.53392   0.54510  237.121
 3944.00    0.53737   0.56333   -1.000
 3945.00    0.56874   0.58899   -1.000
 3946.00    0.63506   0.61622   -1.000
 3947.00    0.67804   0.64046   -1.000
 3948.00    0.68402   0.66155   -1.000
 3949.00    0.68816   0.68034  212.277
 3950.00    0.71867   0.69541   -1.000
 3951.00    0.73640   0.70470   -1.000
 3952.00    0.73479   0.70980   -1.000
 3953.00    0.74322   0.71336   -1.000
 3954.00    0.74972   0.71457   -1.000
 3955.00    0.73246   0.71141   -1.000
 3956.00    0.71070   0.70399  216.580
 3957.00    0.70459   0.69301  229.281
 3958.00    0.70030   0.67521   -1.000
 3959.00    0.68824   0.64410   -1.000
 3960.00    0.63876   0.59822   -1.000
 3961.00    0.57907   0.54642   70.587
 3962.00    0.52467   0.49889   37.035
 3963.00    0.47695   0.45888   44.360
 3964.00    0.45234   0.42139   54.601
 3965.00    0.41648   0.38019   64.119
 3966.00    0.36157   0.33704   65.605
 3967.00    0.31156   0.30120   57.498
 3968.00    0.30147   0.28394   47.265
 3969.00    0.30953   0.29153   39.168
 3970.00    0.33283   0.32241   57.731
 3971.00    0.39017   0.36961   -1.000
 3972.00    0.44113   0.42567   -1.000
 3973.00    0.48222   0.48456  235.507
 3974.00    0.54712   0.54301  219.197
 3975.00    0.61212   0.59921  206.977
 3976.00    0.65435   0.65224  195.983
 3977.00    0.70259   0.70164  189.125
 3978.00    0.75674   0.74478  188.585
 3979.00    0.79825   0.77772   -1.000
 3980.00    0.82173   0.79668   -1.000
 3981.00    0.82616   0.80277   -1.000
 3982.00    0.80711   0.80260  185.872
 3983.00    0.79354   0.80431  182.510
 3984.00    0.81882   0.81296  179.309
 3985.00    0.84429   0.82854  176.640
 3986.00    0.84536   0.84772  176.042
 3987.00    0.86985   0.86575  175.920
 3988.00    0.89768   0.87870   -1.000
 3989.00    0.88848   0.88663  169.216
 3990.00    0.89309   0.89314  167.907
 3991.00    0.91870   0.90076  170.973
 3992.00    0.92236   0.90754  175.067
 3993.00    0.90526   0.90868  178.792
 3994.00    0.88701   0.90171  181.327
 3995.00    0.87506   0.89024  180.185
 3996.00    0.86476   0.88228   -1.000
 3997.00    0.86215   0.88584   -1.000
 3998.00    0.87998   0.90320   -1.000
 3999.00    0.92261   0.92917  160.255
 4000.00    0.97003   0.95371  160.490
 4001.00    0.99215   0.96700   -1.000
 4002.00    0.99253   0.96208   -1.000
 4003.00    0.98532   0.93849   -1.000
 4004.00    0.93582   0.90589   -1.000
 4005.00    0.86433   0.88218   -1.000
 4006.00    0.84897   0.88137   -1.000
 4007.00    0.88788   0.90311  160.649
 4008.00    0.94869   0.93498  159.484
 4009.00    0.97525   0.96308  159.765
 4010.00    0.97807   0.98189  160.815
 4011.00    1.00247   0.99341  160.696
 4012.00    0.99829   1.00147  158.932
 4013.00    0.98907   1.00818   -1.000
 4014.00    0.99368   1.01321   -1.000
 4015.00    1.00570   1.01555  160.774
 4016.00    1.00706   1.01614  159.117
 4017.00    0.99612   1.01821   -1.000
 4018.00    1.01008   1.02348  159.333
 4019.00    1.03817   1.02938  161.046
 4020.00    1.03962   1.03168  162.019
 4021.00    1.03219   1.02826  163.185
 4022.00    1.02991   1.02108  161.866
 4023.00    1.02388   1.01471  156.879
 4024.00    1.00508   1.01408  152.417
 4025.00    1.00026   1.02164   -1.000
 4026.00    1.02506   1.03357  155.300
 4027.00    1.05587   1.03857  163.846
 4028.00    1.06021   1.02364   -1.000
 4029.00    1.01890   0.98497   -1.000
 4030.00    0.95930   0.93280   -1.000
 4031.00    0.90179   0.88652  173.664
 4032.00    0.85961   0.86181  166.446
 4033.00    0.84782   0.86572   -1.000
 4034.00    0.85856   0.89729   -1.000
 4035.00    0.91215   0.94842   -1.000
 4036.00    0.99434   1.00383  149.815
 4037.00    1.05437   1.04744  153.276
 4038.00    1.09090   1.06873   -1.000
 4039.00    1.09665   1.06829   -1.000
 4040.00    1.06040   1.05332  161.232
 4041.00    1.02806   1.02720  172.983
 4042.00    1.02704   0.98555   -1.000
 4043.00    0.97575   0.92744   -1.000
 4044.00    0.86512   0.86784  177.921
 4045.00    0.76966   0.83353   -1.000
 4046.00    0.76569   0.84449   -1.000
 4047.00    0.86023   0.89579   -1.000
 4048.00    0.97114   0.96121  153.130
 4049.00    1.02692   1.01541  155.801
 4050.00    1.05021   1.04498  160.041
 4051.00    1.06485   1.04970  163.367
 4052.00    1.04185   1.03667  165.263
 4053.00    0.99891   1.01465  166.460
 4054.00    0.97413   0.99047  167.897
 4055.00    0.95860   0.96852  167.780
 4056.00    0.93815   0.95250  163.612
 4057.00    0.92072   0.94654   -1.000
 4058.00    0.92656   0.95179   -1.000
 4059.00    0.96278   0.96029  166.024
 4060.00    1.00000   0.95715   -1.000
 4061.00    0.98145   0.93341   -1.000
 4062.00    0.90264   0.89625  176.463
 4063.00    0.83137   0.86617   -1.000
 4064.00    0.82486   0.85888   -1.000
 4065.00    0.87477   0.87534  160.636
 4066.00    0.93431   0.90560   -1.000
 4067.00    0.96514   0.93603   -1.000
 4068.00    0.99297   0.95464   -1.000
 4069.00    1.01876   0.95517   -1.000
 4070.00    0.99477   0.94117   -1.000
 4071.00    0.92989   0.92615  161.814
 4072.00    0.90794   0.92256   -1.000
 4073.00    0.95435   0.92740   -1.000
 4074.00    0.98272   0.92653   -1.000
 4075.00    0.96349   0.91125   -1.000
 4076.00    0.90621   0.89105  176.434
 4077.00    0.84762   0.88656   -1.000
 4078.00    0.85489   0.90975   -1.000
 4079.00    0.92561   0.95474   -1.000
 4080.00    1.01051   1.00135  159.443
 4081.00    1.05890   1.03094   -1.000
 4082.00    1.05277   1.03737  163.289
 4083.00    1.01656   1.03038  159.127
 4084.00    0.98638   1.02703   -1.000
 4085.00    0.99261   1.03899   -1.000
 4086.00    1.02976   1.06587   -1.000
 4087.00    1.08524   1.09624  147.943
 4088.00    1.13014   1.11732  150.907
 4089.00    1.13406   1.12171  153.145
 4090.00    1.12231   1.11136  154.018
 4091.00    1.09091   1.09357  155.541
 4092.00    1.06554   1.07407  160.699
 4093.00    1.07193   1.05206  167.160
 4094.00    1.06498   1.02471   -1.000
 4095.00    1.00430   0.99264  172.390
 4096.00    0.95765   0.95979  178.749
 4097.00    0.93902   0.92864  192.269
 4098.00    0.93178   0.89666   -1.000
 4099.00    0.91926   0.86209   -1.000
 4100.00    0.86589   0.83122   -1.000
 4101.00    0.80934   0.81763  183.777
 4102.00    0.79338   0.83150   -1.000
 4103.00    0.83354   0.87126   -1.000
 4104.00    0.90504   0.92309   -1.000
 4105.00    0.96198   0.97141  162.643
 4106.00    0.99605   1.00527  165.114
 4107.00    1.02019   1.02148  167.970
 4108.00    1.02364   1.02326  167.969
 4109.00    0.98888   1.01775   -1.000
 4110.00    0.96099   1.01337   -1.000
 4111.00    0.97545   1.01678   -1.000
 4112.00    0.98871   1.02956   -1.000
 4113.00    0.99408   1.04816   -1.000
 4114.00    1.02101   1.06529   -1.000
 4115.00    1.05194   1.07348   -1.000
 4116.00    1.06322   1.06876  167.114
 4117.00    1.04982   1.05383  166.792
 4118.00    1.00079   1.03686   -1.000
 4119.00    0.96813   1.02599   -1.000
 4120.00    0.99062   1.02441   -1.000
 4121.00    1.00189   1.02973   -1.000
 4122.00    0.99443   1.03816   -1.000
 4123.00    1.00056   1.04706   -1.000
 4124.00    1.01462   1.05403   -1.000
 4125.00    1.03365   1.05584   -1.000
 4126.00    1.04806   1.05053  166.552
 4127.00    1.02035   1.03894   -1.000
 4128.00    0.98001   1.02306   -1.000
 4129.00    0.97586   1.00312   -1.000
 4130.00    0.95891   0.97898   -1.000
 4131.00    0.91602   0.95575   -1.000
 4132.00    0.88436   0.94314   -1.000
 4133.00    0.88113   0.95052   -1.000
 4134.00    0.90205   0.97876   -1.000
 4135.00    0.95937   1.01844   -1.000
 4136.00    1.02533   1.05706   -1.000
 4137.00    1.04889   1.08542   -1.000
 4138.00    1.04979   1.09796   -1.000
 4139.00    1.04248   1.09104   -1.000
 4140.00    1.03598   1.06216   -1.000
 4141.00    1.00606   1.01594  185.984
 4142.00    0.92571   0.96812   -1.000
 4143.00    0.84454   0.93993   -1.000
 4144.00    0.83799   0.94236   -1.000
 4145.00    0.89307   0.96829   -1.000
 4146.00    0.96492   0.99935   -1.000
 4147.00    1.00073   1.01900   -1.000
 4148.00    0.98369   1.02323   -1.000
 4149.00    0.95664   1.01764   -1.000
 4150.00    0.93437   1.00949   -1.000
 4151.00    0.92026   1.00178   -1.000
 4152.00    0.92720   0.99422   -1.000
 4153.00    0.93928   0.98713   -1.000
 4154.00    1.07259   0.98329   -1.000
 4155.00    1.14997   0.98691   -1.000
 4156.00    0.88349   1.00099   -1.000
 4157.00    0.73855   1.02442   -1.000
 4158.00    0.90126   1.05297   -1.000
 4159.00    1.01710   1.08139   -1.000
 4160.00    1.03197   1.10509   -1.000
 4161.00    1.04057   1.12243   -1.000
 4162.00    1.05343   1.13157   -1.000
 4163.00    1.05400   1.13026   -1.000
 4164.00    1.03449   1.11776   -1.000
 4165.00    1.01328   1.09787   -1.000
 4166.00    0.98264   1.07801   -1.000
 4167.00    0.96066   1.06514   -1.000
 4168.00    0.97184   1.05807   -1.000
 4169.00    0.98514   1.04875   -1.000
 4170.00    0.99507   1.02978   -1.000
 4171.00    0.95486   1.00227   -1.000
 4172.00    0.89468   0.97760   -1.000
 4173.00    0.88084   0.96643   -1.000
 4174.00    0.89169   0.97096   -1.000
 4175.00    0.91229   0.98496   -1.000
 4176.00    0.92106   1.00075   -1.000
 4177.00    0.91789   1.01481   -1.000
 4178.00    0.93986   1.02647   -1.000
 4179.00    0.96883   1.03397   -1.000
 4180.00    0.96130   1.03721   -1.000
 4181.00    0.94626   1.04008   -1.000
 4182.00    0.95944   1.04770   -1.000
 4183.00    0.99250   1.06043   -1.000
 4184.00    1.02707   1.06991   -1.000
 4185.00    1.03743   1.06881   -1.000
 4186.00    1.01650   1.05876   -1.000
 4187.00    0.97702   1.04975   -1.000
 4188.00    0.96193   1.05106   -1.000
 4189.00    0.97875   1.06298   -1.000
 4190.00    0.99238   1.07991   -1.000
 4191.00    0.99808   1.09510   -1.000
 4192.00    1.03059   1.10291   -1.000
 4193.00    1.07366   1.09728   -1.000
 4194.00    1.05931   1.07505  181.177
 4195.00    0.99283   1.03955   -1.000
 4196.00    0.92449   1.00232   -1.000
 4197.00    0.90018   0.97373   -1.000
 4198.00    0.89933   0.95906   -1.000
 4199.00    0.93722   0.95686   -1.000
 4200.00    0.96648   0.96386  174.496
 4201.00    0.95043   0.97785   -1.000
 4202.00    0.94230   0.99943   -1.000
 4203.00    0.97567   1.02919   -1.000
 4204.00    1.00697   1.06452   -1.000
 4205.00    1.03138   1.09983   -1.000
 4206.00    1.06326   1.12843   -1.000
 4207.00    1.08956   1.14675   -1.000
 4208.00    1.10591   1.15454   -1.000
 4209.00    1.08478   1.15534   -1.000
 4210.00    1.05653   1.15305   -1.000
 4211.00    1.06199   1.14709   -1.000
 4212.00    1.06533   1.13312   -1.000
 4213.00    1.04017   1.10987   -1.000
 4214.00    1.00592   1.08659   -1.000
 4215.00    0.97381   1.08046   -1.000
 4216.00    0.99504   1.10121   -1.000
 4217.00    1.06641   1.14419   -1.000
 4218.00    1.13210   1.18964   -1.000
 4219.00    1.19229   1.21940   -1.000
 4220.00    1.22193   1.22074  162.569
 4221.00    1.20589   1.18908  176.935
 4222.00    1.14545   1.12486   -1.000
 4223.00    1.05232   1.03668   -1.000
 4224.00    0.94910   0.94102  216.704
 4225.00    0.83237   0.86684   -1.000
 4226.00    0.73165   0.84025   -1.000
 4227.00    0.73694   0.87340   -1.000
 4228.00    0.85393   0.95108   -1.000
 4229.00    1.00974   1.04145   -1.000
 4230.00    1.11092   1.10971  160.324
 4231.00    1.13491   1.14162  162.923
 4232.00    1.12692   1.14078  165.868
 4233.00    1.11250   1.12163  169.275
 4234.00    1.08717   1.09900  169.614
 4235.00    1.05359   1.08391   -1.000
 4236.00    1.03562   1.08098   -1.000
 4237.00    1.03065   1.09090   -1.000
 4238.00    1.06804   1.11169   -1.000
 4239.00    1.10543   1.13963   -1.000
 4240.00    1.10779   1.17058   -1.000
 4241.00    1.14797   1.20245   -1.000
 4242.00    1.17926   1.23241   -1.000
 4243.00    1.20012   1.25641   -1.000
 4244.00    1.22681   1.26716   -1.000
 4245.00    1.23672   1.25706   -1.000
 4246.00    1.21834   1.22456  170.870
 4247.00    1.16350   1.17888   -1.000
 4248.00    1.09787   1.13384   -1.000
 4249.00    1.04732   1.10358   -1.000
 4250.00    1.03193   1.09221   -1.000
 4251.00    1.04749   1.09419   -1.000
 4252.00    1.06819   1.09900   -1.000
 4253.00    1.06158   1.10196   -1.000
 4254.00    1.05514   1.10765   -1.000
 4255.00    1.07342   1.12041   -1.000
 4256.00    1.12841   1.13409  168.884
 4257.00    1.15752   1.13439   -1.000
 4258.00    1.12514   1.11613  172.425
 4259.00    1.05377   1.09435   -1.000
 4260.00    0.99676   1.09212   -1.000
 4261.00    1.02283   1.12384   -1.000
 4262.00    1.11688   1.18078   -1.000
 4263.00    1.19262   1.24137   -1.000
 4264.00    1.24694   1.28263   -1.000
 4265.00    1.29277   1.29424  158.485
 4266.00    1.28371   1.27548  164.129
 4267.00    1.22312   1.23085  173.390
 4268.00    1.15456   1.16603  184.519
 4269.00    1.09008   1.09251  189.796
 4270.00    0.99945   1.02297   -1.000
 4271.00    0.90728   0.97403   -1.000
 4272.00    0.88025   0.95561   -1.000
 4273.00    0.90994   0.97021   -1.000
 4274.00    0.94846   1.01229   -1.000
 4275.00    0.99048   1.07254   -1.000
 4276.00    1.06334   1.13541   -1.000
 4277.00    1.15508   1.18501   -1.000
 4278.00    1.20600   1.20871  167.218
 4279.00    1.20107   1.20828  165.695
 4280.00    1.14940   1.19622   -1.000
 4281.00    1.11282   1.18569   -1.000
 4282.00    1.12677   1.18037   -1.000
 4283.00    1.14473   1.17514   -1.000
 4284.00    1.15147   1.16485  176.435
 4285.00    1.13367   1.14712  181.726
 4286.00    1.09312   1.12228   -1.000
 4287.00    1.06153   1.09032   -1.000
 4288.00    1.02760   1.05589   -1.000
 4289.00    0.97820   1.02991   -1.000
 4290.00    0.95849   1.02505   -1.000
 4291.00    0.99250   1.04324   -1.000
 4292.00    1.05454   1.07271   -1.000
 4293.00    1.09799   1.09484  175.999
 4294.00    1.09476   1.09848  183.280
 4295.00    1.07810   1.08023  197.063
 4296.00    1.06360   1.04273   -1.000
 4297.00    1.02105   0.99053   -1.000
 4298.00    0.95136   0.93495   -1.000
 4299.00    0.87495   0.88949  211.594
 4300.00    0.83184   0.86535   -1.000
 4301.00    0.84546   0.86228   -1.000
 4302.00    0.86404   0.87100  205.490
 4303.00    0.87353   0.87879  210.631
 4304.00    0.88388   0.87629  220.838
 4305.00    0.88528   0.86006   -1.000
 4306.00    0.86709   0.83428   -1.000
 4307.00    0.82525   0.81208   -1.000
 4308.00    0.77198   0.80846   -1.000
 4309.00    0.76672   0.83289   -1.000
 4310.00    0.83560   0.88368   -1.000
 4311.00    0.91372   0.95390   -1.000
 4312.00    0.98651   1.03654   -1.000
 4313.00    1.05465   1.12759   -1.000
 4314.00    1.12325   1.22555   -1.000
 4315.00    1.22804   1.32000   -1.000
 4316.00    1.35146   1.39863   -1.000
 4317.00    1.41656   1.44627   -1.000
 4318.00    1.43052   1.45795   -1.000
 4319.00    1.42909   1.43697  154.780
 4320.00    1.38298   1.39066  165.070
 4321.00    1.32864   1.32142  179.208
 4322.00    1.27221   1.23565   -1.000
 4323.00    1.16292   1.14771  182.936
 4324.00    1.04141   1.08480   -1.000
 4325.00    0.95756   1.07270   -1.000
 4326.00    0.98376   1.11964   -1.000
 4327.00    1.13344   1.20528   -1.000
 4328.00    1.27402   1.29735   -1.000
 4329.00    1.36432   1.36650  143.740
 4330.00    1.38298   1.40677   -1.000
 4331.00    1.37306   1.42771   -1.000
 4332.00    1.36955   1.44022   -1.000
 4333.00    1.38922   1.44443   -1.000
 4334.00    1.41160   1.42954   -1.000
 4335.00    1.41400   1.38460   -1.000
 4336.00    1.34950   1.30706   -1.000
 4337.00    1.23634   1.21284   -1.000
 4338.00    1.12269   1.12712  192.920
 4339.00    1.04220   1.07856   -1.000
 4340.00    1.00845   1.07910   -1.000
 4341.00    1.05221   1.12347   -1.000
 4342.00    1.15243   1.19157   -1.000
 4343.00    1.24977   1.26314  148.351
 4344.00    1.29645   1.32368   -1.000
 4345.00    1.33015   1.37162   -1.000
 4346.00    1.35946   1.40797   -1.000
 4347.00    1.37620   1.43092   -1.000
 4348.00    1.42955   1.43303  160.329
 4349.00    1.42902   1.40815   -1.000
 4350.00    1.34273   1.36109   -1.000
 4351.00    1.22800   1.31348   -1.000
 4352.00    1.16033   1.28866   -1.000
 4353.00    1.19934   1.29804   -1.000
 4354.00    1.29068   1.33171   -1.000
 4355.00    1.34989   1.37122   -1.000
 4356.00    1.37236   1.39984   -1.000
 4357.00    1.38615   1.41365   -1.000
 4358.00    1.37840   1.41917   -1.000
 4359.00    1.36236   1.42747   -1.000
 4360.00    1.37822   1.44620   -1.000
 4361.00    1.42594   1.47345   -1.000
 4362.00    1.44592   1.50221   -1.000
 4363.00    1.47633   1.52355   -1.000
 4364.00    1.49670   1.53096   -1.000
 4365.00    1.50234   1.52022   -1.000
 4366.00    1.46907   1.49345   -1.000
 4367.00    1.38454   1.45967   -1.000
 4368.00    1.34123   1.43103   -1.000
 4369.00    1.34828   1.41126   -1.000
 4370.00    1.35401   1.39522   -1.000
 4371.00    1.36974   1.37402  158.819
 4372.00    1.35747   1.34354  160.616
 4373.00    1.30718   1.31089  155.626
 4374.00    1.25226   1.28978   -1.000
 4375.00    1.22672   1.29302   -1.000
 4376.00    1.27983   1.31902   -1.000
 4377.00    1.36584   1.35210  146.298
 4378.00    1.41067   1.36752   -1.000
 4379.00    1.40626   1.34736   -1.000
 4380.00    1.38045   1.28593   -1.000
 4381.00    1.29957   1.19534   -1.000
 4382.00    1.15161   1.10283   -1.000
 4383.00    0.98935   1.04383   -1.000
 4384.00    0.92656   1.04006   -1.000
 4385.00    1.02799   1.08699   -1.000
 4386.00    1.16978   1.15648  154.518
 4387.00    1.26029   1.21668   -1.000
 4388.00    1.28411   1.25311   -1.000
 4389.00    1.26732   1.27110  149.812
 4390.00    1.26499   1.28327   -1.000
 4391.00    1.26694   1.29734   -1.000
 4392.00    1.30890   1.31406  153.002
 4393.00    1.33883   1.33254  147.493
 4394.00    1.32347   1.35534   -1.000
 4395.00    1.33824   1.38380   -1.000
 4396.00    1.40441   1.41300  147.502
 4397.00    1.46995   1.43045   -1.000
 4398.00    1.48250   1.42802   -1.000
 4399.00    1.41402   1.40708  149.398
 4400.00    1.35659   1.37717   -1.000
 4401.00    1.34994   1.34114  160.814
 4402.00    1.33953   1.29852   -1.000
 4403.00    1.26628   1.25102  160.252
 4404.00    1.15976   1.21180   -1.000
 4405.00    1.11473   1.19684   -1.000
 4406.00    1.16253   1.21427   -1.000
 4407.00    1.21562   1.25792   -1.000
 4408.00    1.24916   1.31906   -1.000
 4409.00    1.31785   1.38613   -1.000
 4410.00    1.40945   1.44542   -1.000
 4411.00    1.47977   1.47954  146.179
 4412.00    1.50070   1.47681   -1.000
 4413.00    1.46033   1.44257  152.970
 4414.00    1.36594   1.40097   -1.000
 4415.00    1.28222   1.37850   -1.000
 4416.00    1.27700   1.39178   -1.000
 4417.00    1.34366   1.43389   -1.000
 4418.00    1.41690   1.48330   -1.000
 4419.00    1.47075   1.51482   -1.000
 4420.00    1.47130   1.51841   -1.000
 4421.00    1.40914   1.49967   -1.000
 4422.00    1.36039   1.47565   -1.000
 4423.00    1.34098   1.46035   -1.000
 4424.00    1.34982   1.45849   -1.000
 4425.00    1.37500   1.46574   -1.000
 4426.00    1.39097   1.47510   -1.000
 4427.00    1.38837   1.48196   -1.000
 4428.00    1.39614   1.48364   -1.000
 4429.00    1.39320   1.47945   -1.000
 4430.00    1.37983   1.47103   -1.000
 4431.00    1.38906   1.45813   -1.000
 4432.00    1.40672   1.43982   -1.000
 4433.00    1.37786   1.41812   -1.000
 4434.00    1.31814   1.40295   -1.000
 4435.00    1.28628   1.41156   -1.000
 4436.00    1.33642   1.44777   -1.000
 4437.00    1.41990   1.50051   -1.000
 4438.00    1.52317   1.54182   -1.000
 4439.00    1.58192   1.55305   -1.000
 4440.00    1.54340   1.53246  150.961
 4441.00    1.45395   1.49974   -1.000
 4442.00    1.38614   1.48074   -1.000
 4443.00    1.39180   1.49069   -1.000
 4444.00    1.45432   1.52713   -1.000
 4445.00    1.52115   1.57162   -1.000
 4446.00    1.57393   1.60717   -1.000
 4447.00    1.58845   1.62606   -1.000
 4448.00    1.58976   1.63016   -1.000
 4449.00    1.58036   1.62400   -1.000
 4450.00    1.56343   1.60781   -1.000
 4451.00    1.56726   1.57997  150.029
 4452.00    1.55906   1.53790  154.016
 4453.00    1.49837   1.48748  152.581
 4454.00    1.41480   1.43812   -1.000
 4455.00    1.35820   1.40322   -1.000
 4456.00    1.36426   1.38607   -1.000
 4457.00    1.36824   1.38129  151.390
 4458.00    1.38860   1.38035  152.807
 4459.00    1.36182   1.38015   -1.000
 4460.00    1.34231   1.38590   -1.000
 4461.00    1.33872   1.40435   -1.000
 4462.00    1.38051   1.43697   -1.000
 4463.00    1.42983   1.47662   -1.000
 4464.00    1.49617   1.51130  141.874
 4465.00    1.51961   1.53214  144.419
 4466.00    1.52871   1.53830  145.714
 4467.00    1.51971   1.53600  144.242
 4468.00    1.47970   1.53460   -1.000
 4469.00    1.46005   1.54336   -1.000
 4470.00    1.49203   1.56633   -1.000
 4471.00    1.53668   1.60283   -1.000
 4472.00    1.60092   1.64385   -1.000
 4473.00    1.63860   1.68183   -1.000
 4474.00    1.65868   1.71199   -1.000
 4475.00    1.68624   1.73313   -1.000
 4476.00    1.72329   1.74223   -1.000
 4477.00    1.74616   1.73249  138.923
 4478.00    1.72734   1.69937   -1.000
 4479.00    1.66687   1.65102  142.855
 4480.00    1.58171   1.60674   -1.000
 4481.00    1.51585   1.58999   -1.000
 4482.00    1.52389   1.60893   -1.000
 4483.00    1.59144   1.65614   -1.000
 4484.00    1.67388   1.70719   -1.000
 4485.00    1.73735   1.74048  135.706
 4486.00    1.75910   1.74128  139.295
 4487.00    1.72838   1.71469  138.664
 4488.00    1.64427   1.67639   -1.000
 4489.00    1.56375   1.64794   -1.000
 4490.00    1.53823   1.63835   -1.000
 4491.00    1.57151   1.64084   -1.000
 4492.00    1.62850   1.64149  141.077
 4493.00    1.62136   1.63137  140.392
 4494.00    1.53662   1.61819   -1.000
 4495.00    1.49093   1.61547   -1.000
 4496.00    1.51301   1.63223   -1.000
 4497.00    1.56228   1.66393   -1.000
 4498.00    1.63790   1.69749   -1.000
 4499.00    1.69132   1.72339   -1.000
 4500.00    1.68344   1.74172   -1.000
 4501.00    1.65804   1.76017   -1.000
 4502.00    1.70445   1.78603   -1.000
 4503.00    1.80295   1.81743  125.154
 4504.00    1.86044   1.84607  126.658
 4505.00    1.87109   1.86236  126.949
 4506.00    1.83915   1.86378   -1.000
 4507.00    1.80662   1.85623   -1.000
 4508.00    1.78873   1.84770   -1.000
 4509.00    1.80185   1.84115   -1.000
 4510.00    1.83681   1.83319  130.590
 4511.00    1.81761   1.81869  131.676
 4512.00    1.75861   1.79651   -1.000
 4513.00    1.70907   1.77151   -1.000
 4514.00    1.69315   1.75074   -1.000
 4515.00    1.69683   1.73853   -1.000
 4516.00    1.70733   1.73523   -1.000
 4517.00    1.71353   1.73953   -1.000
 4518.00    1.70683   1.75016   -1.000
 4519.00    1.72402   1.76548   -1.000
 4520.00    1.77179   1.77958  134.272
 4521.00    1.80034   1.78404  135.692
 4522.00    1.77032   1.77220  137.758
 4523.00    1.71613   1.74291   -1.000
 4524.00    1.69015   1.69951  145.774
 4525.00    1.64176   1.64723  147.931
 4526.00    1.56062   1.59233   -1.000
 4527.00    1.50506   1.54376   -1.000
 4528.00    1.45964   1.51159   -1.000
 4529.00    1.45761   1.50168   -1.000
 4530.00    1.48280   1.51188   -1.000
 4531.00    1.52941   1.53219  149.295
 4532.00    1.55737   1.55148  148.531
 4533.00    1.56142   1.56530  141.011
 4534.00    1.50761   1.57926   -1.000
 4535.00    1.49749   1.60393   -1.000
 4536.00    1.57972   1.64385   -1.000
 4537.00    1.69433   1.69107  131.746
 4538.00    1.76783   1.72972   -1.000
 4539.00    1.74883   1.74857  131.310
 4540.00    1.70274   1.74933   -1.000
 4541.00    1.70547   1.74233   -1.000
 4542.00    1.68345   1.73683   -1.000
 4543.00    0.59687   1.73358   -1.000
 4544.00    0.01081   1.72895   -1.000
 4545.00    0.02986   1.72018   -1.000
 4546.00    1.07568   1.70822   -1.000
 4547.00    0.62119   1.69597   -1.000
 4548.00    1.06977   1.68593   -1.000
 4549.00    1.61090   1.68076   -1.000
 4550.00    1.64895   1.68108   -1.000
 4551.00    1.66004   1.68444   -1.000
 4552.00    1.68711   1.68655  138.650
 4553.00    1.67573   1.68682  133.989
 4554.00    1.66563   1.69163   -1.000
 4555.00    1.66391   1.70947   -1.000
 4556.00    1.70721   1.74360   -1.000
 4557.00    1.80745   1.78751  126.258
 4558.00    1.86303   1.82927   -1.000
 4559.00    1.86836   1.85779  128.776
 4560.00    1.86948   1.86874  131.999
 4561.00    1.86229   1.86163  134.425
 4562.00    1.85396   1.84038  133.506
 4563.00    1.80093   1.81146  130.355
 4564.00    1.73670   1.78672   -1.000
 4565.00    1.71247   1.77749   -1.000
 4566.00    1.75264   1.78869   -1.000
 4567.00    1.83598   1.81254  129.289
 4568.00    1.88392   1.83464   -1.000
 4569.00    1.88228   1.84259   -1.000
 4570.00    1.81695   1.83658  128.776
 4571.00    1.74568   1.82676   -1.000
 4572.00    1.76753   1.82490   -1.000
 4573.00    1.82922   1.83495  126.956
 4574.00    1.86251   1.85026  127.677
 4575.00    1.86952   1.86019  129.659
 4576.00    1.84821   1.85642  133.331
 4577.00    1.82355   1.83702  136.292
 4578.00    1.81496   1.80505  136.359
 4579.00    1.75880   1.76892  134.616
 4580.00    1.68172   1.73903   -1.000
 4581.00    1.68454   1.72340   -1.000
 4582.00    1.72650   1.72201  134.485
 4583.00    1.76375   1.72849   -1.000
 4584.00    1.74971   1.73685  129.702
 4585.00    1.71608   1.74724   -1.000
 4586.00    1.73944   1.76433   -1.000
 4587.00    1.78444   1.78989  127.900
 4588.00    1.84292   1.81744   -1.000
 4589.00    1.88689   1.83598   -1.000
 4590.00    1.85325   1.83742  132.984
 4591.00    1.80905   1.82245  131.997
 4592.00    1.75932   1.79882   -1.000
 4593.00    1.72671   1.77619   -1.000
 4594.00    1.71487   1.76030   -1.000
 4595.00    1.73340   1.75316  129.927
 4596.00    1.73537   1.75355  130.883
 4597.00    1.73411   1.75943   -1.000
 4598.00    1.76784   1.76754  132.552
 4599.00    1.78160   1.77481  131.365
 4600.00    1.77365   1.77956  129.881
 4601.00    1.75865   1.78218   -1.000
 4602.00    1.76165   1.78409   -1.000
 4603.00    1.77646   1.78719  128.467
 4604.00    1.79510   1.79442  126.052
 4605.00    1.77898   1.81023   -1.000
 4606.00    1.78935   1.83796   -1.000
 4607.00    1.87974   1.87566  122.063
 4608.00    1.97306   1.91400   -1.000
 4609.00    2.00592   1.94135   -1.000
 4610.00    1.98130   1.94989   -1.000
 4611.00    1.94739   1.94262  125.481
 4612.00    1.91533   1.92920  124.407
 4613.00    1.90042   1.92042  123.830
 4614.00    1.91796   1.92103  124.507
 4615.00    1.94904   1.92948  125.436
 4616.00    1.96973   1.94045   -1.000
 4617.00    1.96487   1.94938  124.358
 4618.00    1.94534   1.95484  122.455
 4619.00    1.94051   1.95820  122.189
 4620.00    1.95211   1.96132  122.474
 4621.00    1.95937   1.96442  122.726
 4622.00    1.97475   1.96559  123.756
 4623.00    1.96647   1.96321  124.163
 4624.00    1.95544   1.95751  124.132
 4625.00    1.94885   1.95086  124.837
 4626.00    1.94205   1.94555  125.173
 4627.00    1.93956   1.94342  124.638
 4628.00    1.93330   1.94482  123.274
 4629.00    1.92470   1.94880   -1.000
 4630.00    1.94113   1.95263  125.295
 4631.00    1.97129   1.95236  126.740
 4632.00    1.97239   1.94477   -1.000
 4633.00    1.92583   1.92959  127.680
 4634.00    1.88083   1.90973   -1.000
 4635.00    1.87794   1.88860  129.982
 4636.00    1.87390   1.86758  129.864
 4637.00    1.83302   1.84785  127.857
 4638.00    1.79832   1.83218   -1.000
 4639.00    1.79387   1.82479   -1.000
 4640.00    1.80163   1.82731   -1.000
 4641.00    1.85363   1.83598  125.363
 4642.00    1.89877   1.84153   -1.000
 4643.00    1.88464   1.83465   -1.000
 4644.00    1.85968   1.81135   -1.000
 4645.00    1.78886   1.77742  131.167
 4646.00    1.71303   1.74538   -1.000
 4647.00    1.68094   1.72941   -1.000
 4648.00    1.71819   1.73776  125.901
 4649.00    1.78421   1.76804  125.654
 4650.00    1.82464   1.80894  126.984
 4651.00    1.88110   1.84593   -1.000
 4652.00    1.92328   1.86835   -1.000
 4653.00    1.91961   1.87367   -1.000
 4654.00    1.87154   1.86864  126.667
 4655.00    1.80615   1.86612   -1.000
 4656.00    1.82284   1.87865   -1.000
 4657.00    1.88432   1.90975   -1.000
 4658.00    1.97455   1.95186  119.944
 4659.00    2.05438   1.98861   -1.000
 4660.00    2.05865   2.00490   -1.000
 4661.00    2.00217   1.99368  125.751
 4662.00    1.95977   1.95884  127.650
 4663.00    1.89338   1.90868  132.876
 4664.00    1.84823   1.85174  138.470
 4665.00    1.81061   1.79376  139.094
 4666.00    1.73745   1.74284  135.142
 4667.00    1.65798   1.71032   -1.000
 4668.00    1.61597   1.70692   -1.000
 4669.00    1.69311   1.73390   -1.000
 4670.00    1.81285   1.78032   -1.000
 4671.00    1.89345   1.82836   -1.000
 4672.00    1.93075   1.86566   -1.000
 4673.00    1.89655   1.88899  121.503
 4674.00    1.89576   1.90361  121.921
 4675.00    1.91597   1.91252  124.437
 4676.00    1.93460   1.91482  126.936
 4677.00    1.94657   1.90600   -1.000
 4678.00    1.90871   1.88562   -1.000
 4679.00    1.85226   1.85956  128.966
 4680.00    1.81718   1.83742  125.799
 4681.00    1.80652   1.82756  124.028
 4682.00    1.82219   1.83236  124.311
 4683.00    1.86015   1.84773  124.399
 4684.00    1.90574   1.86549   -1.000
 4685.00    1.92620   1.87806   -1.000
 4686.00    1.91516   1.88255   -1.000
 4687.00    1.89911   1.88016  125.975
 4688.00    1.89657   1.87503  126.288
 4689.00    1.90747   1.87023   -1.000
 4690.00    1.91079   1.86812   -1.000
 4691.00    1.89220   1.86987  120.358
 4692.00    1.89620   1.87689  118.741
 4693.00    1.91700   1.88911   -1.000
 4694.00    1.96267   1.90338   -1.000
 4695.00    2.02206   1.91307   -1.000
 4696.00    2.02327   1.91103   -1.000
 4697.00    1.95915   1.89401   -1.000
 4698.00    1.89311   1.86562   -1.000
 4699.00    1.85532   1.83405  129.951
 4700.00    1.84557   1.80795   -1.000
 4701.00    1.86083   1.79186   -1.000
 4702.00    1.83870   1.78762   -1.000
 4703.00    1.83982   1.79338   -1.000
 4704.00    1.86873   1.80504   -1.000
 4705.00    1.90099   1.81561   -1.000
 4706.00    1.92003   1.82018   -1.000
 4707.00    1.88460   1.81960   -1.000
 4708.00    1.82671   1.82029  124.103
 4709.00    1.81423   1.82827  122.754
 4710.00    1.87319   1.84388   -1.000
 4711.00    1.91580   1.86122   -1.000
 4712.00    1.94387   1.87391   -1.000
 4713.00    1.93103   1.88107   -1.000
 4714.00    1.88080   1.88885  121.459
 4715.00    1.88341   1.90566  120.627
 4716.00    1.94176   1.93481  120.191
 4717.00    2.01169   1.97206   -1.000
 4718.00    2.05545   2.00875   -1.000
 4719.00    2.06099   2.03698  121.608
 4720.00    2.07837   2.05339  120.969
 4721.00    2.06912   2.05909  119.675
 4722.00    2.01981   2.05823   -1.000
 4723.00    2.02510   2.05342   -1.000
 4724.00    2.03730   2.04268  127.205
 4725.00    2.07526   2.01937   -1.000
 4726.00    2.02051   1.98012   -1.000
 4727.00    1.91226   1.92976  128.517
 4728.00    1.82372   1.88207   -1.000
 4729.00    1.80878   1.85220   -1.000
 4730.00    1.83782   1.84680  124.858
 4731.00    1.86511   1.86308  124.135
 4732.00    1.92871   1.88988   -1.000
 4733.00    1.95477   1.91670   -1.000
 4734.00    1.98251   1.93656   -1.000
 4735.00    2.00032   1.94899   -1.000
 4736.00    1.95953   1.95803  123.334
 4737.00    1.95748   1.96774  124.038
 4738.00    2.01105   1.97967   -1.000
 4739.00    2.04377   1.99159   -1.000
 4740.00    2.03534   2.00092   -1.000
 4741.00    2.00982   2.00733  122.114
 4742.00    2.03260   2.01321  122.233
 4743.00    2.06137   2.02071   -1.000
 4744.00    2.07442   2.03106   -1.000
 4745.00    2.06683   2.04449  119.840
 4746.00    2.05628   2.06005  120.014
 4747.00    2.06616   2.07602  120.098
 4748.00    2.08147   2.08953  120.950
 4749.00    2.08618   2.09751  122.317
 4750.00    2.08086   2.09733  123.357
 4751.00    2.06831   2.08758  124.207
 4752.00    2.03436   2.06956   -1.000
 4753.00    1.99722   2.04785   -1.000
 4754.00    1.98663   2.02857   -1.000
 4755.00    2.00524   2.01722  125.557
 4756.00    2.00021   2.01598  124.539
 4757.00    1.96240   2.02329   -1.000
 4758.00    1.97500   2.03458   -1.000
 4759.00    1.98785   2.04247   -1.000
 4760.00    1.97933   2.03978   -1.000
 4761.00    1.97399   2.02242   -1.000
 4762.00    1.91659   1.99263   -1.000
 4763.00    1.89231   1.95755   -1.000
 4764.00    1.87497   1.92652   -1.000
 4765.00    1.83303   1.90712   -1.000
 4766.00    1.82450   1.90548   -1.000
 4767.00    1.85842   1.92392   -1.000
 4768.00    1.90864   1.95883   -1.000
 4769.00    1.96711   1.99861   -1.000
 4770.00    2.01645   2.03163  124.550
 4771.00    2.00963   2.05290   -1.000
 4772.00    1.96852   2.06759   -1.000
 4773.00    2.01927   2.08483   -1.000
 4774.00    2.09189   2.10772  121.464
 4775.00    2.08289   2.13350   -1.000
 4776.00    2.08967   2.15465   -1.000
 4777.00    2.07021   2.16680   -1.000
 4778.00    2.07482   2.16811   -1.000
 4779.00    2.05057   2.15919   -1.000
 4780.00    2.04319   2.14162   -1.000
 4781.00    2.05480   2.11802   -1.000
 4782.00    2.02377   2.09188   -1.000
 4783.00    1.97454   2.06722   -1.000
 4784.00    1.96692   2.04819   -1.000
 4785.00    1.94175   2.03582   -1.000
 4786.00    1.96570   2.02915   -1.000
 4787.00    1.96354   2.02657   -1.000
 4788.00    1.96781   2.02771   -1.000
 4789.00    1.98419   2.03418   -1.000
 4790.00    1.97741   2.04937   -1.000
 4791.00    2.00625   2.07636   -1.000
 4792.00    2.04209   2.11560   -1.000
 4793.00    2.11096   2.16121   -1.000
 4794.00    2.15538   2.20276   -1.000
 4795.00    2.20080   2.22800   -1.000
 4796.00    2.20255   2.22994   -1.000
 4797.00    2.14139   2.21023   -1.000
 4798.00    2.06874   2.18016   -1.000
 4799.00    2.02359   2.15451   -1.000
 4800.00    2.02862   2.14507   -1.000
 4801.00    2.09412   2.15399   -1.000
 4802.00    2.16035   2.17256  123.834
 4803.00    2.15836   2.18682   -1.000
 4804.00    2.13142   2.18603   -1.000
 4805.00    2.07307   2.17012   -1.000
 4806.00    2.02700   2.14698   -1.000
 4807.00    2.01798   2.12804   -1.000
 4808.00    1.99666   2.12043   -1.000
 4809.00    2.01744   2.12577   -1.000
 4810.00    2.05551   2.13961   -1.000
 4811.00    2.10185   2.15591   -1.000
 4812.00    2.10624   2.16994   -1.000
 4813.00    2.08902   2.18147   -1.000
 4814.00    2.05006   2.19327   -1.000
 4815.00    2.10279   2.20809   -1.000
 4816.00    2.16287   2.22679   -1.000
 4817.00    2.20361   2.24704   -1.000
 4818.00    2.23372   2.26417   -1.000
 4819.00    2.22663   2.27251   -1.000
 4820.00    2.20429   2.26657   -1.000
 4821.00    2.20394   2.24466   -1.000
 4822.00    2.12014   2.21112   -1.000
 4823.00    2.04677   2.17668   -1.000
 4824.00    2.04030   2.15327   -1.000
 4825.00    2.07757   2.14706   -1.000
 4826.00    2.14438   2.15398  123.477
 4827.00    2.14487   2.16289  123.432
 4828.00    2.09823   2.16558   -1.000
 4829.00    2.10695   2.15944   -1.000
 4830.00    2.09850   2.14785   -1.000
 4831.00    2.05178   2.13616   -1.000
 4832.00    2.03034   2.13031   -1.000
 4833.00    2.04513   2.13479   -1.000
 4834.00    2.12699   2.14854  121.498
 4835.00    2.13685   2.16587   -1.000
 4836.00    2.12354   2.17706   -1.000
 4837.00    2.14356   2.17632   -1.000
 4838.00    2.13072   2.16303   -1.000
 4839.00    2.07878   2.14265   -1.000
 4840.00    2.04424   2.12335   -1.000
 4841.00    2.05371   2.11152   -1.000
 4842.00    2.04687   2.11037   -1.000
 4843.00    2.04521   2.11988   -1.000
 4844.00    2.08153   2.13776   -1.000
 4845.00    2.14339   2.15861  124.148
 4846.00    2.18963   2.17460  124.092
 4847.00    2.15380   2.18037   -1.000
 4848.00    2.09662   2.17647   -1.000
 4849.00    2.08435   2.16993   -1.000
 4850.00    2.10443   2.16575   -1.000
 4851.00    2.15042   2.16198  127.626
 4852.00    2.15335   2.15100  131.252
 4853.00    2.11200   2.12590  130.848
 4854.00    2.04611   2.08817   -1.000
 4855.00    1.95902   2.04539   -1.000
 4856.00    1.94259   2.00528   -1.000
 4857.00    1.97612   1.96486  162.282
 4858.00    1.96509   1.91358   -1.000
 4859.00    1.86631   1.84508   -1.000
 4860.00    1.70570   1.76892   -1.000
 4861.00    1.59576   1.71338   -1.000
 4862.00    1.63709   1.70217   -1.000
 4863.00    1.74183   1.74281  128.756
 4864.00    1.86555   1.81726   -1.000
 4865.00    1.92888   1.90045   -1.000
 4866.00    1.97179   1.97010  128.257
 4867.00    1.98632   2.01466   -1.000
 4868.00    2.04018   2.02991  135.208
 4869.00    2.00410   2.01768  133.908
 4870.00    1.94738   1.98643   -1.000
 4871.00    1.83869   1.95355   -1.000
 4872.00    1.82553   1.93751   -1.000
 4873.00    1.87264   1.95066   -1.000
 4874.00    1.94408   1.98808   -1.000
 4875.00    1.98676   2.03641   -1.000
 4876.00    1.98935   2.08350   -1.000
 4877.00    2.02524   2.12343   -1.000
 4878.00    2.08791   2.15568   -1.000
 4879.00    2.12585   2.17812   -1.000
 4880.00    2.11596   2.18793   -1.000
 4881.00    2.07551   2.18334   -1.000
 4882.00    2.02278   2.16690   -1.000
 4883.00    2.06167   2.14330   -1.000
 4884.00    2.05951   2.11528   -1.000
 4885.00    2.00433   2.08519   -1.000
 4886.00    1.94497   2.05663   -1.000
 4887.00    1.97664   2.03222   -1.000
 4888.00    1.99671   2.01108  132.429
 4889.00    1.96826   1.99254  126.926
 4890.00    1.91188   1.98163   -1.000
 4891.00    1.88897   1.99153   -1.000
 4892.00    1.95596   2.03544   -1.000
 4893.00    2.12718   2.11179  114.833
 4894.00    2.24095   2.20469   -1.000
 4895.00    2.28916   2.28684  117.727
 4896.00    2.32073   2.34092  120.531
 4897.00    2.35200   2.36132  121.795
 4898.00    2.32114   2.35479   -1.000
 4899.00    2.25487   2.33260   -1.000
 4900.00    2.22193   2.30518   -1.000
 4901.00    2.21143   2.28028   -1.000
 4902.00    2.21026   2.26257   -1.000
 4903.00    2.16940   2.25593   -1.000
 4904.00    2.17470   2.26143   -1.000
 4905.00    2.24516   2.27517   -1.000
 4906.00    2.30304   2.28616  125.636
 4907.00    2.32253   2.28031   -1.000
 4908.00    2.23485   2.25349  125.310
 4909.00    2.15183   2.21395   -1.000
 4910.00    2.10948   2.17961   -1.000
 4911.00    2.11834   2.16685   -1.000
 4912.00    2.19468   2.18067  118.755
 4913.00    2.20152   2.21329  119.431
 4914.00    2.25772   2.24714  123.805
 4915.00    2.30981   2.26235   -1.000
 4916.00    2.30934   2.24218   -1.000
 4917.00    2.24111   2.18090   -1.000
 4918.00    2.10295   2.08961  133.437
 4919.00    1.93493   1.99727   -1.000
 4920.00    1.84630   1.93446   -1.000
 4921.00    1.91624   1.92112  126.749
 4922.00    2.04124   1.95257   -1.000
 4923.00    2.12246   2.01038   -1.000
 4924.00    2.15325   2.07389   -1.000
 4925.00    2.14627   2.13498  118.515
 4926.00    2.20132   2.19417  117.714
 4927.00    2.29310   2.25208   -1.000
 4928.00    2.34397   2.30481   -1.000
 4929.00    2.38093   2.34409   -1.000
 4930.00    2.38243   2.36150   -1.000
 4931.00    2.37678   2.35313   -1.000
 4932.00    2.32718   2.32333  123.844
 4933.00    2.22310   2.28276   -1.000
 4934.00    2.18085   2.24314   -1.000
 4935.00    2.22239   2.20914  131.145
 4936.00    2.24681   2.17735   -1.000
 4937.00    2.16104   2.14546  125.198
 4938.00    2.06717   2.12027   -1.000
 4939.00    2.05485   2.11712   -1.000
 4940.00    2.14900   2.14637  118.066
 4941.00    2.27407   2.20221   -1.000
 4942.00    2.33939   2.26690   -1.000
 4943.00    2.37727   2.32021   -1.000
 4944.00    2.40220   2.35334   -1.000
 4945.00    2.40424   2.36839   -1.000
 4946.00    2.39288   2.37527  116.427
 4947.00    2.38680   2.38310  115.968
 4948.00    2.42369   2.39564   -1.000
 4949.00    2.44679   2.40994   -1.000
 4950.00    2.43733   2.42019  118.839
 4951.00    2.45083   2.42141   -1.000
 4952.00    2.42947   2.40876   -1.000
 4953.00    2.36779   2.37897  130.278
 4954.00    2.32343   2.32803  135.184
 4955.00    2.26153   2.25704  131.989
 4956.00    2.13797   2.17834   -1.000
 4957.00    1.99507   2.11491   -1.000
 4958.00    1.96176   2.09446   -1.000
 4959.00    2.07999   2.12487   -1.000
 4960.00    2.22671   2.18895   -1.000
 4961.00    2.30791   2.25609   -1.000
 4962.00    2.31331   2.29844  125.276
 4963.00    2.28742   2.30736  126.800
 4964.00    2.25918   2.28758  126.761
 4965.00    2.20936   2.25296   -1.000
 4966.00    2.14522   2.21901   -1.000
 4967.00    2.12443   2.19733   -1.000
 4968.00    2.15505   2.19307   -1.000
 4969.00    2.17251   2.20614   -1.000
 4970.00    2.20826   2.23245  120.118
 4971.00    2.25536   2.26621  119.714
 4972.00    2.29345   2.30094  120.614
 4973.00    2.32896   2.32907  121.921
 4974.00    2.35289   2.34437  123.612
 4975.00    2.36098   2.34341  125.618
 4976.00    2.30955   2.32603  127.165
 4977.00    2.26348   2.29499   -1.000
 4978.00    2.20582   2.25438   -1.000
 4979.00    2.18372   2.20688  137.555
 4980.00    2.16491   2.15367  137.278
 4981.00    2.10090   2.09672  134.541
 4982.00    2.02436   2.04356  130.687
 4983.00    1.96475   2.00845   -1.000
 4984.00    1.98420   2.00508  123.641
 4985.00    2.04062   2.03641  123.944
 4986.00    2.13761   2.09270   -1.000
 4987.00    2.24784   2.15388   -1.000
 4988.00    2.27969   2.20262   -1.000
 4989.00    2.26783   2.22931   -1.000
 4990.00    2.25744   2.23814  125.332
 4991.00    2.24214   2.23890  125.251
 4992.00    2.22332   2.24031  124.586
 4993.00    2.22590   2.24603  124.054
 4994.00    2.24306   2.25439  124.908
 4995.00    2.27964   2.26154  126.670
 4996.00    2.30944   2.26282   -1.000
 4997.00    2.28835   2.25177   -1.000
 4998.00    2.24761   2.22538   -1.000
 4999.00    2.18685   2.18751  129.396
 5000.00    2.13368   2.14662  128.735
 5001.00    2.10707   2.11245  130.767
 5002.00    2.12198   2.08741   -1.000
 5003.00    2.14297   2.06770   -1.000
 5004.00    2.12163   2.04806   -1.000
 5005.00    2.06880   2.03059   -1.000
 5006.00    2.04282   2.02436  125.989
 5007.00    2.05527   2.03822  127.884
 5008.00    2.14476   2.06996   -1.000
 5009.00    2.21212   2.10227   -1.000
 5010.00    2.22270   2.11622   -1.000
 5011.00    2.15435   2.10132   -1.000
 5012.00    2.06976   2.06410  135.481
 5013.00    1.99833   2.02185  132.821
 5014.00    1.98167   1.99297  132.370
 5015.00    2.00040   1.98589  132.296
 5016.00    2.05569   1.99652   -1.000
 5017.00    2.07833   2.01620   -1.000
 5018.00    2.07179   2.03649   -1.000
 5019.00    2.11301   2.05453   -1.000
 5020.00    2.14339   2.06988   -1.000
 5021.00    2.15173   2.08296   -1.000
 5022.00    2.12972   2.09723   -1.000
 5023.00    2.13128   2.11552  128.388
 5024.00    2.16820   2.13690   -1.000
 5025.00    2.20229   2.15660   -1.000
 5026.00    2.20920   2.16918   -1.000
 5027.00    2.20496   2.17656   -1.000
 5028.00    2.17811   2.18773  121.359
 5029.00    2.22400   2.21098  120.116
 5030.00    2.28341   2.24795   -1.000
 5031.00    2.33027   2.29001   -1.000
 5032.00    2.38158   2.32393   -1.000
 5033.00    2.39409   2.33675   -1.000
 5034.00    2.35927   2.32219   -1.000
 5035.00    2.27444   2.28361  133.922
 5036.00    2.20236   2.23125   -1.000
 5037.00    2.17117   2.17426  144.531
 5038.00    2.14897   2.11573   -1.000
 5039.00    2.08125   2.05895   -1.000
 5040.00    1.96840   2.01394   -1.000
 5041.00    1.93521   2.00014   -1.000
 5042.00    2.02160   2.03264  120.506
 5043.00    2.21485   2.10818   -1.000
 5044.00    1.42924   2.20411   -1.000
 5045.00    0.07343   2.28693   -1.000
 5046.00    0.04193   2.33183   -1.000
 5047.00    0.63031   2.33074   -1.000
 5048.00    1.98199   2.29458   -1.000
 5049.00    2.17720   2.24486   -1.000
 5050.00    2.14646   2.20520   -1.000
 5051.00    2.18496   2.19018  121.148
 5052.00    2.24122   2.20246   -1.000
 5053.00    2.29953   2.23646   -1.000
 5054.00    2.35617   2.28132   -1.000
 5055.00    2.40633   2.32528   -1.000
 5056.00    2.45183   2.36234   -1.000
 5057.00    2.42631   2.39151   -1.000
 5058.00    2.46921   2.41539   -1.000
 5059.00    2.48002   2.43644   -1.000
 5060.00    2.48985   2.45133   -1.000
 5061.00    2.50589   2.45291   -1.000
 5062.00    2.49588   2.43338   -1.000
 5063.00    2.40875   2.39105   -1.000
 5064.00    2.29727   2.33496   -1.000
 5065.00    2.23063   2.28149   -1.000
 5066.00    2.23383   2.24520  125.876
 5067.00    2.26594   2.23115   -1.000
 5068.00    2.26769   2.23505   -1.000
 5069.00    2.31117   2.24768   -1.000
 5070.00    2.34761   2.26038   -1.000
 5071.00    2.33495   2.26761   -1.000
 5072.00    2.31025   2.26915   -1.000
 5073.00    2.33029   2.26908   -1.000
 5074.00    2.36250   2.27084   -1.000
 5075.00    2.38406   2.27141   -1.000
 5076.00    2.37479   2.26372   -1.000
 5077.00    2.35249   2.24017   -1.000
 5078.00    2.29429   2.19965   -1.000
 5079.00    2.17260   2.15042   -1.000
 5080.00    2.07920   2.10954   -1.000
 5081.00    2.09522   2.09277  127.381
 5082.00    2.15396   2.10347   -1.000
 5083.00    2.20831   2.13583   -1.000
 5084.00    2.26643   2.17907   -1.000
 5085.00    2.31072   2.22410   -1.000
 5086.00    2.35982   2.26493   -1.000
 5087.00    2.37842   2.29865   -1.000
 5088.00    2.37959   2.32537   -1.000
 5089.00    2.39895   2.34785   -1.000
 5090.00    2.40228   2.36915   -1.000
 5091.00    2.44338   2.39092   -1.000
 5092.00    2.48716   2.41032   -1.000
 5093.00    2.51089   2.42017   -1.000
 5094.00    2.50410   2.41132   -1.000
 5095.00    2.45198   2.37903   -1.000
 5096.00    2.38218   2.32782   -1.000
 5097.00    2.30933   2.27078   -1.000
 5098.00    2.21684   2.22496  124.334
 5099.00    2.17298   2.20524   -1.000
 5100.00    2.23740   2.21611  124.500
 5101.00    2.32936   2.24766   -1.000
 5102.00    2.39404   2.28242   -1.000
 5103.00    2.38549   2.30311   -1.000
 5104.00    2.36361   2.30389   -1.000
 5105.00    2.34175   2.28766   -1.000
 5106.00    2.30099   2.26187   -1.000
 5107.00    2.25711   2.23543   -1.000
 5108.00    2.25749   2.21584   -1.000
 5109.00    2.24496   2.20970   -1.000
 5110.00    2.27251   2.22059   -1.000
 5111.00    2.31854   2.24716   -1.000
 5112.00    2.36234   2.28436   -1.000
 5113.00    2.41411   2.32423   -1.000
 5114.00    2.45124   2.36216   -1.000
 5115.00    2.46565   2.39603   -1.000
 5116.00    2.49965   2.42389   -1.000
 5117.00    2.54414   2.44241   -1.000
 5118.00    2.54933   2.44667   -1.000
 5119.00    2.53352   2.43253   -1.000
 5120.00    2.47268   2.39928   -1.000
 5121.00    2.41791   2.35051   -1.000
 5122.00    2.34732   2.29377   -1.000
 5123.00    2.24529   2.23942  131.581
 5124.00    2.20518   2.19726  130.933
 5125.00    2.21358   2.17342   -1.000
 5126.00    2.24522   2.16721   -1.000
 5127.00    2.26796   2.17300   -1.000
 5128.00    2.27202   2.18603   -1.000
 5129.00    2.27548   2.20455   -1.000
 5130.00    2.29264   2.22851   -1.000
 5131.00    2.35773   2.25721   -1.000
 5132.00    2.41221   2.28707   -1.000
 5133.00    2.45435   2.31349   -1.000
 5134.00    2.47451   2.33132   -1.000
 5135.00    2.49608   2.33541   -1.000
 5136.00    2.46897   2.32311   -1.000
 5137.00    2.39682   2.29570   -1.000
 5138.00    2.31132   2.26246   -1.000
 5139.00    2.27139   2.23509   -1.000
 5140.00    2.29638   2.21875   -1.000
 5141.00    2.31830   2.21292   -1.000
 5142.00    2.30982   2.21310   -1.000
 5143.00    2.27430   2.21549   -1.000
 5144.00    2.27997   2.21819   -1.000
 5145.00    2.30772   2.21763   -1.000
 5146.00    2.28991   2.21271   -1.000
 5147.00    2.26270   2.20758   -1.000
 5148.00    2.25380   2.20560   -1.000
 5149.00    2.28323   2.20716   -1.000
 5150.00    2.30451   2.20863   -1.000
 5151.00    2.28804   2.20740   -1.000
 5152.00    2.27038   2.20643   -1.000
 5153.00    2.28988   2.21202   -1.000
 5154.00    2.29686   2.23066   -1.000
 5155.00    2.36977   2.26450   -1.000
 5156.00    2.45553   2.30915   -1.000
 5157.00    2.52329   2.35482   -1.000
 5158.00    2.56974   2.39093   -1.000
 5159.00    2.56143   2.41009   -1.000
 5160.00    2.53967   2.40790   -1.000
 5161.00    2.50477   2.38263   -1.000
 5162.00    2.46990   2.33315   -1.000
 5163.00    2.40854   2.25765   -1.000
 5164.00    2.29982   2.15747   -1.000
 5165.00    2.12865   2.03938   -1.000
 5166.00    1.87382   1.91718   -1.000
 5167.00    1.67847   1.81531   -1.000
 5168.00    1.65444   1.75339   -1.000
 5169.00    1.77046   1.72847   -1.000
 5170.00    1.88801   1.72220   -1.000
 5171.00    1.82685   1.71582   -1.000
 5172.00    1.66040   1.71699   -1.000
 5173.00    1.63849   1.74926   -1.000
 5174.00    1.83191   1.82719  127.890
 5175.00    2.09593   1.94176   -1.000
 5176.00    2.26728   2.05869   -1.000
 5177.00    2.31431   2.14778   -1.000
 5178.00    2.32988   2.19023   -1.000
 5179.00    2.31407   2.17780   -1.000
 5180.00    2.22840   2.11326   -1.000
 5181.00    2.07338   2.00828   -1.000
 5182.00    1.86191   1.89131   -1.000
 5183.00    1.66236   1.80558   -1.000
 5184.00    1.65071   1.78825   -1.000
 5185.00    1.88062   1.85099   -1.000
 5186.00    2.16627   1.96707   -1.000
 5187.00    2.35435   2.09336   -1.000
 5188.00    2.42275   2.19145   -1.000
 5189.00    2.44738   2.24272   -1.000
 5190.00    2.44317   2.24819   -1.000
 5191.00    2.36279   2.22241   -1.000
 5192.00    2.24585   2.18748   -1.000
 5193.00    2.22679   2.16604   -1.000
 5194.00    2.31392   2.16842   -1.000
 5195.00    2.36037   2.19237   -1.000
 5196.00    2.39757   2.23272   -1.000
 5197.00    2.47396   2.28078   -1.000
 5198.00    2.49099   2.32747   -1.000
 5199.00    2.51988   2.36410   -1.000
 5200.00    2.54591   2.38193   -1.000
 5201.00    2.54921   2.37430   -1.000
 5202.00    2.49629   2.33902   -1.000
 5203.00    2.42451   2.27916   -1.000
 5204.00    2.32340   2.20358   -1.000
 5205.00    2.19247   2.12760   -1.000
 5206.00    2.13671   2.06732   -1.000
 5207.00    2.13573   2.03532   -1.000
 5208.00    2.12582   2.03741   -1.000
 5209.00    2.16878   2.07387   -1.000
 5210.00    2.28756   2.13942   -1.000
 5211.00    2.42874   2.22011   -1.000
 5212.00    2.54719   2.29601   -1.000
 5213.00    2.63165   2.34945   -1.000
 5214.00    2.63430   2.37247   -1.000
 5215.00    2.55719   2.37327   -1.000
 5216.00    2.50560   2.37006   -1.000
 5217.00    2.52337   2.38042   -1.000
 5218.00    2.60639   2.40912   -1.000
 5219.00    2.67181   2.44688   -1.000
 5220.00    2.69634   2.47743   -1.000
 5221.00    2.71630   2.48486   -1.000
 5222.00    2.68998   2.45935   -1.000
 5223.00    2.58541   2.40038   -1.000
 5224.00    2.48358   2.31911   -1.000
 5225.00    2.35476   2.23641   -1.000
 5226.00    2.24072   2.17851   -1.000
 5227.00    2.26021   2.16680   -1.000
 5228.00    2.39662   2.20322   -1.000
 5229.00    2.56978   2.26859   -1.000
 5230.00    2.67224   2.33226   -1.000
 5231.00    2.69328   2.37030   -1.000
 5232.00    2.64330   2.38104   -1.000
 5233.00    2.55380   2.37967   -1.000
 5234.00    2.51826   2.38769   -1.000
 5235.00    2.59679   2.41672   -1.000
 5236.00    2.69226   2.46260   -1.000
 5237.00    2.77351   2.51243   -1.000
 5238.00    2.79717   2.55200   -1.000
 5239.00    2.77533   2.57502   -1.000
 5240.00    2.75556   2.58387   -1.000
 5241.00    2.74955   2.58466   -1.000
 5242.00    2.75978   2.58280   -1.000
 5243.00    2.77122   2.57894   -1.000
 5244.00    2.79835   2.56825   -1.000
 5245.00    2.76968   2.54413   -1.000
 5246.00    2.68526   2.50543   -1.000
 5247.00    2.58458   2.45982   -1.000
 5248.00    2.55723   2.41945   -1.000
 5249.00    2.57990   2.39303   -1.000
 5250.00    2.57314   2.38306   -1.000
 5251.00    2.57126   2.38800   -1.000
 5252.00    2.60491   2.40292   -1.000
 5253.00    2.63779   2.42250   -1.000
 5254.00    2.63886   2.44658   -1.000
 5255.00    2.62790   2.47877   -1.000
 5256.00    2.68507   2.52123   -1.000
 5257.00    2.80814   2.56614   -1.000
 5258.00    2.86774   2.59551   -1.000
 5259.00    2.84629   2.59262   -1.000
 5260.00    2.78276   2.54824   -1.000
 5261.00    2.67254   2.46552   -1.000
 5262.00    2.53980   2.35939   -1.000
 5263.00    2.38403   2.25095   -1.000
 5264.00    2.28123   2.15903   -1.000
 5265.00    2.23399   2.09441   -1.000
 5266.00    2.24341   2.05658   -1.000
 5267.00    2.31368   2.03637   -1.000
 5268.00    2.31944   2.02366   -1.000
 5269.00    2.21612   2.02083   -1.000
 5270.00    2.17446   2.04110   -1.000
 5271.00    2.31366   2.09412   -1.000
 5272.00    2.52718   2.17362   -1.000
 5273.00    2.62431   2.25708   -1.000
 5274.00    2.63686   2.33094   -1.000
 5275.00    2.63356   2.39649   -1.000
 5276.00    2.70193   2.45746   -1.000
 5277.00    2.81707   2.51442   -1.000
 5278.00    2.90482   2.55708   -1.000
 5279.00    2.92410   2.57229   -1.000
 5280.00    2.86315   2.55734   -1.000
 5281.00    2.77215   2.52285   -1.000
 5282.00    2.67637   2.48930   -1.000
 5283.00    2.58569   2.47826   -1.000
 5284.00    2.68276   2.50205   -1.000
 5285.00    2.84250   2.55719   -1.000
 5286.00    2.95874   2.62626   -1.000
 5287.00    3.02908   2.68792   -1.000
 5288.00    3.01961   2.73186   -1.000
 5289.00    3.01341   2.75781   -1.000
 5290.00    3.03329   2.76954   -1.000
 5291.00    3.04748   2.76999   -1.000
 5292.00    3.03930   2.75739   -1.000
 5293.00    3.00317   2.72925   -1.000
 5294.00    2.93326   2.68378   -1.000
 5295.00    2.84949   2.62116   -1.000
 5296.00    2.75024   2.54952   -1.000
 5297.00    2.62607   2.48585   -1.000
 5298.00    2.58984   2.44832   -1.000
 5299.00    2.67431   2.44676   -1.000
 5300.00    2.77720   2.47637   -1.000
 5301.00    2.82882   2.52589   -1.000
 5302.00    2.86165   2.58578   -1.000
 5303.00    2.95473   2.64827   -1.000
 5304.00    3.04696   2.70587   -1.000
 5305.00    3.08714   2.75018   -1.000
 5306.00    3.07982   2.77737   -1.000
 5307.00    3.06102   2.79192   -1.000
 5308.00    3.07242   2.80094   -1.000
 5309.00    3.09835   2.80933   -1.000
 5310.00    3.10908   2.81583   -1.000
 5311.00    3.11293   2.81526   -1.000
 5312.00    3.09348   2.80524   -1.000
 5313.00    3.08697   2.78644   -1.000
 5314.00    3.05664   2.76246   -1.000
 5315.00    3.04077   2.73848   -1.000
 5316.00    3.00229   2.71876   -1.000
 5317.00    2.95771   2.70648   -1.000
 5318.00    2.98191   2.70140   -1.000
 5319.00    2.99780   2.69826   -1.000
 5320.00    2.99260   2.69039   -1.000
 5321.00    2.99169   2.67197   -1.000
 5322.00    2.94037   2.63865   -1.000
 5323.00    2.87180   2.58926   -1.000
 5324.00    2.80171   2.52647   -1.000
 5325.00    2.77917   2.45384   -1.000
 5326.00    2.73830   2.37666   -1.000
 5327.00    2.57846   2.30851   -1.000
 5328.00    2.42255   2.27212   -1.000
 5329.00    2.44871   2.28667   -1.000
 5330.00    2.64698   2.35207   -1.000
 5331.00    2.83600   2.44434   -1.000
 5332.00    2.91570   2.53770   -1.000
 5333.00    2.95183   2.61638   -1.000
 5334.00    3.00793   2.67426   -1.000
 5335.00    3.05463   2.71038   -1.000
 5336.00    3.06201   2.72199   -1.000
 5337.00    3.03975   2.70776   -1.000
 5338.00    2.99011   2.67159   -1.000
 5339.00    2.90287   2.62402   -1.000
 5340.00    2.80533   2.58281   -1.000
 5341.00    2.77981   2.56515   -1.000
 5342.00    2.85503   2.57490   -1.000
 5343.00    2.94790   2.59975   -1.000
 5344.00    2.98710   2.62346   -1.000
 5345.00    2.98052   2.63499   -1.000
 5346.00    2.96988   2.63263   -1.000
 5347.00    2.96058   2.62319   -1.000
 5348.00    2.94001   2.61672   -1.000
 5349.00    2.93136   2.62344   -1.000
 5350.00    2.98044   2.64938   -1.000
 5351.00    3.05013   2.69221   -1.000
 5352.00    3.11330   2.74390   -1.000
 5353.00    3.13558   2.79579   -1.000
 5354.00    3.16354   2.84194   -1.000
 5355.00    3.21413   2.87933   -1.000
 5356.00    3.24330   2.90480   -1.000
 5357.00    3.27005   2.91641   -1.000
 5358.00    3.25599   2.91458   -1.000
 5359.00    3.22986   2.89979   -1.000
 5360.00    3.18842   2.87334   -1.000
 5361.00    3.12655   2.83898   -1.000
 5362.00    3.08415   2.80128   -1.000
 5363.00    3.07307   2.76406   -1.000
 5364.00    3.05943   2.72997   -1.000
 5365.00    3.01994   2.69936   -1.000
 5366.00    2.98779   2.67002   -1.000
 5367.00    2.98525   2.63762   -1.000
 5368.00    2.97733   2.59691   -1.000
 5369.00    2.88250   2.54966   -1.000
 5370.00    2.76929   2.50997   -1.000
 5371.00    2.71471   2.49712   11.453
 5372.00    2.80360   2.52411   -1.000
 5373.00    2.99618   2.58614   -1.000
 5374.00    3.15375   2.66231   -1.000
 5375.00    3.21986   2.73009   -1.000
 5376.00    3.20006   2.77588   -1.000
 5377.00    3.16788   2.79930   -1.000
 5378.00    3.17254   2.80674   -1.000
 5379.00    3.17471   2.80362   -1.000
 5380.00    3.15985   2.79323   -1.000
 5381.00    3.11747   2.77845   -1.000
 5382.00    3.06930   2.76461   -1.000
 5383.00    3.06163   2.75723   -1.000
 5384.00    3.09257   2.75836   -1.000
 5385.00    3.13786   2.76470   -1.000
 5386.00    3.15728   2.76804   -1.000
 5387.00    3.14432   2.75995   -1.000
 5388.00    3.10439   2.73713   -1.000
 5389.00    3.03070   2.70342   -1.000
 5390.00    2.96749   2.66681   -1.000
 5391.00    2.95050   2.63513   -1.000
 5392.00    2.95111   2.61151   -1.000
 5393.00    2.95680   2.59337   -1.000
 5394.00    2.95343   2.57580   -1.000
 5395.00    2.89850   2.55593   -1.000
 5396.00    2.82115   2.53742   -1.000
 5397.00    2.79243   2.53025   -1.000
 5398.00    2.85894   2.54276   -1.000
 5399.00    2.96474   2.57189   -1.000
 5400.00    3.01003   2.60340   -1.000
 5401.00    3.01796   2.61998   -1.000
 5402.00    3.01528   2.60970   -1.000
 5403.00    2.94824   2.57112   -1.000
 5404.00    2.80118   2.51534   -1.000
 5405.00    2.69762   2.46431   -1.000
 5406.00    2.69573   2.43870   -1.000
 5407.00    2.77677   2.44302   -1.000
 5408.00    2.85993   2.46768   -1.000
 5409.00    2.86711   2.50280   -1.000
 5410.00    2.86800   2.54427   -1.000
 5411.00    2.94865   2.59338   -1.000
 5412.00    3.07008   2.64719   -1.000
 5413.00    3.13628   2.69774   -1.000
 5414.00    3.13681   2.74107   -1.000
 5415.00    3.12911   2.77602   -1.000
 5416.00    3.14943   2.80281   -1.000
 5417.00    3.18635   2.82010   -1.000
 5418.00    3.20186   2.82473   -1.000
 5419.00    3.18118   2.81751   -1.000
 5420.00    3.14987   2.80265   -1.000
 5421.00    3.13808   2.78569   -1.000
 5422.00    3.15021   2.77150   -1.000
 5423.00    3.13137   2.76301   -1.000
 5424.00    3.09879   2.76312   -1.000
 5425.00    3.12402   2.77134   -1.000
 5426.00    3.19501   2.77879   -1.000
 5427.00    3.21593   2.77191   -1.000
 5428.00    3.12060   2.74314   -1.000
 5429.00    2.97000   2.69991   -1.000
 5430.00    2.89758   2.65938   -1.000
 5431.00    2.95520   2.63161   -1.000
 5432.00    3.01643   2.61533   -1.000
 5433.00    2.98622   2.60558   -1.000
 5434.00    2.92300   2.60344   -1.000
 5435.00    2.92909   2.61782   -1.000
 5436.00    2.99266   2.65528   -1.000
 5437.00    3.06495   2.71482   -1.000
 5438.00    3.15114   2.78642   -1.000
 5439.00    3.25884   2.85448   -1.000
 5440.00    3.34305   2.90541   -1.000
 5441.00    3.34309   2.93131   -1.000
 5442.00    3.31000   2.92863   -1.000
 5443.00    3.27553   2.89660   -1.000
 5444.00    3.17334   2.83889   -1.000
 5445.00    3.04250   2.76794   -1.000
 5446.00    2.88634   2.70501   11.824
 5447.00    2.82922   2.67203   11.768
 5448.00    2.89757   2.67739   11.813
 5449.00    3.01161   2.71057   -1.000
 5450.00    3.10154   2.74760   -1.000
 5451.00    3.12509   2.76644   -1.000
 5452.00    3.10029   2.75819   -1.000
 5453.00    3.02872   2.72526   -1.000
 5454.00    2.93493   2.68269   -1.000
 5455.00    2.86858   2.65272   11.778
 5456.00    2.90026   2.65276   -1.000
 5457.00    3.01541   2.68448   -1.000
 5458.00    3.14169   2.73053   -1.000
 5459.00    3.18111   2.76598   -1.000
 5460.00    3.12745   2.77709   -1.000
 5461.00    3.08570   2.76482   -1.000
 5462.00    3.05296   2.74183   -1.000
 5463.00    3.01688   2.72537   -1.000
 5464.00    3.02686   2.72555   -1.000
 5465.00    3.08722   2.74106   -1.000
 5466.00    3.13889   2.76325   -1.000
 5467.00    3.15450   2.78293   -1.000
 5468.00    3.15586   2.79339   -1.000
 5469.00    3.15407   2.79195   -1.000
 5470.00    3.12738   2.77989   -1.000
 5471.00    3.08094   2.75986   -1.000
 5472.00    3.06663   2.73371   -1.000
 5473.00    3.04425   2.70163   -1.000
 5474.00    3.00385   2.66478   -1.000
 5475.00    2.96840   2.62839   -1.000
 5476.00    2.89221   2.60212   -1.000
 5477.00    2.87462   2.59588   -1.000
 5478.00    2.95089   2.61063   -1.000
 5479.00    3.04824   2.63460   -1.000
 5480.00    3.05658   2.65595   -1.000
 5481.00    2.98448   2.67312   -1.000
 5482.00    2.94097   2.69323   -1.000
 5483.00    2.98702   2.72222   -1.000
 5484.00    3.09390   2.75511   -1.000
 5485.00    3.16129   2.78034   -1.000
 5486.00    3.17970   2.78995   -1.000
 5487.00    3.13363   2.78507   -1.000
 5488.00    3.07756   2.77574   -1.000
 5489.00    3.09713   2.77210   -1.000
 5490.00    3.13654   2.77726   -1.000
 5491.00    3.15599   2.78691   -1.000
 5492.00    3.16336   2.79528   -1.000
 5493.00    3.17320   2.79944   -1.000
 5494.00    3.19204   2.79975   -1.000
 5495.00    3.19119   2.79839   -1.000
 5496.00    3.16797   2.79673   -1.000
 5497.00    3.13695   2.79662   -1.000
 5498.00    3.14908   2.79884   -1.000
 5499.00    3.18988   2.79944   -1.000
 5500.00    3.19812   2.79288   -1.000
 5501.00    3.11746   2.77751   -1.000
 5502.00    3.07774   2.75759   -1.000
 5503.00    3.09940   2.73974   -1.000
 5504.00    3.10571   2.72623   -1.000
 5505.00    3.09298   2.71720   -1.000
 5506.00    3.06048   2.71499   -1.000
 5507.00    3.07803   2.72106   -1.000
 5508.00    3.14261   2.73234   -1.000
 5509.00    3.16272   2.73999   -1.000
 5510.00    3.13721   2.73481   -1.000
 5511.00    3.10085   2.71627   -1.000
 5512.00    3.04164   2.69265   -1.000
 5513.00    2.99745   2.67614   -1.000
 5514.00    3.02195   2.67657   -1.000
 5515.00    3.07110   2.69659   -1.000
 5516.00    3.11624   2.73287   -1.000
 5517.00    3.18809   2.77842   -1.000
 5518.00    3.27179   2.82480   -1.000
 5519.00    3.30681   2.86376   -1.000
 5520.00    3.31012   2.88951   -1.000
 5521.00    3.31483   2.90147   -1.000
 5522.00    3.29763   2.90188   -1.000
 5523.00    3.28826   2.89133   -1.000
 5524.00    3.26701   2.86853   -1.000
 5525.00    3.22471   2.83300   -1.000
 5526.00    3.16786   2.78907   -1.000
 5527.00    3.08671   2.74771   -1.000
 5528.00    3.03140   2.72375   -1.000
 5529.00    3.06327   2.72698   -1.000
 5530.00    3.14671   2.75289   -1.000
 5531.00    3.21433   2.78669   -1.000
 5532.00    3.23328   2.81380   -1.000
 5533.00    3.22357   2.82780   -1.000
 5534.00    3.20996   2.83088   -1.000
 5535.00    3.22534   2.82955   -1.000
 5536.00    3.22168   2.83119   -1.000
 5537.00    3.21910   2.84028   -1.000
 5538.00    3.25804   2.85654   -1.000
 5539.00    3.30797   2.87658   -1.000
 5540.00    3.35447   2.89512   -1.000
 5541.00    3.38800   2.90622   -1.000
 5542.00    3.35290   2.90712   -1.000
 5543.00    3.30164   2.90093   -1.000
 5544.00    3.29605   2.89435   -1.000
 5545.00    3.31408   2.89338   -1.000
 5546.00    3.32105   2.90140   -1.000
 5547.00    3.33348   2.91882   -1.000
 5548.00    3.37621   2.94189   -1.000
 5549.00    3.44153   2.96305   -1.000
 5550.00    3.45332   2.97521   -1.000
 5551.00    3.43463   2.97496   -1.000
 5552.00    3.41331   2.96301   -1.000
 5553.00    3.37206   2.94439   -1.000
 5554.00    3.33647   2.92641   -1.000
 5555.00    3.32794   2.91427   -1.000
 5556.00    3.32762   2.90875   -1.000
 5557.00    3.33561   2.90719   -1.000
 5558.00    3.35144   2.90641   -1.000
 5559.00    3.36491   2.90405   -1.000
 5560.00    3.36849   2.89764   -1.000
 5561.00    3.34523   2.88587   -1.000
 5562.00    3.30833   2.87061   -1.000
 5563.00    3.27516   2.85522   -1.000
 5564.00    3.25951   2.84165   -1.000
 5565.00    3.25937   2.83022   -1.000
 5566.00    3.25221   2.82109   -1.000
 5567.00    3.23262   2.81521   -1.000
 5568.00    3.22350   2.81332   -1.000
 5569.00    3.25236   2.81493   -1.000
 5570.00    3.28439   2.81855   -1.000
 5571.00    3.19741   2.82270   -1.000
 5572.00    2.98808   2.82713   11.861
 5573.00    3.33077   2.83388   -1.000
 5574.00    4.25598   2.84633   -1.000
 5575.00    4.53259   2.86420   -1.000
 5576.00    4.14857   2.88243   -1.000
 5577.00    3.66432   2.89814   -1.000
 5578.00    3.43362   2.91117   -1.000
 5579.00    3.39490   2.91985   -1.000
 5580.00    3.39291   2.92225   -1.000
 5581.00    3.36677   2.91683   -1.000
 5582.00    3.35223   2.90175   -1.000
 5583.00    3.34609   2.87539   -1.000
 5584.00    3.30680   2.83541   -1.000
 5585.00    3.25101   2.78202   -1.000
 5586.00    3.16875   2.72261   -1.000
 5587.00    3.07106   2.67063   -1.000
 5588.00    3.00953   2.63973   -1.000
 5589.00    3.01546   2.63576   -1.000
 5590.00    3.07549   2.65482   -1.000
 5591.00    3.15081   2.68719   -1.000
 5592.00    3.19396   2.72294   -1.000
 5593.00    3.17814   2.75719   -1.000
 5594.00    3.17910   2.78890   -1.000
 5595.00    3.24528   2.81621   -1.000
 5596.00    3.31808   2.83270   -1.000
 5597.00    3.31876   2.83158   -1.000
 5598.00    3.23174   2.81225   -1.000
 5599.00    3.14394   2.78217   -1.000
 5600.00    3.12183   2.75343   -1.000
 5601.00    3.12690   2.73767   -1.000
 5602.00    3.12418   2.74431   -1.000
 5603.00    3.15034   2.77802   -1.000
 5604.00    3.24764   2.83367   -1.000
 5605.00    3.36632   2.89736   -1.000
 5606.00    3.44229   2.95476   -1.000
 5607.00    3.47398   2.99702   -1.000
 5608.00    3.48261   3.02231   -1.000
 5609.00    3.48037   3.03357   -1.000
 5610.00    3.47436   3.03371   -1.000
 5611.00    3.48667   3.02140   -1.000
 5612.00    3.47963   2.99131   -1.000
 5613.00    3.41356   2.94045   -1.000
 5614.00    3.29313   2.87589   -1.000
 5615.00    3.16576   2.81644   -1.000
 5616.00    3.12389   2.78168   -1.000
 5617.00    3.18854   2.77917   -1.000
 5618.00    3.25118   2.80029   -1.000
 5619.00    3.26940   2.82939   -1.000
 5620.00    3.30171   2.85511   -1.000
 5621.00    3.34200   2.86891   -1.000
 5622.00    3.34769   2.86488   -1.000
 5623.00    3.28256   2.84564   -1.000
 5624.00    3.20333   2.82298   -1.000
 5625.00    3.17168   2.81227   -1.000
 5626.00    3.20154   2.82328   -1.000
 5627.00    3.28397   2.85390   -1.000
 5628.00    3.35839   2.89523   -1.000
 5629.00    3.41622   2.93651   -1.000
 5630.00    3.45974   2.96777   -1.000
 5631.00    3.46851   2.98290   -1.000
 5632.00    3.45656   2.98131   -1.000
 5633.00    3.42979   2.96624   -1.000
 5634.00    3.38695   2.94251   -1.000
 5635.00    3.34995   2.91576   -1.000
 5636.00    3.32819   2.89152   -1.000
 5637.00    3.31155   2.87369   -1.000
 5638.00    3.30945   2.86316   -1.000
 5639.00    3.30807   2.85777   -1.000
 5640.00    3.28867   2.85453   -1.000
 5641.00    3.28199   2.85271   -1.000
 5642.00    3.28329   2.85499   -1.000
 5643.00    3.30147   2.86327   -1.000
 5644.00    3.33210   2.87595   -1.000
 5645.00    3.36586   2.89027   -1.000
 5646.00    3.39046   2.90336   -1.000
 5647.00    3.40540   2.91283   -1.000
 5648.00    3.41070   2.91836   -1.000
 5649.00    3.39081   2.92217   -1.000
 5650.00    3.40459   2.92683   -1.000
 5651.00    3.44605   2.93235   -1.000
 5652.00    3.45463   2.93424   -1.000
 5653.00    3.44532   2.92704   -1.000
 5654.00    3.39807   2.90937   -1.000
 5655.00    3.34483   2.88269   -1.000
 5656.00    3.31915   2.84904   -1.000
 5657.00    3.25727   2.81266   -1.000
 5658.00    3.16920   2.78173   -1.000
 5659.00    3.14444   2.76664   -1.000
 5660.00    3.20843   2.77120   -1.000
 5661.00    3.26343   2.78890   -1.000
 5662.00    3.26390   2.81326   -1.000
 5663.00    3.27613   2.84163   -1.000
 5664.00    3.33303   2.86950   -1.000
 5665.00    3.39413   2.89073   -1.000
 5666.00    3.40871   2.90225   -1.000
 5667.00    3.36485   2.90624   -1.000
 5668.00    3.33114   2.90905   -1.000
 5669.00    3.34092   2.91659   -1.000
 5670.00    3.36870   2.93211   -1.000
 5671.00    3.40912   2.95591   -1.000
 5672.00    3.46608   2.98461   -1.000
 5673.00    3.54040   3.01160   -1.000
 5674.00    3.56975   3.03144   -1.000
 5675.00    3.55398   3.04246   -1.000
 5676.00    3.55229   3.04561   -1.000
 5677.00    3.56538   3.04176   -1.000
 5678.00    3.55274   3.03013   -1.000
 5679.00    3.52978   3.01095   -1.000
 5680.00    3.50490   2.98622   -1.000
 5681.00    3.46418   2.95896   -1.000
 5682.00    3.40732   2.93366   -1.000
 5683.00    3.36506   2.91593   -1.000
 5684.00    3.37498   2.90739   -1.000
 5685.00    3.41955   2.90396   -1.000
 5686.00    3.43383   2.90244   -1.000
 5687.00    3.39550   2.90425   -1.000
 5688.00    3.37331   2.91366   -1.000
 5689.00    3.41252   2.93336   -1.000
 5690.00    3.48401   2.96151   -1.000
 5691.00    3.54735   2.99239   -1.000
 5692.00    3.58355   3.01893   -1.000
 5693.00    3.58658   3.03572   -1.000
 5694.00    3.57036   3.04084   -1.000
 5695.00    3.54124   3.03522   -1.000
 5696.00    3.50868   3.02038   -1.000
 5697.00    3.47360   2.99777   -1.000
 5698.00    3.42172   2.97017   -1.000
 5699.00    3.36143   2.94181   -1.000
 5700.00    3.31017   2.91707   -1.000
 5701.00    3.28900   2.89984   -1.000
 5702.00    3.30503   2.89258   -1.000
 5703.00    3.34922   2.89175   -1.000
 5704.00    3.39787   2.88872   -1.000
 5705.00    3.38200   2.87571   -1.000
 5706.00    3.31283   2.85053   -1.000
 5707.00    3.25511   2.81882   -1.000
 5708.00    3.21144   2.78960   -1.000
 5709.00    3.18962   2.77166   -1.000
 5710.00    3.20519   2.77193   -1.000
 5711.00    3.23827   2.79283   -1.000
 5712.00    3.29049   2.83202   -1.000
 5713.00    3.38058   2.88261   -1.000
 5714.00    3.47843   2.93455   -1.000
 5715.00    3.53213   2.98035   -1.000
 5716.00    3.54912   3.01726   -1.000
 5717.00    3.56061   3.04623   -1.000
 5718.00    3.57584   3.07025   -1.000
 5719.00    3.59454   3.09248   -1.000
 5720.00    3.61943   3.11396   -1.000
 5721.00    3.65773   3.13306   -1.000
 5722.00    3.68175   3.14666   -1.000
 5723.00    3.68392   3.15153   -1.000
 5724.00    3.68614   3.14570   -1.000
 5725.00    3.66665   3.13049   -1.000
 5726.00    3.61413   3.11126   -1.000
 5727.00    3.57317   3.09528   -1.000
 5728.00    3.56897   3.08694   -1.000
 5729.00    3.59448   3.08427   -1.000
 5730.00    3.59278   3.08377   -1.000
 5731.00    3.55786   3.08551   -1.000
 5732.00    3.56171   3.09223   -1.000
 5733.00    3.61618   3.10480   -1.000
 5734.00    3.65898   3.11867   -1.000
 5735.00    3.66078   3.12836   -1.000
 5736.00    3.65887   3.13161   -1.000
 5737.00    3.64411   3.12970   -1.000
 5738.00    3.60733   3.12598   -1.000
 5739.00    3.58881   3.12258   -1.000
 5740.00    3.58615   3.12038   -1.000
 5741.00    3.59577   3.11993   -1.000
 5742.00    3.60539   3.12204   -1.000
 5743.00    3.60541   3.12762   -1.000
 5744.00    3.63468   3.13474   -1.000
 5745.00    3.67900   3.13899   -1.000
 5746.00    3.69149   3.13652   -1.000
 5747.00    3.65373   3.12794   -1.000
 5748.00    3.61014   3.11851   -1.000
 5749.00    3.62980   3.11029   -1.000
 5750.00    3.67898   3.10023   -1.000
 5751.00    3.66771   3.08382   -1.000
 5752.00    3.57493   3.06253   -1.000
 5753.00    3.49708   3.04644   -1.000
 5754.00    3.49819   3.04593   -1.000
 5755.00    3.56398   3.06444   -1.000
 5756.00    3.66310   3.09332   -1.000
 5757.00    3.72025   3.11771   -1.000
 5758.00    3.70218   3.12568   -1.000
 5759.00    3.64253   3.11338   -1.000
 5760.00    3.58825   3.08726   -1.000
 5761.00    3.51759   3.06123   -1.000
 5762.00    3.47245   3.05021   -1.000
 5763.00    3.51937   3.06265   -1.000
 5764.00    3.62594   3.09578   -1.000
 5765.00    3.69812   3.13700   -1.000
 5766.00    3.72594   3.17357   -1.000
 5767.00    3.72291   3.19788   -1.000
 5768.00    3.70415   3.20783   -1.000
 5769.00    3.68017   3.20545   -1.000
 5770.00    3.65150   3.19500   -1.000
 5771.00    3.62646   3.18090   -1.000
 5772.00    3.59461   3.16661   -1.000
 5773.00    3.53564   3.15528   -1.000
 5774.00    3.47353   3.14855   -1.000
 5775.00    3.40828   3.14559   -1.000
 5776.00    3.35380   3.14182   12.145
 5777.00    3.36876   3.12938   -1.000
 5778.00    3.42243   3.10177   -1.000
 5779.00    3.44888   3.05785   -1.000
 5780.00    3.41439   3.00436   -1.000
 5781.00    3.34759   2.95306   -1.000
 5782.00    3.34429   2.91545   -1.000
 5783.00    3.37204   2.89663   -1.000
 5784.00    3.35657   2.89603   -1.000
 5785.00    3.35835   2.91300   -1.000
 5786.00    3.43362   2.94504   -1.000
 5787.00    3.52813   2.98497   -1.000
 5788.00    3.59862   3.02369   -1.000
 5789.00    3.62918   3.05465   -1.000
 5790.00    3.60102   3.07750   -1.000
 5791.00    3.57036   3.09683   -1.000
 5792.00    3.57630   3.11795   -1.000
 5793.00    3.60783   3.14158   -1.000
 5794.00    3.67954   3.16295   -1.000
 5795.00    3.75187   3.17659   -1.000
 5796.00    3.74754   3.18123   -1.000
 5797.00    3.70642   3.18297   -1.000
 5798.00    3.71508   3.19048   -1.000
 5799.00    3.76665   3.20797   -1.000
 5800.00    3.82582   3.23043   -1.000
 5801.00    3.86455   3.24735   -1.000
 5802.00    3.85119   3.25102   -1.000
 5803.00    3.79193   3.24026   -1.000
 5804.00    3.71782   3.22124   -1.000
 5805.00    3.68302   3.20336   -1.000
 5806.00    3.69733   3.19364   -1.000
 5807.00    3.72270   3.19398   -1.000
 5808.00    3.74489   3.20207   -1.000
 5809.00    3.76954   3.21376   -1.000
 5810.00    3.78721   3.22418   -1.000
 5811.00    3.80023   3.22863   -1.000
 5812.00    3.80466   3.22432   -1.000
 5813.00    3.78802   3.21161   -1.000
 5814.00    3.75534   3.19469   -1.000
 5815.00    3.71092   3.18122   -1.000
 5816.00    3.69830   3.17966   -1.000
 5817.00    3.73203   3.19327   -1.000
 5818.00    3.78391   3.21775   -1.000
 5819.00    3.83784   3.24364   -1.000
 5820.00    3.87632   3.26262   -1.000
 5821.00    3.88826   3.27183   -1.000
 5822.00    3.87273   3.27340   -1.000
 5823.00    3.85165   3.27231   -1.000
 5824.00    3.84446   3.27221   -1.000
 5825.00    3.85518   3.27452   -1.000
 5826.00    3.87089   3.27893   -1.000
 5827.00    3.88586   3.28432   -1.000
 5828.00    3.88492   3.28973   -1.000
 5829.00    3.87863   3.29356   -1.000
 5830.00    3.89090   3.29406   -1.000
 5831.00    3.87465   3.29038   -1.000
 5832.00    3.86407   3.28270   -1.000
 5833.00    3.85242   3.27252   -1.000
 5834.00    3.83147   3.26241   -1.000
 5835.00    3.82687   3.25536   -1.000
 5836.00    3.83909   3.25286   -1.000
 5837.00    3.84258   3.25489   -1.000
 5838.00    3.81854   3.26204   -1.000
 5839.00    3.80474   3.27427   -1.000
 5840.00    3.83382   3.28925   -1.000
 5841.00    3.87514   3.30224   -1.000
 5842.00    3.88563   3.30794   -1.000
 5843.00    3.86975   3.30329   -1.000
 5844.00    3.82969   3.28856   -1.000
 5845.00    3.77827   3.26698   -1.000
 5846.00    3.74616   3.24363   -1.000
 5847.00    3.72764   3.22321   -1.000
 5848.00    3.71990   3.20776   -1.000
 5849.00    3.72680   3.19549   -1.000
 5850.00    3.73304   3.18210   -1.000
 5851.00    3.71361   3.16484   -1.000
 5852.00    3.67315   3.14416   -1.000
 5853.00    3.64144   3.12238   -1.000
 5854.00    3.62442   3.10073   -1.000
 5855.00    3.60841   3.07814   -1.000
 5856.00    3.56966   3.05563   -1.000
 5857.00    3.53942   3.03914   -1.000
 5858.00    3.54341   3.03617   -1.000
 5859.00    3.58743   3.04963   -1.000
 5860.00    3.64662   3.07386   -1.000
 5861.00    3.69148   3.10006   -1.000
 5862.00    3.69729   3.12147   -1.000
 5863.00    3.70040   3.13528   -1.000
 5864.00    3.70991   3.14213   -1.000
 5865.00    3.68251   3.14425   -1.000
 5866.00    3.65249   3.14615   -1.000
 5867.00    3.64153   3.15375   -1.000
 5868.00    3.69079   3.16872   -1.000
 5869.00    3.75045   3.18731   -1.000
 5870.00    3.78872   3.20385   -1.000
 5871.00    3.78758   3.21410   -1.000
 5872.00    3.72526   3.21736   -1.000
 5873.00    3.71915   3.21544   -1.000
 5874.00    3.75058   3.21002   -1.000
 5875.00    3.74576   3.20073   -1.000
 5876.00    3.72088   3.18618   -1.000
 5877.00    3.69318   3.16662   -1.000
 5878.00    3.66845   3.14454   -1.000
 5879.00    3.63243   3.12410   -1.000
 5880.00    3.59223   3.10894   -1.000
 5881.00    3.50218   3.09994   -1.000
 5882.00    3.34680   3.09298   -1.000
 5883.00    3.07886   3.08070   12.413
 5884.00    2.70791   3.05481   -1.000
 5885.00    2.41674   3.00425   -1.000
 5886.00    2.48544   2.91769   -1.000
 5887.00    2.70251   2.79212   14.224
 5888.00    2.69560   2.64169   13.676
 5889.00    2.41909   2.50011   13.320
 5890.00    2.11363   2.40417   -1.000
 5891.00    2.04295   2.37294   -1.000
 5892.00    2.27016   2.39107   13.791
 5893.00    2.59622   2.42728   13.474
 5894.00    2.77668   2.45859   -1.000
 5895.00    2.78536   2.48455   -1.000
 5896.00    2.78232   2.52592   -1.000
 5897.00    2.93238   2.59695   -1.000
 5898.00    3.18413   2.69378   -1.000
 5899.00    3.38287   2.80117   -1.000
 5900.00    3.50481   2.90178   -1.000
 5901.00    3.58674   2.98298   -1.000
 5902.00    3.61914   3.04016   -1.000
 5903.00    3.61767   3.07559   -1.000
 5904.00    3.60421   3.09545   -1.000
 5905.00    3.59122   3.10687   -1.000
 5906.00    3.58907   3.11628   -1.000
 5907.00    3.60307   3.12689   -1.000
 5908.00    3.63428   3.13822   -1.000
 5909.00    3.65828   3.14783   -1.000
 5910.00    3.67779   3.15197   -1.000
 5911.00    3.67610   3.14674   -1.000
 5912.00    3.64510   3.13090   -1.000
 5913.00    3.57892   3.10769   -1.000
 5914.00    3.51441   3.08560   -1.000
 5915.00    3.49568   3.07383   -1.000
 5916.00    3.52173   3.07620   -1.000
 5917.00    3.57877   3.09122   -1.000
 5918.00    3.62940   3.11278   -1.000
 5919.00    3.65529   3.13370   -1.000
 5920.00    3.64082   3.14920   -1.000
 5921.00    3.62943   3.15846   -1.000
 5922.00    3.64580   3.16405   -1.000
 5923.00    3.66453   3.16975   -1.000
 5924.00    3.68348   3.17651   -1.000
 5925.00    3.70648   3.18176   -1.000
 5926.00    3.71622   3.18158   -1.000
 5927.00    3.69529   3.17372   -1.000
 5928.00    3.66241   3.16086   -1.000
 5929.00    3.63515   3.14880   -1.000
 5930.00    3.63837   3.14323   -1.000
 5931.00    3.64641   3.14482   -1.000
 5932.00    3.67979   3.14962   -1.000
 5933.00    3.69462   3.15436   -1.000
 5934.00    3.66359   3.15917   -1.000
 5935.00    3.65536   3.16720   -1.000
 5936.00    3.68180   3.17861   -1.000
 5937.00    3.70723   3.18912   -1.000
 5938.00    3.71453   3.19438   -1.000
 5939.00    3.71092   3.19185   -1.000
 5940.00    3.67932   3.18296   -1.000
 5941.00    3.63426   3.17323   -1.000
 5942.00    3.62764   3.16907   -1.000
 5943.00    3.65491   3.17263   -1.000
 5944.00    3.71243   3.18098   -1.000
 5945.00    3.74663   3.18808   -1.000
 5946.00    3.74555   3.18882   -1.000
 5947.00    3.72672   3.18221   -1.000
 5948.00    3.67820   3.17216   -1.000
 5949.00    3.65067   3.16419   -1.000
 5950.00    3.67234   3.15957   -1.000
 5951.00    3.70190   3.15682   -1.000
 5952.00    3.67202   3.15456   -1.000
 5953.00    3.64274   3.15303   -1.000
 5954.00    3.64941   3.15297   -1.000
 5955.00    3.67154   3.15325   -1.000
 5956.00    3.67087   3.15420   -1.000
 5957.00    3.64142   3.15957   -1.000
 5958.00    3.65585   3.17214   -1.000
 5959.00    3.71682   3.19147   -1.000
 5960.00    3.77174   3.21348   -1.000
 5961.00    3.80031   3.23219   -1.000
 5962.00    3.79699   3.24336   -1.000
 5963.00    3.76379   3.24602   -1.000
 5964.00    3.73439   3.24280   -1.000
 5965.00    3.71154   3.23884   -1.000
 5966.00    3.71571   3.23949   -1.000
 5967.00    3.75601   3.24663   -1.000
 5968.00    3.77801   3.25865   -1.000
 5969.00    3.81277   3.27233   -1.000
 5970.00    3.84590   3.28374   -1.000
 5971.00    3.84063   3.28898   -1.000
 5972.00    3.82571   3.28533   -1.000
 5973.00    3.80039   3.27177   -1.000
 5974.00    3.77068   3.24968   -1.000
 5975.00    3.72863   3.22369   -1.000
 5976.00    3.70096   3.20110   -1.000
 5977.00    3.68330   3.18767   -1.000
 5978.00    3.68434   3.18542   -1.000
 5979.00    3.71313   3.19063   -1.000
 5980.00    3.74928   3.19567   -1.000
 5981.00    3.76155   3.19271   -1.000
 5982.00    3.73960   3.17979   -1.000
 5983.00    3.66569   3.16228   -1.000
 5984.00    3.61957   3.15008   -1.000
 5985.00    3.64470   3.15058   -1.000
 5986.00    3.69847   3.16324   -1.000
 5987.00    3.74764   3.18330   -1.000
 5988.00    3.76763   3.20542   -1.000
 5989.00    3.80338   3.22525   -1.000
 5990.00    3.80237   3.24135   -1.000
 5991.00    3.78049   3.25507   -1.000
 5992.00    3.79051   3.26760   -1.000
 5993.00    3.80547   3.27730   -1.000
 5994.00    3.83151   3.27991   -1.000
 5995.00    3.82866   3.27238   -1.000
 5996.00    3.79300   3.25703   -1.000
 5997.00    3.76185   3.23984   -1.000
 5998.00    3.72790   3.22768   -1.000
 5999.00    3.72175   3.22281   -1.000
 6000.00    3.74501   3.22289   -1.000
 6001.00    3.73717   3.22401   -1.000
 6002.00    3.72882   3.22300   -1.000
 6003.00    3.71524   3.21944   -1.000
 6004.00    3.69986   3.21234   -1.000
 6005.00    3.67652   3.20027   -1.000
 6006.00    3.64017   3.18565   -1.000
 6007.00    3.60512   3.17413   -1.000
 6008.00    3.62354   3.17222   -1.000
 6009.00    3.68969   3.18060   -1.000
 6010.00    3.75595   3.19204   -1.000
 6011.00    3.78330   3.19915   -1.000
 6012.00    3.74412   3.19903   -1.000
 6013.00    3.71821   3.19429   -1.000
 6014.00    3.70806   3.18885   -1.000
 6015.00    3.71493   3.18393   -1.000
 6016.00    3.72860   3.17966   -1.000
 6017.00    3.71063   3.17611   -1.000
 6018.00    3.71030   3.17191   -1.000
 6019.00    3.72321   3.16700   -1.000
 6020.00    3.72451   3.16496   -1.000
 6021.00    3.70684   3.16894   -1.000
 6022.00    3.71708   3.18058   -1.000
 6023.00    3.75130   3.19914   -1.000
 6024.00    3.77150   3.22235   -1.000
 6025.00    3.78962   3.24734   -1.000
 6026.00    3.82964   3.27176   -1.000
 6027.00    3.86952   3.29470   -1.000
 6028.00    3.88558   3.31592   -1.000
 6029.00    3.89551   3.33495   -1.000
 6030.00    3.88729   3.35229   -1.000
 6031.00    3.88076   3.36919   -1.000
 6032.00    3.89569   3.38640   -1.000
 6033.00    3.91989   3.40388   -1.000
 6034.00    3.92051   3.41886   -1.000
 6035.00    3.91023   3.42708   -1.000
 6036.00    3.91734   3.42671   -1.000
 6037.00    3.92051   3.41844   -1.000
 6038.00    3.91298   3.40592   -1.000
 6039.00    3.89509   3.39399   -1.000
 6040.00    3.88137   3.38750   -1.000
 6041.00    3.86376   3.38874   -1.000
 6042.00    3.88356   3.39690   -1.000
 6043.00    3.91494   3.40887   -1.000
 6044.00    3.93480   3.42059   -1.000
 6045.00    3.97377   3.43047   -1.000
 6046.00    3.98172   3.43763   -1.000
 6047.00    3.97538   3.44203   -1.000
 6048.00    3.97930   3.44363   -1.000
 6049.00    3.97529   3.44177   -1.000
 6050.00    3.98573   3.43492   -1.000
 6051.00    3.97435   3.42182   -1.000
 6052.00    3.95211   3.40303   -1.000
 6053.00    3.93049   3.38135   -1.000
 6054.00    3.91724   3.36067   -1.000
 6055.00    3.88307   3.34520   -1.000
 6056.00    3.85927   3.33855   -1.000
 6057.00    3.87998   3.34086   -1.000
 6058.00    3.81267   3.34871   -1.000
 6059.00    3.62638   3.35612   -1.000
 6060.00    3.86885   3.35719   -1.000
 6061.00    3.81805   3.34900   -1.000
 6062.00    2.66863   3.33305    4.613
 6063.00    1.82032   3.31540   -1.000
 6064.00    3.08162   3.30481   12.423
 6065.00    3.77851   3.30910   -1.000
 6066.00    3.91591   3.33015   -1.000
 6067.00    3.61781   3.36251   -1.000
 6068.00    1.64995   3.39733   -1.000
 6069.00    2.89893   3.42778   -1.000
 6070.00    3.98884   3.45031   -1.000
 6071.00    4.06110   3.46370   -1.000
 6072.00    4.05446   3.46812   -1.000
 6073.00    4.05294   3.46413   -1.000
 6074.00    4.03003   3.45225   -1.000
 6075.00    4.01210   3.43307   -1.000
 6076.00    3.98074   3.40856   -1.000
 6077.00    3.93679   3.38164   -1.000
 6078.00    3.87904   3.35613   -1.000
 6079.00    3.85303   3.33458   -1.000
 6080.00    3.87279   3.31805   -1.000
 6081.00    3.83884   3.30683   -1.000
 6082.00    3.81697   3.30162   -1.000
 6083.00    3.85542   3.30187   -1.000
 6084.00    3.87013   3.30608   -1.000
 6085.00    3.86669   3.31261   -1.000
 6086.00    3.86812   3.31871   -1.000
 6087.00    3.88182   3.32132   -1.000
 6088.00    3.88891   3.31867   -1.000
 6089.00    3.87251   3.31189   -1.000
 6090.00    3.83612   3.30560   -1.000
 6091.00    3.79399   3.30451   -1.000
 6092.00    3.79439   3.31141   -1.000
 6093.00    3.83907   3.32566   -1.000
 6094.00    3.89573   3.34362   -1.000
 6095.00    3.92705   3.36020   -1.000
 6096.00    3.92413   3.37156   -1.000
 6097.00    3.92416   3.37558   -1.000
 6098.00    3.92572   3.36909   -1.000
 6099.00    3.92764   3.34905   -1.000
 6100.00    3.91131   3.31680   -1.000
 6101.00    3.82916   3.27991   -1.000
 6102.00    3.70699   3.25291   -1.000
 6103.00    3.67177   3.24651   -1.000
 6104.00    3.74279   3.26217   -1.000
 6105.00    3.82045   3.29169   -1.000
 6106.00    3.86421   3.32518   -1.000
 6107.00    3.90163   3.35522   -1.000
 6108.00    3.88858   3.37838   -1.000
 6109.00    3.87605   3.39395   -1.000
 6110.00    3.88137   3.40388   -1.000
 6111.00    3.89202   3.41155   -1.000
 6112.00    3.92480   3.41851   -1.000
 6113.00    3.93542   3.42382   -1.000
 6114.00    3.93251   3.42445   -1.000
 6115.00    3.91855   3.41840   -1.000
 6116.00    3.90226   3.40491   -1.000
 6117.00    3.89610   3.38318   -1.000
 6118.00    3.88213   3.35302   -1.000
 6119.00    3.83042   3.31679   -1.000
 6120.00    3.76072   3.28119   -1.000
 6121.00    3.68346   3.25591   -1.000
 6122.00    3.65731   3.24865   -1.000
 6123.00    3.73956   3.25989   -1.000
 6124.00    3.84859   3.28131   -1.000
 6125.00    3.90146   3.30418   -1.000
 6126.00    3.89892   3.32359   -1.000
 6127.00    3.84733   3.33969   -1.000
 6128.00    3.81506   3.35587   -1.000
 6129.00    3.83322   3.37304   -1.000
 6130.00    3.85856   3.38759   -1.000
 6131.00    3.91213   3.39142   -1.000
 6132.00    3.93036   3.37609   -1.000
 6133.00    3.89771   3.33698   -1.000
 6134.00    3.79319   3.27911   -1.000
 6135.00    3.63707   3.21726   -1.000
 6136.00    3.52096   3.17287   -1.000
 6137.00    3.48789   3.16028   -1.000
 6138.00    3.58630   3.18090   -1.000
 6139.00    3.75116   3.22197   -1.000
 6140.00    3.84209   3.26879   -1.000
 6141.00    3.85740   3.31284   -1.000
 6142.00    3.84410   3.35066   -1.000
 6143.00    3.88068   3.38069   -1.000
 6144.00    3.92388   3.40072   -1.000
 6145.00    3.93018   3.40883   -1.000
 6146.00    3.90252   3.40481   -1.000
 6147.00    3.85490   3.39131   -1.000
 6148.00    3.80887   3.37375   -1.000
 6149.00    3.74745   3.35781   -1.000
 6150.00    3.74582   3.34771   -1.000
 6151.00    3.75732   3.34281   -1.000
 6152.00    3.74870   3.33943   -1.000
 6153.00    3.73559   3.33321   -1.000
 6154.00    3.69850   3.32218   -1.000
 6155.00    3.65156   3.30587   -1.000
 6156.00    3.66349   3.28205   -1.000
 6157.00    3.63620   3.24694   -1.000
 6158.00    3.57033   3.19673   -1.000
 6159.00    3.50202   3.13236   -1.000
 6160.00    3.36863   3.06307   -1.000
 6161.00    3.21497   3.00555   -1.000
 6162.00    3.15316   2.97581   12.973
 6163.00    3.19528   2.97851   -1.000
 6164.00    3.29500   3.00661   -1.000
 6165.00    3.37428   3.04404   -1.000
 6166.00    3.43107   3.07566   -1.000
 6167.00    3.45287   3.09271   -1.000
 6168.00    3.41940   3.09849   -1.000
 6169.00    3.37626   3.10353   -1.000
 6170.00    3.33780   3.11777   -1.000
 6171.00    3.39933   3.14266   -1.000
 6172.00    3.50226   3.17269   -1.000
 6173.00    3.52858   3.20161   -1.000
 6174.00    3.50415   3.22498   -1.000
 6175.00    3.49957   3.24220   -1.000
 6176.00    3.51585   3.25591   -1.000
 6177.00    3.56012   3.26928   -1.000
 6178.00    3.58508   3.28337   -1.000
 6179.00    3.58263   3.29773   -1.000
 6180.00    3.57670   3.31121   -1.000
 6181.00    3.58539   3.32113   -1.000
 6182.00    3.58882   3.32385   -1.000
 6183.00    3.58531   3.31715   -1.000
 6184.00    3.58819   3.30018   -1.000
 6185.00    3.56772   3.27459   -1.000
 6186.00    3.52016   3.24337   -1.000
 6187.00    3.48472   3.21033   -1.000
 6188.00    3.43009   3.17861   -1.000
 6189.00    3.38662   3.15160   -1.000
 6190.00    3.33109   3.13549   12.702
 6191.00    3.28184   3.13665   12.616
 6192.00    3.32122   3.15652   12.594
 6193.00    3.41565   3.18988   -1.000
 6194.00    3.49922   3.22656   -1.000
 6195.00    3.54703   3.25713   -1.000
 6196.00    3.53340   3.27499   -1.000
 6197.00    3.50686   3.27979   -1.000
 6198.00    3.45658   3.27691   12.633
 6199.00    3.39445   3.27594   12.590
 6200.00    3.41345   3.28319   12.590
 6201.00    3.46972   3.29926   12.570
 6202.00    3.55768   3.32055   -1.000
 6203.00    3.62108   3.34177   -1.000
 6204.00    3.63018   3.35930   -1.000
 6205.00    3.63352   3.37100   -1.000
 6206.00    3.63250   3.37604   -1.000
 6207.00    3.63725   3.37357   -1.000
 6208.00    3.60962   3.36219   -1.000
 6209.00    3.57529   3.34070   -1.000
 6210.00    3.55602   3.30867   -1.000
 6211.00    3.52495   3.26730   -1.000
 6212.00    3.46233   3.22147   -1.000
 6213.00    3.38199   3.17867   -1.000
 6214.00    3.33146   3.14665   13.238
 6215.00    3.30116   3.12898   13.198
 6216.00    3.32223   3.12383   -1.000
 6217.00    3.38504   3.12572   -1.000
 6218.00    3.40459   3.12956   -1.000
 6219.00    3.38715   3.13479   -1.000
 6220.00    3.38960   3.14257   -1.000
 6221.00    3.41554   3.15361   -1.000
 6222.00    3.42387   3.16670   -1.000
 6223.00    3.42958   3.17926   -1.000
 6224.00    3.45272   3.18840   -1.000
 6225.00    3.43207   3.19064   -1.000
 6226.00    3.44975   3.18238   -1.000
 6227.00    3.44290   3.16210   -1.000
 6228.00    3.40310   3.13211   -1.000
 6229.00    3.34491   3.10091   -1.000
 6230.00    3.25819   3.08039   12.968
 6231.00    3.24673   3.08002   12.902
 6232.00    3.29466   3.10166   12.983
 6233.00    3.35749   3.13849   -1.000
 6234.00    3.46853   3.17740   -1.000
 6235.00    3.53599   3.20498   -1.000
 6236.00    3.51583   3.21405   -1.000
 6237.00    3.47763   3.20442   -1.000
 6238.00    3.45578   3.18198   -1.000
 6239.00    3.39484   3.15434   -1.000
 6240.00    3.35253   3.12765   -1.000
 6241.00    3.33239   3.10520   -1.000
 6242.00    3.31095   3.08920   -1.000
 6243.00    3.30898   3.08211   -1.000
 6244.00    3.31204   3.08602   -1.000
 6245.00    3.33094   3.10138   -1.000
 6246.00    3.37227   3.12593   -1.000
 6247.00    3.44074   3.15320   -1.000
 6248.00    3.48744   3.17408   -1.000
 6249.00    3.48826   3.18110   -1.000
 6250.00    3.45850   3.17103   -1.000
 6251.00    3.39371   3.14691   -1.000
 6252.00    3.32430   3.11593   -1.000
 6253.00    3.28858   3.08502   -1.000
 6254.00    3.28132   3.05851   -1.000
 6255.00    3.27524   3.03835   -1.000
 6256.00    3.27203   3.02702   -1.000
 6257.00    3.23539   3.02863   -1.000
 6258.00    3.22835   3.04606   13.128
 6259.00    3.27476   3.07906   13.058
 6260.00    3.36361   3.12213   -1.000
 6261.00    3.44120   3.16706   -1.000
 6262.00    3.47506   3.20520   -1.000
 6263.00    3.48960   3.23146   -1.000
 6264.00    3.45496   3.24586   -1.000
 6265.00    3.41299   3.25258   13.203
 6266.00    3.39338   3.25587   13.189
 6267.00    3.43790   3.25787   13.144
 6268.00    3.46531   3.26016   -1.000
 6269.00    3.43341   3.26377   13.145
 6270.00    3.41975   3.26876   13.239
 6271.00    3.41408   3.27346   13.346
 6272.00    3.36713   3.27486   13.558
 6273.00    3.29158   3.26980   13.899
 6274.00    3.21710   3.25663   14.155
 6275.00    3.19941   3.23641   14.248
 6276.00    3.16125   3.21191   14.197
 6277.00    3.11831   3.18735   13.977
 6278.00    3.09275   3.16730   13.735
 6279.00    3.03575   3.15641   13.523
 6280.00    3.01399   3.15843   13.359
 6281.00    3.09472   3.17468   13.247
 6282.00    3.24728   3.20245   13.127
 6283.00    3.35128   3.23680   13.034
 6284.00    3.43949   3.27193   13.007
 6285.00    3.50024   3.30357   -1.000
 6286.00    3.53146   3.32856   -1.000
 6287.00    3.58169   3.34422   -1.000
 6288.00    3.61528   3.34872   -1.000
 6289.00    3.61220   3.34226   -1.000
 6290.00    3.59123   3.32781   -1.000
 6291.00    3.57901   3.30985   -1.000
 6292.00    3.55320   3.29171   -1.000
 6293.00    3.59625   3.27458   -1.000
 6294.00    3.59148   3.25742   -1.000
 6295.00    3.59468   3.23958   -1.000
 6296.00    3.58841   3.22256   -1.000
 6297.00    3.55833   3.20867   -1.000
 6298.00    3.53015   3.19889   -1.000
 6299.00    3.50780   3.19271   -1.000
 6300.00    3.47767   3.19032   -1.000
 6301.00    3.44947   3.19381   -1.000
 6302.00    3.41889   3.20494   -1.000
 6303.00    3.45147   3.22442   -1.000
 6304.00    3.47474   3.25068   -1.000
 6305.00    3.51515   3.28063   -1.000
 6306.00    3.55372   3.30963   -1.000
 6307.00    3.62482   3.33246   -1.000
 6308.00    3.67156   3.34471   -1.000
 6309.00    3.67636   3.34523   -1.000
 6310.00    3.62827   3.33560   -1.000
 6311.00    3.56142   3.31882   -1.000
 6312.00    3.53794   3.29779   -1.000
 6313.00    3.53784   3.27438   -1.000
 6314.00    3.52165   3.25090   -1.000
 6315.00    3.47834   3.23001   -1.000
 6316.00    3.44860   3.21473   -1.000
 6317.00    3.46978   3.20876   -1.000
 6318.00    3.50243   3.21551   -1.000
 6319.00    3.50780   3.23457   -1.000
 6320.00    3.55167   3.26229   -1.000
 6321.00    3.61893   3.29409   -1.000
 6322.00    3.64224   3.32581   -1.000
 6323.00    3.69302   3.35441   -1.000
 6324.00    3.72764   3.37768   -1.000
 6325.00    3.74007   3.39483   -1.000
 6326.00    3.72917   3.40656   -1.000
 6327.00    3.74066   3.41412   -1.000
 6328.00    3.73387   3.41867   -1.000
 6329.00    3.72756   3.42097   -1.000
 6330.00    3.72578   3.42094   -1.000
 6331.00    3.72607   3.41632   -1.000
 6332.00    3.74572   3.40394   -1.000
 6333.00    3.76491   3.38287   -1.000
 6334.00    3.72275   3.35666   -1.000
 6335.00    3.63047   3.33322   -1.000
 6336.00    3.58729   3.31991   -1.000
 6337.00    3.60806   3.31989   -1.000
 6338.00    3.67638   3.33085   -1.000
 6339.00    3.71220   3.34628   -1.000
 6340.00    3.73553   3.35845   -1.000
 6341.00    3.73297   3.36302   -1.000
 6342.00    3.71627   3.36123   -1.000
 6343.00    3.66343   3.35894   -1.000
 6344.00    3.63530   3.36268   -1.000
 6345.00    3.67595   3.37544   -1.000
 6346.00    3.73051   3.39617   -1.000
 6347.00    3.74836   3.42063   -1.000
 6348.00    3.78786   3.44337   -1.000
 6349.00    3.80577   3.45970   -1.000
 6350.00    3.77467   3.46639   -1.000
 6351.00    3.78543   3.46200   -1.000
 6352.00    3.79252   3.44705   -1.000
 6353.00    3.74012   3.42418   -1.000
 6354.00    3.67426   3.39693   -1.000
 6355.00    3.64661   3.36767   -1.000
 6356.00    3.64314   3.33707   -1.000
 6357.00    3.62639   3.30564   -1.000
 6358.00    3.59109   3.27509   -1.000
 6359.00    3.54932   3.24825   -1.000
 6360.00    3.55775   3.22874   -1.000
 6361.00    3.54903   3.22049   -1.000
 6362.00    3.51549   3.22636   -1.000
 6363.00    3.53429   3.24671   -1.000
 6364.00    3.58351   3.27888   -1.000
 6365.00    3.65158   3.31831   -1.000
 6366.00    3.70485   3.35963   -1.000
 6367.00    3.77015   3.39777   -1.000
 6368.00    3.81816   3.42965   -1.000
 6369.00    3.81723   3.45505   -1.000
 6370.00    3.82302   3.47548   -1.000
 6371.00    3.81542   3.49242   -1.000
 6372.00    3.80320   3.50584   -1.000
 6373.00    3.80961   3.51477   -1.000
 6374.00    3.79280   3.51829   -1.000
 6375.00    3.78495   3.51579   -1.000
 6376.00    3.80324   3.50764   -1.000
 6377.00    3.77534   3.49600   -1.000
 6378.00    3.72555   3.48401   -1.000
 6379.00    3.70073   3.47479   -1.000
 6380.00    3.68816   3.47034   -1.000
 6381.00    3.72830   3.47096   -1.000
 6382.00    3.74785   3.47554   -1.000
 6383.00    3.74849   3.48273   -1.000
 6384.00    3.73453   3.49152   -1.000
 6385.00    3.73332   3.50071   -1.000
 6386.00    3.73969   3.50844   -1.000
 6387.00    3.71715   3.51232   -1.000
 6388.00    3.71331   3.50973   -1.000
 6389.00    3.69940   3.49842   -1.000
 6390.00    3.69334   3.47834   -1.000
 6391.00    3.62345   3.45348   13.347
 6392.00    3.52020   3.43139   13.327
 6393.00    3.45790   3.41946   13.412
 6394.00    3.46513   3.41966   13.618
 6395.00    3.54221   3.42723   13.935
 6396.00    3.58907   3.43351   14.034
 6397.00    3.58258   3.43214   13.885
 6398.00    3.53177   3.42419   13.660
 6399.00    3.44181   3.41800   13.595
 6400.00    3.37748   3.42248   13.635
 6401.00    3.41886   3.43994   13.710
 6402.00    3.47523   3.46520   13.912
 6403.00    3.49538   3.48867   14.129
 6404.00    3.51622   3.50177   14.271
 6405.00    3.47542   3.50150   14.331
 6406.00    3.40650   3.49131   14.405
 6407.00    3.33949   3.47752   14.525
 6408.00    3.29813   3.46519   14.603
 6409.00    3.32249   3.45639   14.624
 6410.00    3.31002   3.45136   14.637
 6411.00    3.24873   3.45029   14.718
 6412.00    3.20648   3.45337   -1.000
 6413.00    3.19550   3.45986   -1.000
 6414.00    3.18618   3.46776   -1.000
 6415.00    3.18121   3.47336   -1.000
 6416.00    3.16945   3.47270   -1.000
 6417.00    3.14601   3.46417   -1.000
 6418.00    3.12759   3.45033   -1.000
 6419.00    3.05335   3.43781   -1.000
 6420.00    2.97933   3.43438   -1.000
 6421.00    2.94118   3.44432   -1.000
 6422.00    2.96223   3.46611   -1.000
 6423.00    3.01087   3.49395   -1.000
 6424.00    2.98423   3.52049   -1.000
 6425.00    2.93188   3.53909   -1.000
 6426.00    2.94016   3.54495   -1.000
 6427.00    0.17232   3.53639   -1.000
 6428.00    0.00000   3.51638   -2.000
