###################################################################
## OUTPUT of StarlightChains_v04.for    [Cid@UFSC - 01/Apr/2007] ##
###################################################################

## Some input info
NGC6171_b_1.cxt                          [arq_obs]
Base.BC03.N                              [arq_base]
NGC6171_b_1.msk                          [arq_masks]
StCv04.C11.config                        [arq_config]
   45                                    [N_base]
    0                                    [N_YAV_components = # of components with extra extinction!]
    0                                    [i_FitPowerLaw (1/0 = Yes/No)]
-9.99                                    [alpha_PowerLaw]
CCM                                      [red_law_option]
 1.458241                                [q_norm = A(l_norm)/A(V)]

## (Re)Sampling Parameters
 3359.00                                 [l_ini (A)]
 6428.00                                 [l_fin (A)]
    1.00                                 [dl    (A)]     (OBS: dl_cushion =    50.00 A)

## Normalization info
 4020.00                                 [l_norm (A) - for base]
 4010.00                                 [llow_norm (A) - window for f_obs]
 4060.00                                 [lupp_norm (A) - window for f_obs]
4.350830E-15                             [fobs_norm (in input units)]

## S/N
 4730.00                                 [llow_SN (A) - window for S/N]
 4780.00                                 [lupp_SN (A) - window for S/N]
  48.767                                 [S/N in S/N window]
  32.704                                 [S/N in norm. window]
 245.356                                 [S/N_err in S/N window]
 164.540                                 [S/N_err in norm. window]
  1.0000                                 [fscale_chi2]

## etc...
  2147483626                             [idum_orig]
  3069                                   [NOl_eff]
   845                                   [Nl_eff]
  2224    NSIGMA                         [Ntot_cliped & clip_method]
  1250760                                [Nglobal_steps]
   7                                     [N_chains]
  15                                     [NEX0s_base = N_base in EX0s-fits]
 0   0   1      192   2.0   3.636E+02    [Clip-Bug, RC-Crash & Burn-In warning-flags, n_censored_weights, wei_nsig_threshold & wei_limit]
    12     12.172     12.172      0.000  [idt_all, wdt_TotTime, wdt_UsrTime & wdt_SysTime (sec)]

## Synthesis Results - Best model ##

 2.78165E+00                             [chi2/Nl_eff]
     1.06012                             [adev (%)]

   100.51804                             [sum-of-x (%)]
 3.24037E-14                             [Flux_tot (units of input spectrum!)]
 6.24581E-10                             [Mini_tot (???)]
 3.24624E-10                             [Mcor_tot (???)]

 -21.00                                  [v0_min  (km/s)]
  63.18                                  [vd_min  (km/s)]
 1.4911                                  [AV_min  (mag)]
 0.0000                                  [YAV_min (mag)]

# j     x_j(%)      Mini_j(%)     Mcor_j(%)     age_j(yr)     Z_j      (L/M)_j    YAV?  Mstars   component_j        a/Fe...       SSP_chi2r SSP_adev(%)   SSP_AV   SSP_x(%)
  1      3.4632     1.6045E-02    3.0872E-02    1.000000E+06  0.00400  1.114E-02    0   1.0000   age020_m42            0.0000     2.4701E+03    23.0923   4.0000    99.3397
  2      3.8670     4.9003E-03    9.4272E-03    3.160000E+06  0.00400  4.073E-02    0   0.9999   age045_m42            0.0000     1.7759E+02     5.5873   3.9009    95.2032
  3      2.0028     4.0794E-03    7.4470E-03    5.010000E+06  0.00400  2.534E-02    0   0.9488   age055_m42            0.0000     4.5751E+02    10.7780   4.0000    96.6172
  4      8.6756     3.5230E-02    6.0070E-02    1.000000E+07  0.00400  1.271E-02    0   0.8862   age070_m42            0.0000     2.1769E+02     7.0449   3.5048    93.5072
  5      0.5569     5.6692E-03    8.9159E-03    2.512000E+07  0.00400  5.070E-03    0   0.8174   age090_m42            0.0000     1.8609E+02     6.4916   3.3747    95.2755
  6      0.0000     0.0000E+00    0.0000E+00    4.000000E+07  0.00400  3.505E-03    0   0.7851   age104_m42            0.0000     1.3630E+02     5.1653   3.0700    98.1965
  7      0.0000     0.0000E+00    0.0000E+00    1.015200E+08  0.00400  2.268E-03    0   0.7207   age116_m42            0.0000     7.1477E+02    10.1471   3.1420   105.4754
  8      0.0000     0.0000E+00    0.0000E+00    2.861200E+08  0.00400  1.079E-03    0   0.6613   age125_m42            0.0000     7.7889E+02    10.9347   2.6548   107.4040
  9      0.0000     0.0000E+00    0.0000E+00    6.405400E+08  0.00400  5.077E-04    0   0.6197   age132_m42            0.0000     8.2046E+02    11.4305   2.2971   111.3703
 10      0.0000     0.0000E+00    0.0000E+00    9.047900E+08  0.00400  3.535E-04    0   0.6024   age135_m42            0.0000     5.7714E+02     9.7529   2.0504   110.8339
 11      0.0000     0.0000E+00    0.0000E+00    1.434000E+09  0.00400  1.910E-04    0   0.5716   age139_m42            0.0000     3.2945E+02     7.8162   1.5224   109.8004
 12     25.5455     1.3429E+01    1.4115E+01    2.500000E+09  0.00400  9.818E-05    0   0.5463   age150_m42            0.0000     1.3611E+02     5.4092   1.2300   105.5764
 13     40.8377     4.4675E+01    4.4938E+01    5.000000E+09  0.00400  4.718E-05    0   0.5228   age161_m42            0.0000     8.3625E+01     4.3973   1.0524   102.5245
 14      1.4647     3.4286E+00    3.2851E+00    1.100000E+10  0.00400  2.205E-05    0   0.4980   age185_m42            0.0000     1.4229E+02     5.4001   0.7898   100.5217
 15      0.0000     0.0000E+00    0.0000E+00    1.300000E+10  0.00400  1.883E-05    0   0.4927   age193_m42            0.0000     1.5252E+02     5.5526   0.7715   100.4124
 16      0.5505     1.4284E-03    2.7483E-03    1.000000E+06  0.02000  1.989E-02    0   1.0000   age020_m62            0.0000     2.2827E+03    22.1572   4.0000    99.6271
 17      0.9199     1.2587E-03    2.3873E-03    3.160000E+06  0.02000  3.772E-02    0   0.9858   age045_m62            0.0000     1.6432E+03    19.3101   4.0000    99.7292
 18      2.0662     3.3047E-03    5.9400E-03    5.010000E+06  0.02000  3.227E-02    0   0.9342   age055_m62            0.0000     2.8091E+02     7.9961   4.0000    96.2727
 19      0.7587     3.8730E-03    6.5211E-03    1.000000E+07  0.02000  1.011E-02    0   0.8751   age070_m62            0.0000     4.7091E+02    11.0445   3.5048    90.6620
 20      0.0000     0.0000E+00    0.0000E+00    2.512000E+07  0.02000  4.206E-03    0   0.8099   age090_m62            0.0000     3.1726E+02     9.1368   3.4413    91.5526
 21      0.0000     0.0000E+00    0.0000E+00    4.000000E+07  0.02000  3.373E-03    0   0.7799   age104_m62            0.0000     2.0186E+02     5.4676   3.2942    99.4576
 22      0.0000     0.0000E+00    0.0000E+00    1.015200E+08  0.02000  1.878E-03    0   0.7221   age116_m62            0.0000     6.2523E+02     9.3217   3.1580   106.3248
 23      0.0000     0.0000E+00    0.0000E+00    2.861200E+08  0.02000  8.869E-04    0   0.6700   age125_m62            0.0000     1.1797E+03    13.4341   2.6785   112.3252
 24      0.0000     0.0000E+00    0.0000E+00    6.405400E+08  0.02000  3.657E-04    0   0.6322   age132_m62            0.0000     8.7134E+02    12.1919   2.0029   115.6283
 25      0.0000     0.0000E+00    0.0000E+00    9.047900E+08  0.02000  2.312E-04    0   0.6152   age135_m62            0.0000     5.5399E+02     9.9881   1.6233   114.8454
 26      0.0000     0.0000E+00    0.0000E+00    1.434000E+09  0.02000  1.168E-04    0   0.5865   age139_m62            0.0000     2.2984E+02     6.6896   1.1848   109.6615
 27      0.0000     0.0000E+00    0.0000E+00    2.500000E+09  0.02000  5.505E-05    0   0.5610   age150_m62            0.0000     2.0810E+02     6.5513   0.8085   106.9277
 28      0.0000     0.0000E+00    0.0000E+00    5.000000E+09  0.02000  2.596E-05    0   0.5353   age161_m62            0.0000     3.5571E+02     8.4223   0.4815   106.9501
 29      5.1763     2.2854E+01    2.2439E+01    1.100000E+10  0.02000  1.169E-05    0   0.5103   age185_m62            0.0000     5.7752E+02    10.5146   0.1216   108.5145
 30      2.9169     1.5535E+01    1.5085E+01    1.300000E+10  0.02000  9.691E-06    0   0.5047   age193_m62            0.0000     6.2116E+02    10.8629   0.0760   108.7727
 31      0.0000     0.0000E+00    0.0000E+00    1.000000E+06  0.05000  2.651E-02    0   0.9998   age020_m72            0.0000     2.2748E+03    21.9190   4.0000   100.7451
 32      1.7163     1.8389E-03    3.3885E-03    3.160000E+06  0.05000  4.817E-02    0   0.9577   age045_m72            0.0000     1.0721E+03    15.6586   4.0000   100.5375
 33      0.0000     0.0000E+00    0.0000E+00    5.010000E+06  0.05000  3.101E-02    0   0.9147   age055_m72            0.0000     3.2848E+02     9.3942   4.0000    94.9494
 34      0.0000     0.0000E+00    0.0000E+00    1.000000E+07  0.05000  8.954E-03    0   0.8524   age070_m72            0.0000     7.2217E+02    13.0842   4.0000    99.3749
 35      0.0000     0.0000E+00    0.0000E+00    2.512000E+07  0.05000  4.207E-03    0   0.7902   age090_m72            0.0000     1.9301E+02     5.8362   3.9726    95.0871
 36      0.0000     0.0000E+00    0.0000E+00    4.000000E+07  0.05000  3.198E-03    0   0.7618   age104_m72            0.0000     4.0885E+02     7.3201   3.5144   102.4309
 37      0.0000     0.0000E+00    0.0000E+00    1.015200E+08  0.05000  1.716E-03    0   0.7092   age116_m72            0.0000     7.2875E+02    10.0795   3.2550   106.2781
 38      0.0000     0.0000E+00    0.0000E+00    2.861200E+08  0.05000  7.047E-04    0   0.6618   age125_m72            0.0000     1.1408E+03    13.3408   2.4803   112.7197
 39      0.0000     0.0000E+00    0.0000E+00    6.405400E+08  0.05000  2.633E-04    0   0.6253   age132_m72            0.0000     6.8979E+02    11.0710   1.6303   115.0179
 40      0.0000     0.0000E+00    0.0000E+00    9.047900E+08  0.05000  1.484E-04    0   0.6088   age135_m72            0.0000     3.6249E+02     8.5457   1.1326   110.2564
 41      0.0000     0.0000E+00    0.0000E+00    1.434000E+09  0.05000  7.827E-05    0   0.5847   age139_m72            0.0000     3.1757E+02     8.1991   0.7340   107.1219
 42      0.0000     0.0000E+00    0.0000E+00    2.500000E+09  0.05000  3.759E-05    0   0.5583   age150_m72            0.0000     3.9623E+02     8.9394   0.4067   106.6005
 43      0.0000     0.0000E+00    0.0000E+00    5.000000E+09  0.05000  1.548E-05    0   0.5320   age161_m72            0.0000     6.0446E+02    10.4984  -0.0001   106.4340
 44      0.0000     0.0000E+00    0.0000E+00    1.100000E+10  0.05000  6.532E-06    0   0.5070   age185_m72            0.0000     9.2713E+02    12.6938  -0.3746   106.5993
 45      0.0000     0.0000E+00    0.0000E+00    1.300000E+10  0.05000  5.316E-06    0   0.5018   age193_m72            0.0000     1.0724E+03    13.6039  -0.4884   106.7241


## Synthesis Results - Average & Chains ##

# j      x_j: min, <> & last-chain-values for 1 ...  7 chains
  1      3.4632      3.4436      3.3849      3.4551      3.4961      3.4440      3.4724      3.4366      3.4598
  2      3.8670      3.2969      3.3206      3.4813      3.3932      3.4339      3.3989      3.3046      3.4010
  3      2.0028      2.0024      2.0655      2.0972      1.9972      2.0289      1.8490      1.9379      2.0167
  4      8.6756      8.3918      8.6173      8.3558      8.4030      8.4406      8.5076      8.5641      8.4545
  5      0.5569      0.5086      0.4812      0.4594      0.6021      0.5073      0.5388      0.4853      0.5084
  6      0.0000      0.0779      0.0000      0.1191      0.1337      0.0214      0.0000      0.0000      0.0000
  7      0.0000      0.0318      0.0311      0.0000      0.0000      0.0000      0.0755      0.0000      0.0000
  8      0.0000      0.0258      0.0024      0.0000      0.0000      0.0000      0.0000      0.0000      0.0000
  9      0.0000      0.0333      0.0000      0.0000      0.0000      0.0000      0.0000      0.0936      0.0406
 10      0.0000      0.0651      0.0000      0.0289      0.0651      0.0000      0.1246      0.1784      0.1716
 11      0.0000      0.1084      0.0467      0.0697      0.2521      0.1671      0.0763      0.0416      0.2016
 12     25.5455     25.7970     25.8952     26.0537     25.9363     26.0293     26.0134     26.1031     25.9808
 13     40.8377     39.6185     39.8142     39.9013     39.8533     39.7623     39.7373     39.7716     40.0350
 14      1.4647      1.5169      1.5921      1.5083      1.5696      1.3475      1.4332      1.5333      1.4080
 15      0.0000      0.2723      0.1448      0.1813      0.1122      0.2453      0.2922      0.0427      0.2002
 16      0.5505      0.7059      0.6103      0.6598      0.6593      0.6423      0.7252      0.7023      0.6787
 17      0.9199      1.0030      1.0024      0.9683      1.0257      1.0272      1.0226      0.9939      1.0145
 18      2.0662      1.9746      1.9535      2.0887      1.8750      2.1084      2.0928      2.0136      1.8533
 19      0.7587      0.7592      0.7113      0.5995      0.7794      0.6684      0.6342      0.8126      0.7628
 20      0.0000      0.0192      0.0000      0.0000      0.0000      0.0000      0.0000      0.0000      0.0000
 21      0.0000      0.0280      0.0000      0.0000      0.0387      0.0000      0.0626      0.0112      0.0394
 22      0.0000      0.0232      0.0000      0.0000      0.0170      0.0159      0.0000      0.0000      0.0000
 23      0.0000      0.0147      0.0000      0.0189      0.0000      0.0000      0.0000      0.0000      0.0000
 24      0.0000      0.0289      0.0000      0.0000      0.0000      0.0000      0.0000      0.0400      0.0000
 25      0.0000      0.0354      0.0719      0.0000      0.0000      0.0000      0.1668      0.0000      0.0000
 26      0.0000      0.0714      0.0000      0.0000      0.0555      0.0029      0.0665      0.0752      0.0534
 27      0.0000      0.0809      0.1600      0.0066      0.0088      0.0062      0.0000      0.0000      0.0000
 28      0.0000      0.0702      0.0454      0.0291      0.0000      0.1975      0.0000      0.0000      0.0000
 29      5.1763      4.9956      4.6158      4.9365      4.9260      4.7296      4.9022      4.9353      4.7707
 30      2.9169      2.5350      2.6256      2.6274      2.5668      2.6454      2.4133      2.5565      2.5502
 31      0.0000      0.0290      0.0000      0.0000      0.0000      0.0000      0.0047      0.0539      0.0000
 32      1.7163      1.9828      1.9696      1.9786      1.9458      2.0413      2.0073      1.9674      2.0086
 33      0.0000      0.0537      0.2762      0.0844      0.0126      0.0000      0.0140      0.0000      0.0000
 34      0.0000      0.0145      0.0000      0.0000      0.0000      0.0000      0.0000      0.0000      0.0902
 35      0.0000      0.0183      0.0000      0.0000      0.0000      0.0951      0.0343      0.0000      0.0000
 36      0.0000      0.0242      0.0000      0.0264      0.0502      0.0000      0.0000      0.0000      0.0000
 37      0.0000      0.0231      0.0000      0.0607      0.0176      0.0000      0.0000      0.0000      0.0000
 38      0.0000      0.0259      0.0000      0.0000      0.0000      0.0000      0.0000      0.0000      0.0000
 39      0.0000      0.0509      0.1724      0.0436      0.0288      0.0282      0.0000      0.0437      0.0597
 40      0.0000      0.0933      0.0024      0.0000      0.0000      0.0000      0.0000      0.1295      0.0000
 41      0.0000      0.0613      0.0000      0.0434      0.0000      0.0000      0.0000      0.0000      0.1058
 42      0.0000      0.0749      0.1888      0.1042      0.0907      0.2043      0.1708      0.1608      0.0000
 43      0.0000      0.2668      0.4017      0.2401      0.2905      0.3500      0.2737      0.2306      0.3023
 44      0.0000      0.1987      0.2011      0.2159      0.2158      0.2082      0.2908      0.2328      0.2035
 45      0.0000      0.1020      0.1235      0.0923      0.1024      0.1203      0.1493      0.1088      0.1640

# j      m_j: min, <> & last-chain-values for 1 ...  7 chains
  1  3.0872E-02  3.0454E-02  3.0031E-02  3.0519E-02  3.0965E-02  3.0452E-02  3.0680E-02  3.0485E-02  3.0705E-02
  2  9.4272E-03  7.9738E-03  8.0566E-03  8.4095E-03  8.2190E-03  8.3039E-03  8.2128E-03  8.0169E-03  8.2546E-03
  3  7.4470E-03  7.3865E-03  7.6436E-03  7.7267E-03  7.3785E-03  7.4830E-03  6.8142E-03  7.1706E-03  7.4654E-03
  4  6.0070E-02  5.7644E-02  5.9382E-02  5.7327E-02  5.7808E-02  5.7970E-02  5.8385E-02  5.9009E-02  5.8279E-02
  5  8.9159E-03  8.0790E-03  7.6679E-03  7.2879E-03  9.5771E-03  8.0563E-03  8.5495E-03  7.7318E-03  8.1028E-03
  6  0.0000E+00  1.7192E-03  0.0000E+00  2.6255E-03  2.9553E-03  4.7284E-04  0.0000E+00  0.0000E+00  0.0000E+00
  7  0.0000E+00  9.9404E-04  9.7747E-04  0.0000E+00  0.0000E+00  0.0000E+00  2.3624E-03  0.0000E+00  0.0000E+00
  8  0.0000E+00  1.5553E-03  1.4328E-04  0.0000E+00  0.0000E+00  0.0000E+00  0.0000E+00  0.0000E+00  0.0000E+00
  9  0.0000E+00  4.0063E-03  0.0000E+00  0.0000E+00  0.0000E+00  0.0000E+00  0.0000E+00  1.1289E-02  4.8967E-03
 10  0.0000E+00  1.0921E-02  0.0000E+00  4.8489E-03  1.0943E-02  0.0000E+00  2.0900E-02  3.0043E-02  2.8903E-02
 11  0.0000E+00  3.1965E-02  1.3809E-02  2.0533E-02  7.4444E-02  4.9258E-02  2.2469E-02  1.2304E-02  5.9651E-02
 12  1.4115E+01  1.4141E+01  1.4241E+01  1.4265E+01  1.4239E+01  1.4266E+01  1.4247E+01  1.4353E+01  1.4292E+01
 13  4.4938E+01  4.3250E+01  4.3603E+01  4.3506E+01  4.3572E+01  4.3401E+01  4.3339E+01  4.3551E+01  4.3859E+01
 14  3.2851E+00  3.3752E+00  3.5538E+00  3.3519E+00  3.4978E+00  2.9978E+00  3.1858E+00  3.4221E+00  3.1439E+00
 15  0.0000E+00  7.0191E-01  3.7448E-01  4.6684E-01  2.8971E-01  6.3231E-01  7.5261E-01  1.1039E-01  5.1783E-01
 16  2.7483E-03  3.4964E-03  3.0328E-03  3.2643E-03  3.2705E-03  3.1811E-03  3.5886E-03  3.4894E-03  3.3734E-03
 17  2.3873E-03  2.5825E-03  2.5891E-03  2.4902E-03  2.6449E-03  2.6444E-03  2.6303E-03  2.5668E-03  2.6213E-03
 18  5.9400E-03  5.6316E-03  5.5893E-03  5.9498E-03  5.3557E-03  6.0123E-03  5.9631E-03  5.7606E-03  5.3044E-03
 19  6.5211E-03  6.4744E-03  6.0850E-03  5.1058E-03  6.6562E-03  5.6987E-03  5.4034E-03  6.9505E-03  6.5274E-03
 20  0.0000E+00  3.6482E-04  0.0000E+00  0.0000E+00  0.0000E+00  0.0000E+00  0.0000E+00  0.0000E+00  0.0000E+00
 21  0.0000E+00  6.3826E-04  0.0000E+00  0.0000E+00  8.8230E-04  0.0000E+00  1.4254E-03  2.5651E-04  9.0099E-04
 22  0.0000E+00  8.8020E-04  0.0000E+00  0.0000E+00  6.4441E-04  6.0162E-04  0.0000E+00  0.0000E+00  0.0000E+00
 23  0.0000E+00  1.0934E-03  0.0000E+00  1.4084E-03  0.0000E+00  0.0000E+00  0.0000E+00  0.0000E+00  0.0000E+00
 24  0.0000E+00  4.9224E-03  0.0000E+00  0.0000E+00  0.0000E+00  0.0000E+00  0.0000E+00  6.8269E-03  0.0000E+00
 25  0.0000E+00  9.2689E-03  1.8904E-02  0.0000E+00  0.0000E+00  0.0000E+00  4.3692E-02  0.0000E+00  0.0000E+00
 26  0.0000E+00  3.5320E-02  0.0000E+00  0.0000E+00  2.7510E-02  1.4418E-03  3.2842E-02  3.7333E-02  2.6500E-02
 27  0.0000E+00  8.1222E-02  1.6110E-01  6.5807E-03  8.8855E-03  6.1859E-03  0.0000E+00  0.0000E+00  0.0000E+00
 28  0.0000E+00  1.4259E-01  9.2460E-02  5.8957E-02  0.0000E+00  4.0107E-01  0.0000E+00  0.0000E+00  0.0000E+00
 29  2.2439E+01  2.1484E+01  1.9914E+01  2.1204E+01  2.1216E+01  2.0337E+01  2.1063E+01  2.1290E+01  2.0589E+01
 30  1.5085E+01  1.3007E+01  1.3514E+01  1.3464E+01  1.3189E+01  1.3571E+01  1.2370E+01  1.3157E+01  1.3131E+01
 31  0.0000E+00  1.0770E-04  0.0000E+00  0.0000E+00  0.0000E+00  0.0000E+00  1.7534E-05  2.0076E-04  0.0000E+00
 32  3.3885E-03  3.8836E-03  3.8702E-03  3.8707E-03  3.8169E-03  3.9977E-03  3.9281E-03  3.8654E-03  3.9482E-03
 33  0.0000E+00  1.5609E-04  8.0507E-04  2.4499E-04  3.6545E-05  0.0000E+00  4.0512E-05  0.0000E+00  0.0000E+00
 34  0.0000E+00  1.3620E-04  0.0000E+00  0.0000E+00  0.0000E+00  0.0000E+00  0.0000E+00  0.0000E+00  8.4902E-04
 35  0.0000E+00  3.3868E-04  0.0000E+00  0.0000E+00  0.0000E+00  1.7600E-03  6.3364E-04  0.0000E+00  0.0000E+00
 36  0.0000E+00  5.6817E-04  0.0000E+00  6.1835E-04  1.1800E-03  0.0000E+00  0.0000E+00  0.0000E+00  0.0000E+00
 37  0.0000E+00  9.3945E-04  0.0000E+00  2.4669E-03  7.1954E-04  0.0000E+00  0.0000E+00  0.0000E+00  0.0000E+00
 38  0.0000E+00  2.3998E-03  0.0000E+00  0.0000E+00  0.0000E+00  0.0000E+00  0.0000E+00  0.0000E+00  0.0000E+00
 39  0.0000E+00  1.1900E-02  4.0457E-02  1.0194E-02  6.7521E-03  6.6058E-03  0.0000E+00  1.0250E-02  1.4024E-02
 40  0.0000E+00  3.7705E-02  9.9031E-04  0.0000E+00  0.0000E+00  0.0000E+00  0.0000E+00  5.2485E-02  0.0000E+00
 41  0.0000E+00  4.5140E-02  0.0000E+00  3.1885E-02  0.0000E+00  0.0000E+00  0.0000E+00  0.0000E+00  7.8139E-02
 42  0.0000E+00  1.0962E-01  2.7710E-01  1.5231E-01  1.3292E-01  2.9885E-01  2.4973E-01  2.3607E-01  0.0000E+00
 43  0.0000E+00  9.0342E-01  1.3645E+00  8.1180E-01  9.8508E-01  1.1848E+00  9.2587E-01  7.8306E-01  1.0271E+00
 44  0.0000E+00  1.5191E+00  1.5423E+00  1.6491E+00  1.6524E+00  1.5915E+00  2.2219E+00  1.7857E+00  1.5617E+00
 45  0.0000E+00  9.4813E-01  1.1524E+00  8.5709E-01  9.5412E-01  1.1188E+00  1.3867E+00  1.0153E+00  1.5301E+00

# AV, chi2 & Mass for <> & i_chain = 1 ...  7 solutions
AV       1.4911      1.4866      1.4863      1.4863      1.4874      1.4862      1.4869      1.4866      1.4879
chi2 2.7817E+00  2.7846E+00  2.7737E+00  2.7759E+00  2.7788E+00  2.7764E+00  2.7768E+00  2.7807E+00  2.7772E+00
Mass 3.2462E-10  3.2521E-10  3.2406E-10  3.2549E-10  3.2510E-10  3.2511E-10  3.2568E-10  3.2423E-10  3.2464E-10
 -21.00                                  [v0_min (km/s) before EX0s...]
  63.18                                  [vd_min (km/s) before EX0s...]


## Synthetic spectrum (Best Model) ##l_obs f_obs f_syn wei
 3070    [Nl_obs]
 3359.00    0.00000   0.48785   -2.000
 3360.00    0.09619   0.47031   -1.000
 3361.00    0.24693   0.47340   -1.000
 3362.00    0.31239   0.49647   -1.000
 3363.00    0.36019   0.52488   -1.000
 3364.00    0.35750   0.54211   -1.000
 3365.00    0.34773   0.54044   -1.000
 3366.00    0.39063   0.52375   -1.000
 3367.00    0.36396   0.50284   -1.000
 3368.00    0.36215   0.48825   -1.000
 3369.00    0.41520   0.48278   -1.000
 3370.00    0.38647   0.48129   -1.000
 3371.00    0.35018   0.47874   -1.000
 3372.00    0.35225   0.47975   -1.000
 3373.00    0.34655   0.49215   -1.000
 3374.00    0.36732   0.51599   -1.000
 3375.00    0.43248   0.54273   -1.000
 3376.00    0.48558   0.55594   -1.000
 3377.00    0.45689   0.54810   -1.000
 3378.00    0.38853   0.52767   -1.000
 3379.00    0.39747   0.50849   -1.000
 3380.00    0.41412   0.50253   -1.000
 3381.00    0.37710   0.51141   -1.000
 3382.00    0.37266   0.52755   -1.000
 3383.00    0.40480   0.54142   -1.000
 3384.00    0.41659   0.55170   -1.000
 3385.00    0.41337   0.56044   -1.000
 3386.00    0.44044   0.56439   -1.000
 3387.00    0.48299   0.56243   -1.000
 3388.00    0.46849   0.55883   -1.000
 3389.00    0.45801   0.55596   -1.000
 3390.00    0.50170   0.55145   57.356
 3391.00    0.47421   0.54281   -1.000
 3392.00    0.44936   0.53344   -1.000
 3393.00    0.45170   0.53208   -1.000
 3394.00    0.45339   0.54314   -1.000
 3395.00    0.46809   0.56141   -1.000
 3396.00    0.47601   0.57924   -1.000
 3397.00    0.48820   0.59233   -1.000
 3398.00    0.48443   0.59763   -1.000
 3399.00    0.52086   0.59423   -1.000
 3400.00    0.55629   0.58530   45.787
 3401.00    0.53830   0.57305   45.672
 3402.00    0.50422   0.55899   46.833
 3403.00    0.47248   0.54857   -1.000
 3404.00    0.47759   0.54412   -1.000
 3405.00    0.47703   0.54123   -1.000
 3406.00    0.48268   0.53603   50.561
 3407.00    0.50405   0.53065   51.105
 3408.00    0.48256   0.53027   51.607
 3409.00    0.44712   0.53698   -1.000
 3410.00    0.47782   0.54468   -1.000
 3411.00    0.49562   0.54528   51.243
 3412.00    0.42986   0.53837   -1.000
 3413.00    0.41383   0.53028   -1.000
 3414.00    0.47054   0.52853   -1.000
 3415.00    0.47980   0.53520   53.120
 3416.00    0.46967   0.54785   -1.000
 3417.00    0.50903   0.56298   50.640
 3418.00    0.53809   0.57805   48.346
 3419.00    0.53027   0.58937   45.980
 3420.00    0.52875   0.59235   44.656
 3421.00    0.52287   0.58653   44.436
 3422.00    0.51935   0.57735   44.398
 3423.00    0.52748   0.57054   45.154
 3424.00    0.51645   0.56840   46.353
 3425.00    0.52656   0.57025   46.270
 3426.00    0.59372   0.57580   44.970
 3427.00    0.60815   0.58687   44.228
 3428.00    0.53233   0.60263   -1.000
 3429.00    0.50850   0.61307   -1.000
 3430.00    0.53057   0.61033   -1.000
 3431.00    0.53571   0.59674   -1.000
 3432.00    0.56392   0.58217   -1.000
 3433.00    0.58727   0.57590   86.390
 3434.00    0.56938   0.57886   44.151
 3435.00    0.52390   0.58449   -1.000
 3436.00    0.51472   0.58443   -1.000
 3437.00    0.53584   0.57522   -1.000
 3438.00    0.53295   0.55677   44.901
 3439.00    0.53705   0.53175   47.289
 3440.00    0.52565   0.50633   50.555
 3441.00    0.49687   0.49068   53.694
 3442.00    0.48646   0.48986   54.887
 3443.00    0.48176   0.49944   54.814
 3444.00    0.50001   0.51227   53.662
 3445.00    0.51611   0.52635   51.133
 3446.00    0.51592   0.54404   48.313
 3447.00    0.53673   0.56503   46.105
 3448.00    0.55166   0.58429   76.204
 3449.00    0.57320   0.59349   -1.000
 3450.00    0.60746   0.58794   -1.000
 3451.00    0.60063   0.57243   -1.000
 3452.00    0.55937   0.55698  363.595
 3453.00    0.55059   0.55147  363.595
 3454.00    0.56882   0.55630   -1.000
 3455.00    0.58941   0.56383   -1.000
 3456.00    0.60516   0.56486   -1.000
 3457.00    0.58046   0.55572   -1.000
 3458.00    0.56751   0.54220   -1.000
 3459.00    0.58558   0.53008   -1.000
 3460.00    0.59577   0.52278   -1.000
 3461.00    0.55997   0.52632   44.567
 3462.00    0.54067   0.54131   74.685
 3463.00    0.55253   0.55616  363.595
 3464.00    0.54468   0.56169   -1.000
 3465.00    0.56108   0.56136  363.595
 3466.00    0.58117   0.56223   -1.000
 3467.00    0.56573   0.56860  363.595
 3468.00    0.57648   0.57747  363.595
 3469.00    0.60610   0.58416   -1.000
 3470.00    0.60139   0.58536   -1.000
 3471.00    0.58679   0.57896  363.595
 3472.00    0.56944   0.56578  363.595
 3473.00    0.55095   0.54772  363.595
 3474.00    0.52868   0.52828  363.595
 3475.00    0.53306   0.51632   87.524
 3476.00    0.54060   0.51864   45.217
 3477.00    0.53286   0.53230   45.686
 3478.00    0.54400   0.54921   75.344
 3479.00    0.60114   0.56256   -1.000
 3480.00    0.61343   0.56879   -1.000
 3481.00    0.56889   0.56719  363.595
 3482.00    0.56718   0.55991  363.595
 3483.00    0.58909   0.55363   -1.000
 3484.00    0.61337   0.55612   -1.000
 3485.00    0.62575   0.56938   -1.000
 3486.00    0.62099   0.58457   -1.000
 3487.00    0.61805   0.58789   -1.000
 3488.00    0.63045   0.57575   -1.000
 3489.00    0.59352   0.55656   -1.000
 3490.00    0.56851   0.54402   -1.000
 3491.00    0.58159   0.54440   -1.000
 3492.00    0.57171   0.55143   -1.000
 3493.00    0.58809   0.55527   -1.000
 3494.00    0.59012   0.55092   -1.000
 3495.00    0.60053   0.54218   -1.000
 3496.00    0.61145   0.53898   -1.000
 3497.00    0.58838   0.54937   -1.000
 3498.00    0.58681   0.56843   -1.000
 3499.00    0.60330   0.58132   -1.000
 3500.00    0.61521   0.58460   -1.000
 3501.00    0.64029   0.58637   -1.000
 3502.00    0.65107   0.59087   -1.000
 3503.00    0.64660   0.59374   -1.000
 3504.00    0.63214   0.58885   -1.000
 3505.00    0.61027   0.58006   -1.000
 3506.00    0.58263   0.57524  359.113
 3507.00    0.57778   0.57545  361.018
 3508.00    0.59146   0.57544   -1.000
 3509.00    0.60906   0.57052   -1.000
 3510.00    0.62914   0.56222   -1.000
 3511.00    0.62815   0.55408   -1.000
 3512.00    0.59216   0.54625   -1.000
 3513.00    0.55854   0.54019   -1.000
 3514.00    0.54249   0.54369  363.595
 3515.00    0.58362   0.55989   -1.000
 3516.00    0.60518   0.58228   -1.000
 3517.00    0.60903   0.59905   -1.000
 3518.00    0.60429   0.60158  351.782
 3519.00    0.61493   0.59027   -1.000
 3520.00    0.60758   0.57179   -1.000
 3521.00    0.58371   0.55459   -1.000
 3522.00    0.56638   0.54043   -1.000
 3523.00    0.54872   0.52678   -1.000
 3524.00    0.54555   0.51618   88.123
 3525.00    0.52090   0.51439   44.780
 3526.00    0.51930   0.52624   45.545
 3527.00    0.54353   0.54910   74.978
 3528.00    0.56433   0.57263   -1.000
 3529.00    0.60090   0.58717   -1.000
 3530.00    0.60179   0.59054   -1.000
 3531.00    0.58914   0.58870  363.595
 3532.00    0.59582   0.58920  363.595
 3533.00    0.59930   0.59437  363.595
 3534.00    0.62460   0.60114   -1.000
 3535.00    0.60541   0.60552  362.379
 3536.00    0.58667   0.60785   -1.000
 3537.00    0.61229   0.61197  353.495
 3538.00    0.61468   0.61829  352.940
 3539.00    0.60717   0.62155   -1.000
 3540.00    0.61277   0.61854  347.578
 3541.00    0.60537   0.61482   -1.000
 3542.00    0.61445   0.61691  357.386
 3543.00    0.63465   0.62336   -1.000
 3544.00    0.65680   0.62856   -1.000
 3545.00    0.64483   0.62797   -1.000
 3546.00    0.63606   0.62377   -1.000
 3547.00    0.63044   0.62115   -1.000
 3548.00    0.60935   0.62203   -1.000
 3549.00    0.59940   0.62463   -1.000
 3550.00    0.58121   0.62523   -1.000
 3551.00    0.58859   0.62123   -1.000
 3552.00    0.60575   0.61300  363.595
 3553.00    0.61220   0.60534  363.595
 3554.00    0.60730   0.60256  363.595
 3555.00    0.60615   0.60443  363.595
 3556.00    0.62493   0.60681   -1.000
 3557.00    0.64261   0.60547   -1.000
 3558.00    0.61927   0.60141   -1.000
 3559.00    0.59590   0.60020  363.595
 3560.00    0.61476   0.60625  363.595
 3561.00    0.62018   0.61684  363.595
 3562.00    0.61930   0.62096  363.595
 3563.00    0.59725   0.60645   -1.000
 3564.00    0.55559   0.57543   -1.000
 3565.00    0.54123   0.54883   89.524
 3566.00    0.54114   0.53893   45.318
 3567.00    0.50982   0.53846   46.124
 3568.00    0.49572   0.53479   45.698
 3569.00    0.51726   0.52376   46.233
 3570.00    0.50646   0.51575   47.511
 3571.00    0.50720   0.51939   47.320
 3572.00    0.51827   0.53005   45.533
 3573.00    0.54633   0.53955   72.709
 3574.00    0.56820   0.54471   -1.000
 3575.00    0.55290   0.54777  363.595
 3576.00    0.55039   0.55021  363.595
 3577.00    0.55343   0.54823  363.595
 3578.00    0.55163   0.53706   -1.000
 3579.00    0.50830   0.51773   93.167
 3580.00    0.49289   0.49943   47.562
 3581.00    0.49997   0.49036   50.865
 3582.00    0.48540   0.49083   52.571
 3583.00    0.48612   0.49275   52.841
 3584.00    0.49258   0.48741   53.543
 3585.00    0.47416   0.47817   55.087
 3586.00    0.45438   0.47479   56.457
 3587.00    0.45660   0.48185   55.599
 3588.00    0.47998   0.49919   52.693
 3589.00    0.50831   0.52336   50.002
 3590.00    0.52790   0.54838   46.635
 3591.00    0.55826   0.56665   71.988
 3592.00    0.58106   0.57464  363.595
 3593.00    0.56718   0.57685   -1.000
 3594.00    0.55864   0.58170   -1.000
 3595.00    0.58379   0.59304   -1.000
 3596.00    0.59489   0.60658   -1.000
 3597.00    0.59689   0.61848   -1.000
 3598.00    0.61891   0.62769   -1.000
 3599.00    0.61385   0.63098   -1.000
 3600.00    0.61373   0.62401   -1.000
 3601.00    0.60464   0.60639  341.627
 3602.00    0.57034   0.58438   -1.000
 3603.00    0.55891   0.56683  363.595
 3604.00    0.55209   0.55993  363.595
 3605.00    0.53591   0.56135   -1.000
 3606.00    0.53891   0.56190   -1.000
 3607.00    0.54434   0.55553   -1.000
 3608.00    0.53938   0.54533  363.595
 3609.00    0.54656   0.54212  363.595
 3610.00    0.56289   0.55073   -1.000
 3611.00    0.56658   0.56280  363.595
 3612.00    0.56655   0.57200  363.595
 3613.00    0.56745   0.58039   -1.000
 3614.00    0.55439   0.59021   -1.000
 3615.00    0.55925   0.59655   -1.000
 3616.00    0.56533   0.58692   -1.000
 3617.00    0.55517   0.56112  363.595
 3618.00    0.53965   0.54098  363.595
 3619.00    0.52253   0.54268   90.245
 3620.00    0.52619   0.56225   70.952
 3621.00    0.55721   0.58604   -1.000
 3622.00    0.58468   0.60351   -1.000
 3623.00    0.59368   0.61471   -1.000
 3624.00    0.60631   0.62796   -1.000
 3625.00    0.63246   0.64764   -1.000
 3626.00    0.65023   0.66743   -1.000
 3627.00    0.65267   0.67668   -1.000
 3628.00    0.64220   0.66433   -1.000
 3629.00    0.60500   0.62972   -1.000
 3630.00    0.57295   0.58964   -1.000
 3631.00    0.53625   0.56426   -1.000
 3632.00    0.51676   0.56166   -1.000
 3633.00    0.55542   0.57424   -1.000
 3634.00    0.60558   0.58859   -1.000
 3635.00    0.59574   0.59719  363.595
 3636.00    0.59152   0.60396   -1.000
 3637.00    0.60099   0.61661   -1.000
 3638.00    0.62400   0.63429   -1.000
 3639.00    0.65068   0.64934  324.840
 3640.00    0.64475   0.65274  318.516
 3641.00    0.63052   0.64235   -1.000
 3642.00    0.61097   0.62368   -1.000
 3643.00    0.60645   0.60517  345.337
 3644.00    0.60645   0.59281   -1.000
 3645.00    0.56759   0.58519   -1.000
 3646.00    0.56401   0.57846   -1.000
 3647.00    0.59162   0.57429   -1.000
 3648.00    0.58198   0.57617  363.595
 3649.00    0.57585   0.58532   -1.000
 3650.00    0.57961   0.60129   -1.000
 3651.00    0.58841   0.62100   -1.000
 3652.00    0.61354   0.63900   -1.000
 3653.00    0.63386   0.65152   -1.000
 3654.00    0.65467   0.65878  317.969
 3655.00    0.64934   0.66517   -1.000
 3656.00    0.65272   0.67392   -1.000
 3657.00    0.67189   0.68179   -1.000
 3658.00    0.68243   0.68553  305.279
 3659.00    0.67528   0.68501  302.414
 3660.00    0.67114   0.68066  302.655
 3661.00    0.66197   0.67294   -1.000
 3662.00    0.64923   0.66370   -1.000
 3663.00    0.65327   0.65630  311.591
 3664.00    0.65783   0.65360  315.707
 3665.00    0.65397   0.65435  315.373
 3666.00    0.65769   0.65365  313.188
 3667.00    0.65498   0.64706  316.173
 3668.00    0.63419   0.63745  321.584
 3669.00    0.61001   0.63511   -1.000
 3670.00    0.60397   0.64429   -1.000
 3671.00    0.62671   0.65878   -1.000
 3672.00    0.66403   0.66878  314.112
 3673.00    0.66094   0.66988  310.099
 3674.00    0.65989   0.66371  309.503
 3675.00    0.66072   0.65193  309.777
 3676.00    0.63053   0.63688  314.254
 3677.00    0.63054   0.62148   -1.000
 3678.00    0.61914   0.60912   -1.000
 3679.00    0.60337   0.60359  343.601
 3680.00    0.61002   0.60599  348.190
 3681.00    0.60105   0.61451   -1.000
 3682.00    0.60832   0.62384   -1.000
 3683.00    0.62065   0.62739  327.186
 3684.00    0.61077   0.61966  328.870
 3685.00    0.60784   0.60209  339.350
 3686.00    0.61212   0.58671   -1.000
 3687.00    0.60045   0.58566   -1.000
 3688.00    0.60904   0.60187  363.595
 3689.00    0.61654   0.62790   -1.000
 3690.00    0.62104   0.65113   -1.000
 3691.00    0.63476   0.66154   -1.000
 3692.00    0.65427   0.66022  303.242
 3693.00    0.67440   0.65524   -1.000
 3694.00    0.65317   0.65053  315.110
 3695.00    0.65744   0.64659   -1.000
 3696.00    0.66397   0.64697   -1.000
 3697.00    0.65845   0.65707  311.585
 3698.00    0.67617   0.67641  304.968
 3699.00    0.68971   0.69552  295.837
 3700.00    0.69956   0.70120  289.878
 3701.00    0.70763   0.68399   -1.000
 3702.00    0.67885   0.64541   -1.000
 3703.00    0.63555   0.60008   -1.000
 3704.00    0.60331   0.56538   -1.000
 3705.00    0.58356   0.55291   -1.000
 3706.00    0.59814   0.56020   -1.000
 3707.00    0.60184   0.57433   -1.000
 3708.00    0.58609   0.58571  363.595
 3709.00    0.59988   0.59228  363.595
 3710.00    0.61199   0.59855   -1.000
 3711.00    0.63554   0.61256   -1.000
 3712.00    0.65805   0.63780   -1.000
 3713.00    0.66850   0.66706  301.502
 3714.00    0.68870   0.69080  290.071
 3715.00    0.69104   0.70153   -1.000
 3716.00    0.69284   0.69494  288.328
 3717.00    0.69364   0.67031   -1.000
 3718.00    0.66099   0.62658   -1.000
 3719.00    0.59833   0.57020   -1.000
 3720.00    0.53786   0.52413   -1.000
 3721.00    0.51387   0.50854   94.741
 3722.00    0.54164   0.52763   70.707
 3723.00    0.57093   0.57167  363.595
 3724.00    0.59006   0.61883   -1.000
 3725.00    0.59302   0.64645   -1.000
 3726.00    0.58561   0.65318   -1.000
 3727.00    0.58754   0.65549   -1.000
 3728.00    0.57771   0.66064   -1.000
 3729.00    0.60124   0.66175   -1.000
 3730.00    0.65320   0.64616  329.887
 3731.00    0.63573   0.60696   -1.000
 3732.00    0.60483   0.55266   -1.000
 3733.00    0.56117   0.50017   -1.000
 3734.00    0.50967   0.46662   45.977
 3735.00    0.49197   0.46422   50.008
 3736.00    0.48814   0.49282   49.996
 3737.00    0.51899   0.54217   46.502
 3738.00    0.57085   0.59917   68.852
 3739.00    0.62403   0.64782   -1.000
 3740.00    0.66754   0.67469  340.410
 3741.00    0.69177   0.67737   -1.000
 3742.00    0.67922   0.66109   -1.000
 3743.00    0.66232   0.63448   -1.000
 3744.00    0.62018   0.60690   -1.000
 3745.00    0.57909   0.58148  363.595
 3746.00    0.56401   0.55393   -1.000
 3747.00    0.53439   0.51998   94.965
 3748.00    0.49831   0.48638   45.700
 3749.00    0.49162   0.47391   47.666
 3750.00    0.52876   0.49629   75.130
 3751.00    0.59487   0.54599   -1.000
 3752.00    0.65940   0.60506   -1.000
 3753.00    0.69338   0.65851   -1.000
 3754.00    0.71288   0.69423   -1.000
 3755.00    0.73414   0.70237   -1.000
 3756.00    0.71152   0.68212   -1.000
 3757.00    0.64916   0.64778  325.183
 3758.00    0.59602   0.62140   -1.000
 3759.00    0.61041   0.61602  363.595
 3760.00    0.64594   0.62664   -1.000
 3761.00    0.66310   0.64048   -1.000
 3762.00    0.67978   0.65101   -1.000
 3763.00    0.68271   0.65655   -1.000
 3764.00    0.68544   0.65465   -1.000
 3765.00    0.68121   0.64364   -1.000
 3766.00    0.65803   0.62626   -1.000
 3767.00    0.64416   0.60594   -1.000
 3768.00    0.63884   0.58433   -1.000
 3769.00    0.62656   0.56582   -1.000
 3770.00    0.64142   0.56017   -1.000
 3771.00    0.64395   0.57682   -1.000
 3772.00    0.65674   0.61155   -1.000
 3773.00    0.70353   0.64651   -1.000
 3774.00    0.72807   0.67121   -1.000
 3775.00    0.72836   0.68819   -1.000
 3776.00    0.71395   0.70310   -1.000
 3777.00    0.72396   0.71997  303.201
 3778.00    0.74788   0.73882  300.948
 3779.00    0.75960   0.75674  294.193
 3780.00    0.77159   0.77048  285.469
 3781.00    0.78298   0.77877  280.807
 3782.00    0.77279   0.78216  279.052
 3783.00    0.76227   0.77828   -1.000
 3784.00    0.76383   0.76265  280.856
 3785.00    0.73014   0.73604  290.862
 3786.00    0.69297   0.70730   -1.000
 3787.00    0.69334   0.68586  329.430
 3788.00    0.68602   0.67549   -1.000
 3789.00    0.68864   0.67389   -1.000
 3790.00    0.68550   0.67538   -1.000
 3791.00    0.67198   0.67212  337.142
 3792.00    0.67616   0.65833   -1.000
 3793.00    0.66408   0.63454   -1.000
 3794.00    0.62971   0.60404   -1.000
 3795.00    0.61018   0.56958   -1.000
 3796.00    0.58853   0.53329   -1.000
 3797.00    0.56395   0.50427   -1.000
 3798.00    0.53925   0.50241   -1.000
 3799.00    0.56772   0.53659   -1.000
 3800.00    0.62798   0.59254   -1.000
 3801.00    0.66804   0.64997   -1.000
 3802.00    0.69534   0.69396  326.394
 3803.00    0.71877   0.71891  315.161
 3804.00    0.73550   0.72624  310.393
 3805.00    0.72768   0.72013  311.347
 3806.00    0.71582   0.71228  319.095
 3807.00    0.70954   0.71709  329.021
 3808.00    0.71696   0.73600   -1.000
 3809.00    0.75003   0.75702  318.530
 3810.00    0.78033   0.76494   -1.000
 3811.00    0.77104   0.75236   -1.000
 3812.00    0.73466   0.72374   -1.000
 3813.00    0.70152   0.69046   -1.000
 3814.00    0.67109   0.66627  360.176
 3815.00    0.64584   0.66072   -1.000
 3816.00    0.66313   0.66919  363.595
 3817.00    0.69871   0.67444   -1.000
 3818.00    0.69233   0.66433   -1.000
 3819.00    0.66219   0.64316   -1.000
 3820.00    0.64287   0.62900   -1.000
 3821.00    0.64886   0.63228   -1.000
 3822.00    0.66293   0.63980   -1.000
 3823.00    0.65585   0.63407   -1.000
 3824.00    0.61124   0.61475  363.595
 3825.00    0.58881   0.59420  100.293
 3826.00    0.59168   0.58235   46.451
 3827.00    0.56558   0.57933   46.874
 3828.00    0.55613   0.57877   46.305
 3829.00    0.57686   0.57343   45.546
 3830.00    0.58701   0.55848   45.325
 3831.00    0.57311   0.53264   46.506
 3832.00    0.54714   0.49890   49.287
 3833.00    0.52049   0.46503   -1.000
 3834.00    0.51043   0.44338   -1.000
 3835.00    0.50776   0.44088   -1.000
 3836.00    0.51902   0.45336   -1.000
 3837.00    0.53875   0.47248   -1.000
 3838.00    0.53256   0.49435   50.489
 3839.00    0.52223   0.52236   50.852
 3840.00    0.54742   0.56031   49.077
 3841.00    0.60228   0.60450   72.748
 3842.00    0.65701   0.64673   -1.000
 3843.00    0.68593   0.67894  363.595
 3844.00    0.70875   0.69818   -1.000
 3845.00    0.73431   0.71005   -1.000
 3846.00    0.73100   0.72004   -1.000
 3847.00    0.73576   0.72622   -1.000
 3848.00    0.73919   0.72503   -1.000
 3849.00    0.70929   0.72140   -1.000
 3850.00    0.70585   0.72295   -1.000
 3851.00    0.71431   0.73126   -1.000
 3852.00    0.71492   0.73946   -1.000
 3853.00    0.71857   0.73783   -1.000
 3854.00    0.70017   0.72612   -1.000
 3855.00    0.68806   0.71145   -1.000
 3856.00    0.68425   0.69638   -1.000
 3857.00    0.65807   0.68028   -1.000
 3858.00    0.64019   0.66625   95.965
 3859.00    0.64300   0.66334   44.671
 3860.00    0.63125   0.67808   45.973
 3861.00    0.65555   0.70495   -1.000
 3862.00    0.70183   0.72956   -1.000
 3863.00    0.73368   0.73999  357.749
 3864.00    0.76092   0.73895   -1.000
 3865.00    0.75189   0.73518   -1.000
 3866.00    0.72358   0.73293   -1.000
 3867.00    0.71288   0.73244   -1.000
 3868.00    0.71296   0.72893   -1.000
 3869.00    0.70782   0.71651   -1.000
 3870.00    0.68538   0.69540   -1.000
 3871.00    0.64885   0.67475   98.156
 3872.00    0.63868   0.66773   67.740
 3873.00    0.66552   0.68071   -1.000
 3874.00    0.69975   0.70514  363.595
 3875.00    0.70092   0.71899   -1.000
 3876.00    0.70597   0.71054  343.940
 3877.00    0.68752   0.69021  362.075
 3878.00    0.66054   0.67548   -1.000
 3879.00    0.66345   0.67233   -1.000
 3880.00    0.67219   0.67365  363.595
 3881.00    0.65312   0.67191   -1.000
 3882.00    0.63390   0.66660   -1.000
 3883.00    0.65741   0.65771  363.595
 3884.00    0.66486   0.63936   -1.000
 3885.00    0.63634   0.60528   -1.000
 3886.00    0.61495   0.56126   -1.000
 3887.00    0.58691   0.52412   -1.000
 3888.00    0.56447   0.50956   -1.000
 3889.00    0.57663   0.52616   -1.000
 3890.00    0.62201   0.56939   -1.000
 3891.00    0.66616   0.62158   -1.000
 3892.00    0.69624   0.66082   -1.000
 3893.00    0.71761   0.68032   -1.000
 3894.00    0.72285   0.69037   -1.000
 3895.00    0.70956   0.70259  302.975
 3896.00    0.72480   0.71788  299.261
 3897.00    0.75844   0.72878   -1.000
 3898.00    0.75392   0.73324   -1.000
 3899.00    0.74843   0.73748   -1.000
 3900.00    0.74877   0.74532  293.985
 3901.00    0.76137   0.75253  290.225
 3902.00    0.77254   0.75220   -1.000
 3903.00    0.75763   0.74240   -1.000
 3904.00    0.74218   0.73050   -1.000
 3905.00    0.72565   0.72744  315.247
 3906.00    0.72392   0.73931   -1.000
 3907.00    0.74366   0.76485   -1.000
 3908.00    0.77159   0.79401   -1.000
 3909.00    0.78961   0.81515   -1.000
 3910.00    0.80918   0.82662   -1.000
 3911.00    0.84395   0.83131   -1.000
 3912.00    0.83861   0.82961  266.938
 3913.00    0.82170   0.82267  267.221
 3914.00    0.82114   0.81356  271.406
 3915.00    0.82032   0.80483   -1.000
 3916.00    0.78650   0.79692  282.781
 3917.00    0.78617   0.78668  286.389
 3918.00    0.79758   0.77182   -1.000
 3919.00    0.76593   0.75502   -1.000
 3920.00    0.73929   0.74243  316.255
 3921.00    0.72516   0.73943   -1.000
 3922.00    0.72813   0.74440   -1.000
 3923.00    0.74306   0.74852  326.493
 3924.00    0.74406   0.74227  323.737
 3925.00    0.72150   0.72176  331.636
 3926.00    0.68966   0.68827  354.251
 3927.00    0.64075   0.64525  363.595
 3928.00    0.56606   0.59750   -1.000
 3929.00    0.51152   0.54617   51.652
 3930.00    0.44263   0.49065   60.522
 3931.00    0.37793   0.43414   -1.000
 3932.00    0.33368   0.38543   -1.000
 3933.00    0.30864   0.36229   -1.000
 3934.00    0.30098   0.37743   -1.000
 3935.00    0.33447   0.42445   -1.000
 3936.00    0.39287   0.48701   -1.000
 3937.00    0.46353   0.55212   -1.000
 3938.00    0.54822   0.61031   -1.000
 3939.00    0.60159   0.65707   -1.000
 3940.00    0.62876   0.68935   -1.000
 3941.00    0.65654   0.70575   -1.000
 3942.00    0.68398   0.71121   -1.000
 3943.00    0.68912   0.71452   -1.000
 3944.00    0.69729   0.72431   -1.000
 3945.00    0.72517   0.74128   -1.000
 3946.00    0.75893   0.75704  314.619
 3947.00    0.75751   0.76664  302.250
 3948.00    0.75797   0.77448   -1.000
 3949.00    0.78722   0.78384  293.933
 3950.00    0.80408   0.79040   -1.000
 3951.00    0.82169   0.79212   -1.000
 3952.00    0.80991   0.79403   -1.000
 3953.00    0.80173   0.79855  281.417
 3954.00    0.83045   0.79993   -1.000
 3955.00    0.82300   0.79274   -1.000
 3956.00    0.77671   0.78297  278.092
 3957.00    0.76234   0.77896   -1.000
 3958.00    0.78470   0.77511  287.084
 3959.00    0.78429   0.75747   -1.000
 3960.00    0.74269   0.72140   -1.000
 3961.00    0.69719   0.67722   -1.000
 3962.00    0.65634   0.63822   -1.000
 3963.00    0.61192   0.60406   -1.000
 3964.00    0.56209   0.56367  104.027
 3965.00    0.50539   0.50629   48.578
 3966.00    0.42751   0.43439   58.018
 3967.00    0.34792   0.36918   71.441
 3968.00    0.29843   0.33299   84.377
 3969.00    0.30832   0.33645   87.235
 3970.00    0.35173   0.37656   77.019
 3971.00    0.40620   0.43996   63.331
 3972.00    0.49839   0.51054   52.430
 3973.00    0.57099   0.57886   70.071
 3974.00    0.61629   0.63979   -1.000
 3975.00    0.65886   0.69165   -1.000
 3976.00    0.71923   0.73546   -1.000
 3977.00    0.77357   0.77358  291.274
 3978.00    0.79788   0.80781   -1.000
 3979.00    0.84757   0.83300   -1.000
 3980.00    0.86506   0.84381   -1.000
 3981.00    0.84669   0.84302  249.469
 3982.00    0.84583   0.84065  252.466
 3983.00    0.85031   0.84510  254.866
 3984.00    0.85482   0.85548  251.568
 3985.00    0.86671   0.86718  246.363
 3986.00    0.88866   0.87909  241.843
 3987.00    0.89385   0.89144  237.664
 3988.00    0.89971   0.90238  233.953
 3989.00    0.90827   0.91018  232.926
 3990.00    0.91883   0.91723  232.954
 3991.00    0.93524   0.92630  229.912
 3992.00    0.93785   0.93411  224.393
 3993.00    0.93822   0.93412  222.002
 3994.00    0.95918   0.92450   -1.000
 3995.00    0.95555   0.90948   -1.000
 3996.00    0.90970   0.89734   -1.000
 3997.00    0.88254   0.89662   -1.000
 3998.00    0.89627   0.90863  238.948
 3999.00    0.92817   0.92778  231.220
 4000.00    0.96092   0.94687  221.541
 4001.00    0.96615   0.95797  215.598
 4002.00    0.96976   0.95465   -1.000
 4003.00    0.96727   0.93516   -1.000
 4004.00    0.93435   0.90651   -1.000
 4005.00    0.90168   0.88681   -1.000
 4006.00    0.90560   0.89206   -1.000
 4007.00    0.93463   0.91716   -1.000
 4008.00    0.95762   0.94442  221.843
 4009.00    0.96117   0.96208  215.370
 4010.00    0.97237   0.97000  212.835
 4011.00    1.02762   0.97327   -1.000
 4012.00    1.01327   0.97589   -1.000
 4013.00    0.98846   0.97952  212.737
 4014.00    0.99380   0.98266  212.846
 4015.00    0.99253   0.98353  210.647
 4016.00    1.00802   0.98341   -1.000
 4017.00    1.00598   0.98596   -1.000
 4018.00    0.99173   0.99245  212.902
 4019.00    0.98846   0.99914  210.931
 4020.00    1.01221   1.00162  209.021
 4021.00    1.03431   0.99851   -1.000
 4022.00    1.01982   0.99153   -1.000
 4023.00    0.99674   0.98274   -1.000
 4024.00    0.98721   0.97715  215.807
 4025.00    0.98789   0.98154  214.817
 4026.00    1.02146   0.99584   -1.000
 4027.00    1.05601   1.00767   -1.000
 4028.00    1.05125   1.00118   -1.000
 4029.00    1.01746   0.97483   -1.000
 4030.00    0.96056   0.94155   -1.000
 4031.00    0.93476   0.91640   -1.000
 4032.00    0.93681   0.90762   -1.000
 4033.00    0.94292   0.91573   -1.000
 4034.00    0.96703   0.93851   -1.000
 4035.00    1.01568   0.97215   -1.000
 4036.00    1.04421   1.00966   -1.000
 4037.00    1.05620   1.03819   -1.000
 4038.00    1.05157   1.04627  196.589
 4039.00    1.03206   1.03741  197.790
 4040.00    1.03041   1.02577  202.314
 4041.00    1.03213   1.01573   -1.000
 4042.00    1.02300   0.99744   -1.000
 4043.00    0.99272   0.95997   -1.000
 4044.00    0.93594   0.91420   -1.000
 4045.00    0.89876   0.89141  247.308
 4046.00    0.92006   0.90711   -1.000
 4047.00    0.97300   0.94903   -1.000
 4048.00    0.99991   0.99339  218.340
 4049.00    1.00295   1.02271   -1.000
 4050.00    1.03521   1.03298  203.382
 4051.00    1.05401   1.02807   -1.000
 4052.00    1.03920   1.01324   -1.000
 4053.00    1.00655   0.99671  211.146
 4054.00    0.98876   0.98572  215.813
 4055.00    0.99896   0.97849   -1.000
 4056.00    1.00000   0.97238   -1.000
 4057.00    0.99029   0.97201   -1.000
 4058.00    0.98068   0.98250  222.423
 4059.00    0.98374   0.99874   -1.000
 4060.00    1.01937   1.00268   -1.000
 4061.00    1.03258   0.98247   -1.000
 4062.00    0.99153   0.94779   -1.000
 4063.00    0.93828   0.91938   -1.000
 4064.00    0.94910   0.91061   -1.000
 4065.00    0.97465   0.91940   -1.000
 4066.00    0.98327   0.93730   -1.000
 4067.00    0.98520   0.95775   -1.000
 4068.00    1.01399   0.97297   -1.000
 4069.00    1.06071   0.97205   -1.000
 4070.00    1.04545   0.95486   -1.000
 4071.00    0.98586   0.93798   -1.000
 4072.00    0.94692   0.93719  224.396
 4073.00    0.99352   0.94729   -1.000
 4074.00    1.02116   0.94708   -1.000
 4075.00    0.96596   0.92711   -1.000
 4076.00    0.88166   0.90069   -1.000
 4077.00    0.84972   0.88922   -1.000
 4078.00    0.85778   0.90417   -1.000
 4079.00    0.91659   0.93952   -1.000
 4080.00    0.99210   0.97570   -1.000
 4081.00    1.03909   0.99264   -1.000
 4082.00    1.03088   0.98675   -1.000
 4083.00    1.00158   0.97083   -1.000
 4084.00    0.97129   0.96285  215.830
 4085.00    0.97136   0.97211  216.638
 4086.00    0.99507   0.99464  211.730
 4087.00    1.04664   1.01844   -1.000
 4088.00    1.08141   1.03100   -1.000
 4089.00    1.08581   1.02803   -1.000
 4090.00    1.07802   1.01546   -1.000
 4091.00    1.04863   1.00303   -1.000
 4092.00    1.03143   0.99328   -1.000
 4093.00    1.03422   0.98092   -1.000
 4094.00    1.03885   0.96021   -1.000
 4095.00    1.02147   0.93168   -1.000
 4096.00    0.97636   0.90139   -1.000
 4097.00    0.94808   0.86983   -1.000
 4098.00    0.92117   0.82974   -1.000
 4099.00    0.86600   0.77554   -1.000
 4100.00    0.78174   0.71839   -1.000
 4101.00    0.71463   0.68637   -1.000
 4102.00    0.73030   0.69949   -1.000
 4103.00    0.79493   0.75310   -1.000
 4104.00    0.87096   0.82215   -1.000
 4105.00    0.92538   0.87916   -1.000
 4106.00    0.94770   0.91491   -1.000
 4107.00    0.96514   0.93395   -1.000
 4108.00    0.96910   0.94203   -1.000
 4109.00    0.95317   0.94617  217.809
 4110.00    0.95264   0.95277  221.767
 4111.00    0.96902   0.96396  222.823
 4112.00    0.99115   0.97881  219.070
 4113.00    1.00285   0.99630  214.486
 4114.00    1.01982   1.01336  210.970
 4115.00    1.04506   1.02313   -1.000
 4116.00    1.02626   1.02128  207.261
 4117.00    1.00735   1.01038  209.577
 4118.00    1.00225   0.99806  215.089
 4119.00    0.98732   0.99121  220.759
 4120.00    0.98423   0.99185  221.281
 4121.00    0.99383   0.99690  218.555
 4122.00    1.00991   1.00362  217.199
 4123.00    1.02249   1.01218  216.554
 4124.00    1.01774   1.02084  213.603
 4125.00    1.04071   1.02360   -1.000
 4126.00    1.05232   1.01731   -1.000
 4127.00    1.02481   1.00722   -1.000
 4128.00    1.00385   1.00000  218.753
 4129.00    1.00634   0.99429  220.239
 4130.00    1.00900   0.98291   -1.000
 4131.00    1.00177   0.96583   -1.000
 4132.00    0.96884   0.95401   -1.000
 4133.00    0.96518   0.95932  238.527
 4134.00    0.97815   0.98265  235.884
 4135.00    1.01493   1.01441  226.362
 4136.00    1.05723   1.04340  216.284
 4137.00    1.05894   1.06402  210.615
 4138.00    1.05993   1.07656   -1.000
 4139.00    1.08246   1.07740  204.961
 4140.00    1.07736   1.05892   -1.000
 4141.00    1.03385   1.02291  212.658
 4142.00    0.97400   0.98460  226.425
 4143.00    0.94301   0.96429   -1.000
 4144.00    0.96333   0.97389  248.106
 4145.00    1.00678   1.00267  236.340
 4146.00    1.03784   1.02814  223.922
 4147.00    1.06139   1.03783   -1.000
 4148.00    1.05597   1.03578   -1.000
 4149.00    1.03809   1.03332  223.006
 4150.00    1.03614   1.03442  228.102
 4151.00    1.02729   1.03390  229.242
 4152.00    1.01363   1.02676   -1.000
 4153.00    1.01812   1.01488  227.503
 4154.00    1.11101   1.00628   -1.000
 4155.00    1.32821   1.00771   -1.000
 4156.00    1.17320   1.01872   -1.000
 4157.00    0.69700   1.03502   -1.000
 4158.00    0.87176   1.05231   -1.000
 4159.00    1.12369   1.06618   -1.000
 4160.00    1.08365   1.07557  219.602
 4161.00    1.07314   1.08323  216.194
 4162.00    1.08502   1.09054  210.924
 4163.00    1.07276   1.09519   -1.000
 4164.00    1.06191   1.09283   -1.000
 4165.00    1.05304   1.08213   -1.000
 4166.00    1.04503   1.06827   -1.000
 4167.00    1.03544   1.05885   -1.000
 4168.00    1.04086   1.05530   -1.000
 4169.00    1.05757   1.04769  222.719
 4170.00    1.04222   1.02631   -1.000
 4171.00    1.00888   0.99489   -1.000
 4172.00    0.96814   0.97004  241.208
 4173.00    0.93768   0.96748   -1.000
 4174.00    0.96378   0.98480   -1.000
 4175.00    0.98856   1.00508   -1.000
 4176.00    1.00144   1.01688   -1.000
 4177.00    0.98690   1.02400   -1.000
 4178.00    0.98906   1.03361   -1.000
 4179.00    1.01054   1.04332   -1.000
 4180.00    1.03244   1.04561   -1.000
 4181.00    1.03655   1.04104  227.568
 4182.00    1.03012   1.03942  226.881
 4183.00    1.03347   1.04629   -1.000
 4184.00    1.04888   1.05351  219.234
 4185.00    1.05657   1.05059  216.842
 4186.00    1.03973   1.03902  219.709
 4187.00    1.00128   1.02975   -1.000
 4188.00    1.00743   1.03084   -1.000
 4189.00    1.04191   1.04001  227.044
 4190.00    1.04448   1.05130  223.123
 4191.00    1.04616   1.06354   -1.000
 4192.00    1.04934   1.07464   -1.000
 4193.00    1.06345   1.07684   -1.000
 4194.00    1.06183   1.06425  213.850
 4195.00    1.03790   1.03935  222.112
 4196.00    1.01556   1.01149  232.530
 4197.00    1.00777   0.98945   -1.000
 4198.00    0.97235   0.97638  241.657
 4199.00    0.96733   0.97253  240.954
 4200.00    0.99190   0.97662   -1.000
 4201.00    1.00029   0.98519   -1.000
 4202.00    0.99858   0.99690  234.179
 4203.00    0.99139   1.01352   -1.000
 4204.00    1.00282   1.03449   -1.000
 4205.00    1.01061   1.05660   -1.000
 4206.00    1.03790   1.07613   -1.000
 4207.00    1.06933   1.08883   -1.000
 4208.00    1.08737   1.09280  213.086
 4209.00    1.07611   1.09157   -1.000
 4210.00    1.05822   1.09223   -1.000
 4211.00    1.05914   1.09655   -1.000
 4212.00    1.07300   1.09578   -1.000
 4213.00    1.06409   1.08090   -1.000
 4214.00    1.03571   1.05691   -1.000
 4215.00    1.01752   1.03962   -1.000
 4216.00    1.01606   1.04162   -1.000
 4217.00    1.03975   1.06336   -1.000
 4218.00    1.08141   1.09218  209.792
 4219.00    1.08949   1.11282   -1.000
 4220.00    1.11456   1.11739  197.522
 4221.00    1.12576   1.10315   -1.000
 4222.00    1.09155   1.06761   -1.000
 4223.00    1.03883   1.01239   -1.000
 4224.00    0.97423   0.94881   -1.000
 4225.00    0.91936   0.89764   -1.000
 4226.00    0.85949   0.88234   -1.000
 4227.00    0.86145   0.91523   -1.000
 4228.00    0.92887   0.97960   -1.000
 4229.00    1.01869   1.03871   -1.000
 4230.00    1.08516   1.06978  212.323
 4231.00    1.11072   1.07278   -1.000
 4232.00    1.08010   1.06002   -1.000
 4233.00    1.05644   1.04451  210.735
 4234.00    1.04791   1.03287   -1.000
 4235.00    1.02756   1.02618  218.136
 4236.00    1.01338   1.02476  222.989
 4237.00    1.02068   1.03109  225.012
 4238.00    1.02599   1.04510   -1.000
 4239.00    1.01921   1.06220   -1.000
 4240.00    1.04331   1.07773   -1.000
 4241.00    1.07858   1.08991  210.135
 4242.00    1.08153   1.10038   -1.000
 4243.00    1.07570   1.11019   -1.000
 4244.00    1.08489   1.11463   -1.000
 4245.00    1.08738   1.10601   -1.000
 4246.00    1.05988   1.08359   -1.000
 4247.00    1.02910   1.05700   -1.000
 4248.00    1.02365   1.03817   -1.000
 4249.00    1.03312   1.03384  225.637
 4250.00    1.04514   1.04230  226.775
 4251.00    1.03936   1.05501   -1.000
 4252.00    1.05312   1.06081  217.591
 4253.00    1.04230   1.05466  213.984
 4254.00    1.03631   1.04838  217.043
 4255.00    1.03625   1.05568   -1.000
 4256.00    1.04734   1.06967   -1.000
 4257.00    1.08029   1.07087  208.599
 4258.00    1.07387   1.05142   -1.000
 4259.00    1.01350   1.02679  220.066
 4260.00    0.97837   1.02123   -1.000
 4261.00    1.00312   1.04449   -1.000
 4262.00    1.05083   1.08424   -1.000
 4263.00    1.09392   1.11944   -1.000
 4264.00    1.12928   1.13792  198.980
 4265.00    1.13798   1.13917  195.913
 4266.00    1.11669   1.12826  196.825
 4267.00    1.09837   1.10827  201.312
 4268.00    1.08351   1.07872  207.958
 4269.00    1.05720   1.04076   -1.000
 4270.00    1.00694   1.00157  225.136
 4271.00    0.96054   0.97262  239.981
 4272.00    0.95030   0.96297   -1.000
 4273.00    0.96100   0.97236   -1.000
 4274.00    0.97127   0.99571   -1.000
 4275.00    1.00154   1.03070   -1.000
 4276.00    1.04263   1.07088   -1.000
 4277.00    1.07030   1.10058   -1.000
 4278.00    1.08324   1.10715   -1.000
 4279.00    1.06822   1.09492   -1.000
 4280.00    1.04329   1.08021   -1.000
 4281.00    1.03038   1.07458   -1.000
 4282.00    1.03458   1.07579   -1.000
 4283.00    1.05411   1.07361   -1.000
 4284.00    1.04738   1.06469   -1.000
 4285.00    1.03205   1.05170   -1.000
 4286.00    1.01571   1.03555   -1.000
 4287.00    0.99664   1.01453   -1.000
 4288.00    0.98485   0.98825  237.648
 4289.00    0.95474   0.96706  247.968
 4290.00    0.94841   0.96705   -1.000
 4291.00    0.95914   0.98911   -1.000
 4292.00    0.98160   1.01607   -1.000
 4293.00    1.02314   1.03026  225.907
 4294.00    1.03853   1.02683  224.123
 4295.00    1.02214   1.01065  226.974
 4296.00    0.99342   0.98507  231.272
 4297.00    0.95785   0.94929  238.739
 4298.00    0.90743   0.90798  253.925
 4299.00    0.84804   0.87492   -1.000
 4300.00    0.82200   0.86018   -1.000
 4301.00    0.82753   0.86227   -1.000
 4302.00    0.84144   0.87339   -1.000
 4303.00    0.85002   0.88756   -1.000
 4304.00    0.86415   0.89820   -1.000
 4305.00    0.85709   0.89603   -1.000
 4306.00    0.85923   0.87890   -1.000
 4307.00    0.84560   0.85769   -1.000
 4308.00    0.81099   0.84901   -1.000
 4309.00    0.81739   0.86265   -1.000
 4310.00    0.84865   0.89307   -1.000
 4311.00    0.88017   0.92785   -1.000
 4312.00    0.90502   0.96432   -1.000
 4313.00    0.93999   1.00812   -1.000
 4314.00    0.98623   1.06324   -1.000
 4315.00    1.05658   1.12471   -1.000
 4316.00    1.14626   1.17686   -1.000
 4317.00    1.19992   1.20556  188.335
 4318.00    1.20501   1.20887  184.189
 4319.00    1.19411   1.19557  185.383
 4320.00    1.18905   1.17177   -1.000
 4321.00    1.14726   1.13526  193.884
 4322.00    1.08532   1.08404  201.543
 4323.00    1.04849   1.02706   -1.000
 4324.00    0.99029   0.98561  230.377
 4325.00    0.94680   0.98006   -1.000
 4326.00    0.95256   1.01603   -1.000
 4327.00    1.02676   1.07494   -1.000
 4328.00    1.09524   1.12481   -1.000
 4329.00    1.12342   1.14928   -1.000
 4330.00    1.14246   1.15450  193.028
 4331.00    1.14508   1.15562  193.395
 4332.00    1.15130   1.15887  191.445
 4333.00    1.15451   1.15825  188.456
 4334.00    1.14794   1.14309  187.101
 4335.00    1.13691   1.10304   -1.000
 4336.00    1.08317   1.03327   -1.000
 4337.00    1.00979   0.94431   -1.000
 4338.00    0.92507   0.86138   -1.000
 4339.00    0.83135   0.81099   -1.000
 4340.00    0.77732   0.81077   -1.000
 4341.00    0.83625   0.85997   -1.000
 4342.00    0.95145   0.93462   -1.000
 4343.00    1.02787   1.00410   -1.000
 4344.00    1.05991   1.05664  208.283
 4345.00    1.09769   1.09605  202.262
 4346.00    1.10791   1.12797   -1.000
 4347.00    1.12894   1.15307   -1.000
 4348.00    1.14923   1.16378  192.256
 4349.00    1.14197   1.15021  190.259
 4350.00    1.11624   1.11576  194.188
 4351.00    1.06836   1.08332  206.712
 4352.00    1.04494   1.07633   -1.000
 4353.00    1.07861   1.09842   -1.000
 4354.00    1.13282   1.13383  207.026
 4355.00    1.16012   1.16332  198.621
 4356.00    1.16943   1.17932  193.295
 4357.00    1.15393   1.18387   -1.000
 4358.00    1.14679   1.18322   -1.000
 4359.00    1.15175   1.18616   -1.000
 4360.00    1.16869   1.19857   -1.000
 4361.00    1.18566   1.21660   -1.000
 4362.00    1.19477   1.23240   -1.000
 4363.00    1.21484   1.24379   -1.000
 4364.00    1.22144   1.24896   -1.000
 4365.00    1.21795   1.24179   -1.000
 4366.00    1.20014   1.22223   -1.000
 4367.00    1.17035   1.20047   -1.000
 4368.00    1.14805   1.18505   -1.000
 4369.00    1.14539   1.17639   -1.000
 4370.00    1.17162   1.16966  195.042
 4371.00    1.16750   1.15871  194.219
 4372.00    1.14644   1.13966  194.787
 4373.00    1.12713   1.11590  198.783
 4374.00    1.09248   1.09993  207.174
 4375.00    1.07645   1.10564   -1.000
 4376.00    1.10275   1.13242   -1.000
 4377.00    1.14903   1.16342   -1.000
 4378.00    1.19436   1.18191  191.830
 4379.00    1.21055   1.17870   -1.000
 4380.00    1.19182   1.14849   -1.000
 4381.00    1.14686   1.09231   -1.000
 4382.00    1.07963   1.02547   -1.000
 4383.00    1.00941   0.97819   -1.000
 4384.00    0.96931   0.97825  254.440
 4385.00    1.01059   1.02028   -1.000
 4386.00    1.07065   1.07080  222.898
 4387.00    1.11456   1.10280  206.422
 4388.00    1.13002   1.11435   -1.000
 4389.00    1.13568   1.11843   -1.000
 4390.00    1.13536   1.12548  205.411
 4391.00    1.12845   1.13757  204.446
 4392.00    1.14533   1.14823  200.051
 4393.00    1.16093   1.15139  197.420
 4394.00    1.14754   1.15332  200.035
 4395.00    1.14321   1.16516   -1.000
 4396.00    1.16333   1.18492   -1.000
 4397.00    1.18779   1.19627  190.637
 4398.00    1.19028   1.18941  187.914
 4399.00    1.16556   1.17302  192.337
 4400.00    1.14934   1.16108  199.247
 4401.00    1.15715   1.15654  202.382
 4402.00    1.16246   1.14797  199.188
 4403.00    1.14632   1.12699   -1.000
 4404.00    1.11426   1.10458  207.949
 4405.00    1.09967   1.09735  217.025
 4406.00    1.11947   1.10782  215.245
 4407.00    1.12315   1.12749  208.946
 4408.00    1.13262   1.15265   -1.000
 4409.00    1.16555   1.18704   -1.000
 4410.00    1.19342   1.22494   -1.000
 4411.00    1.23490   1.24782  186.515
 4412.00    1.26301   1.24317   -1.000
 4413.00    1.24016   1.21371   -1.000
 4414.00    1.19016   1.17473   -1.000
 4415.00    1.15426   1.14943  198.912
 4416.00    1.13607   1.15516   -1.000
 4417.00    1.16235   1.18817   -1.000
 4418.00    1.19696   1.22943   -1.000
 4419.00    1.22639   1.25875   -1.000
 4420.00    1.24671   1.26412   -1.000
 4421.00    1.22537   1.25120   -1.000
 4422.00    1.20320   1.23596   -1.000
 4423.00    1.20361   1.22882   -1.000
 4424.00    1.21251   1.22823   -1.000
 4425.00    1.19534   1.22744   -1.000
 4426.00    1.18382   1.22634   -1.000
 4427.00    1.19158   1.22880   -1.000
 4428.00    1.20128   1.23350   -1.000
 4429.00    1.19958   1.23747   -1.000
 4430.00    1.19375   1.23953   -1.000
 4431.00    1.19259   1.23806   -1.000
 4432.00    1.18568   1.22850   -1.000
 4433.00    1.18268   1.20794   -1.000
 4434.00    1.15176   1.18705   -1.000
 4435.00    1.12715   1.18620   -1.000
 4436.00    1.16532   1.21387   -1.000
 4437.00    1.23262   1.25579   -1.000
 4438.00    1.25899   1.28709   -1.000
 4439.00    1.27176   1.29160   -1.000
 4440.00    1.25511   1.26845  178.344
 4441.00    1.21410   1.23308   -1.000
 4442.00    1.17203   1.20989   -1.000
 4443.00    1.16088   1.21504   -1.000
 4444.00    1.17360   1.24460   -1.000
 4445.00    1.20391   1.27866   -1.000
 4446.00    1.25292   1.30053   -1.000
 4447.00    1.26868   1.30747   -1.000
 4448.00    1.27114   1.30645   -1.000
 4449.00    1.26447   1.30314   -1.000
 4450.00    1.24654   1.29786   -1.000
 4451.00    1.23396   1.28716   -1.000
 4452.00    1.24103   1.26490   -1.000
 4453.00    1.22675   1.23013  186.886
 4454.00    1.19631   1.19547  194.645
 4455.00    1.16580   1.17730  202.197
 4456.00    1.15725   1.17934   -1.000
 4457.00    1.18776   1.19056  199.818
 4458.00    1.20192   1.19888  197.427
 4459.00    1.18653   1.20215   -1.000
 4460.00    1.17975   1.20543   -1.000
 4461.00    1.16809   1.21416   -1.000
 4462.00    1.18464   1.23136   -1.000
 4463.00    1.24033   1.25352  195.845
 4464.00    1.26096   1.27125  188.928
 4465.00    1.25170   1.27767   -1.000
 4466.00    1.24797   1.27256   -1.000
 4467.00    1.24224   1.26129   -1.000
 4468.00    1.24238   1.25177  189.466
 4469.00    1.21640   1.25247   -1.000
 4470.00    1.21260   1.26782   -1.000
 4471.00    1.24236   1.29434   -1.000
 4472.00    1.26725   1.32357   -1.000
 4473.00    1.30839   1.34697   -1.000
 4474.00    1.33608   1.36035   -1.000
 4475.00    1.33405   1.36638   -1.000
 4476.00    1.33005   1.36887   -1.000
 4477.00    1.34599   1.36510   -1.000
 4478.00    1.35559   1.34812  169.882
 4479.00    1.33439   1.31639   -1.000
 4480.00    1.28169   1.28158  180.139
 4481.00    1.24226   1.26401   -1.000
 4482.00    1.23621   1.27410   -1.000
 4483.00    1.26303   1.30599   -1.000
 4484.00    1.31235   1.34397   -1.000
 4485.00    1.36234   1.37029  172.266
 4486.00    1.38081   1.37400  169.939
 4487.00    1.35631   1.35703  171.494
 4488.00    1.30421   1.33244   -1.000
 4489.00    1.27087   1.31601   -1.000
 4490.00    1.29096   1.31660   -1.000
 4491.00    1.31722   1.32931  181.417
 4492.00    1.32891   1.34012  177.032
 4493.00    1.33323   1.33845  175.994
 4494.00    1.30129   1.32856   -1.000
 4495.00    1.25840   1.32453   -1.000
 4496.00    1.26089   1.33271   -1.000
 4497.00    1.29621   1.34768   -1.000
 4498.00    1.33321   1.36048   -1.000
 4499.00    1.35902   1.36597  173.128
 4500.00    1.34235   1.36683   -1.000
 4501.00    1.31897   1.37328   -1.000
 4502.00    1.33472   1.39134   -1.000
 4503.00    1.35232   1.41595   -1.000
 4504.00    1.37143   1.43652   -1.000
 4505.00    1.39612   1.44427   -1.000
 4506.00    1.39790   1.43949   -1.000
 4507.00    1.38483   1.43004   -1.000
 4508.00    1.37484   1.42468   -1.000
 4509.00    1.38026   1.42530   -1.000
 4510.00    1.39799   1.42623   -1.000
 4511.00    1.39202   1.42095   -1.000
 4512.00    1.38479   1.40878   -1.000
 4513.00    1.37693   1.39463  171.390
 4514.00    1.35945   1.38331   -1.000
 4515.00    1.35029   1.37748   -1.000
 4516.00    1.34423   1.37604   -1.000
 4517.00    1.34246   1.37464   -1.000
 4518.00    1.32475   1.37334   -1.000
 4519.00    1.32327   1.37630   -1.000
 4520.00    1.35537   1.38257   -1.000
 4521.00    1.36229   1.38516   -1.000
 4522.00    1.34047   1.37833   -1.000
 4523.00    1.32059   1.36374   -1.000
 4524.00    1.31244   1.34618   -1.000
 4525.00    1.29889   1.32565   -1.000
 4526.00    1.27991   1.30010   -1.000
 4527.00    1.27079   1.27305  190.334
 4528.00    1.24757   1.25446  194.753
 4529.00    1.22720   1.25195   -1.000
 4530.00    1.24912   1.26259  193.576
 4531.00    1.28291   1.27500  190.037
 4532.00    1.29027   1.27708  187.330
 4533.00    1.26054   1.26828  188.368
 4534.00    1.23190   1.26176   -1.000
 4535.00    1.22352   1.27366   -1.000
 4536.00    1.25306   1.30869   -1.000
 4537.00    1.32648   1.35371   -1.000
 4538.00    1.36530   1.38747   -1.000
 4539.00    1.37373   1.39773   -1.000
 4540.00    1.35601   1.39110   -1.000
 4541.00    1.33815   1.38286   -1.000
 4542.00    1.34613   1.38119   -1.000
 4543.00    1.08411   1.38190   -1.000
 4544.00    0.27553   1.37768   -1.000
 4545.00    0.04494   1.36866   -1.000
 4546.00    0.40298   1.35831   -1.000
 4547.00    1.04213   1.34577   -1.000
 4548.00    0.62748   1.33074   -1.000
 4549.00    1.00989   1.32055   -1.000
 4550.00    1.33423   1.32339   94.444
 4551.00    1.29600   1.33533   -1.000
 4552.00    1.30495   1.34258   -1.000
 4553.00    1.28053   1.33900   -1.000
 4554.00    1.27168   1.33294   -1.000
 4555.00    1.27682   1.33730   -1.000
 4556.00    1.31152   1.35853   -1.000
 4557.00    1.36470   1.38991   -1.000
 4558.00    1.39198   1.41835   -1.000
 4559.00    1.40721   1.43689   -1.000
 4560.00    1.40451   1.44499   -1.000
 4561.00    1.39567   1.44314   -1.000
 4562.00    1.38543   1.43094   -1.000
 4563.00    1.35588   1.41124   -1.000
 4564.00    1.35345   1.39374   -1.000
 4565.00    1.36615   1.38969   -1.000
 4566.00    1.36586   1.40262   -1.000
 4567.00    1.39028   1.42378   -1.000
 4568.00    1.41616   1.43792   -1.000
 4569.00    1.41139   1.43586   -1.000
 4570.00    1.39454   1.42002   -1.000
 4571.00    1.36310   1.40329   -1.000
 4572.00    1.34143   1.39992   -1.000
 4573.00    1.36607   1.41315   -1.000
 4574.00    1.39950   1.43160   -1.000
 4575.00    1.40623   1.44242   -1.000
 4576.00    1.40106   1.44255   -1.000
 4577.00    1.40000   1.43353   -1.000
 4578.00    1.37947   1.41579   -1.000
 4579.00    1.34958   1.39180   -1.000
 4580.00    1.32711   1.36902   -1.000
 4581.00    1.31999   1.35536   -1.000
 4582.00    1.33716   1.35338  179.587
 4583.00    1.34566   1.35853  177.319
 4584.00    1.35393   1.36457  176.600
 4585.00    1.36853   1.37038  177.378
 4586.00    1.36172   1.38049   -1.000
 4587.00    1.36735   1.39691   -1.000
 4588.00    1.38927   1.41485   -1.000
 4589.00    1.39376   1.42559   -1.000
 4590.00    1.39288   1.42363   -1.000
 4591.00    1.38625   1.41191   -1.000
 4592.00    1.36903   1.39962   -1.000
 4593.00    1.34171   1.39468   -1.000
 4594.00    1.35077   1.39792   -1.000
 4595.00    1.36909   1.40514   -1.000
 4596.00    1.38227   1.41276   -1.000
 4597.00    1.38609   1.41875   -1.000
 4598.00    1.39001   1.42078   -1.000
 4599.00    1.38183   1.41737   -1.000
 4600.00    1.37727   1.41058   -1.000
 4601.00    1.37548   1.40488   -1.000
 4602.00    1.36478   1.40368   -1.000
 4603.00    1.37859   1.40679   -1.000
 4604.00    1.38502   1.41262   -1.000
 4605.00    1.39489   1.42075   -1.000
 4606.00    1.39545   1.43249   -1.000
 4607.00    1.41219   1.44863   -1.000
 4608.00    1.42917   1.46647   -1.000
 4609.00    1.45514   1.47953   -1.000
 4610.00    1.45740   1.48129   -1.000
 4611.00    1.44644   1.47311   -1.000
 4612.00    1.42779   1.46371   -1.000
 4613.00    1.40392   1.45884   -1.000
 4614.00    1.41873   1.45895   -1.000
 4615.00    1.43968   1.46067   -1.000
 4616.00    1.42661   1.46027   -1.000
 4617.00    1.41710   1.45696   -1.000
 4618.00    1.43416   1.45381  165.326
 4619.00    1.44565   1.45551  166.163
 4620.00    1.44275   1.46426   -1.000
 4621.00    1.45206   1.47682   -1.000
 4622.00    1.45165   1.48574   -1.000
 4623.00    1.44402   1.48695   -1.000
 4624.00    1.44345   1.48347   -1.000
 4625.00    1.44002   1.47905   -1.000
 4626.00    1.42703   1.47498   -1.000
 4627.00    1.43540   1.47234   -1.000
 4628.00    1.44741   1.47120   -1.000
 4629.00    1.44086   1.47187   -1.000
 4630.00    1.43936   1.47544   -1.000
 4631.00    1.44137   1.48073   -1.000
 4632.00    1.43303   1.48203   -1.000
 4633.00    1.42670   1.47578   -1.000
 4634.00    1.42659   1.46596   -1.000
 4635.00    1.42232   1.45764   -1.000
 4636.00    1.41812   1.45125   -1.000
 4637.00    1.41682   1.44576   -1.000
 4638.00    1.41923   1.44322   -1.000
 4639.00    1.41457   1.44682   -1.000
 4640.00    1.42070   1.45772   -1.000
 4641.00    1.44199   1.47240   -1.000
 4642.00    1.45470   1.48289   -1.000
 4643.00    1.45599   1.48117   -1.000
 4644.00    1.44442   1.46604   -1.000
 4645.00    1.41995   1.44242   -1.000
 4646.00    1.39197   1.41796   -1.000
 4647.00    1.37689   1.40393   -1.000
 4648.00    1.38534   1.40851   -1.000
 4649.00    1.40607   1.42788   -1.000
 4650.00    1.42165   1.44992   -1.000
 4651.00    1.44888   1.46404  166.732
 4652.00    1.44936   1.46714  166.515
 4653.00    1.42856   1.46146   -1.000
 4654.00    1.39833   1.45130   -1.000
 4655.00    1.37603   1.44441   -1.000
 4656.00    1.37822   1.44961   -1.000
 4657.00    1.42261   1.47077   -1.000
 4658.00    1.46810   1.50211   -1.000
 4659.00    1.50698   1.52952   -1.000
 4660.00    1.52685   1.54010  156.931
 4661.00    1.48804   1.53234   -1.000
 4662.00    1.47726   1.51318   -1.000
 4663.00    1.45072   1.49023   -1.000
 4664.00    1.44227   1.46574   -1.000
 4665.00    1.42703   1.43730  167.216
 4666.00    1.39600   1.40537  171.294
 4667.00    1.35724   1.37978   -1.000
 4668.00    1.33940   1.37414   -1.000
 4669.00    1.35574   1.39260   -1.000
 4670.00    1.40253   1.42466   -1.000
 4671.00    1.44047   1.45474  169.279
 4672.00    1.46426   1.47363  165.813
 4673.00    1.46069   1.48328   -1.000
 4674.00    1.45029   1.49084   -1.000
 4675.00    1.46225   1.49957   -1.000
 4676.00    1.48765   1.50379  162.309
 4677.00    1.49301   1.49581  160.748
 4678.00    1.48976   1.47679  162.447
 4679.00    1.45448   1.45573  166.029
 4680.00    1.42207   1.44148   -1.000
 4681.00    1.40703   1.43723   -1.000
 4682.00    1.42306   1.44190   -1.000
 4683.00    1.44814   1.45251  169.206
 4684.00    1.45921   1.46377  165.401
 4685.00    1.47604   1.47124  164.081
 4686.00    1.45834   1.47448  164.630
 4687.00    1.44119   1.47577   -1.000
 4688.00    1.45592   1.47660   -1.000
 4689.00    1.45010   1.47698   -1.000
 4690.00    1.44716   1.47643   -1.000
 4691.00    1.45565   1.47586   -1.000
 4692.00    1.47092   1.47881  166.626
 4693.00    1.49543   1.48658  164.398
 4694.00    1.51090   1.49573  161.585
 4695.00    1.52342   1.50174   -1.000
 4696.00    1.52376   1.50062   -1.000
 4697.00    1.50550   1.48943  159.087
 4698.00    1.48579   1.47062  163.935
 4699.00    1.46165   1.45120  168.077
 4700.00    1.44512   1.43553  168.975
 4701.00    1.46312   1.42362   -1.000
 4702.00    1.44339   1.41571   -1.000
 4703.00    1.41874   1.41612  172.560
 4704.00    1.44387   1.42611  172.198
 4705.00    1.46004   1.43723   -1.000
 4706.00    1.44685   1.43904  167.791
 4707.00    1.43364   1.43187  170.646
 4708.00    1.41674   1.42631  173.646
 4709.00    1.40693   1.43132   -1.000
 4710.00    1.42269   1.44615   -1.000
 4711.00    1.45738   1.46345  167.143
 4712.00    1.48613   1.47484  163.378
 4713.00    1.49175   1.47605  162.753
 4714.00    1.48501   1.47317  164.874
 4715.00    1.47570   1.47706  167.232
 4716.00    1.46163   1.49183   -1.000
 4717.00    1.47420   1.51158   -1.000
 4718.00    1.50368   1.52728   -1.000
 4719.00    1.52167   1.53536  159.423
 4720.00    1.50909   1.53708   -1.000
 4721.00    1.49499   1.53599   -1.000
 4722.00    1.48594   1.53560   -1.000
 4723.00    1.49396   1.53746   -1.000
 4724.00    1.50385   1.53870   -1.000
 4725.00    1.52572   1.53296  158.301
 4726.00    1.51077   1.51573  159.596
 4727.00    1.44840   1.48996   -1.000
 4728.00    1.43295   1.46647   -1.000
 4729.00    1.44731   1.45464  172.420
 4730.00    1.44870   1.45506  171.272
 4731.00    1.45860   1.46326  169.581
 4732.00    1.49140   1.47509  168.076
 4733.00    1.49111   1.48585  166.165
 4734.00    1.47772   1.49144  164.886
 4735.00    1.48425   1.49203  163.976
 4736.00    1.47774   1.49121  163.774
 4737.00    1.45071   1.49283   -1.000
 4738.00    1.46454   1.49891   -1.000
 4739.00    1.49462   1.50703  163.093
 4740.00    1.49270   1.51245   -1.000
 4741.00    1.49166   1.51506   -1.000
 4742.00    1.49528   1.51897   -1.000
 4743.00    1.51397   1.52501  162.556
 4744.00    1.51554   1.53064  161.316
 4745.00    1.49007   1.53468   -1.000
 4746.00    1.50029   1.53915   -1.000
 4747.00    1.52700   1.54642  160.078
 4748.00    1.52865   1.55576   -1.000
 4749.00    1.52564   1.56429   -1.000
 4750.00    1.53484   1.56901   -1.000
 4751.00    1.53216   1.56637   -1.000
 4752.00    1.51693   1.55530   -1.000
 4753.00    1.50852   1.53945   -1.000
 4754.00    1.50499   1.52591   -1.000
 4755.00    1.50354   1.52021  164.394
 4756.00    1.49235   1.52267   -1.000
 4757.00    1.47626   1.53052   -1.000
 4758.00    1.47627   1.54033   -1.000
 4759.00    1.48944   1.54765   -1.000
 4760.00    1.49593   1.54621   -1.000
 4761.00    1.48146   1.53189   -1.000
 4762.00    1.45960   1.50765   -1.000
 4763.00    1.42101   1.48373   -1.000
 4764.00    1.41246   1.46943   -1.000
 4765.00    1.42436   1.46580   -1.000
 4766.00    1.42836   1.47202   -1.000
 4767.00    1.45232   1.48894   -1.000
 4768.00    1.47937   1.51390   -1.000
 4769.00    1.50348   1.53671   -1.000
 4770.00    1.50844   1.54779   -1.000
 4771.00    1.49663   1.54769   -1.000
 4772.00    1.48644   1.54637   -1.000
 4773.00    1.50076   1.55259   -1.000
 4774.00    1.53887   1.56640   -1.000
 4775.00    1.52758   1.58005   -1.000
 4776.00    1.50854   1.58691   -1.000
 4777.00    1.51891   1.58604   -1.000
 4778.00    1.53791   1.57996   -1.000
 4779.00    1.52176   1.57199   -1.000
 4780.00    1.48958   1.56445   -1.000
 4781.00    1.48322   1.55750   -1.000
 4782.00    1.49004   1.54950   -1.000
 4783.00    1.49051   1.54099   -1.000
 4784.00    1.48951   1.53402   -1.000
 4785.00    1.48679   1.52898   -1.000
 4786.00    1.47735   1.52557   -1.000
 4787.00    1.47691   1.52460   -1.000
 4788.00    1.48002   1.52717   -1.000
 4789.00    1.48130   1.53344   -1.000
 4790.00    1.48654   1.54391   -1.000
 4791.00    1.48492   1.55945   -1.000
 4792.00    1.49659   1.57948   -1.000
 4793.00    1.52457   1.60103   -1.000
 4794.00    1.54929   1.61924   -1.000
 4795.00    1.55879   1.62864   -1.000
 4796.00    1.54928   1.62562   -1.000
 4797.00    1.53452   1.61231   -1.000
 4798.00    1.51628   1.59555   -1.000
 4799.00    1.49121   1.58359   -1.000
 4800.00    1.49433   1.58317   -1.000
 4801.00    1.52729   1.59409   -1.000
 4802.00    1.54800   1.60764   -1.000
 4803.00    1.54879   1.61369   -1.000
 4804.00    1.53443   1.60928   -1.000
 4805.00    1.51411   1.59892   -1.000
 4806.00    1.51621   1.58948   -1.000
 4807.00    1.52290   1.58468   -1.000
 4808.00    1.50162   1.58552   -1.000
 4809.00    1.50571   1.59149   -1.000
 4810.00    1.52522   1.59940   -1.000
 4811.00    1.52768   1.60583   -1.000
 4812.00    1.52637   1.61070   -1.000
 4813.00    1.53784   1.61604   -1.000
 4814.00    1.53871   1.62305   -1.000
 4815.00    1.53275   1.63188   -1.000
 4816.00    1.53586   1.64102   -1.000
 4817.00    1.54236   1.64798   -1.000
 4818.00    1.54737   1.65155   -1.000
 4819.00    1.56619   1.65212   -1.000
 4820.00    1.56971   1.64793   -1.000
 4821.00    1.55595   1.63442   -1.000
 4822.00    1.53707   1.61064   -1.000
 4823.00    1.52090   1.58489   -1.000
 4824.00    1.50136   1.57127   -1.000
 4825.00    1.51641   1.57682   -1.000
 4826.00    1.53272   1.59260   -1.000
 4827.00    1.54043   1.60408   -1.000
 4828.00    1.55463   1.60579   -1.000
 4829.00    1.54094   1.60139   -1.000
 4830.00    1.53387   1.59469   -1.000
 4831.00    1.53391   1.58614   -1.000
 4832.00    1.51286   1.57919   -1.000
 4833.00    1.51210   1.57936   -1.000
 4834.00    1.53815   1.58715   -1.000
 4835.00    1.56125   1.59730   -1.000
 4836.00    1.56340   1.60313   -1.000
 4837.00    1.56214   1.60109   -1.000
 4838.00    1.53789   1.59149   -1.000
 4839.00    1.51446   1.57756   -1.000
 4840.00    1.49795   1.56526   -1.000
 4841.00    1.51134   1.55968   -1.000
 4842.00    1.53270   1.56127   -1.000
 4843.00    1.53079   1.56707   -1.000
 4844.00    1.54929   1.57589   -1.000
 4845.00    1.57112   1.58684  161.268
 4846.00    1.56992   1.59350   -1.000
 4847.00    1.55119   1.58982   -1.000
 4848.00    1.53523   1.58033   -1.000
 4849.00    1.52248   1.57498   -1.000
 4850.00    1.51865   1.57652   -1.000
 4851.00    1.52266   1.57822   -1.000
 4852.00    1.51055   1.57089   -1.000
 4853.00    1.49916   1.54960   -1.000
 4854.00    1.48274   1.51625   -1.000
 4855.00    1.45389   1.48055   -1.000
 4856.00    1.43419   1.45191  173.680
 4857.00    1.43402   1.42501  172.738
 4858.00    1.41407   1.37902   -1.000
 4859.00    1.30715   1.29994  179.820
 4860.00    1.12466   1.20761   -1.000
 4861.00    1.00536   1.14758   -1.000
 4862.00    1.08024   1.15329   -1.000
 4863.00    1.27066   1.21850   -1.000
 4864.00    1.38985   1.30637   -1.000
 4865.00    1.41543   1.38541   -1.000
 4866.00    1.42657   1.44387   -1.000
 4867.00    1.45603   1.48206   -1.000
 4868.00    1.45874   1.50088   -1.000
 4869.00    1.46640   1.49920   -1.000
 4870.00    1.44305   1.47938   -1.000
 4871.00    1.42941   1.45499   -1.000
 4872.00    1.41602   1.44733   -1.000
 4873.00    1.44316   1.46716   -1.000
 4874.00    1.45429   1.50162   -1.000
 4875.00    1.46605   1.52986   -1.000
 4876.00    1.48273   1.54419   -1.000
 4877.00    1.48696   1.55357   -1.000
 4878.00    1.49250   1.56845   -1.000
 4879.00    1.50612   1.58778   -1.000
 4880.00    1.53805   1.60153   -1.000
 4881.00    1.52435   1.60266   -1.000
 4882.00    1.49029   1.59437   -1.000
 4883.00    1.48863   1.58420   -1.000
 4884.00    1.49248   1.57311   -1.000
 4885.00    1.47779   1.56006   -1.000
 4886.00    1.48002   1.54865   -1.000
 4887.00    1.47897   1.54199   -1.000
 4888.00    1.48387   1.53579   -1.000
 4889.00    1.48380   1.52268   -1.000
 4890.00    1.46306   1.50565   -1.000
 4891.00    1.45550   1.50198   -1.000
 4892.00    1.49380   1.52849   -1.000
 4893.00    1.55042   1.58293   -1.000
 4894.00    1.58776   1.64253   -1.000
 4895.00    1.61775   1.68433   -1.000
 4896.00    1.64509   1.70335   -1.000
 4897.00    1.64843   1.70459   -1.000
 4898.00    1.62596   1.69436   -1.000
 4899.00    1.59884   1.67877   -1.000
 4900.00    1.56663   1.66419   -1.000
 4901.00    1.55011   1.65333   -1.000
 4902.00    1.56554   1.64462   -1.000
 4903.00    1.57091   1.63832   -1.000
 4904.00    1.57259   1.64117   -1.000
 4905.00    1.58602   1.65629   -1.000
 4906.00    1.60245   1.67293   -1.000
 4907.00    1.61764   1.67529   -1.000
 4908.00    1.61165   1.65822   -1.000
 4909.00    1.56365   1.62927   -1.000
 4910.00    1.52919   1.60417   -1.000
 4911.00    1.51819   1.59651   -1.000
 4912.00    1.52885   1.60927   -1.000
 4913.00    1.56316   1.63341   -1.000
 4914.00    1.59507   1.65704   -1.000
 4915.00    1.61584   1.66990   -1.000
 4916.00    1.62814   1.66103   -1.000
 4917.00    1.59043   1.62278   -1.000
 4918.00    1.51391   1.56191   -1.000
 4919.00    1.46898   1.50057   -1.000
 4920.00    1.43863   1.46439   -1.000
 4921.00    1.43667   1.46541   -1.000
 4922.00    1.48631   1.49337  175.246
 4923.00    1.51250   1.52743  169.726
 4924.00    1.53368   1.55591   -1.000
 4925.00    1.52606   1.58276   -1.000
 4926.00    1.56783   1.61393   -1.000
 4927.00    1.59954   1.64758   -1.000
 4928.00    1.60771   1.67687   -1.000
 4929.00    1.62828   1.69580   -1.000
 4930.00    1.64359   1.70114   -1.000
 4931.00    1.64079   1.68958   -1.000
 4932.00    1.60746   1.66210   -1.000
 4933.00    1.54932   1.62989   -1.000
 4934.00    1.52679   1.60908   -1.000
 4935.00    1.54158   1.60440   -1.000
 4936.00    1.56160   1.60316   -1.000
 4937.00    1.54511   1.59024   -1.000
 4938.00    1.52617   1.57042   -1.000
 4939.00    1.52245   1.56527   -1.000
 4940.00    1.53133   1.58738   -1.000
 4941.00    1.57236   1.62848   -1.000
 4942.00    1.61046   1.66808   -1.000
 4943.00    1.62326   1.69129   -1.000
 4944.00    1.62925   1.69737   -1.000
 4945.00    1.62039   1.69359   -1.000
 4946.00    1.60826   1.68983   -1.000
 4947.00    1.62119   1.69386   -1.000
 4948.00    1.64368   1.70619   -1.000
 4949.00    1.65709   1.71904   -1.000
 4950.00    1.66128   1.72446   -1.000
 4951.00    1.65436   1.72146   -1.000
 4952.00    1.64703   1.71388   -1.000
 4953.00    1.64859   1.70366   -1.000
 4954.00    1.64528   1.68600   -1.000
 4955.00    1.61959   1.65105   -1.000
 4956.00    1.55605   1.59814   -1.000
 4957.00    1.49574   1.55029   -1.000
 4958.00    1.47479   1.53980   -1.000
 4959.00    1.53296   1.57454   -1.000
 4960.00    1.58735   1.63014   -1.000
 4961.00    1.59914   1.67427   -1.000
 4962.00    1.60420   1.69398   -1.000
 4963.00    1.60273   1.69349   -1.000
 4964.00    1.61032   1.67994   -1.000
 4965.00    1.58153   1.65994   -1.000
 4966.00    1.55798   1.64110   -1.000
 4967.00    1.55664   1.62921   -1.000
 4968.00    1.57836   1.62589   -1.000
 4969.00    1.59312   1.63071   -1.000
 4970.00    1.61430   1.64267   -1.000
 4971.00    1.61743   1.65921   -1.000
 4972.00    1.61557   1.67683   -1.000
 4973.00    1.64394   1.69182   -1.000
 4974.00    1.65434   1.70091   -1.000
 4975.00    1.64572   1.70190   -1.000
 4976.00    1.64065   1.69483   -1.000
 4977.00    1.62972   1.68119   -1.000
 4978.00    1.61257   1.66339   -1.000
 4979.00    1.57109   1.64215   -1.000
 4980.00    1.54439   1.61380   -1.000
 4981.00    1.51527   1.57468   -1.000
 4982.00    1.49004   1.53113   -1.000
 4983.00    1.49670   1.50160  182.029
 4984.00    1.51046   1.50273  181.126
 4985.00    1.52069   1.53417  177.258
 4986.00    1.54305   1.57955   -1.000
 4987.00    1.56669   1.61976   -1.000
 4988.00    1.57274   1.64231   -1.000
 4989.00    1.57019   1.64424   -1.000
 4990.00    1.56780   1.63418   -1.000
 4991.00    1.56712   1.62533   -1.000
 4992.00    1.57703   1.62496   -1.000
 4993.00    1.59191   1.63150   -1.000
 4994.00    1.60211   1.64048   -1.000
 4995.00    1.60153   1.64949   -1.000
 4996.00    1.60421   1.65614   -1.000
 4997.00    1.61192   1.65471   -1.000
 4998.00    1.59884   1.63986   -1.000
 4999.00    1.57059   1.61353   -1.000
 5000.00    1.54214   1.58628   -1.000
 5001.00    1.54331   1.57011   -1.000
 5002.00    1.54916   1.56849   -1.000
 5003.00    1.55481   1.57241   -1.000
 5004.00    1.55362   1.56788  170.745
 5005.00    1.52771   1.55139   -1.000
 5006.00    1.51260   1.53708   -1.000
 5007.00    1.53147   1.54335  177.197
 5008.00    1.55945   1.57081  172.486
 5009.00    1.60452   1.60013  167.929
 5010.00    1.60340   1.60981  167.065
 5011.00    1.55860   1.59192   -1.000
 5012.00    1.50790   1.55671   -1.000
 5013.00    1.48530   1.52363   -1.000
 5014.00    1.47366   1.50789   -1.000
 5015.00    1.48645   1.51032   -1.000
 5016.00    1.50660   1.52114  178.809
 5017.00    1.52805   1.53170  175.706
 5018.00    1.52934   1.54188  175.204
 5019.00    1.54472   1.55538  174.826
 5020.00    1.56411   1.56980  172.900
 5021.00    1.57565   1.57910  171.962
 5022.00    1.57042   1.58383  172.702
 5023.00    1.55961   1.59173   -1.000
 5024.00    1.57236   1.60669   -1.000
 5025.00    1.60752   1.62022  169.877
 5026.00    1.61557   1.62267  169.165
 5027.00    1.57847   1.61795   -1.000
 5028.00    1.59785   1.61753   -1.000
 5029.00    1.61585   1.62776  168.362
 5030.00    1.61670   1.64747   -1.000
 5031.00    1.62378   1.67072   -1.000
 5032.00    1.64496   1.68948   -1.000
 5033.00    1.65741   1.69428   -1.000
 5034.00    1.63346   1.67881   -1.000
 5035.00    1.59127   1.64814   -1.000
 5036.00    1.57574   1.61743   -1.000
 5037.00    1.57608   1.59535  174.001
 5038.00    1.55332   1.57414   -1.000
 5039.00    1.52438   1.54140  178.049
 5040.00    1.47704   1.50384   -1.000
 5041.00    1.43846   1.48764   -1.000
 5042.00    1.46749   1.51174   -1.000
 5043.00    1.56114   1.56947  179.167
 5044.00    1.59686   1.63499   -1.000
 5045.00    1.03291   1.68371   -1.000
 5046.00    0.11253   1.70504   -1.000
 5047.00    0.04279   1.69814   -1.000
 5048.00    0.55772   1.66957   -1.000
 5049.00    1.51928   1.63328   -1.000
 5050.00    1.58813   1.60602   -1.000
 5051.00    1.57189   1.59900   -1.000
 5052.00    1.59473   1.61410   -1.000
 5053.00    1.62913   1.64358  166.812
 5054.00    1.66933   1.67380  162.828
 5055.00    1.67830   1.69493  160.191
 5056.00    1.69288   1.70798  158.915
 5057.00    1.70993   1.71770  158.598
 5058.00    1.70912   1.72636  158.914
 5059.00    1.68742   1.73379   -1.000
 5060.00    1.69156   1.73877   -1.000
 5061.00    1.70771   1.73872   -1.000
 5062.00    1.68945   1.72785   -1.000
 5063.00    1.66653   1.70154   -1.000
 5064.00    1.61788   1.66679   -1.000
 5065.00    1.58767   1.63985   -1.000
 5066.00    1.60807   1.63028   -1.000
 5067.00    1.62540   1.63439  170.068
 5068.00    1.61888   1.64243   -1.000
 5069.00    1.63193   1.64936  167.368
 5070.00    1.64559   1.65384  166.498
 5071.00    1.64825   1.65306  165.889
 5072.00    1.65325   1.64731  167.309
 5073.00    1.65017   1.64361  167.930
 5074.00    1.63510   1.64763  165.906
 5075.00    1.64994   1.65564  164.855
 5076.00    1.66872   1.65804  164.687
 5077.00    1.65401   1.64626  164.912
 5078.00    1.61282   1.61827  167.409
 5079.00    1.56927   1.58357  173.835
 5080.00    1.53781   1.56016   -1.000
 5081.00    1.54049   1.55838   -1.000
 5082.00    1.57751   1.57329  177.572
 5083.00    1.60248   1.59520  174.068
 5084.00    1.63028   1.61943  171.578
 5085.00    1.65901   1.64507  168.361
 5086.00    1.66708   1.66798  165.830
 5087.00    1.68578   1.68341  164.896
 5088.00    1.68919   1.69206  164.577
 5089.00    1.68408   1.69808  163.651
 5090.00    1.69468   1.70486  162.511
 5091.00    1.69093   1.71426   -1.000
 5092.00    1.70191   1.72588   -1.000
 5093.00    1.73506   1.73488  158.780
 5094.00    1.71679   1.73268  157.947
 5095.00    1.71833   1.71325  159.867
 5096.00    1.69420   1.67949  163.304
 5097.00    1.66941   1.64254   -1.000
 5098.00    1.64301   1.61565   -1.000
 5099.00    1.60641   1.60882  173.837
 5100.00    1.62264   1.62407  173.288
 5101.00    1.66786   1.65213  168.702
 5102.00    1.68604   1.67643  164.473
 5103.00    1.69186   1.68567  163.635
 5104.00    1.68442   1.68021  164.922
 5105.00    1.65691   1.66519  167.128
 5106.00    1.64048   1.64564  169.226
 5107.00    1.61829   1.62721  171.307
 5108.00    1.60790   1.61613  172.977
 5109.00    1.62606   1.61659  172.453
 5110.00    1.62700   1.62915  171.290
 5111.00    1.63611   1.65068  169.805
 5112.00    1.66587   1.67490  167.387
 5113.00    1.68440   1.69597  165.352
 5114.00    1.70067   1.71290  163.442
 5115.00    1.70622   1.72729   -1.000
 5116.00    1.71862   1.73946   -1.000
 5117.00    1.73278   1.74719  159.425
 5118.00    1.72050   1.74750   -1.000
 5119.00    1.72687   1.73858  159.322
 5120.00    1.72406   1.72071  161.536
 5121.00    1.70574   1.69658  164.028
 5122.00    1.67298   1.66947  167.047
 5123.00    1.62238   1.64269   -1.000
 5124.00    1.60769   1.62143  175.991
 5125.00    1.61952   1.61101  176.498
 5126.00    1.62084   1.61058  174.964
 5127.00    1.61527   1.61411  174.101
 5128.00    1.61473   1.61755  173.308
 5129.00    1.61704   1.62258  173.530
 5130.00    1.63229   1.63237  172.934
 5131.00    1.66119   1.64672  170.453
 5132.00    1.67534   1.66212  167.818
 5133.00    1.68269   1.67537  166.468
 5134.00    1.71134   1.68497   -1.000
 5135.00    1.72753   1.68824   -1.000
 5136.00    1.72141   1.68086   -1.000
 5137.00    1.69398   1.66223   -1.000
 5138.00    1.63823   1.63979  171.075
 5139.00    1.62509   1.62372  173.255
 5140.00    1.62325   1.61838  173.036
 5141.00    1.62067   1.61995  171.962
 5142.00    1.61870   1.62356  173.661
 5143.00    1.61875   1.62889  175.805
 5144.00    1.63216   1.63600  174.232
 5145.00    1.66535   1.64024   -1.000
 5146.00    1.66854   1.63735   -1.000
 5147.00    1.66704   1.63209   -1.000
 5148.00    1.66309   1.63310   -1.000
 5149.00    1.67746   1.63880   -1.000
 5150.00    1.66817   1.63938   -1.000
 5151.00    1.62897   1.63181  173.068
 5152.00    1.61458   1.62223  175.888
 5153.00    1.62531   1.61861  176.557
 5154.00    1.64204   1.62690  175.085
 5155.00    1.67978   1.64878   -1.000
 5156.00    1.71019   1.67953   -1.000
 5157.00    1.74425   1.70972   -1.000
 5158.00    1.74982   1.73165  160.338
 5159.00    1.75219   1.74226  159.457
 5160.00    1.76264   1.74201   -1.000
 5161.00    1.75557   1.73180   -1.000
 5162.00    1.73015   1.71160   -1.000
 5163.00    1.72555   1.67968   -1.000
 5164.00    1.70822   1.62943   -1.000
 5165.00    1.62563   1.55371   -1.000
 5166.00    1.50276   1.46212   -1.000
 5167.00    1.40341   1.38779   -1.000
 5168.00    1.37258   1.36277  218.937
 5169.00    1.42266   1.38189   -1.000
 5170.00    1.48792   1.40095   -1.000
 5171.00    1.46104   1.38856   -1.000
 5172.00    1.37635   1.36436  215.826
 5173.00    1.36021   1.37471   -1.000
 5174.00    1.46220   1.44105   -1.000
 5175.00    1.58690   1.53595   -1.000
 5176.00    1.67856   1.61644   -1.000
 5177.00    1.70153   1.66331   -1.000
 5178.00    1.70417   1.67925   -1.000
 5179.00    1.70355   1.66894   -1.000
 5180.00    1.67381   1.62734   -1.000
 5181.00    1.62055   1.55019   -1.000
 5182.00    1.50565   1.45464   -1.000
 5183.00    1.39520   1.38220   -1.000
 5184.00    1.37371   1.37405  227.019
 5185.00    1.47220   1.43488   -1.000
 5186.00    1.57670   1.52764   -1.000
 5187.00    1.65966   1.60582   -1.000
 5188.00    1.68161   1.64867   -1.000
 5189.00    1.68025   1.66321  169.343
 5190.00    1.67857   1.65814   -1.000
 5191.00    1.66053   1.63811   -1.000
 5192.00    1.62357   1.61512  177.278
 5193.00    1.61239   1.60428  180.951
 5194.00    1.63124   1.60993   -1.000
 5195.00    1.64934   1.62582   -1.000
 5196.00    1.67209   1.64601   -1.000
 5197.00    1.70903   1.67045   -1.000
 5198.00    1.75855   1.69826   -1.000
 5199.00    1.81228   1.72262   -1.000
 5200.00    1.84480   1.73540   -1.000
 5201.00    1.84114   1.73132   -1.000
 5202.00    1.80165   1.70838   -1.000
 5203.00    1.73660   1.66894   -1.000
 5204.00    1.66999   1.62104   -1.000
 5205.00    1.63004   1.57703   -1.000
 5206.00    1.61585   1.54774   -1.000
 5207.00    1.60588   1.53648   -1.000
 5208.00    1.58853   1.54092   -1.000
 5209.00    1.59982   1.56118   -1.000
 5210.00    1.62806   1.59975   -1.000
 5211.00    1.67247   1.65304   -1.000
 5212.00    1.73849   1.70649   -1.000
 5213.00    1.77141   1.74062   -1.000
 5214.00    1.77649   1.74483   -1.000
 5215.00    1.75248   1.72681   -1.000
 5216.00    1.72334   1.70890  165.719
 5217.00    1.72193   1.71081  166.998
 5218.00    1.74598   1.73507  165.015
 5219.00    1.78372   1.76916  161.534
 5220.00    1.80475   1.79740  159.370
 5221.00    1.81304   1.80996  158.315
 5222.00    1.81594   1.80199  158.200
 5223.00    1.79724   1.77113   -1.000
 5224.00    1.72437   1.71799  166.294
 5225.00    1.66467   1.65290  173.434
 5226.00    1.61994   1.60088   -1.000
 5227.00    1.61483   1.58846   -1.000
 5228.00    1.64940   1.62126   -1.000
 5229.00    1.72557   1.67675   -1.000
 5230.00    1.77669   1.72105   -1.000
 5231.00    1.80037   1.73531   -1.000
 5232.00    1.77731   1.72409   -1.000
 5233.00    1.75935   1.70694   -1.000
 5234.00    1.74160   1.70491   -1.000
 5235.00    1.73827   1.72646  165.591
 5236.00    1.77131   1.76278  161.580
 5237.00    1.80799   1.79761  158.094
 5238.00    1.81879   1.81986  156.727
 5239.00    1.82398   1.82811  156.788
 5240.00    1.83402   1.82739  157.178
 5241.00    1.83790   1.82353  156.732
 5242.00    1.83908   1.82149   -1.000
 5243.00    1.82646   1.82406  156.188
 5244.00    1.83912   1.82706  155.844
 5245.00    1.83036   1.82033  156.209
 5246.00    1.80440   1.79916  159.865
 5247.00    1.76599   1.77117  164.760
 5248.00    1.73389   1.74848  167.893
 5249.00    1.74032   1.73677  168.104
 5250.00    1.74682   1.73437  168.559
 5251.00    1.73489   1.73864  169.347
 5252.00    1.74805   1.74701  168.147
 5253.00    1.77333   1.75477   -1.000
 5254.00    1.77089   1.76064  164.551
 5255.00    1.76758   1.77147  164.452
 5256.00    1.78486   1.79374  162.703
 5257.00    1.83189   1.82236  158.636
 5258.00    1.87586   1.84269   -1.000
 5259.00    1.87441   1.84078   -1.000
 5260.00    1.83928   1.81111   -1.000
 5261.00    1.77507   1.75798   -1.000
 5262.00    1.70596   1.69285  168.249
 5263.00    1.65807   1.63042   -1.000
 5264.00    1.61543   1.58450   -1.000
 5265.00    1.60378   1.56398   -1.000
 5266.00    1.62750   1.56558   -1.000
 5267.00    1.65768   1.57149   -1.000
 5268.00    1.66299   1.56393   -1.000
 5269.00    1.61500   1.54604   -1.000
 5270.00    1.58988   1.54331   -1.000
 5271.00    1.62718   1.57536   -1.000
 5272.00    1.69284   1.62915   -1.000
 5273.00    1.74738   1.67542   -1.000
 5274.00    1.75519   1.70273   -1.000
 5275.00    1.75057   1.72255   -1.000
 5276.00    1.78017   1.75050   -1.000
 5277.00    1.81760   1.78825   -1.000
 5278.00    1.87493   1.82110   -1.000
 5279.00    1.89311   1.83123   -1.000
 5280.00    1.84751   1.81399   -1.000
 5281.00    1.80768   1.78133   -1.000
 5282.00    1.79279   1.75107   -1.000
 5283.00    1.76311   1.73860   -1.000
 5284.00    1.72467   1.75349   -1.000
 5285.00    1.79583   1.79304  162.091
 5286.00    1.89088   1.84014   -1.000
 5287.00    1.91255   1.87557   -1.000
 5288.00    1.90652   1.89308  152.137
 5289.00    1.90004   1.89951  152.909
 5290.00    1.88587   1.90198  152.674
 5291.00    1.87382   1.90153   -1.000
 5292.00    1.88273   1.89768  151.756
 5293.00    1.89079   1.88971  152.817
 5294.00    1.87469   1.87311  154.398
 5295.00    1.84149   1.84205  156.853
 5296.00    1.79489   1.79813  161.560
 5297.00    1.75581   1.75636  167.577
 5298.00    1.74332   1.73653  170.974
 5299.00    1.76578   1.74453   -1.000
 5300.00    1.79920   1.76833   -1.000
 5301.00    1.81573   1.79351   -1.000
 5302.00    1.83794   1.81707   -1.000
 5303.00    1.86163   1.84346   -1.000
 5304.00    1.89322   1.87014   -1.000
 5305.00    1.89818   1.88704  152.020
 5306.00    1.90177   1.89026  152.095
 5307.00    1.88902   1.88724  153.667
 5308.00    1.89298   1.88921  154.580
 5309.00    1.90470   1.90013  153.316
 5310.00    1.91659   1.91353  151.782
 5311.00    1.91094   1.92041  151.048
 5312.00    1.91792   1.91694  151.386
 5313.00    1.90367   1.90458  152.249
 5314.00    1.90767   1.88647   -1.000
 5315.00    1.90172   1.86613   -1.000
 5316.00    1.88720   1.85011   -1.000
 5317.00    1.89449   1.84671   -1.000
 5318.00    1.88474   1.85732   -1.000
 5319.00    1.89530   1.87198   -1.000
 5320.00    1.88380   1.87730  155.038
 5321.00    1.88076   1.86727  155.775
 5322.00    1.87789   1.84423   -1.000
 5323.00    1.85090   1.81442   -1.000
 5324.00    1.84188   1.78437   -1.000
 5325.00    1.82714   1.75413   -1.000
 5326.00    1.80146   1.71607   -1.000
 5327.00    1.74670   1.66990   -1.000
 5328.00    1.68032   1.63726   -1.000
 5329.00    1.67543   1.64552   -1.000
 5330.00    1.74709   1.69592   -1.000
 5331.00    1.83121   1.75990   -1.000
 5332.00    1.86813   1.80821   -1.000
 5333.00    1.87790   1.83596   -1.000
 5334.00    1.88350   1.85384   -1.000
 5335.00    1.89741   1.86612   -1.000
 5336.00    1.89214   1.86890   -1.000
 5337.00    1.88409   1.85918   -1.000
 5338.00    1.88302   1.83704   -1.000
 5339.00    1.86270   1.80696   -1.000
 5340.00    1.82901   1.78153   -1.000
 5341.00    1.80602   1.77648   -1.000
 5342.00    1.84983   1.79566   -1.000
 5343.00    1.89180   1.82427   -1.000
 5344.00    1.89960   1.84207   -1.000
 5345.00    1.88684   1.84172   -1.000
 5346.00    1.88144   1.83028   -1.000
 5347.00    1.89591   1.81814   -1.000
 5348.00    1.87492   1.81209   -1.000
 5349.00    1.85267   1.81591   -1.000
 5350.00    1.86364   1.83145   -1.000
 5351.00    1.90944   1.85583   -1.000
 5352.00    1.92093   1.88092   -1.000
 5353.00    1.93086   1.90055   -1.000
 5354.00    1.95123   1.91625   -1.000
 5355.00    1.93739   1.93161  151.305
 5356.00    1.96441   1.94518   -1.000
 5357.00    1.96803   1.95308  148.595
 5358.00    1.97251   1.95394   -1.000
 5359.00    1.95939   1.94835  149.109
 5360.00    1.95444   1.93584   -1.000
 5361.00    1.93352   1.91610   -1.000
 5362.00    1.92232   1.89208   -1.000
 5363.00    1.89761   1.86879   -1.000
 5364.00    1.89306   1.85063   -1.000
 5365.00    1.88029   1.84002   -1.000
 5366.00    1.88100   1.83568   -1.000
 5367.00    1.88487   1.83088   -1.000
 5368.00    1.87010   1.81588   -1.000
 5369.00    1.84665   1.78644   -1.000
 5370.00    1.81900   1.75201   -1.000
 5371.00    1.79785   1.73351   -1.000
 5372.00    1.83597   1.74840   -1.000
 5373.00    1.89756   1.79484   -1.000
 5374.00    1.93841   1.85143   -1.000
 5375.00    1.96576   1.89459   -1.000
 5376.00    1.95706   1.91561   -1.000
 5377.00    1.95985   1.91998   -1.000
 5378.00    1.97270   1.91617   -1.000
 5379.00    1.95554   1.90854   -1.000
 5380.00    1.93369   1.89784   -1.000
 5381.00    1.91328   1.88506   -1.000
 5382.00    1.89351   1.87375   -1.000
 5383.00    1.88872   1.86961   -1.000
 5384.00    1.90395   1.87689   -1.000
 5385.00    1.92764   1.89317   -1.000
 5386.00    1.94565   1.90882   -1.000
 5387.00    1.94167   1.91406   -1.000
 5388.00    1.93709   1.90594   -1.000
 5389.00    1.91858   1.88836   -1.000
 5390.00    1.90786   1.86793   -1.000
 5391.00    1.89050   1.84999   -1.000
 5392.00    1.88682   1.83686   -1.000
 5393.00    1.88145   1.82805   -1.000
 5394.00    1.87852   1.81921   -1.000
 5395.00    1.86423   1.80433   -1.000
 5396.00    1.83006   1.78456   -1.000
 5397.00    1.81514   1.77173   -1.000
 5398.00    1.82830   1.77870   -1.000
 5399.00    1.86694   1.80490   -1.000
 5400.00    1.89981   1.83468   -1.000
 5401.00    1.91815   1.85085   -1.000
 5402.00    1.90628   1.84431   -1.000
 5403.00    1.88414   1.81419   -1.000
 5404.00    1.82410   1.77148   -1.000
 5405.00    1.79068   1.73810   -1.000
 5406.00    1.79371   1.73104   -1.000
 5407.00    1.83857   1.74709   -1.000
 5408.00    1.84967   1.76707   -1.000
 5409.00    1.83608   1.77758   -1.000
 5410.00    1.83384   1.78497   -1.000
 5411.00    1.84370   1.80240   -1.000
 5412.00    1.90162   1.82981   -1.000
 5413.00    1.93994   1.85500   -1.000
 5414.00    1.92139   1.87059   -1.000
 5415.00    1.91494   1.88188   -1.000
 5416.00    1.92664   1.89592   -1.000
 5417.00    1.92935   1.91035   -1.000
 5418.00    1.93428   1.91829  153.803
 5419.00    1.92789   1.91757  154.708
 5420.00    1.91732   1.91178  156.220
 5421.00    1.91678   1.90408  156.851
 5422.00    1.92248   1.89366   -1.000
 5423.00    1.91950   1.88125   -1.000
 5424.00    1.90143   1.87441   -1.000
 5425.00    1.90940   1.88124   -1.000
 5426.00    1.93611   1.89639   -1.000
 5427.00    1.95403   1.89992   -1.000
 5428.00    1.93764   1.87896   -1.000
 5429.00    1.88230   1.84526   -1.000
 5430.00    1.86408   1.82270   -1.000
 5431.00    1.87980   1.82049   -1.000
 5432.00    1.90468   1.82547   -1.000
 5433.00    1.87310   1.82228   -1.000
 5434.00    1.85002   1.81384   -1.000
 5435.00    1.85538   1.81612   -1.000
 5436.00    1.87935   1.83978   -1.000
 5437.00    1.89630   1.88021  161.414
 5438.00    1.94564   1.92217   -1.000
 5439.00    1.96444   1.95283  154.014
 5440.00    2.00009   1.96993   -1.000
 5441.00    1.99648   1.97719   -1.000
 5442.00    1.99287   1.97461   -1.000
 5443.00    1.98067   1.95649   -1.000
 5444.00    1.95584   1.91895   -1.000
 5445.00    1.91337   1.86900   -1.000
 5446.00    1.85549   1.82627   -1.000
 5447.00    1.82292   1.81184  168.715
 5448.00    1.85795   1.83199   -1.000
 5449.00    1.92530   1.87213   -1.000
 5450.00    1.94439   1.90893   -1.000
 5451.00    1.96027   1.92692   -1.000
 5452.00    1.95030   1.92171   -1.000
 5453.00    1.90767   1.89565  157.845
 5454.00    1.87937   1.85876   -1.000
 5455.00    1.83396   1.83023  166.426
 5456.00    1.84008   1.83003  169.008
 5457.00    1.91951   1.86071   -1.000
 5458.00    1.96121   1.90212   -1.000
 5459.00    1.97560   1.92896   -1.000
 5460.00    1.95818   1.93000   -1.000
 5461.00    1.93364   1.91072   -1.000
 5462.00    1.92180   1.88616   -1.000
 5463.00    1.91753   1.87177   -1.000
 5464.00    1.91903   1.87498   -1.000
 5465.00    1.92339   1.89163   -1.000
 5466.00    1.93641   1.91133   -1.000
 5467.00    1.94031   1.92669  158.461
 5468.00    1.94600   1.93573  156.757
 5469.00    1.94526   1.93800  156.527
 5470.00    1.94201   1.93347  158.213
 5471.00    1.95170   1.92411   -1.000
 5472.00    1.94203   1.91173   -1.000
 5473.00    1.92531   1.89511   -1.000
 5474.00    1.89913   1.87144   -1.000
 5475.00    1.88868   1.84237   -1.000
 5476.00    1.85844   1.81879   -1.000
 5477.00    1.83834   1.81492   -1.000
 5478.00    1.86186   1.83403   -1.000
 5479.00    1.91837   1.86188   -1.000
 5480.00    1.93322   1.87987   -1.000
 5481.00    1.91624   1.88453   -1.000
 5482.00    1.89208   1.88843  164.507
 5483.00    1.90954   1.90241  163.589
 5484.00    1.93134   1.92311  160.437
 5485.00    1.92409   1.93770  157.401
 5486.00    1.95528   1.93750   -1.000
 5487.00    1.93414   1.92647  158.512
 5488.00    1.92604   1.91656  160.649
 5489.00    1.91315   1.91622  161.318
 5490.00    1.91901   1.92399  161.104
 5491.00    1.93214   1.93281  159.858
 5492.00    1.92372   1.93801  158.783
 5493.00    1.95774   1.93947   -1.000
 5494.00    1.95833   1.93820   -1.000
 5495.00    1.96206   1.93359   -1.000
 5496.00    1.96003   1.92568   -1.000
 5497.00    1.93806   1.91836   -1.000
 5498.00    1.93318   1.91600   -1.000
 5499.00    1.96500   1.91667   -1.000
 5500.00    1.95520   1.91266   -1.000
 5501.00    1.91982   1.90169   -1.000
 5502.00    1.89477   1.89196  162.507
 5503.00    1.92011   1.88976   -1.000
 5504.00    1.94304   1.88999   -1.000
 5505.00    1.93295   1.88489   -1.000
 5506.00    1.91393   1.87651   -1.000
 5507.00    1.90232   1.87522   -1.000
 5508.00    1.92082   1.88599   -1.000
 5509.00    1.94886   1.90028   -1.000
 5510.00    1.94698   1.90465   -1.000
 5511.00    1.92117   1.89393   -1.000
 5512.00    1.89937   1.87517   -1.000
 5513.00    1.88790   1.86175   -1.000
 5514.00    1.88720   1.86326   -1.000
 5515.00    1.91495   1.87958   -1.000
 5516.00    1.95316   1.90412   -1.000
 5517.00    1.97916   1.93004   -1.000
 5518.00    2.02333   1.95250   -1.000
 5519.00    2.02486   1.96777   -1.000
 5520.00    2.01475   1.97457   -1.000
 5521.00    2.02069   1.97531   -1.000
 5522.00    2.00619   1.97357   -1.000
 5523.00    1.99944   1.96925   -1.000
 5524.00    1.98502   1.95766   -1.000
 5525.00    1.95934   1.93430   -1.000
 5526.00    1.92697   1.90104   -1.000
 5527.00    1.90509   1.86893   -1.000
 5528.00    1.89297   1.85403   -1.000
 5529.00    1.90614   1.86612   -1.000
 5530.00    1.97085   1.89802   -1.000
 5531.00    1.98347   1.92957   -1.000
 5532.00    1.98101   1.94484   -1.000
 5533.00    1.96448   1.94316   -1.000
 5534.00    1.95784   1.93452   -1.000
 5535.00    1.95088   1.92957   -1.000
 5536.00    1.96461   1.93307   -1.000
 5537.00    1.99393   1.94244   -1.000
 5538.00    1.99358   1.95283   -1.000
 5539.00    2.00568   1.96278   -1.000
 5540.00    2.00900   1.97184   -1.000
 5541.00    2.00665   1.97595   -1.000
 5542.00    2.00808   1.97164   -1.000
 5543.00    2.00223   1.96232   -1.000
 5544.00    1.97974   1.95571   -1.000
 5545.00    1.98111   1.95632   -1.000
 5546.00    2.00168   1.96328   -1.000
 5547.00    2.00852   1.97444   -1.000
 5548.00    2.01759   1.98794   -1.000
 5549.00    2.02994   1.99993   -1.000
 5550.00    2.03572   2.00583   -1.000
 5551.00    2.03600   2.00398   -1.000
 5552.00    2.02858   1.99579   -1.000
 5553.00    2.01317   1.98505   -1.000
 5554.00    2.00259   1.97720   -1.000
 5555.00    2.01598   1.97553   -1.000
 5556.00    2.02442   1.97849   -1.000
 5557.00    2.02238   1.98247   -1.000
 5558.00    2.02091   1.98569   -1.000
 5559.00    2.01396   1.98719   -1.000
 5560.00    2.02200   1.98451   -1.000
 5561.00    2.00949   1.97594   -1.000
 5562.00    1.99248   1.96385   -1.000
 5563.00    1.98023   1.95292   -1.000
 5564.00    1.96770   1.94550   -1.000
 5565.00    1.97701   1.94057   -1.000
 5566.00    1.97657   1.93662   -1.000
 5567.00    1.97474   1.93336   -1.000
 5568.00    1.98290   1.93108   -1.000
 5569.00    1.97418   1.92958   -1.000
 5570.00    1.97776   1.92785   -1.000
 5571.00    1.98119   1.92478   -1.000
 5572.00    1.97672   1.92123   -1.000
 5573.00    1.95801   1.92128   -1.000
 5574.00    1.88153   1.92810   -1.000
 5575.00    1.60215   1.93899   -1.000
 5576.00    1.15004   1.94948   -1.000
 5577.00    1.55410   1.95934   -1.000
 5578.00    3.65967   1.96946   -1.000
 5579.00    6.26194   1.97754   -1.000
 5580.00    8.09883   1.98086   -1.000
 5581.00    6.23933   1.97977   -1.000
 5582.00    3.33872   1.97652   -1.000
 5583.00    2.16923   1.97106   -1.000
 5584.00    2.03600   1.95847   -1.000
 5585.00    2.00567   1.93170   -1.000
 5586.00    1.95832   1.89122   -1.000
 5587.00    1.91031   1.85059   -1.000
 5588.00    1.88277   1.82707   -1.000
 5589.00    1.90125   1.82829   -1.000
 5590.00    1.92134   1.84902   -1.000
 5591.00    1.95067   1.87616   -1.000
 5592.00    1.97460   1.89714   -1.000
 5593.00    1.97007   1.90858   -1.000
 5594.00    1.94948   1.91653   -1.000
 5595.00    1.96134   1.92672   -1.000
 5596.00    1.98242   1.93578   -1.000
 5597.00    1.97725   1.93498   -1.000
 5598.00    1.96220   1.92248   -1.000
 5599.00    1.94269   1.90602   -1.000
 5600.00    1.93605   1.89200   -1.000
 5601.00    1.93095   1.88259   -1.000
 5602.00    1.91886   1.88375   -1.000
 5603.00    1.91435   1.90316  168.247
 5604.00    1.94808   1.93964  164.878
 5605.00    2.00803   1.98144   -1.000
 5606.00    2.03183   2.01511  156.934
 5607.00    2.06010   2.03465   -1.000
 5608.00    2.07675   2.04260   -1.000
 5609.00    2.06175   2.04492   -1.000
 5610.00    2.05121   2.04581  155.868
 5611.00    2.06554   2.04365   -1.000
 5612.00    2.04982   2.03038   -1.000
 5613.00    2.03138   1.99867   -1.000
 5614.00    1.98714   1.95294   -1.000
 5615.00    1.93969   1.91222   -1.000
 5616.00    1.95082   1.89776   -1.000
 5617.00    1.96546   1.91320   -1.000
 5618.00    1.99262   1.94221   -1.000
 5619.00    2.00264   1.96759   -1.000
 5620.00    2.01711   1.98383   -1.000
 5621.00    2.02362   1.99087   -1.000
 5622.00    2.01584   1.98688   -1.000
 5623.00    2.00563   1.97176   -1.000
 5624.00    1.97510   1.95396   -1.000
 5625.00    1.96021   1.94686  166.133
 5626.00    1.97604   1.95684   -1.000
 5627.00    1.99682   1.97871   -1.000
 5628.00    2.01921   2.00254  159.601
 5629.00    2.01822   2.02153  157.879
 5630.00    2.02472   2.03291  156.872
 5631.00    2.05395   2.03541   -1.000
 5632.00    2.05708   2.02975   -1.000
 5633.00    2.04843   2.01930   -1.000
 5634.00    2.03500   2.00739   -1.000
 5635.00    2.03169   1.99582   -1.000
 5636.00    2.04017   1.98599   -1.000
 5637.00    2.02460   1.97964   -1.000
 5638.00    2.00007   1.97770   -1.000
 5639.00    1.99009   1.97831  161.741
 5640.00    1.98976   1.97808  161.646
 5641.00    1.99512   1.97688   -1.000
 5642.00    2.00706   1.97800   -1.000
 5643.00    2.01349   1.98282   -1.000
 5644.00    2.00840   1.98966   -1.000
 5645.00    2.01893   1.99666   -1.000
 5646.00    2.02633   2.00232   -1.000
 5647.00    2.02042   2.00501  158.918
 5648.00    2.02785   2.00444   -1.000
 5649.00    2.03996   2.00281   -1.000
 5650.00    2.05557   2.00333   -1.000
 5651.00    2.07002   2.00638   -1.000
 5652.00    2.07764   2.00807   -1.000
 5653.00    2.05838   2.00426   -1.000
 5654.00    2.05062   1.99402   -1.000
 5655.00    2.05329   1.97794   -1.000
 5656.00    2.01401   1.95579   -1.000
 5657.00    1.96748   1.92995   -1.000
 5658.00    1.95004   1.90999   -1.000
 5659.00    1.93832   1.90625   -1.000
 5660.00    1.96105   1.91784   -1.000
 5661.00    1.97276   1.93408   -1.000
 5662.00    1.96187   1.94770  164.556
 5663.00    1.97542   1.96064  164.645
 5664.00    2.01190   1.97612   -1.000
 5665.00    2.03146   1.99015   -1.000
 5666.00    2.01780   1.99602   -1.000
 5667.00    2.00752   1.99402  161.098
 5668.00    1.99432   1.99091  161.972
 5669.00    2.01175   1.99250   -1.000
 5670.00    2.02037   1.99996   -1.000
 5671.00    2.03177   2.01126   -1.000
 5672.00    2.03406   2.02321  158.838
 5673.00    2.06815   2.03266   -1.000
 5674.00    2.06888   2.03774   -1.000
 5675.00    2.03791   2.03921  156.184
 5676.00    2.07170   2.03964   -1.000
 5677.00    2.06970   2.03983   -1.000
 5678.00    2.06033   2.03753   -1.000
 5679.00    2.05014   2.02996   -1.000
 5680.00    2.03669   2.01614   -1.000
 5681.00    2.02321   1.99768   -1.000
 5682.00    2.01106   1.97959   -1.000
 5683.00    2.01449   1.96870   -1.000
 5684.00    2.01802   1.96809   -1.000
 5685.00    2.01626   1.97297   -1.000
 5686.00    2.01693   1.97507   -1.000
 5687.00    2.02885   1.97206   -1.000
 5688.00    2.02594   1.96986   -1.000
 5689.00    2.00109   1.97590   -1.000
 5690.00    2.02944   1.99158   -1.000
 5691.00    2.07370   2.01118   -1.000
 5692.00    2.08314   2.02746   -1.000
 5693.00    2.06828   2.03728   -1.000
 5694.00    2.07256   2.04157   -1.000
 5695.00    2.08890   2.04200   -1.000
 5696.00    2.05994   2.03884   -1.000
 5697.00    2.05142   2.03124   -1.000
 5698.00    2.04811   2.01906   -1.000
 5699.00    2.03237   2.00438   -1.000
 5700.00    2.02297   1.99101   -1.000
 5701.00    2.01631   1.98290   -1.000
 5702.00    2.01622   1.98223   -1.000
 5703.00    2.01338   1.98687   -1.000
 5704.00    2.01807   1.99035   -1.000
 5705.00    2.02695   1.98607   -1.000
 5706.00    2.00787   1.97210   -1.000
 5707.00    1.97203   1.95141   -1.000
 5708.00    1.93911   1.92936  168.167
 5709.00    1.91802   1.91296  170.528
 5710.00    1.93454   1.90898   -1.000
 5711.00    1.95188   1.92035   -1.000
 5712.00    1.99543   1.94515   -1.000
 5713.00    2.02508   1.97678   -1.000
 5714.00    2.03047   2.00577   -1.000
 5715.00    2.06512   2.02560   -1.000
 5716.00    2.06748   2.03694   -1.000
 5717.00    2.07752   2.04467   -1.000
 5718.00    2.08271   2.05254   -1.000
 5719.00    2.08397   2.06184   -1.000
 5720.00    2.10654   2.07205   -1.000
 5721.00    2.12571   2.08148   -1.000
 5722.00    2.10715   2.08820   -1.000
 5723.00    2.09281   2.09080  154.299
 5724.00    2.10764   2.08809   -1.000
 5725.00    2.11346   2.07954   -1.000
 5726.00    2.07075   2.06783  156.184
 5727.00    2.04594   2.05891  157.827
 5728.00    2.06463   2.05675  158.795
 5729.00    2.07191   2.05908  157.657
 5730.00    2.08898   2.06063   -1.000
 5731.00    2.08351   2.06001   -1.000
 5732.00    2.06754   2.06149  158.215
 5733.00    2.06820   2.06857  157.327
 5734.00    2.09665   2.07870   -1.000
 5735.00    2.10811   2.08593   -1.000
 5736.00    2.11225   2.08740   -1.000
 5737.00    2.10558   2.08539   -1.000
 5738.00    2.08498   2.08361  155.926
 5739.00    2.08945   2.08323  156.009
 5740.00    2.09858   2.08263   -1.000
 5741.00    2.07327   2.08062  156.603
 5742.00    2.06350   2.07893  156.902
 5743.00    2.08549   2.08036  156.451
 5744.00    2.10540   2.08465   -1.000
 5745.00    2.12694   2.08761   -1.000
 5746.00    2.11971   2.08557   -1.000
 5747.00    2.08827   2.08042  155.515
 5748.00    2.07295   2.07769  157.040
 5749.00    2.07795   2.07874  157.336
 5750.00    2.07948   2.07760  156.269
 5751.00    2.10296   2.06760   -1.000
 5752.00    2.07357   2.05031   -1.000
 5753.00    2.03625   2.03583  159.528
 5754.00    2.04362   2.03488  160.901
 5755.00    2.07044   2.04984   -1.000
 5756.00    2.09583   2.07280   -1.000
 5757.00    2.11043   2.09197   -1.000
 5758.00    2.11173   2.09938  153.687
 5759.00    2.10887   2.09359  154.574
 5760.00    2.10551   2.07807   -1.000
 5761.00    2.07017   2.05974  158.566
 5762.00    2.06041   2.04819  160.608
 5763.00    2.05948   2.05131  160.959
 5764.00    2.08431   2.06879   -1.000
 5765.00    2.09533   2.09158  155.933
 5766.00    2.11780   2.10915  154.304
 5767.00    2.12684   2.11713  154.025
 5768.00    2.12368   2.11766  153.877
 5769.00    2.11619   2.11447  153.655
 5770.00    2.10314   2.10939  154.070
 5771.00    2.09678   2.10250  154.632
 5772.00    2.11320   2.09427   -1.000
 5773.00    2.11700   2.08697   -1.000
 5774.00    2.08740   2.08335  156.758
 5775.00    2.08330   2.08443  156.884
 5776.00    2.09113   2.08795  156.442
 5777.00    2.09619   2.08774  155.665
 5778.00    2.06686   2.07753  155.672
 5779.00    2.04083   2.05673  156.409
 5780.00    2.01081   2.03176  159.046
 5781.00    1.97653   2.01176   -1.000
 5782.00    1.97054   2.00252   -1.000
 5783.00    1.99088   2.00293  163.699
 5784.00    2.01334   2.00824  163.056
 5785.00    2.04351   2.01665   -1.000
 5786.00    2.07619   2.03008   -1.000
 5787.00    2.08633   2.04754   -1.000
 5788.00    2.09640   2.06236   -1.000
 5789.00    2.10874   2.06870   -1.000
 5790.00    2.09715   2.06812   -1.000
 5791.00    2.08200   2.06817  157.798
 5792.00    2.07779   2.07510  157.331
 5793.00    2.10295   2.08824  155.932
 5794.00    2.11720   2.10180  154.922
 5795.00    2.10028   2.10968  154.074
 5796.00    2.09132   2.10929  154.168
 5797.00    2.06742   2.10423   -1.000
 5798.00    2.07239   2.10255   -1.000
 5799.00    2.11195   2.10906  154.962
 5800.00    2.14530   2.12045   -1.000
 5801.00    2.15279   2.12935   -1.000
 5802.00    2.15020   2.13056   -1.000
 5803.00    2.14077   2.12371   -1.000
 5804.00    2.11763   2.11306  153.508
 5805.00    2.12258   2.10490   -1.000
 5806.00    2.12125   2.10302   -1.000
 5807.00    2.11457   2.10640  154.744
 5808.00    2.12912   2.11182   -1.000
 5809.00    2.12553   2.11740  153.758
 5810.00    2.13953   2.12255   -1.000
 5811.00    2.16329   2.12582   -1.000
 5812.00    2.16859   2.12524   -1.000
 5813.00    2.15958   2.11994   -1.000
 5814.00    2.15501   2.11099   -1.000
 5815.00    2.14409   2.10227   -1.000
 5816.00    2.13377   2.09997   -1.000
 5817.00    2.14692   2.10754   -1.000
 5818.00    2.17365   2.12113   -1.000
 5819.00    2.18700   2.13294   -1.000
 5820.00    2.16275   2.13857   -1.000
 5821.00    2.18085   2.13937   -1.000
 5822.00    2.19095   2.13879   -1.000
 5823.00    2.16997   2.13865   -1.000
 5824.00    2.16203   2.13893   -1.000
 5825.00    2.15492   2.13967   -1.000
 5826.00    2.16038   2.14139   -1.000
 5827.00    2.18274   2.14396   -1.000
 5828.00    2.17556   2.14628   -1.000
 5829.00    2.18350   2.14742   -1.000
 5830.00    2.19114   2.14730   -1.000
 5831.00    2.18827   2.14598   -1.000
 5832.00    2.16363   2.14315   -1.000
 5833.00    2.16968   2.13897   -1.000
 5834.00    2.16371   2.13525   -1.000
 5835.00    2.17929   2.13443   -1.000
 5836.00    2.18134   2.13691   -1.000
 5837.00    2.17500   2.14055   -1.000
 5838.00    2.15981   2.14355   -1.000
 5839.00    2.14179   2.14646  152.299
 5840.00    2.15718   2.15018  151.653
 5841.00    2.17234   2.15365   -1.000
 5842.00    2.17493   2.15461   -1.000
 5843.00    2.16796   2.15190   -1.000
 5844.00    2.15516   2.14580  150.559
 5845.00    2.15782   2.13729   -1.000
 5846.00    2.16523   2.12857   -1.000
 5847.00    2.17015   2.12280   -1.000
 5848.00    2.16154   2.12113   -1.000
 5849.00    2.14583   2.12045   -1.000
 5850.00    2.13256   2.11586   -1.000
 5851.00    2.11724   2.10534  154.709
 5852.00    2.11267   2.09156   -1.000
 5853.00    2.10406   2.07884   -1.000
 5854.00    2.09836   2.06823   -1.000
 5855.00    2.09569   2.05589   -1.000
 5856.00    2.10205   2.03873   -1.000
 5857.00    2.07711   2.02254   -1.000
 5858.00    2.07266   2.01903   -1.000
 5859.00    2.10525   2.03214   -1.000
 5860.00    2.12338   2.05369   -1.000
 5861.00    2.14945   2.07304   -1.000
 5862.00    2.15345   2.08612   -1.000
 5863.00    2.14213   2.09432   -1.000
 5864.00    2.13842   2.09797   -1.000
 5865.00    2.12016   2.09583   -1.000
 5866.00    2.11152   2.09061   -1.000
 5867.00    2.11704   2.08921   -1.000
 5868.00    2.13393   2.09649   -1.000
 5869.00    2.17355   2.11024   -1.000
 5870.00    2.16257   2.12307   -1.000
 5871.00    2.17161   2.12882   -1.000
 5872.00    2.16020   2.12691   -1.000
 5873.00    2.15940   2.12108   -1.000
 5874.00    2.15338   2.11513   -1.000
 5875.00    2.15555   2.11029   -1.000
 5876.00    2.15085   2.10584   -1.000
 5877.00    2.12579   2.10075   -1.000
 5878.00    2.15694   2.09458   -1.000
 5879.00    2.17332   2.08785   -1.000
 5880.00    2.15650   2.08154   -1.000
 5881.00    2.14006   2.07546   -1.000
 5882.00    2.13103   2.06817   -1.000
 5883.00    2.12163   2.05905   -1.000
 5884.00    2.12136   2.04826   -1.000
 5885.00    2.12793   2.03141   -1.000
 5886.00    2.09204   1.99506   -1.000
 5887.00    2.01028   1.92492   -1.000
 5888.00    1.85142   1.82551   -1.000
 5889.00    1.61700   1.73085   -1.000
 5890.00    1.50632   1.68459   -1.000
 5891.00    1.62912   1.69940   -1.000
 5892.00    1.93110   1.74315   -1.000
 5893.00    2.07211   1.77138   -1.000
 5894.00    1.96707   1.76572   -1.000
 5895.00    1.78344   1.74427   -1.000
 5896.00    1.65717   1.74210   -1.000
 5897.00    1.74683   1.77910   -1.000
 5898.00    1.96134   1.84400   -1.000
 5899.00    2.10235   1.91158   -1.000
 5900.00    2.11193   1.96749   -1.000
 5901.00    2.08578   2.01004   -1.000
 5902.00    2.09962   2.03997   -1.000
 5903.00    2.11151   2.05805   -1.000
 5904.00    2.10153   2.06727   -1.000
 5905.00    2.10927   2.07234   -1.000
 5906.00    2.12431   2.07722   -1.000
 5907.00    2.11429   2.08314   -1.000
 5908.00    2.11888   2.08931   -1.000
 5909.00    2.12575   2.09450   -1.000
 5910.00    2.13300   2.09721   -1.000
 5911.00    2.13140   2.09507   -1.000
 5912.00    2.13171   2.08597   -1.000
 5913.00    2.10638   2.07156   -1.000
 5914.00    2.09254   2.05829   -1.000
 5915.00    2.08331   2.05274   -1.000
 5916.00    2.07162   2.05694  162.133
 5917.00    2.11872   2.06835   -1.000
 5918.00    2.11061   2.08199   -1.000
 5919.00    2.11835   2.09275   -1.000
 5920.00    2.13216   2.09802   -1.000
 5921.00    2.11517   2.09876   -1.000
 5922.00    2.09952   2.09815  159.171
 5923.00    2.10398   2.09948  159.261
 5924.00    2.11666   2.10404  158.506
 5925.00    2.10265   2.10989  158.066
 5926.00    2.09838   2.11245  157.816
 5927.00    2.13095   2.10789   -1.000
 5928.00    2.15527   2.09725   -1.000
 5929.00    2.13527   2.08695   -1.000
 5930.00    2.12236   2.08377   -1.000
 5931.00    2.13455   2.08865   -1.000
 5932.00    2.13259   2.09566   -1.000
 5933.00    2.11001   2.09898  157.990
 5934.00    2.09771   2.09985  159.427
 5935.00    2.14101   2.10341   -1.000
 5936.00    2.15441   2.11087   -1.000
 5937.00    2.13237   2.11807  159.229
 5938.00    2.16179   2.12012   -1.000
 5939.00    2.16144   2.11554   -1.000
 5940.00    2.15488   2.10714   -1.000
 5941.00    2.12927   2.10023   -1.000
 5942.00    2.11680   2.09893   -1.000
 5943.00    2.09421   2.10327  160.427
 5944.00    2.10978   2.10965  159.371
 5945.00    2.12339   2.11335  158.477
 5946.00    2.12157   2.11126  157.975
 5947.00    2.10042   2.10433  158.654
 5948.00    2.10531   2.09751  160.231
 5949.00    2.10338   2.09534  161.860
 5950.00    2.11416   2.09715   -1.000
 5951.00    2.12708   2.09820   -1.000
 5952.00    2.10896   2.09637  160.486
 5953.00    2.09739   2.09471  161.018
 5954.00    2.11292   2.09509   -1.000
 5955.00    2.13781   2.09500   -1.000
 5956.00    2.14871   2.09332   -1.000
 5957.00    2.11786   2.09373   -1.000
 5958.00    2.09919   2.10016  161.416
 5959.00    2.12382   2.11216  160.583
 5960.00    2.14999   2.12512   -1.000
 5961.00    2.17389   2.13433   -1.000
 5962.00    2.17753   2.13792   -1.000
 5963.00    2.17211   2.13645   -1.000
 5964.00    2.16865   2.13179   -1.000
 5965.00    2.14711   2.12683   -1.000
 5966.00    2.14334   2.12463   -1.000
 5967.00    2.14851   2.12649   -1.000
 5968.00    2.13966   2.13155  158.454
 5969.00    2.14402   2.13821  157.186
 5970.00    2.15833   2.14478  156.982
 5971.00    2.16414   2.14907   -1.000
 5972.00    2.16907   2.14899   -1.000
 5973.00    2.17870   2.14320   -1.000
 5974.00    2.17734   2.13167   -1.000
 5975.00    2.15708   2.11696   -1.000
 5976.00    2.12807   2.10449   -1.000
 5977.00    2.11282   2.09986  161.119
 5978.00    2.11872   2.10485  161.681
 5979.00    2.14927   2.11570   -1.000
 5980.00    2.18799   2.12499   -1.000
 5981.00    2.17030   2.12568   -1.000
 5982.00    2.15685   2.11590   -1.000
 5983.00    2.15641   2.10116   -1.000
 5984.00    2.13541   2.09087   -1.000
 5985.00    2.13684   2.09101   -1.000
 5986.00    2.14076   2.10000   -1.000
 5987.00    2.15557   2.11193   -1.000
 5988.00    2.17571   2.12192   -1.000
 5989.00    2.17373   2.12803   -1.000
 5990.00    2.16684   2.13107   -1.000
 5991.00    2.17898   2.13430   -1.000
 5992.00    2.16631   2.14091   -1.000
 5993.00    2.20311   2.14950   -1.000
 5994.00    2.19751   2.15420   -1.000
 5995.00    2.18160   2.15107   -1.000
 5996.00    2.17478   2.14238   -1.000
 5997.00    2.18015   2.13403   -1.000
 5998.00    2.16974   2.13038   -1.000
 5999.00    2.18827   2.13110   -1.000
 6000.00    2.17748   2.13219   -1.000
 6001.00    2.17045   2.13017   -1.000
 6002.00    2.15238   2.12554   -1.000
 6003.00    2.13888   2.12175   -1.000
 6004.00    2.14996   2.11977   -1.000
 6005.00    2.15343   2.11562   -1.000
 6006.00    2.15480   2.10612   -1.000
 6007.00    2.13210   2.09559   -1.000
 6008.00    2.12930   2.09297   -1.000
 6009.00    2.13926   2.10183   -1.000
 6010.00    2.16012   2.11545   -1.000
 6011.00    2.15511   2.12369   -1.000
 6012.00    2.15916   2.12332   -1.000
 6013.00    2.14035   2.11878   -1.000
 6014.00    2.15334   2.11508   -1.000
 6015.00    2.17967   2.11339   -1.000
 6016.00    2.17203   2.11239   -1.000
 6017.00    2.15924   2.11060   -1.000
 6018.00    2.15537   2.10663   -1.000
 6019.00    2.16791   2.10012   -1.000
 6020.00    2.17415   2.09379   -1.000
 6021.00    2.14893   2.09185   -1.000
 6022.00    2.14262   2.09536   -1.000
 6023.00    2.15533   2.10258   -1.000
 6024.00    2.15911   2.11281   -1.000
 6025.00    2.17438   2.12576   -1.000
 6026.00    2.19640   2.13901   -1.000
 6027.00    2.20483   2.15041   -1.000
 6028.00    2.19863   2.16015   -1.000
 6029.00    2.19744   2.16837   -1.000
 6030.00    2.20758   2.17425   -1.000
 6031.00    2.20155   2.17820   -1.000
 6032.00    2.19985   2.18211   -1.000
 6033.00    2.21158   2.18708   -1.000
 6034.00    2.21916   2.19177   -1.000
 6035.00    2.22003   2.19385   -1.000
 6036.00    2.21981   2.19238   -1.000
 6037.00    2.22256   2.18810   -1.000
 6038.00    2.20792   2.18206   -1.000
 6039.00    2.20494   2.17560   -1.000
 6040.00    2.21098   2.17074   -1.000
 6041.00    2.21344   2.16935   -1.000
 6042.00    2.20328   2.17200   -1.000
 6043.00    2.21566   2.17758   -1.000
 6044.00    2.22228   2.18397   -1.000
 6045.00    2.22302   2.18954   -1.000
 6046.00    2.25670   2.19427   -1.000
 6047.00    2.24695   2.19874   -1.000
 6048.00    2.22485   2.20255   -1.000
 6049.00    2.22338   2.20458   -1.000
 6050.00    2.23336   2.20407   -1.000
 6051.00    2.24115   2.20070   -1.000
 6052.00    2.25708   2.19412   -1.000
 6053.00    2.22123   2.18455   -1.000
 6054.00    2.22471   2.17394   -1.000
 6055.00    2.20756   2.16592   -1.000
 6056.00    2.20788   2.16392   -1.000
 6057.00    2.22061   2.16848   -1.000
 6058.00    2.24212   2.17658   -1.000
 6059.00    2.22832   2.18383   -1.000
 6060.00    2.21449   2.18673   -1.000
 6061.00    2.18672   2.18295  157.671
 6062.00    2.32447   2.17148   -1.000
 6063.00    1.88288   2.15416   -1.000
 6064.00    0.75244   2.13775   -1.000
 6065.00    2.33939   2.13191   -1.000
 6066.00    2.33275   2.14131   -1.000
 6067.00    2.21768   2.16079   48.181
 6068.00    2.30575   2.18100   -1.000
 6069.00    2.04550   2.19609   -1.000
 6070.00    0.47976   2.20519   -1.000
 6071.00    1.91963   2.21006   -1.000
 6072.00    2.32246   2.21269   -1.000
 6073.00    2.21261   2.21378  155.595
 6074.00    2.21955   2.21249  156.160
 6075.00    2.25532   2.20749   -1.000
 6076.00    2.25849   2.19827   -1.000
 6077.00    2.22331   2.18612   -1.000
 6078.00    2.18088   2.17451  158.655
 6079.00    2.18123   2.16662   -1.000
 6080.00    2.20543   2.16211   -1.000
 6081.00    2.17843   2.15860   -1.000
 6082.00    2.17517   2.15539   -1.000
 6083.00    2.18805   2.15345   -1.000
 6084.00    2.20571   2.15396   -1.000
 6085.00    2.20568   2.15784   -1.000
 6086.00    2.19480   2.16432   -1.000
 6087.00    2.19840   2.16996   -1.000
 6088.00    2.19915   2.17110   -1.000
 6089.00    2.20511   2.16745   -1.000
 6090.00    2.20253   2.16248   -1.000
 6091.00    2.19860   2.16049   -1.000
 6092.00    2.20039   2.16362   -1.000
 6093.00    2.21689   2.17096   -1.000
 6094.00    2.21578   2.17984   -1.000
 6095.00    2.21413   2.18775   -1.000
 6096.00    2.21791   2.19359   -1.000
 6097.00    2.23428   2.19674   -1.000
 6098.00    2.23835   2.19466   -1.000
 6099.00    2.22350   2.18236   -1.000
 6100.00    2.21090   2.15665   -1.000
 6101.00    2.18385   2.12290   -1.000
 6102.00    2.15639   2.09647   -1.000
 6103.00    2.12672   2.09214   -1.000
 6104.00    2.15914   2.11039   -1.000
 6105.00    2.20713   2.13809   -1.000
 6106.00    2.21715   2.16240   -1.000
 6107.00    2.20066   2.17926   -1.000
 6108.00    2.18542   2.19026  160.835
 6109.00    2.19611   2.19688  161.161
 6110.00    2.21151   2.19978  161.024
 6111.00    2.21134   2.20095  160.627
 6112.00    2.20572   2.20294  159.897
 6113.00    2.22408   2.20612   -1.000
 6114.00    2.22028   2.20849  158.969
 6115.00    2.23073   2.20824   -1.000
 6116.00    2.22193   2.20542   -1.000
 6117.00    2.20640   2.19969  160.551
 6118.00    2.18388   2.18793  160.664
 6119.00    2.18752   2.16632   -1.000
 6120.00    2.16975   2.13614   -1.000
 6121.00    2.14430   2.10715   -1.000
 6122.00    2.14329   2.09245   -1.000
 6123.00    2.15380   2.09787   -1.000
 6124.00    2.18874   2.11748   -1.000
 6125.00    2.19313   2.13968   -1.000
 6126.00    2.19463   2.15630   -1.000
 6127.00    2.18152   2.16670   -1.000
 6128.00    2.16110   2.17526  163.386
 6129.00    2.18087   2.18586  163.001
 6130.00    2.18753   2.19828  161.517
 6131.00    2.19304   2.20857  160.023
 6132.00    2.20475   2.21037  159.884
 6133.00    2.18270   2.19640  160.300
 6134.00    2.15609   2.16307  162.063
 6135.00    2.12577   2.11726  166.069
 6136.00    2.07741   2.07703  171.113
 6137.00    2.05701   2.05967  175.159
 6138.00    2.08782   2.06623   -1.000
 6139.00    2.13875   2.08386   -1.000
 6140.00    2.14562   2.10310   -1.000
 6141.00    2.14548   2.12424   -1.000
 6142.00    2.14474   2.14869  164.416
 6143.00    2.14876   2.17266   -1.000
 6144.00    2.19642   2.18972  162.635
 6145.00    2.19050   2.19626  160.732
 6146.00    2.20961   2.19346   -1.000
 6147.00    2.20584   2.18493   -1.000
 6148.00    2.18013   2.17435  162.688
 6149.00    2.16725   2.16531  163.878
 6150.00    2.13858   2.16156  164.768
 6151.00    2.15567   2.16448  164.628
 6152.00    2.17466   2.16987  163.934
 6153.00    2.17672   2.17117  162.745
 6154.00    2.15854   2.16675  162.744
 6155.00    2.17901   2.16052   -1.000
 6156.00    2.19264   2.15541   -1.000
 6157.00    2.17717   2.14842   -1.000
 6158.00    2.17173   2.13160   -1.000
 6159.00    2.12565   2.09799   -1.000
 6160.00    2.10304   2.04972   -1.000
 6161.00    2.04861   2.00171   -1.000
 6162.00    1.98095   1.97365  181.744
 6163.00    1.98920   1.97536   -1.000
 6164.00    2.03042   2.00008   -1.000
 6165.00    2.07309   2.03124   -1.000
 6166.00    2.08488   2.05285   -1.000
 6167.00    2.07109   2.05687   -1.000
 6168.00    2.05009   2.04821  172.249
 6169.00    2.02091   2.04206  174.745
 6170.00    2.03045   2.05040  176.308
 6171.00    2.05498   2.07196  174.509
 6172.00    2.11574   2.09701   -1.000
 6173.00    2.10471   2.11761  168.755
 6174.00    2.10238   2.13107   -1.000
 6175.00    2.10961   2.13886   -1.000
 6176.00    2.10216   2.14431   -1.000
 6177.00    2.10789   2.14982   -1.000
 6178.00    2.13897   2.15546  168.050
 6179.00    2.14362   2.16100  167.168
 6180.00    2.14375   2.16731   -1.000
 6181.00    2.14189   2.17445   -1.000
 6182.00    2.14366   2.17990   -1.000
 6183.00    2.15161   2.18047   -1.000
 6184.00    2.14468   2.17505   -1.000
 6185.00    2.14035   2.16492   -1.000
 6186.00    2.11086   2.15245   -1.000
 6187.00    2.09213   2.13920   -1.000
 6188.00    2.11363   2.12404  171.080
 6189.00    2.10392   2.10525  172.679
 6190.00    2.07395   2.08708  173.890
 6191.00    2.03087   2.08017   -1.000
 6192.00    2.04977   2.09072   -1.000
 6193.00    2.10556   2.11346  174.667
 6194.00    2.13876   2.13776  170.036
 6195.00    2.14277   2.15616  167.595
 6196.00    2.12900   2.16554   -1.000
 6197.00    2.13116   2.16549   -1.000
 6198.00    2.11043   2.15879   -1.000
 6199.00    2.09147   2.15183   -1.000
 6200.00    2.08899   2.15101   -1.000
 6201.00    2.08024   2.15812   -1.000
 6202.00    2.09640   2.17006   -1.000
 6203.00    2.09923   2.18250   -1.000
 6204.00    2.09569   2.19254   -1.000
 6205.00    2.11932   2.19927   -1.000
 6206.00    2.13403   2.20304   -1.000
 6207.00    2.13945   2.20415   -1.000
 6208.00    2.13893   2.20184   -1.000
 6209.00    2.14153   2.19449   -1.000
 6210.00    2.14836   2.18045   -1.000
 6211.00    2.12953   2.15978   -1.000
 6212.00    2.09536   2.13594   -1.000
 6213.00    2.07255   2.11532   -1.000
 6214.00    2.04834   2.10329   -1.000
 6215.00    2.04406   2.10029   -1.000
 6216.00    2.06245   2.10167   -1.000
 6217.00    2.07003   2.10186   -1.000
 6218.00    2.06093   2.09963   -1.000
 6219.00    2.04613   2.09891   -1.000
 6220.00    2.07364   2.10382   -1.000
 6221.00    2.01040   2.11357   -1.000
 6222.00    1.95547   2.12371   -1.000
 6223.00    2.11772   2.13108  189.682
 6224.00    2.12036   2.13535  179.850
 6225.00    2.10974   2.13663   -1.000
 6226.00    2.09700   2.13299   -1.000
 6227.00    2.09368   2.12090   -1.000
 6228.00    2.09050   2.09928  173.721
 6229.00    2.06992   2.07365  176.311
 6230.00    2.02692   2.05500   -1.000
 6231.00    2.01952   2.05274   -1.000
 6232.00    2.03876   2.06807   -1.000
 6233.00    2.08007   2.09319  177.298
 6234.00    2.08475   2.11652   -1.000
 6235.00    2.10395   2.12947   -1.000
 6236.00    2.09922   2.13009   -1.000
 6237.00    2.09712   2.12228   -1.000
 6238.00    2.10677   2.11190  173.913
 6239.00    2.08896   2.10293  175.672
 6240.00    2.06017   2.09584   -1.000
 6241.00    2.06611   2.08853   -1.000
 6242.00    2.07051   2.07899  177.939
 6243.00    2.05682   2.06786  179.485
 6244.00    2.02677   2.05879   -1.000
 6245.00    2.04034   2.05707  180.260
 6246.00    2.06786   2.06668  178.969
 6247.00    2.08098   2.08617  177.106
 6248.00    2.08569   2.10726   -1.000
 6249.00    2.10605   2.11899  173.061
 6250.00    2.11087   2.11503  173.150
 6251.00    2.07960   2.09776  175.023
 6252.00    2.02988   2.07634   -1.000
 6253.00    2.02783   2.05978   -1.000
 6254.00    2.01505   2.05121   -1.000
 6255.00    2.02923   2.04799  181.965
 6256.00    2.02100   2.04677   -1.000
 6257.00    2.00162   2.04787   -1.000
 6258.00    1.96342   2.05447   -1.000
 6259.00    2.00214   2.06868   -1.000
 6260.00    2.06027   2.08905   -1.000
 6261.00    2.08603   2.11099   -1.000
 6262.00    2.08795   2.12878   -1.000
 6263.00    2.10225   2.13894   -1.000
 6264.00    2.09974   2.14301   -1.000
 6265.00    2.08263   2.14579   -1.000
 6266.00    2.07669   2.14996   -1.000
 6267.00    2.09119   2.15355   -1.000
 6268.00    2.08180   2.15374   -1.000
 6269.00    2.06620   2.15156   -1.000
 6270.00    2.07496   2.15074   -1.000
 6271.00    2.09223   2.15266   -1.000
 6272.00    2.09957   2.15381   -1.000
 6273.00    2.10355   2.14852   -1.000
 6274.00    2.10282   2.13430   -1.000
 6275.00    2.08763   2.11380   -1.000
 6276.00    2.04364   2.09256   -1.000
 6277.00    2.01391   2.07520   -1.000
 6278.00    1.97521   2.06392   -1.000
 6279.00    1.92774   2.06041   -1.000
 6280.00    1.90526   2.06662   -1.000
 6281.00    1.91212   2.08242   -1.000
 6282.00    1.92505   2.10443   -1.000
 6283.00    1.92550   2.12716   -1.000
 6284.00    1.95286   2.14608   -1.000
 6285.00    1.95429   2.15955   -1.000
 6286.00    1.98143   2.16818   -1.000
 6287.00    2.01814   2.17224   -1.000
 6288.00    2.05147   2.17093   -1.000
 6289.00    2.06263   2.16478   -1.000
 6290.00    2.08754   2.15686   -1.000
 6291.00    2.08413   2.15067   -1.000
 6292.00    2.08008   2.14755   -1.000
 6293.00    2.08357   2.14594   -1.000
 6294.00    2.07288   2.14241   -1.000
 6295.00    2.05807   2.13434   -1.000
 6296.00    2.06124   2.12314   -1.000
 6297.00    2.08590   2.11322   -1.000
 6298.00    2.28024   2.10687   -1.000
 6299.00    2.57687   2.10213   -1.000
 6300.00    2.97800   2.09745   -1.000
 6301.00    3.92196   2.09648   -1.000
 6302.00    4.85891   2.10472   -1.000
 6303.00    4.80759   2.12230   -1.000
 6304.00    4.07317   2.14334   -1.000
 6305.00    2.98994   2.16175   -1.000
 6306.00    2.32138   2.17468   -1.000
 6307.00    2.16219   2.18175  173.052
 6308.00    2.12245   2.18388   -1.000
 6309.00    2.12299   2.18258   -1.000
 6310.00    2.10028   2.17903   -1.000
 6311.00    2.09370   2.17361   -1.000
 6312.00    2.09694   2.16571   -1.000
 6313.00    2.08302   2.15511   -1.000
 6314.00    2.07547   2.14328   -1.000
 6315.00    2.05245   2.13229   -1.000
 6316.00    2.04617   2.12393   -1.000
 6317.00    2.04906   2.12064   -1.000
 6318.00    2.04332   2.12548   -1.000
 6319.00    2.04311   2.13841   -1.000
 6320.00    2.06175   2.15465   -1.000
 6321.00    2.06665   2.16943   -1.000
 6322.00    2.08233   2.18242   -1.000
 6323.00    2.08574   2.19476   -1.000
 6324.00    2.11449   2.20518   -1.000
 6325.00    2.12918   2.21154   -1.000
 6326.00    2.11611   2.21363   -1.000
 6327.00    2.10916   2.21346   -1.000
 6328.00    2.10078   2.21310   -1.000
 6329.00    2.10674   2.21359   -1.000
 6330.00    2.12776   2.21506   -1.000
 6331.00    2.13111   2.21553   -1.000
 6332.00    2.13114   2.21060   -1.000
 6333.00    2.06395   2.19698   -1.000
 6334.00    2.07498   2.17714   -1.000
 6335.00    2.09666   2.15953   -1.000
 6336.00    2.06362   2.15247   -1.000
 6337.00    2.07310   2.15786   -1.000
 6338.00    2.09981   2.17176   -1.000
 6339.00    2.13868   2.18843   -1.000
 6340.00    2.14736   2.20200   -1.000
 6341.00    2.12598   2.20799   -1.000
 6342.00    2.11834   2.20606   -1.000
 6343.00    2.09881   2.20036   -1.000
 6344.00    2.08283   2.19653   -1.000
 6345.00    2.08502   2.19818   -1.000
 6346.00    2.10303   2.20623   -1.000
 6347.00    2.12141   2.21906   -1.000
 6348.00    2.12374   2.23281   -1.000
 6349.00    2.12031   2.24324   -1.000
 6350.00    2.13595   2.24779   -1.000
 6351.00    2.13532   2.24572   -1.000
 6352.00    2.10607   2.23773   -1.000
 6353.00    2.10105   2.22626   -1.000
 6354.00    2.07806   2.21496   -1.000
 6355.00    2.06781   2.20592   -1.000
 6356.00    2.07014   2.19783   -1.000
 6357.00    2.08597   2.18890   -1.000
 6358.00    2.09365   2.17977   -1.000
 6359.00    2.06875   2.17172   -1.000
 6360.00    2.10664   2.16493   -1.000
 6361.00    2.15764   2.16009  172.821
 6362.00    2.22794   2.15933   -1.000
 6363.00    2.37499   2.16432   -1.000
 6364.00    2.66243   2.17438   -1.000
 6365.00    2.94719   2.18728   -1.000
 6366.00    2.99684   2.20041   -1.000
 6367.00    2.77724   2.21083   -1.000
 6368.00    2.40898   2.21661   -1.000
 6369.00    2.20356   2.21894  166.157
 6370.00    2.15179   2.22152   -1.000
 6371.00    2.10563   2.22705   -1.000
 6372.00    2.07617   2.23452   -1.000
 6373.00    2.08040   2.24057   -1.000
 6374.00    2.10054   2.24269   -1.000
 6375.00    2.10304   2.24043   -1.000
 6376.00    2.09989   2.23481   -1.000
 6377.00    2.08895   2.22777   -1.000
 6378.00    2.06705   2.22099   -1.000
 6379.00    2.05563   2.21539   -1.000
 6380.00    2.03985   2.21135   -1.000
 6381.00    2.03834   2.20911   -1.000
 6382.00    2.04984   2.20893   -1.000
 6383.00    2.03392   2.21131   -1.000
 6384.00    2.02141   2.21646   -1.000
 6385.00    2.02390   2.22312   -1.000
 6386.00    2.02431   2.22869   -1.000
 6387.00    2.00832   2.23137   -1.000
 6388.00    2.02451   2.23089   -1.000
 6389.00    2.04005   2.22659   -1.000
 6390.00    1.99559   2.21657   -1.000
 6391.00    1.97288   2.20123   -1.000
 6392.00    1.94140   2.18659   -1.000
 6393.00    1.92347   2.18103   -1.000
 6394.00    1.91549   2.18789   -1.000
 6395.00    1.93431   2.20144   -1.000
 6396.00    1.95576   2.21056   -1.000
 6397.00    1.94490   2.20709   -1.000
 6398.00    1.91264   2.19292   -1.000
 6399.00    1.87536   2.17966   -1.000
 6400.00    1.84638   2.17883   -1.000
 6401.00    1.87891   2.19267   -1.000
 6402.00    1.88770   2.21385   -1.000
 6403.00    1.89125   2.23197   -1.000
 6404.00    1.91390   2.23963   -1.000
 6405.00    1.88766   2.23549   -1.000
 6406.00    1.87145   2.22495   -1.000
 6407.00    1.86116   2.21596   -1.000
 6408.00    1.82631   2.21237   -1.000
 6409.00    1.80140   2.21158   -1.000
 6410.00    1.79573   2.21058   -1.000
 6411.00    1.79699   2.21055   -1.000
 6412.00    1.76387   2.21394   -1.000
 6413.00    1.74488   2.22022   -1.000
 6414.00    1.75559   2.22682   -1.000
 6415.00    1.76582   2.23152   -1.000
 6416.00    1.73057   2.23241   -1.000
 6417.00    1.71594   2.22734   -1.000
 6418.00    1.69521   2.21617   -1.000
 6419.00    1.66887   2.20335   -1.000
 6420.00    1.64699   2.19687   -1.000
 6421.00    1.62130   2.20308   -1.000
 6422.00    1.61099   2.22046   -1.000
 6423.00    1.61718   2.24124   -1.000
 6424.00    1.62916   2.25906   -1.000
 6425.00    1.60418   2.27111   -1.000
 6426.00    1.58969   2.27567   -1.000
 6427.00    1.56182   2.27021   -1.000
 6428.00    1.53173   2.25416   -1.000
