###################################################################
## OUTPUT of StarlightChains_v04.for    [Cid@UFSC - 01/Apr/2007] ##
###################################################################

## Some input info
NGC6553_a_1.cxt                          [arq_obs]
Base.BC03.N                              [arq_base]
NGC6553_a_1.msk                          [arq_masks]
StCv04.C11.config                        [arq_config]
   45                                    [N_base]
    0                                    [N_YAV_components = # of components with extra extinction!]
    0                                    [i_FitPowerLaw (1/0 = Yes/No)]
-9.99                                    [alpha_PowerLaw]
CCM                                      [red_law_option]
 1.458241                                [q_norm = A(l_norm)/A(V)]

## (Re)Sampling Parameters
 3359.00                                 [l_ini (A)]
 6428.00                                 [l_fin (A)]
    1.00                                 [dl    (A)]     (OBS: dl_cushion =    50.00 A)

## Normalization info
 4020.00                                 [l_norm (A) - for base]
 4010.00                                 [llow_norm (A) - window for f_obs]
 4060.00                                 [lupp_norm (A) - window for f_obs]
3.120735E-15                             [fobs_norm (in input units)]

## S/N
 4730.00                                 [llow_SN (A) - window for S/N]
 4780.00                                 [lupp_SN (A) - window for S/N]
  23.083                                 [S/N in S/N window]
  11.394                                 [S/N in norm. window]
 239.013                                 [S/N_err in S/N window]
 117.980                                 [S/N_err in norm. window]
  1.0000                                 [fscale_chi2]

## etc...
  2147483599                             [idum_orig]
  3066                                   [NOl_eff]
  1739                                   [Nl_eff]
  1327    NSIGMA                         [Ntot_cliped & clip_method]
  1218700                                [Nglobal_steps]
   7                                     [N_chains]
  16                                     [NEX0s_base = N_base in EX0s-fits]
 0   0   1       98   2.0   2.803E+02    [Clip-Bug, RC-Crash & Burn-In warning-flags, n_censored_weights, wei_nsig_threshold & wei_limit]
    14     14.055     14.043      0.012  [idt_all, wdt_TotTime, wdt_UsrTime & wdt_SysTime (sec)]

## Synthesis Results - Best model ##

 2.45208E+00                             [chi2/Nl_eff]
     2.30995                             [adev (%)]

    96.41380                             [sum-of-x (%)]
 9.16811E-14                             [Flux_tot (units of input spectrum!)]
 5.45767E-09                             [Mini_tot (???)]
 2.75889E-09                             [Mcor_tot (???)]

 -21.90                                  [v0_min  (km/s)]
   0.00                                  [vd_min  (km/s)]
 2.5440                                  [AV_min  (mag)]
 0.0000                                  [YAV_min (mag)]

# j     x_j(%)      Mini_j(%)     Mcor_j(%)     age_j(yr)     Z_j      (L/M)_j    YAV?  Mstars   component_j        a/Fe...       SSP_chi2r SSP_adev(%)   SSP_AV   SSP_x(%)
  1      7.7843     1.2175E-02    2.4085E-02    1.000000E+06  0.00400  1.114E-02    0   1.0000   age020_m42            0.0000     2.0218E+03    47.3450   4.0000   114.6971
  2      5.1715     2.2123E-03    4.3759E-03    3.160000E+06  0.00400  4.073E-02    0   0.9999   age045_m42            0.0000     6.6818E+02    28.0805   4.0000   118.4529
  3      8.6475     5.9459E-03    1.1160E-02    5.010000E+06  0.00400  2.534E-02    0   0.9488   age055_m42            0.0000     1.1361E+03    36.4392   4.0000   118.3077
  4      2.5119     3.4435E-03    6.0367E-03    1.000000E+07  0.00400  1.271E-02    0   0.8862   age070_m42            0.0000     4.0964E+02    20.2483   4.0000   110.9662
  5      0.0000     0.0000E+00    0.0000E+00    2.512000E+07  0.00400  5.070E-03    0   0.8174   age090_m42            0.0000     3.0911E+02    17.4031   4.0000   110.1755
  6      0.0000     0.0000E+00    0.0000E+00    4.000000E+07  0.00400  3.505E-03    0   0.7851   age104_m42            0.0000     1.5719E+02    11.2745   4.0000   105.9492
  7      0.0000     0.0000E+00    0.0000E+00    1.015200E+08  0.00400  2.268E-03    0   0.7207   age116_m42            0.0000     3.4031E+02    17.2648   4.0000   111.7237
  8      0.0000     0.0000E+00    0.0000E+00    2.861200E+08  0.00400  1.079E-03    0   0.6613   age125_m42            0.0000     2.9978E+02    12.4415   3.9306   103.0841
  9      0.0000     0.0000E+00    0.0000E+00    6.405400E+08  0.00400  5.077E-04    0   0.6197   age132_m42            0.0000     3.0604E+02    12.6583   3.5706   107.1451
 10      0.0000     0.0000E+00    0.0000E+00    9.047900E+08  0.00400  3.535E-04    0   0.6024   age135_m42            0.0000     2.4141E+02    11.8573   3.3171   106.9460
 11      0.0000     0.0000E+00    0.0000E+00    1.434000E+09  0.00400  1.910E-04    0   0.5716   age139_m42            0.0000     1.5666E+02    10.9486   2.7872   105.5110
 12      0.0000     0.0000E+00    0.0000E+00    2.500000E+09  0.00400  9.818E-05    0   0.5463   age150_m42            0.0000     9.3172E+01    10.0984   2.4707   101.9677
 13      0.0000     0.0000E+00    0.0000E+00    5.000000E+09  0.00400  4.718E-05    0   0.5228   age161_m42            0.0000     6.6814E+01     9.2890   2.2934    99.2569
 14      6.7883     5.3639E+00    5.2843E+00    1.100000E+10  0.00400  2.205E-05    0   0.4980   age185_m42            0.0000     7.3327E+01    10.0485   2.0303    96.7827
 15      6.4458     5.9643E+00    5.8132E+00    1.300000E+10  0.00400  1.883E-05    0   0.4927   age193_m42            0.0000     7.4733E+01    10.0705   2.0148    96.6227
 16      6.0632     5.3113E-03    1.0507E-02    1.000000E+06  0.02000  1.989E-02    0   1.0000   age020_m62            0.0000     1.9641E+03    46.5371   4.0000   115.6287
 17      3.9748     1.8360E-03    3.5804E-03    3.160000E+06  0.02000  3.772E-02    0   0.9858   age045_m62            0.0000     1.7421E+03    44.0666   4.0000   117.3938
 18      0.0029     1.5618E-06    2.8862E-06    5.010000E+06  0.02000  3.227E-02    0   0.9342   age055_m62            0.0000     9.5997E+02    33.6577   4.0000   119.5208
 19      4.1658     7.1792E-03    1.2428E-02    1.000000E+07  0.02000  1.011E-02    0   0.8751   age070_m62            0.0000     4.8679E+02    20.0928   4.0000   110.1307
 20      0.0000     0.0000E+00    0.0000E+00    2.512000E+07  0.02000  4.206E-03    0   0.8099   age090_m62            0.0000     3.7374E+02    18.8693   4.0000   108.5284
 21      0.0000     0.0000E+00    0.0000E+00    4.000000E+07  0.02000  3.373E-03    0   0.7799   age104_m62            0.0000     2.7757E+02    15.8613   4.0000   111.7973
 22      0.0000     0.0000E+00    0.0000E+00    1.015200E+08  0.02000  1.878E-03    0   0.7221   age116_m62            0.0000     3.3436E+02    16.6819   4.0000   113.7021
 23      0.0000     0.0000E+00    0.0000E+00    2.861200E+08  0.02000  8.869E-04    0   0.6700   age125_m62            0.0000     3.9193E+02    13.3871   3.9785   106.8442
 24      0.0000     0.0000E+00    0.0000E+00    6.405400E+08  0.02000  3.657E-04    0   0.6322   age132_m62            0.0000     3.0269E+02    13.7366   3.2668   109.7992
 25      0.0000     0.0000E+00    0.0000E+00    9.047900E+08  0.02000  2.312E-04    0   0.6152   age135_m62            0.0000     2.1722E+02    12.8315   2.8744   109.4674
 26      0.0000     0.0000E+00    0.0000E+00    1.434000E+09  0.02000  1.168E-04    0   0.5865   age139_m62            0.0000     1.1906E+02    11.2114   2.4154   105.3036
 27      0.0000     0.0000E+00    0.0000E+00    2.500000E+09  0.02000  5.505E-05    0   0.5610   age150_m62            0.0000     9.6035E+01    11.3119   2.0244   102.7870
 28      0.0000     0.0000E+00    0.0000E+00    5.000000E+09  0.02000  2.596E-05    0   0.5353   age161_m62            0.0000     1.2421E+02    12.7879   1.6910   102.0585
 29     10.1715     1.5160E+01    1.5304E+01    1.100000E+10  0.02000  1.169E-05    0   0.5103   age185_m62            0.0000     1.7883E+02    14.2784   1.3392   102.4871
 30     17.1533     3.0840E+01    3.0791E+01    1.300000E+10  0.02000  9.691E-06    0   0.5047   age193_m62            0.0000     1.9062E+02    14.4561   1.3000   102.4778
 31      1.3245     8.7052E-04    1.7217E-03    1.000000E+06  0.05000  2.651E-02    0   0.9998   age020_m72            0.0000     1.9213E+03    46.4483   4.0000   116.8726
 32      0.0000     0.0000E+00    0.0000E+00    3.160000E+06  0.05000  4.817E-02    0   0.9577   age045_m72            0.0000     1.4457E+03    41.1156   4.0000   119.7721
 33      0.0000     0.0000E+00    0.0000E+00    5.010000E+06  0.05000  3.101E-02    0   0.9147   age055_m72            0.0000     9.9448E+02    33.9038   4.0000   118.8228
 34      0.0000     0.0000E+00    0.0000E+00    1.000000E+07  0.05000  8.954E-03    0   0.8524   age070_m72            0.0000     1.2407E+03    38.4058   4.0000   120.3346
 35      0.0000     0.0000E+00    0.0000E+00    2.512000E+07  0.05000  4.207E-03    0   0.7902   age090_m72            0.0000     7.1466E+02    29.5659   4.0000   119.8489
 36      0.0000     0.0000E+00    0.0000E+00    4.000000E+07  0.05000  3.198E-03    0   0.7618   age104_m72            0.0000     4.2466E+02    20.6618   4.0000   117.6165
 37      0.0000     0.0000E+00    0.0000E+00    1.015200E+08  0.05000  1.716E-03    0   0.7092   age116_m72            0.0000     3.9552E+02    18.4014   4.0000   115.6256
 38      0.0000     0.0000E+00    0.0000E+00    2.861200E+08  0.05000  7.047E-04    0   0.6618   age125_m72            0.0000     3.7535E+02    13.6500   3.7693   106.8695
 39      0.0000     0.0000E+00    0.0000E+00    6.405400E+08  0.05000  2.633E-04    0   0.6253   age132_m72            0.0000     2.4880E+02    13.0998   2.9010   108.8310
 40      0.0000     0.0000E+00    0.0000E+00    9.047900E+08  0.05000  1.484E-04    0   0.6088   age135_m72            0.0000     1.5422E+02    12.3178   2.3747   104.9131
 41      0.0000     0.0000E+00    0.0000E+00    1.434000E+09  0.05000  7.827E-05    0   0.5847   age139_m72            0.0000     1.2487E+02    12.6579   1.9476   102.1273
 42      0.0000     0.0000E+00    0.0000E+00    2.500000E+09  0.05000  3.759E-05    0   0.5583   age150_m72            0.0000     1.3509E+02    13.2594   1.6133   101.4880
 43      1.9564     2.2020E+00    2.3174E+00    5.000000E+09  0.05000  1.548E-05    0   0.5320   age161_m72            0.0000     1.8823E+02    13.6590   1.2579    99.6567
 44     10.2941     2.7458E+01    2.7539E+01    1.100000E+10  0.05000  6.532E-06    0   0.5070   age185_m72            0.0000     2.8733E+02    15.5771   0.9194    97.4991
 45      3.9579     1.2972E+01    1.2877E+01    1.300000E+10  0.05000  5.316E-06    0   0.5018   age193_m72            0.0000     3.3052E+02    16.3719   0.8161    96.8228


## Synthesis Results - Average & Chains ##

# j      x_j: min, <> & last-chain-values for 1 ...  7 chains
  1      7.7843      7.7425      7.8129      7.7990      7.7575      7.7364      7.6109      7.9967      7.7942
  2      5.1715      3.0977      3.1210      3.1697      3.0417      3.2860      3.3874      3.0866      3.4724
  3      8.6475      8.3661      8.5272      8.4294      8.4077      8.4190      8.1897      8.4895      8.4615
  4      2.5119      2.3350      2.4640      2.3778      2.3451      2.3241      2.4603      2.3917      2.1958
  5      0.0000      0.0940      0.1456      0.0720      0.1243      0.0000      0.0694      0.0000      0.3603
  6      0.0000      0.0348      0.0000      0.0000      0.0000      0.1553      0.0000      0.2458      0.0000
  7      0.0000      0.0391      0.1111      0.1200      0.1724      0.0027      0.0000      0.1076      0.0000
  8      0.0000      0.0726      0.1670      0.0456      0.0832      0.0883      0.1289      0.0000      0.0322
  9      0.0000      0.0654      0.1414      0.0356      0.0035      0.0423      0.0495      0.2095      0.0000
 10      0.0000      0.0529      0.0921      0.0000      0.0000      0.0000      0.0000      0.0000      0.0000
 11      0.0000      0.0403      0.1189      0.0000      0.1037      0.0000      0.0000      0.2532      0.0943
 12      0.0000      0.0407      0.0000      0.0298      0.0000      0.0000      0.0000      0.0000      0.0000
 13      0.0000      0.0540      0.0000      0.0000      0.0000      0.0000      0.0503      0.0000      0.0000
 14      6.7883      6.4972      6.1251      6.5040      6.1864      6.3317      6.8156      6.0458      6.5784
 15      6.4458      5.9780      6.1849      5.8269      6.2077      5.9803      5.8636      6.2008      6.0408
 16      6.0632      6.0408      6.0985      6.0252      5.9315      6.0566      6.1207      6.1861      6.0777
 17      3.9748      4.4521      4.4435      4.4233      4.5115      4.4230      4.2974      4.3898      4.5171
 18      0.0029      0.7228      0.7523      0.8240      0.8769      0.7742      0.7398      0.6862      0.3373
 19      4.1658      3.7584      3.6841      3.8546      3.7704      3.8088      3.9816      3.7602      3.8537
 20      0.0000      0.0318      0.0000      0.0319      0.0000      0.0097      0.0000      0.0000      0.0000
 21      0.0000      0.0420      0.0000      0.0000      0.0000      0.0000      0.0000      0.0000      0.0000
 22      0.0000      0.0400      0.0000      0.0555      0.0978      0.0000      0.0364      0.0000      0.0953
 23      0.0000      0.0489      0.0000      0.3990      0.0662      0.2921      0.0000      0.0000      0.2002
 24      0.0000      0.0270      0.0000      0.0000      0.0000      0.0000      0.1883      0.0286      0.0000
 25      0.0000      0.0197      0.0000      0.0000      0.1142      0.0000      0.0181      0.0000      0.0000
 26      0.0000      0.0218      0.0000      0.0000      0.0000      0.0000      0.0000      0.0000      0.0000
 27      0.0000      0.0159      0.0000      0.0000      0.0000      0.0000      0.0000      0.0000      0.0000
 28      0.0000      0.0143      0.0000      0.0000      0.0247      0.0000      0.0000      0.0070      0.0000
 29     10.1715     12.0569     11.9822     11.7812     11.8160     11.3445     11.7160     11.7430     11.9408
 30     17.1533     18.1966     18.2792     18.2241     18.1318     18.2663     17.8880     18.3845     17.9182
 31      1.3245      1.7718      1.6971      1.8107      1.9873      1.7356      1.8341      1.4921      1.7513
 32      0.0000      0.0197      0.0000      0.0000      0.0031      0.0751      0.0062      0.0000      0.0121
 33      0.0000      0.2269      0.1365      0.0508      0.0000      0.2110      0.2330      0.2486      0.0000
 34      0.0000      0.0257      0.0000      0.0000      0.0000      0.0741      0.0000      0.0000      0.0730
 35      0.0000      0.0210      0.0000      0.0000      0.1881      0.0043      0.0000      0.0239      0.0000
 36      0.0000      0.0310      0.0000      0.0000      0.0000      0.0000      0.0000      0.0310      0.0000
 37      0.0000      0.0692      0.0574      0.0422      0.0000      0.3194      0.1609      0.0000      0.0000
 38      0.0000      0.0309      0.0000      0.0000      0.0000      0.0000      0.0000      0.0000      0.0987
 39      0.0000      0.0361      0.0000      0.0002      0.0000      0.0025      0.0226      0.0000      0.0000
 40      0.0000      0.0383      0.0000      0.0000      0.0357      0.0000      0.0000      0.0000      0.0000
 41      0.0000      0.0139      0.0000      0.0000      0.0000      0.0000      0.0000      0.0000      0.0000
 42      0.0000      0.0126      0.0000      0.0000      0.0000      0.0000      0.0010      0.0000      0.0000
 43      1.9564      1.2620      1.2877      1.4695      1.2718      1.3115      1.4871      1.3729      1.2262
 44     10.2941      9.6363      9.7479      9.8129      9.6844      9.9193      9.7260      9.6836      9.7792
 45      3.9579      3.3619      3.3609      3.3556      3.5709      3.5556      3.4755      3.4489      3.5765

# j      m_j: min, <> & last-chain-values for 1 ...  7 chains
  1  2.4085E-02  2.4046E-02  2.4215E-02  2.4188E-02  2.4026E-02  2.3954E-02  2.3658E-02  2.4782E-02  2.4105E-02
  2  4.3759E-03  2.6310E-03  2.6455E-03  2.6885E-03  2.5764E-03  2.7824E-03  2.8796E-03  2.6159E-03  2.9369E-03
  3  1.1160E-02  1.0837E-02  1.1024E-02  1.0904E-02  1.0862E-02  1.0873E-02  1.0619E-02  1.0974E-02  1.0915E-02
  4  6.0367E-03  5.6326E-03  5.9317E-03  5.7280E-03  5.6416E-03  5.5893E-03  5.9402E-03  5.7569E-03  5.2747E-03
  5  0.0000E+00  5.2413E-04  8.1029E-04  4.0131E-04  6.9131E-04  0.0000E+00  3.8746E-04  0.0000E+00  2.0014E-03
  6  0.0000E+00  2.6990E-04  0.0000E+00  0.0000E+00  0.0000E+00  1.1995E-03  0.0000E+00  1.9007E-03  0.0000E+00
  7  0.0000E+00  4.2963E-04  1.2188E-03  1.3179E-03  1.8902E-03  2.9636E-05  0.0000E+00  1.1803E-03  0.0000E+00
  8  0.0000E+00  1.5386E-03  3.5332E-03  9.6518E-04  1.7592E-03  1.8670E-03  2.7350E-03  0.0000E+00  6.7985E-04
  9  0.0000E+00  2.7626E-03  5.9590E-03  1.5022E-03  1.4792E-04  1.7806E-03  2.0916E-03  8.8276E-03  0.0000E+00
 10  0.0000E+00  3.1209E-03  5.4182E-03  0.0000E+00  0.0000E+00  0.0000E+00  0.0000E+00  0.0000E+00  0.0000E+00
 11  0.0000E+00  4.1706E-03  1.2288E-02  0.0000E+00  1.0704E-02  0.0000E+00  0.0000E+00  2.6162E-02  9.7177E-03
 12  0.0000E+00  7.8301E-03  0.0000E+00  5.7353E-03  0.0000E+00  0.0000E+00  0.0000E+00  0.0000E+00  0.0000E+00
 13  0.0000E+00  2.0698E-02  0.0000E+00  0.0000E+00  0.0000E+00  0.0000E+00  1.9282E-02  0.0000E+00  0.0000E+00
 14  5.2843E+00  5.0768E+00  4.7763E+00  5.0751E+00  4.8207E+00  4.9324E+00  5.3304E+00  4.7139E+00  5.1186E+00
 15  5.8132E+00  5.4116E+00  5.5876E+00  5.2676E+00  5.6043E+00  5.3973E+00  5.3129E+00  5.6012E+00  5.4456E+00
 16  1.0507E-02  1.0507E-02  1.0586E-02  1.0466E-02  1.0289E-02  1.0503E-02  1.0656E-02  1.0737E-02  1.0527E-02
 17  3.5804E-03  4.0255E-03  4.0096E-03  3.9940E-03  4.0681E-03  3.9871E-03  3.8891E-03  3.9606E-03  4.0672E-03
 18  2.8862E-06  7.2393E-04  7.5193E-04  8.2419E-04  8.7584E-04  7.7310E-04  7.4159E-04  6.8582E-04  3.3644E-04
 19  1.2428E-02  1.1255E-02  1.1010E-02  1.1527E-02  1.1260E-02  1.1371E-02  1.1934E-02  1.1236E-02  1.1492E-02
 20  0.0000E+00  2.1189E-04  0.0000E+00  2.1193E-04  0.0000E+00  6.4589E-05  0.0000E+00  0.0000E+00  0.0000E+00
 21  0.0000E+00  3.3586E-04  0.0000E+00  0.0000E+00  0.0000E+00  0.0000E+00  0.0000E+00  0.0000E+00  0.0000E+00
 22  0.0000E+00  5.3254E-04  0.0000E+00  7.3769E-04  1.2976E-03  0.0000E+00  4.8468E-04  0.0000E+00  1.2622E-03
 23  0.0000E+00  1.2793E-03  0.0000E+00  1.0413E-02  1.7246E-03  7.6122E-03  0.0000E+00  0.0000E+00  5.2094E-03
 24  0.0000E+00  1.6134E-03  0.0000E+00  0.0000E+00  0.0000E+00  0.0000E+00  1.1273E-02  1.7054E-03  0.0000E+00
 25  0.0000E+00  1.8120E-03  0.0000E+00  0.0000E+00  1.0482E-02  0.0000E+00  1.6634E-03  0.0000E+00  0.0000E+00
 26  0.0000E+00  3.7890E-03  0.0000E+00  0.0000E+00  0.0000E+00  0.0000E+00  0.0000E+00  0.0000E+00  0.0000E+00
 27  0.0000E+00  5.6044E-03  0.0000E+00  0.0000E+00  0.0000E+00  0.0000E+00  0.0000E+00  0.0000E+00  0.0000E+00
 28  0.0000E+00  1.0193E-02  0.0000E+00  0.0000E+00  1.7575E-02  0.0000E+00  0.0000E+00  4.9481E-03  0.0000E+00
 29  1.5304E+01  1.8209E+01  1.8060E+01  1.7768E+01  1.7797E+01  1.7081E+01  1.7710E+01  1.7697E+01  1.7958E+01
 30  3.0791E+01  3.2786E+01  3.2869E+01  3.2791E+01  3.2581E+01  3.2812E+01  3.2260E+01  3.3054E+01  3.2150E+01
 31  1.7217E-03  2.3118E-03  2.2099E-03  2.3594E-03  2.5859E-03  2.2577E-03  2.3953E-03  1.9427E-03  2.2755E-03
 32  0.0000E+00  1.3579E-05  0.0000E+00  0.0000E+00  2.1154E-06  5.1498E-05  4.2703E-06  0.0000E+00  8.2610E-06
 33  0.0000E+00  2.3151E-04  1.3904E-04  5.1820E-05  0.0000E+00  2.1466E-04  2.3795E-04  2.5311E-04  0.0000E+00
 34  0.0000E+00  8.4502E-05  0.0000E+00  0.0000E+00  0.0000E+00  2.4332E-04  0.0000E+00  0.0000E+00  2.3936E-04
 35  0.0000E+00  1.3665E-04  0.0000E+00  0.0000E+00  1.2190E-03  2.8041E-05  0.0000E+00  1.5472E-04  0.0000E+00
 36  0.0000E+00  2.5528E-04  0.0000E+00  0.0000E+00  0.0000E+00  0.0000E+00  0.0000E+00  2.5531E-04  0.0000E+00
 37  0.0000E+00  9.8992E-04  8.1880E-04  6.0210E-04  0.0000E+00  4.5528E-03  2.3027E-03  0.0000E+00  0.0000E+00
 38  0.0000E+00  1.0030E-03  0.0000E+00  0.0000E+00  0.0000E+00  0.0000E+00  0.0000E+00  0.0000E+00  3.1918E-03
 39  0.0000E+00  2.9663E-03  0.0000E+00  1.5936E-05  0.0000E+00  2.0106E-04  1.8617E-03  0.0000E+00  0.0000E+00
 40  0.0000E+00  5.4318E-03  0.0000E+00  0.0000E+00  5.0476E-03  0.0000E+00  0.0000E+00  0.0000E+00  0.0000E+00
 41  0.0000E+00  3.5931E-03  0.0000E+00  0.0000E+00  0.0000E+00  0.0000E+00  0.0000E+00  0.0000E+00  0.0000E+00
 42  0.0000E+00  6.4576E-03  0.0000E+00  0.0000E+00  0.0000E+00  0.0000E+00  4.9534E-04  0.0000E+00  0.0000E+00
 43  2.3174E+00  1.5005E+00  1.5280E+00  1.7449E+00  1.5080E+00  1.5547E+00  1.7697E+00  1.6288E+00  1.4518E+00
 44  2.7539E+01  2.5877E+01  2.6124E+01  2.6315E+01  2.5935E+01  2.6556E+01  2.6141E+01  2.5948E+01  2.6151E+01
 45  1.2877E+01  1.0979E+01  1.0954E+01  1.0944E+01  1.1630E+01  1.1577E+01  1.1360E+01  1.1239E+01  1.1631E+01

# AV, chi2 & Mass for <> & i_chain = 1 ...  7 solutions
AV       2.5440      2.5391      2.5409      2.5405      2.5428      2.5463      2.5407      2.5413      2.5397
chi2 2.4521E+00  2.5041E+00  2.4954E+00  2.4930E+00  2.4951E+00  2.4871E+00  2.4907E+00  2.4951E+00  2.4892E+00
Mass 2.7589E-09  2.7307E-09  2.7427E-09  2.7397E-09  2.7516E-09  2.7655E-09  2.7339E-09  2.7445E-09  2.7443E-09
 -21.90                                  [v0_min (km/s) before EX0s...]
   0.00                                  [vd_min (km/s) before EX0s...]


## Synthetic spectrum (Best Model) ##l_obs f_obs f_syn wei
 3070    [Nl_obs]
 3359.00    0.00000   0.49041   -2.000
 3360.00    0.16961   0.48075   -1.000
 3361.00    0.31588   0.48523   -1.000
 3362.00    0.33110   0.50519   -1.000
 3363.00    0.30074   0.52677   -1.000
 3364.00    0.30274   0.53863   -1.000
 3365.00    0.29882   0.53360   -1.000
 3366.00    0.33880   0.51563   -1.000
 3367.00    0.32936   0.49841   -1.000
 3368.00    0.36956   0.48598   -1.000
 3369.00    0.33951   0.48392   -1.000
 3370.00    0.29419   0.48588   -1.000
 3371.00    0.32881   0.48469   -1.000
 3372.00    0.40463   0.48633   -1.000
 3373.00    0.44645   0.49802   58.269
 3374.00    0.40387   0.51749   -1.000
 3375.00    0.38657   0.53917   -1.000
 3376.00    0.36557   0.54839   -1.000
 3377.00    0.30475   0.53939   -1.000
 3378.00    0.30980   0.52335   -1.000
 3379.00    0.39962   0.51143   -1.000
 3380.00    0.43560   0.51014   -1.000
 3381.00    0.40264   0.52001   -1.000
 3382.00    0.39636   0.53214   -1.000
 3383.00    0.37368   0.54207   -1.000
 3384.00    0.42233   0.54770   -1.000
 3385.00    0.45852   0.55470   -1.000
 3386.00    0.43942   0.55678   -1.000
 3387.00    0.40275   0.55546   -1.000
 3388.00    0.40090   0.55337   -1.000
 3389.00    0.38440   0.55115   -1.000
 3390.00    0.40660   0.54737   -1.000
 3391.00    0.41882   0.53901   -1.000
 3392.00    0.43707   0.53238   -1.000
 3393.00    0.41719   0.53411   -1.000
 3394.00    0.41446   0.54565   -1.000
 3395.00    0.42142   0.56015   -1.000
 3396.00    0.43735   0.56883   -1.000
 3397.00    0.46867   0.57542   -1.000
 3398.00    0.41044   0.57808   -1.000
 3399.00    0.40940   0.57366   -1.000
 3400.00    0.47625   0.56897   32.715
 3401.00    0.51639   0.56396   32.853
 3402.00    0.52456   0.55395   34.043
 3403.00    0.53429   0.54645   34.656
 3404.00    0.52795   0.54203   35.205
 3405.00    0.56971   0.53820   35.844
 3406.00    0.57989   0.53319   36.443
 3407.00    0.50262   0.53073   36.704
 3408.00    0.46653   0.53304   37.199
 3409.00    0.39888   0.53898   -1.000
 3410.00    0.43732   0.54472   -1.000
 3411.00    0.54507   0.53957   36.408
 3412.00    0.57078   0.52963   35.940
 3413.00    0.53227   0.52034   37.089
 3414.00    0.46604   0.51739   37.989
 3415.00    0.45201   0.52525   38.071
 3416.00    0.46951   0.53808   37.304
 3417.00    0.53557   0.55489   35.839
 3418.00    0.53278   0.56828   34.173
 3419.00    0.49339   0.57983   32.467
 3420.00    0.48831   0.58226   32.000
 3421.00    0.55243   0.57597   31.805
 3422.00    0.53934   0.56362   31.907
 3423.00    0.50279   0.55806   32.680
 3424.00    0.51498   0.55759   33.474
 3425.00    0.46967   0.55929   32.887
 3426.00    0.49970   0.56248   31.996
 3427.00    0.55863   0.56866   31.675
 3428.00    0.53859   0.58196   -1.000
 3429.00    0.50649   0.59467   -1.000
 3430.00    0.47049   0.59042   -1.000
 3431.00    0.49987   0.57793   -1.000
 3432.00    0.46146   0.56272   -1.000
 3433.00    0.46583   0.55784   -1.000
 3434.00    0.52550   0.56409   31.601
 3435.00    0.50414   0.56945   -1.000
 3436.00    0.49257   0.56763   -1.000
 3437.00    0.52381   0.55688   40.127
 3438.00    0.55225   0.53920   32.667
 3439.00    0.49589   0.51598   34.536
 3440.00    0.48949   0.49529   37.132
 3441.00    0.48803   0.48375   38.977
 3442.00    0.44818   0.48756   39.384
 3443.00    0.45819   0.49914   39.265
 3444.00    0.50388   0.50999   38.013
 3445.00    0.51162   0.51683   36.052
 3446.00    0.50392   0.52734   34.059
 3447.00    0.48695   0.54087   32.718
 3448.00    0.48566   0.55909   -1.000
 3449.00    0.54752   0.57137   -1.000
 3450.00    0.55431   0.56679  280.321
 3451.00    0.56915   0.55294   -1.000
 3452.00    0.56839   0.54253   -1.000
 3453.00    0.54791   0.54146  280.321
 3454.00    0.56434   0.54944   -1.000
 3455.00    0.59199   0.55459   -1.000
 3456.00    0.53745   0.55160   -1.000
 3457.00    0.50401   0.53993   -1.000
 3458.00    0.51847   0.52375  280.321
 3459.00    0.57264   0.51493   40.308
 3460.00    0.54728   0.51007   31.963
 3461.00    0.55120   0.51520   31.899
 3462.00    0.59676   0.53121   -1.000
 3463.00    0.55479   0.54938  280.321
 3464.00    0.52719   0.54913   -1.000
 3465.00    0.50446   0.54664   -1.000
 3466.00    0.51832   0.54663   -1.000
 3467.00    0.54736   0.55241  280.321
 3468.00    0.58028   0.56254   -1.000
 3469.00    0.59662   0.56993   -1.000
 3470.00    0.54049   0.57205   -1.000
 3471.00    0.52558   0.56222   -1.000
 3472.00    0.49715   0.54768   -1.000
 3473.00    0.47497   0.53066   -1.000
 3474.00    0.51802   0.51561  280.321
 3475.00    0.57008   0.50590   40.676
 3476.00    0.52079   0.51005   32.810
 3477.00    0.45910   0.52023   32.539
 3478.00    0.49995   0.53238  100.096
 3479.00    0.51308   0.54142   -1.000
 3480.00    0.54009   0.54722  273.299
 3481.00    0.57512   0.54656   -1.000
 3482.00    0.56589   0.53846   -1.000
 3483.00    0.57552   0.53136   -1.000
 3484.00    0.58898   0.53509   -1.000
 3485.00    0.64592   0.55083   -1.000
 3486.00    0.63221   0.56554   -1.000
 3487.00    0.65155   0.57067   -1.000
 3488.00    0.65408   0.56033   -1.000
 3489.00    0.54680   0.54150  274.925
 3490.00    0.48582   0.52690   -1.000
 3491.00    0.48822   0.52676   -1.000
 3492.00    0.50444   0.53788   -1.000
 3493.00    0.52258   0.54720   -1.000
 3494.00    0.58526   0.54945   -1.000
 3495.00    0.55758   0.54182   -1.000
 3496.00    0.53266   0.53538  280.321
 3497.00    0.53030   0.54146  280.321
 3498.00    0.52980   0.56000   -1.000
 3499.00    0.57604   0.57560  270.468
 3500.00    0.62761   0.57637   -1.000
 3501.00    0.63510   0.57804   -1.000
 3502.00    0.63071   0.58520   -1.000
 3503.00    0.62452   0.58948   -1.000
 3504.00    0.59258   0.58428  250.383
 3505.00    0.57826   0.57362  254.506
 3506.00    0.58517   0.56764   -1.000
 3507.00    0.58702   0.56777   -1.000
 3508.00    0.61674   0.56654   -1.000
 3509.00    0.59911   0.55868   -1.000
 3510.00    0.61570   0.55042   -1.000
 3511.00    0.62220   0.54141   -1.000
 3512.00    0.56847   0.53295   -1.000
 3513.00    0.53430   0.52475   -1.000
 3514.00    0.55682   0.52674   -1.000
 3515.00    0.57225   0.54406   -1.000
 3516.00    0.56586   0.56901  273.837
 3517.00    0.61041   0.58671   -1.000
 3518.00    0.59025   0.59108  251.139
 3519.00    0.56332   0.57931   -1.000
 3520.00    0.59011   0.56130   -1.000
 3521.00    0.58483   0.54173   -1.000
 3522.00    0.53279   0.52930  280.321
 3523.00    0.49613   0.51727   -1.000
 3524.00    0.51854   0.50861   40.505
 3525.00    0.55713   0.50792   32.482
 3526.00    0.54679   0.52028   32.596
 3527.00    0.54646   0.54097   99.973
 3528.00    0.59841   0.56364   -1.000
 3529.00    0.63559   0.57615   -1.000
 3530.00    0.60790   0.57824   -1.000
 3531.00    0.58931   0.57351   -1.000
 3532.00    0.55605   0.57435   -1.000
 3533.00    0.56338   0.57984   -1.000
 3534.00    0.58888   0.58733  263.515
 3535.00    0.56963   0.59207   -1.000
 3536.00    0.55681   0.59124   -1.000
 3537.00    0.57781   0.59267   -1.000
 3538.00    0.56052   0.59951   -1.000
 3539.00    0.58683   0.60230   -1.000
 3540.00    0.58138   0.59868   -1.000
 3541.00    0.57900   0.59159  254.195
 3542.00    0.55015   0.59242   -1.000
 3543.00    0.55019   0.60051   -1.000
 3544.00    0.61009   0.60752  252.883
 3545.00    0.62226   0.60777   -1.000
 3546.00    0.61145   0.60158  254.784
 3547.00    0.56195   0.59832   -1.000
 3548.00    0.56685   0.59839   -1.000
 3549.00    0.57683   0.59910   -1.000
 3550.00    0.56907   0.59709   -1.000
 3551.00    0.53240   0.59122   -1.000
 3552.00    0.49968   0.58222   -1.000
 3553.00    0.51735   0.57318   -1.000
 3554.00    0.52364   0.57117   -1.000
 3555.00    0.56892   0.57524  280.321
 3556.00    0.58304   0.57836  277.087
 3557.00    0.58574   0.57876  276.539
 3558.00    0.55416   0.57501   -1.000
 3559.00    0.53073   0.57490   -1.000
 3560.00    0.54800   0.58171   -1.000
 3561.00    0.56792   0.59218   -1.000
 3562.00    0.59438   0.59657  275.399
 3563.00    0.57904   0.58188  275.626
 3564.00    0.52369   0.55320   -1.000
 3565.00    0.51140   0.52782   40.985
 3566.00    0.50666   0.52375   32.925
 3567.00    0.53530   0.52690   32.956
 3568.00    0.51702   0.52441   32.721
 3569.00    0.48802   0.51353   33.524
 3570.00    0.50085   0.50464   34.274
 3571.00    0.48951   0.50693   33.595
 3572.00    0.47714   0.52034   32.189
 3573.00    0.52929   0.52984   97.604
 3574.00    0.54481   0.53595   -1.000
 3575.00    0.54705   0.53886   -1.000
 3576.00    0.52687   0.53802  280.321
 3577.00    0.54331   0.52786   -1.000
 3578.00    0.54401   0.51143   -1.000
 3579.00    0.50063   0.49023   42.448
 3580.00    0.47866   0.47670   34.968
 3581.00    0.46806   0.47216   37.109
 3582.00    0.50370   0.47675   37.779
 3583.00    0.49709   0.48122   37.951
 3584.00    0.48192   0.47995   38.716
 3585.00    0.47708   0.47447   39.926
 3586.00    0.46870   0.47350   40.674
 3587.00    0.47736   0.48048   39.219
 3588.00    0.48856   0.49467   37.145
 3589.00    0.51213   0.51784   35.306
 3590.00    0.53123   0.53997   32.468
 3591.00    0.53363   0.55424   96.011
 3592.00    0.52515   0.55480   -1.000
 3593.00    0.50801   0.55473   -1.000
 3594.00    0.53840   0.56202   -1.000
 3595.00    0.54823   0.57704   -1.000
 3596.00    0.56744   0.59209   -1.000
 3597.00    0.58640   0.60049   -1.000
 3598.00    0.58767   0.60913   -1.000
 3599.00    0.59111   0.61641   -1.000
 3600.00    0.57816   0.61347   -1.000
 3601.00    0.60284   0.59673  248.825
 3602.00    0.59847   0.57567   -1.000
 3603.00    0.58999   0.55576   -1.000
 3604.00    0.53960   0.54692  280.321
 3605.00    0.53573   0.54614  280.321
 3606.00    0.57443   0.54498   -1.000
 3607.00    0.53858   0.53664  280.321
 3608.00    0.50662   0.52574   -1.000
 3609.00    0.53632   0.52492   -1.000
 3610.00    0.57884   0.53696   -1.000
 3611.00    0.57476   0.55415   -1.000
 3612.00    0.53752   0.56377   -1.000
 3613.00    0.51540   0.57197   -1.000
 3614.00    0.56235   0.58114   -1.000
 3615.00    0.61971   0.58661   -1.000
 3616.00    0.64333   0.57636   -1.000
 3617.00    0.60788   0.54875   -1.000
 3618.00    0.54092   0.52200   -1.000
 3619.00    0.50779   0.52510   40.630
 3620.00    0.51775   0.54516   95.078
 3621.00    0.55420   0.57523   -1.000
 3622.00    0.60860   0.59742   -1.000
 3623.00    0.61042   0.60979  249.589
 3624.00    0.61726   0.62132  245.853
 3625.00    0.62053   0.64133   -1.000
 3626.00    0.62893   0.66099   -1.000
 3627.00    0.68466   0.66861   -1.000
 3628.00    0.72986   0.65366   -1.000
 3629.00    0.69478   0.61740   -1.000
 3630.00    0.60058   0.57339   -1.000
 3631.00    0.54787   0.55127  280.321
 3632.00    0.55555   0.54870   -1.000
 3633.00    0.55973   0.56330  280.321
 3634.00    0.55679   0.57907   -1.000
 3635.00    0.56214   0.58965   -1.000
 3636.00    0.55593   0.59376   -1.000
 3637.00    0.58615   0.60757   -1.000
 3638.00    0.62913   0.62633  239.129
 3639.00    0.61978   0.64031   -1.000
 3640.00    0.60329   0.64468   -1.000
 3641.00    0.60955   0.63582   -1.000
 3642.00    0.66911   0.61954   -1.000
 3643.00    0.68692   0.60250   -1.000
 3644.00    0.65513   0.58749   -1.000
 3645.00    0.62122   0.57537   -1.000
 3646.00    0.57568   0.56269   -1.000
 3647.00    0.58845   0.55284   -1.000
 3648.00    0.60719   0.55527   -1.000
 3649.00    0.60504   0.56855   -1.000
 3650.00    0.57616   0.59167   -1.000
 3651.00    0.57731   0.61469   -1.000
 3652.00    0.60903   0.63531   -1.000
 3653.00    0.62614   0.64325   -1.000
 3654.00    0.67686   0.64825   -1.000
 3655.00    0.71190   0.65394   -1.000
 3656.00    0.64305   0.66437   -1.000
 3657.00    0.64722   0.67642   -1.000
 3658.00    0.68711   0.68168  217.734
 3659.00    0.67372   0.68326  217.018
 3660.00    0.67606   0.67912  217.077
 3661.00    0.70727   0.67012   -1.000
 3662.00    0.67220   0.65755  221.289
 3663.00    0.64503   0.65081  224.753
 3664.00    0.65976   0.64888  226.995
 3665.00    0.67021   0.65102   -1.000
 3666.00    0.68295   0.65056   -1.000
 3667.00    0.64991   0.64204  228.373
 3668.00    0.60644   0.63057   -1.000
 3669.00    0.60977   0.62637   -1.000
 3670.00    0.64965   0.63716  236.696
 3671.00    0.64938   0.65315  229.448
 3672.00    0.61901   0.66288   -1.000
 3673.00    0.62246   0.66446   -1.000
 3674.00    0.65756   0.66046  221.986
 3675.00    0.65952   0.65018  222.366
 3676.00    0.64642   0.63440  227.727
 3677.00    0.65662   0.61514   -1.000
 3678.00    0.64523   0.59742   -1.000
 3679.00    0.63915   0.58858   -1.000
 3680.00    0.68051   0.59307   -1.000
 3681.00    0.62997   0.60769   -1.000
 3682.00    0.63322   0.62069   -1.000
 3683.00    0.64291   0.62611   -1.000
 3684.00    0.62757   0.61722  237.819
 3685.00    0.58444   0.59612  246.686
 3686.00    0.58652   0.57299   -1.000
 3687.00    0.59197   0.57026   -1.000
 3688.00    0.58998   0.58802  258.358
 3689.00    0.59647   0.62041   -1.000
 3690.00    0.64410   0.64874  227.209
 3691.00    0.68672   0.66212   -1.000
 3692.00    0.67348   0.65567   -1.000
 3693.00    0.65066   0.64322  223.159
 3694.00    0.69454   0.63512   -1.000
 3695.00    0.70250   0.63207   -1.000
 3696.00    0.64701   0.63652  225.170
 3697.00    0.65190   0.64926  222.584
 3698.00    0.67660   0.66956  216.328
 3699.00    0.69061   0.68536  210.429
 3700.00    0.72192   0.69007   -1.000
 3701.00    0.70980   0.67389   -1.000
 3702.00    0.67989   0.63771   -1.000
 3703.00    0.73456   0.58783   -1.000
 3704.00    0.69645   0.55038   -1.000
 3705.00    0.58722   0.53070   -1.000
 3706.00    0.58143   0.53673   -1.000
 3707.00    0.54967   0.54834  270.216
 3708.00    0.53848   0.55966   -1.000
 3709.00    0.57636   0.57171  259.125
 3710.00    0.65126   0.59017   -1.000
 3711.00    0.71235   0.61135   -1.000
 3712.00    0.70346   0.63745   -1.000
 3713.00    0.70165   0.66019   -1.000
 3714.00    0.69778   0.67148   -1.000
 3715.00    0.68456   0.67008  204.692
 3716.00    0.66164   0.65476  208.657
 3717.00    0.66133   0.62337   -1.000
 3718.00    0.63764   0.58063   -1.000
 3719.00    0.55339   0.53040   -1.000
 3720.00    0.49561   0.48941   -1.000
 3721.00    0.47547   0.48460   41.778
 3722.00    0.47759   0.50711   95.016
 3723.00    0.53135   0.54877   -1.000
 3724.00    0.58677   0.59151  244.229
 3725.00    0.61013   0.61383  230.531
 3726.00    0.63866   0.61135   -1.000
 3727.00    0.66020   0.60726   -1.000
 3728.00    0.61831   0.61275  239.194
 3729.00    0.61583   0.61643  236.615
 3730.00    0.64472   0.60622   -1.000
 3731.00    0.61904   0.57353   -1.000
 3732.00    0.56633   0.52370   -1.000
 3733.00    0.52113   0.47983   40.914
 3734.00    0.51806   0.44718   34.268
 3735.00    0.47943   0.44409   36.302
 3736.00    0.45101   0.46696   35.247
 3737.00    0.48196   0.51045   32.280
 3738.00    0.52787   0.55911   91.707
 3739.00    0.58258   0.60696   -1.000
 3740.00    0.63533   0.62952  239.445
 3741.00    0.63265   0.62854  235.043
 3742.00    0.63177   0.60620   -1.000
 3743.00    0.61715   0.57847   -1.000
 3744.00    0.56525   0.55230   -1.000
 3745.00    0.53555   0.53714  280.321
 3746.00    0.54308   0.51863   -1.000
 3747.00    0.52013   0.49342   41.672
 3748.00    0.48469   0.46861   33.480
 3749.00    0.47467   0.46008   34.306
 3750.00    0.50594   0.48453  100.526
 3751.00    0.53923   0.53186  280.321
 3752.00    0.56738   0.57855  250.495
 3753.00    0.62590   0.62010  230.083
 3754.00    0.66393   0.65073  216.748
 3755.00    0.68675   0.65131   -1.000
 3756.00    0.68659   0.62451   -1.000
 3757.00    0.64331   0.58447   -1.000
 3758.00    0.60103   0.55710   -1.000
 3759.00    0.58531   0.55803   -1.000
 3760.00    0.60964   0.57163   -1.000
 3761.00    0.63078   0.58579   -1.000
 3762.00    0.60297   0.59241   -1.000
 3763.00    0.56953   0.59350   -1.000
 3764.00    0.57923   0.59142  240.040
 3765.00    0.57449   0.58334  242.077
 3766.00    0.56902   0.57210  247.468
 3767.00    0.56823   0.56585  251.062
 3768.00    0.56808   0.56209  248.681
 3769.00    0.59588   0.55730   -1.000
 3770.00    0.64005   0.55757   -1.000
 3771.00    0.67185   0.57362   -1.000
 3772.00    0.66415   0.60033   -1.000
 3773.00    0.66612   0.62551   -1.000
 3774.00    0.67976   0.63840   -1.000
 3775.00    0.70842   0.64660   -1.000
 3776.00    0.67739   0.65446   -1.000
 3777.00    0.66050   0.66455  217.276
 3778.00    0.70741   0.67691   -1.000
 3779.00    0.72202   0.68885   -1.000
 3780.00    0.71901   0.70007   -1.000
 3781.00    0.75177   0.70668   -1.000
 3782.00    0.71114   0.71055  199.748
 3783.00    0.71253   0.70866  199.537
 3784.00    0.70731   0.69412  203.047
 3785.00    0.68428   0.66667   -1.000
 3786.00    0.64038   0.63691  227.284
 3787.00    0.63538   0.61299   -1.000
 3788.00    0.58877   0.60096  246.463
 3789.00    0.58713   0.60237   -1.000
 3790.00    0.61560   0.60968  243.984
 3791.00    0.60853   0.61367  241.002
 3792.00    0.63748   0.60671   -1.000
 3793.00    0.62563   0.58695   -1.000
 3794.00    0.59448   0.56516   -1.000
 3795.00    0.55628   0.54121   -1.000
 3796.00    0.57093   0.51482   -1.000
 3797.00    0.59493   0.48701   -1.000
 3798.00    0.53352   0.47898   -1.000
 3799.00    0.52573   0.50552   -1.000
 3800.00    0.54235   0.55589   -1.000
 3801.00    0.57986   0.60266   -1.000
 3802.00    0.61535   0.63956   -1.000
 3803.00    0.61541   0.65838   -1.000
 3804.00    0.61136   0.66283   -1.000
 3805.00    0.58959   0.65196   -1.000
 3806.00    0.58392   0.63838   -1.000
 3807.00    0.58890   0.63665   -1.000
 3808.00    0.58579   0.65202   -1.000
 3809.00    0.61519   0.67023   -1.000
 3810.00    0.65793   0.67722   -1.000
 3811.00    0.65042   0.66544   -1.000
 3812.00    0.60630   0.63773   -1.000
 3813.00    0.57373   0.60794   -1.000
 3814.00    0.57540   0.58260  263.508
 3815.00    0.54940   0.57409   -1.000
 3816.00    0.54340   0.57788   -1.000
 3817.00    0.55261   0.58065   -1.000
 3818.00    0.53154   0.56689   -1.000
 3819.00    0.52516   0.54172   -1.000
 3820.00    0.53400   0.53047  280.321
 3821.00    0.53232   0.54087  280.321
 3822.00    0.51855   0.55922   -1.000
 3823.00    0.52729   0.55733   -1.000
 3824.00    0.52825   0.53786  280.321
 3825.00    0.47757   0.52232   43.330
 3826.00    0.44179   0.51547   33.557
 3827.00    0.43848   0.51904   33.515
 3828.00    0.44444   0.52512   33.028
 3829.00    0.47942   0.52759   32.485
 3830.00    0.47732   0.52150   32.656
 3831.00    0.45532   0.50327   33.881
 3832.00    0.45524   0.47731   36.312
 3833.00    0.46885   0.45167   37.894
 3834.00    0.43353   0.43476   37.600
 3835.00    0.44379   0.43368   36.250
 3836.00    0.47664   0.44713   35.286
 3837.00    0.47822   0.46050   35.662
 3838.00    0.48317   0.47160   36.513
 3839.00    0.45450   0.48751   36.239
 3840.00    0.45654   0.51202   34.491
 3841.00    0.51223   0.54718   97.711
 3842.00    0.53023   0.58191   -1.000
 3843.00    0.53109   0.61206   -1.000
 3844.00    0.55845   0.62557   -1.000
 3845.00    0.59556   0.63079   -1.000
 3846.00    0.62128   0.63225  256.105
 3847.00    0.62724   0.63118  256.434
 3848.00    0.58923   0.62262   -1.000
 3849.00    0.54886   0.61432   -1.000
 3850.00    0.52734   0.61332   -1.000
 3851.00    0.56842   0.62347   -1.000
 3852.00    0.59173   0.63159   -1.000
 3853.00    0.55562   0.62778   -1.000
 3854.00    0.52613   0.61384   -1.000
 3855.00    0.53725   0.59970   -1.000
 3856.00    0.55920   0.58822   -1.000
 3857.00    0.54984   0.57380   -1.000
 3858.00    0.53517   0.55934   41.135
 3859.00    0.53126   0.55673   32.732
 3860.00    0.51608   0.57055   32.700
 3861.00    0.54234   0.59862   -1.000
 3862.00    0.55455   0.62217   -1.000
 3863.00    0.59348   0.62918   -1.000
 3864.00    0.62779   0.62292  251.183
 3865.00    0.60576   0.61632  255.464
 3866.00    0.58483   0.61413   -1.000
 3867.00    0.56786   0.61492   -1.000
 3868.00    0.56307   0.61260   -1.000
 3869.00    0.56046   0.60316   -1.000
 3870.00    0.54234   0.58643   -1.000
 3871.00    0.52009   0.57644   41.778
 3872.00    0.50429   0.57960   -1.000
 3873.00    0.56673   0.60156   -1.000
 3874.00    0.61210   0.62919   -1.000
 3875.00    0.61319   0.64330   -1.000
 3876.00    0.61549   0.62678  249.502
 3877.00    0.57791   0.60172   -1.000
 3878.00    0.54164   0.59030   -1.000
 3879.00    0.53371   0.59107   -1.000
 3880.00    0.54617   0.59661   -1.000
 3881.00    0.55229   0.59726   -1.000
 3882.00    0.55212   0.59795   -1.000
 3883.00    0.57669   0.60312   -1.000
 3884.00    0.61023   0.59721   -1.000
 3885.00    0.59426   0.56682   -1.000
 3886.00    0.53702   0.52805  266.104
 3887.00    0.50392   0.49693  272.391
 3888.00    0.53527   0.49108   -1.000
 3889.00    0.58686   0.51535   -1.000
 3890.00    0.60829   0.56415   -1.000
 3891.00    0.65171   0.61691   -1.000
 3892.00    0.67025   0.65400   -1.000
 3893.00    0.67745   0.66416   -1.000
 3894.00    0.68435   0.66190   -1.000
 3895.00    0.68044   0.66570   -1.000
 3896.00    0.69248   0.67429   -1.000
 3897.00    0.70352   0.68061   -1.000
 3898.00    0.69912   0.67908   -1.000
 3899.00    0.70823   0.67571   -1.000
 3900.00    0.72100   0.68055   -1.000
 3901.00    0.73713   0.68665   -1.000
 3902.00    0.72192   0.68542   -1.000
 3903.00    0.71291   0.67659   -1.000
 3904.00    0.69733   0.66559   -1.000
 3905.00    0.68504   0.66246   -1.000
 3906.00    0.67997   0.67140  228.823
 3907.00    0.69008   0.69765  218.075
 3908.00    0.72140   0.72674  203.714
 3909.00    0.74468   0.74507  196.646
 3910.00    0.74072   0.75225  194.207
 3911.00    0.74336   0.75879  192.396
 3912.00    0.73132   0.75957   -1.000
 3913.00    0.75315   0.75458  192.492
 3914.00    0.76481   0.74636   -1.000
 3915.00    0.74767   0.73913  200.597
 3916.00    0.75735   0.73116   -1.000
 3917.00    0.72802   0.71938  206.373
 3918.00    0.69257   0.69963  211.590
 3919.00    0.67798   0.67472  220.195
 3920.00    0.67583   0.65540   -1.000
 3921.00    0.66630   0.64577   -1.000
 3922.00    0.65233   0.64979  236.523
 3923.00    0.63352   0.65629   -1.000
 3924.00    0.64032   0.65748   -1.000
 3925.00    0.64822   0.64823  242.081
 3926.00    0.59788   0.62369   -1.000
 3927.00    0.57117   0.59459   -1.000
 3928.00    0.53881   0.56381   46.103
 3929.00    0.49106   0.54013   39.181
 3930.00    0.44081   0.51557   45.867
 3931.00    0.42194   0.48399   54.103
 3932.00    0.40115   0.44749   63.512
 3933.00    0.40105   0.42251   70.748
 3934.00    0.37556   0.43669   -1.000
 3935.00    0.39362   0.47664   -1.000
 3936.00    0.40330   0.51793   -1.000
 3937.00    0.44160   0.55559   -1.000
 3938.00    0.50000   0.59211   35.826
 3939.00    0.55955   0.61803   -1.000
 3940.00    0.60430   0.63868   -1.000
 3941.00    0.61531   0.64571   -1.000
 3942.00    0.61953   0.64194   -1.000
 3943.00    0.60606   0.63874   -1.000
 3944.00    0.62386   0.64754   -1.000
 3945.00    0.65958   0.66751  236.835
 3946.00    0.68526   0.68802  221.072
 3947.00    0.70904   0.70104  216.046
 3948.00    0.71000   0.71187  214.340
 3949.00    0.71652   0.72694  208.027
 3950.00    0.74170   0.73976  200.962
 3951.00    0.76817   0.73936   -1.000
 3952.00    0.76613   0.73850   -1.000
 3953.00    0.74545   0.74466  200.536
 3954.00    0.77338   0.74956   -1.000
 3955.00    0.79869   0.74293   -1.000
 3956.00    0.75673   0.72987   -1.000
 3957.00    0.75691   0.72358   -1.000
 3958.00    0.76519   0.72160   -1.000
 3959.00    0.73180   0.70326   -1.000
 3960.00    0.69214   0.66074   -1.000
 3961.00    0.64236   0.61922   -1.000
 3962.00    0.59382   0.58744   -1.000
 3963.00    0.57125   0.57101  280.321
 3964.00    0.54547   0.55142   43.608
 3965.00    0.51543   0.51605   36.887
 3966.00    0.46953   0.46529   44.852
 3967.00    0.41381   0.40732   55.037
 3968.00    0.35751   0.37018   62.654
 3969.00    0.36102   0.36818   60.908
 3970.00    0.41410   0.39938   51.619
 3971.00    0.46119   0.45033   42.421
 3972.00    0.49884   0.51132   35.340
 3973.00    0.54491   0.56851   93.803
 3974.00    0.58602   0.62157   -1.000
 3975.00    0.65210   0.66423  238.335
 3976.00    0.70349   0.70166  218.444
 3977.00    0.72824   0.73581  204.542
 3978.00    0.76699   0.76636  193.505
 3979.00    0.80914   0.79270  183.145
 3980.00    0.83644   0.80157   -1.000
 3981.00    0.84117   0.80059   -1.000
 3982.00    0.84549   0.79373   -1.000
 3983.00    0.85119   0.79454   -1.000
 3984.00    0.86630   0.80558   -1.000
 3985.00    0.87341   0.81879   -1.000
 3986.00    0.86625   0.83177   -1.000
 3987.00    0.87547   0.84509   -1.000
 3988.00    0.91664   0.85555   -1.000
 3989.00    0.92618   0.85616   -1.000
 3990.00    0.90718   0.85825   -1.000
 3991.00    0.91961   0.86667   -1.000
 3992.00    0.93114   0.87784   -1.000
 3993.00    0.94823   0.88185   -1.000
 3994.00    0.93671   0.87353   -1.000
 3995.00    0.88427   0.85804   -1.000
 3996.00    0.86827   0.84449   -1.000
 3997.00    0.87635   0.84568   -1.000
 3998.00    0.89031   0.86096   -1.000
 3999.00    0.95371   0.88361   -1.000
 4000.00    0.99135   0.90196   -1.000
 4001.00    0.99870   0.91486   -1.000
 4002.00    1.00590   0.91344   -1.000
 4003.00    0.98632   0.89297   -1.000
 4004.00    0.93477   0.85542   -1.000
 4005.00    0.90137   0.83003   -1.000
 4006.00    0.88191   0.83642   -1.000
 4007.00    0.92340   0.86772   -1.000
 4008.00    0.97791   0.89944   -1.000
 4009.00    0.97308   0.91331   -1.000
 4010.00    0.97192   0.92125   -1.000
 4011.00    0.99256   0.92824   -1.000
 4012.00    1.02044   0.93295   -1.000
 4013.00    0.98853   0.93932   -1.000
 4014.00    1.01610   0.94548   -1.000
 4015.00    1.06318   0.94630   -1.000
 4016.00    1.02641   0.94476   -1.000
 4017.00    0.99724   0.94577   -1.000
 4018.00    1.00000   0.95291   -1.000
 4019.00    0.99470   0.96014   -1.000
 4020.00    1.02671   0.96217   -1.000
 4021.00    1.05296   0.95538   -1.000
 4022.00    1.04137   0.94654   -1.000
 4023.00    1.03295   0.93176   -1.000
 4024.00    1.02557   0.91636   -1.000
 4025.00    1.03062   0.91459   -1.000
 4026.00    1.02056   0.93524   -1.000
 4027.00    1.04675   0.96175   -1.000
 4028.00    1.06512   0.96491   -1.000
 4029.00    1.03887   0.93222   -1.000
 4030.00    0.97011   0.88104   -1.000
 4031.00    0.89612   0.84344   -1.000
 4032.00    0.87479   0.82670   -1.000
 4033.00    0.90115   0.83260   -1.000
 4034.00    0.91751   0.86049   -1.000
 4035.00    0.93758   0.90851   -1.000
 4036.00    0.97201   0.95900  148.289
 4037.00    1.06047   0.99941   -1.000
 4038.00    1.10383   1.00932   -1.000
 4039.00    1.05516   0.99609   -1.000
 4040.00    0.99833   0.98019  146.359
 4041.00    1.02300   0.97343   -1.000
 4042.00    1.05335   0.95187   -1.000
 4043.00    0.99195   0.90137   -1.000
 4044.00    0.91869   0.83234   -1.000
 4045.00    0.83030   0.79083   -1.000
 4046.00    0.81089   0.81308  180.094
 4047.00    0.89258   0.87808  164.783
 4048.00    0.96060   0.93967  153.197
 4049.00    1.02032   0.98265   -1.000
 4050.00    1.05747   0.99848   -1.000
 4051.00    1.06078   0.99702   -1.000
 4052.00    1.03175   0.98141   -1.000
 4053.00    1.01363   0.96134   -1.000
 4054.00    0.99863   0.94548   -1.000
 4055.00    0.98831   0.93382   -1.000
 4056.00    0.93933   0.92098  158.273
 4057.00    0.88301   0.91312   -1.000
 4058.00    0.89340   0.92392   -1.000
 4059.00    0.95511   0.94535  153.971
 4060.00    1.01356   0.95196   -1.000
 4061.00    1.00634   0.92239   -1.000
 4062.00    0.93472   0.87096   -1.000
 4063.00    0.85128   0.83838  171.732
 4064.00    0.83404   0.83356  172.799
 4065.00    0.90051   0.85225   -1.000
 4066.00    0.96172   0.88664   -1.000
 4067.00    0.99841   0.91673   -1.000
 4068.00    1.04228   0.93495   -1.000
 4069.00    1.04672   0.93123   -1.000
 4070.00    1.01185   0.90067   -1.000
 4071.00    0.96473   0.87217   -1.000
 4072.00    0.94584   0.87885   -1.000
 4073.00    0.98198   0.90654   -1.000
 4074.00    1.00915   0.92042   -1.000
 4075.00    0.98166   0.89658   -1.000
 4076.00    0.89961   0.85908   -1.000
 4077.00    0.85643   0.84795  178.674
 4078.00    0.87007   0.87422  175.544
 4079.00    0.92521   0.92966  164.892
 4080.00    1.00670   0.97945   -1.000
 4081.00    1.07216   1.00305   -1.000
 4082.00    1.07403   0.99095   -1.000
 4083.00    1.02521   0.96709   -1.000
 4084.00    1.02332   0.95475   -1.000
 4085.00    1.00635   0.96751   -1.000
 4086.00    1.04218   0.99908   -1.000
 4087.00    1.11766   1.03017   -1.000
 4088.00    1.12345   1.04894   -1.000
 4089.00    1.11332   1.04559   -1.000
 4090.00    1.11030   1.02799   -1.000
 4091.00    1.10272   1.01363   -1.000
 4092.00    1.06113   1.00862   -1.000
 4093.00    1.06615   0.99667   -1.000
 4094.00    1.07818   0.97380   -1.000
 4095.00    1.02331   0.93697   -1.000
 4096.00    0.94742   0.90070   -1.000
 4097.00    0.95041   0.87786   -1.000
 4098.00    0.96080   0.85144   -1.000
 4099.00    0.95830   0.80753   -1.000
 4100.00    0.90058   0.75354   -1.000
 4101.00    0.84630   0.72113   -1.000
 4102.00    0.82582   0.73524   -1.000
 4103.00    0.85887   0.79648   -1.000
 4104.00    0.91397   0.86722   -1.000
 4105.00    0.97756   0.92436   -1.000
 4106.00    0.99762   0.95661   -1.000
 4107.00    1.00399   0.97163   -1.000
 4108.00    1.03679   0.97037   -1.000
 4109.00    1.01667   0.96027   -1.000
 4110.00    0.96985   0.95476  159.916
 4111.00    0.95940   0.96085  159.039
 4112.00    0.97784   0.97501  155.802
 4113.00    1.00212   0.99467  152.887
 4114.00    1.00560   1.01382  150.473
 4115.00    1.02697   1.02291  148.786
 4116.00    1.05735   1.01570   -1.000
 4117.00    1.02961   0.99686   -1.000
 4118.00    0.98323   0.97731  156.205
 4119.00    0.98018   0.96935  158.974
 4120.00    0.98158   0.97441  157.937
 4121.00    1.00099   0.98324  156.172
 4122.00    1.00270   0.99072  155.875
 4123.00    0.99728   1.00131  154.689
 4124.00    1.01173   1.01549  152.191
 4125.00    1.06727   1.02296   -1.000
 4126.00    1.06446   1.01395   -1.000
 4127.00    1.02424   0.99630   -1.000
 4128.00    1.01197   0.98262   -1.000
 4129.00    1.01165   0.97265   -1.000
 4130.00    0.99580   0.95445   -1.000
 4131.00    0.95397   0.92892   -1.000
 4132.00    0.92340   0.90804  169.452
 4133.00    0.92605   0.91679  171.191
 4134.00    0.96761   0.95184  167.047
 4135.00    1.01371   0.99313  159.254
 4136.00    1.02908   1.02705  153.299
 4137.00    1.01162   1.04545   -1.000
 4138.00    1.01674   1.05304   -1.000
 4139.00    1.02812   1.05405   -1.000
 4140.00    1.03998   1.03296  148.907
 4141.00    1.00251   0.98242  155.529
 4142.00    0.95146   0.92041   -1.000
 4143.00    0.87313   0.88746   -1.000
 4144.00    0.87662   0.90147   -1.000
 4145.00    0.94609   0.94972  165.628
 4146.00    1.00481   0.99356  158.433
 4147.00    1.03305   1.00735   -1.000
 4148.00    1.00304   1.00077  157.512
 4149.00    0.99889   0.99075  161.623
 4150.00    0.97109   0.98890   -1.000
 4151.00    0.95844   0.98944   -1.000
 4152.00    1.00193   0.98571  162.896
 4153.00    0.98433   0.97721  163.781
 4154.00    0.95269   0.96946   -1.000
 4155.00    0.96550   0.97108  163.827
 4156.00    0.95022   0.98525   -1.000
 4157.00    0.98747   1.00616   -1.000
 4158.00    1.19292   1.03191   -1.000
 4159.00    1.34575   1.05346   -1.000
 4160.00    0.93556   1.06545   -1.000
 4161.00    0.78971   1.07718   -1.000
 4162.00    1.02834   1.08652   -1.000
 4163.00    1.09218   1.08707  150.972
 4164.00    1.05754   1.07405   -1.000
 4165.00    1.00583   1.05151   -1.000
 4166.00    0.95458   1.02821   -1.000
 4167.00    0.94616   1.02186   -1.000
 4168.00    0.97749   1.02801   -1.000
 4169.00    0.98269   1.03456   -1.000
 4170.00    0.99882   1.01842   -1.000
 4171.00    0.97964   0.98044  166.620
 4172.00    0.94645   0.94761  176.872
 4173.00    0.90795   0.93954   -1.000
 4174.00    0.90820   0.95914   -1.000
 4175.00    0.93106   0.98139   -1.000
 4176.00    0.93786   0.99102   -1.000
 4177.00    0.94216   0.99710   -1.000
 4178.00    0.95305   1.01037   -1.000
 4179.00    0.93964   1.02212   -1.000
 4180.00    0.96840   1.02328   -1.000
 4181.00    1.01248   1.01615  163.303
 4182.00    1.02019   1.01832  162.055
 4183.00    1.05988   1.03832  159.155
 4184.00    1.07561   1.05383  156.216
 4185.00    1.07773   1.04828   -1.000
 4186.00    1.04313   1.02329  159.647
 4187.00    0.97623   1.00531   -1.000
 4188.00    0.98032   1.01156   -1.000
 4189.00    1.03604   1.02768  161.428
 4190.00    1.00935   1.03965   -1.000
 4191.00    0.99383   1.05022   -1.000
 4192.00    1.03413   1.06432   -1.000
 4193.00    1.04251   1.07093   -1.000
 4194.00    1.03550   1.05235   -1.000
 4195.00    1.01102   1.01111  162.477
 4196.00    0.96253   0.97457  168.769
 4197.00    0.92718   0.94968   -1.000
 4198.00    0.91865   0.93801   -1.000
 4199.00    0.92948   0.93321  172.083
 4200.00    0.95563   0.93835  169.507
 4201.00    0.94696   0.94875  168.450
 4202.00    0.95305   0.96742   -1.000
 4203.00    0.98992   0.99832  165.295
 4204.00    1.01509   1.03510   -1.000
 4205.00    1.03387   1.06769   -1.000
 4206.00    1.10436   1.09160  157.223
 4207.00    1.11304   1.10704  153.925
 4208.00    1.10464   1.10707  152.595
 4209.00    1.08569   1.09843  152.900
 4210.00    1.06153   1.09313   -1.000
 4211.00    1.06469   1.09688   -1.000
 4212.00    1.08158   1.09525   -1.000
 4213.00    1.04678   1.06992   -1.000
 4214.00    0.99802   1.03174   -1.000
 4215.00    0.99198   1.01506   -1.000
 4216.00    1.01939   1.03609   -1.000
 4217.00    1.07749   1.08890  155.732
 4218.00    1.13251   1.13249  148.002
 4219.00    1.16563   1.15639  143.293
 4220.00    1.21968   1.15389   -1.000
 4221.00    1.22139   1.12863   -1.000
 4222.00    1.15485   1.07614   -1.000
 4223.00    1.10051   1.00003   -1.000
 4224.00    1.00892   0.90549   -1.000
 4225.00    0.89297   0.83105   -1.000
 4226.00    0.77309   0.80040   -1.000
 4227.00    0.77725   0.84460   -1.000
 4228.00    0.88728   0.93924   -1.000
 4229.00    1.02701   1.03574   -1.000
 4230.00    1.12095   1.08307   -1.000
 4231.00    1.13870   1.09357   -1.000
 4232.00    1.13006   1.07609   -1.000
 4233.00    1.10684   1.05353   -1.000
 4234.00    1.09075   1.03668   -1.000
 4235.00    1.08601   1.03148   -1.000
 4236.00    1.07153   1.03335   -1.000
 4237.00    1.06595   1.04716  160.867
 4238.00    1.08998   1.06995  157.684
 4239.00    1.11035   1.09354  155.041
 4240.00    1.14426   1.11475   -1.000
 4241.00    1.19128   1.13691   -1.000
 4242.00    1.19967   1.16011   -1.000
 4243.00    1.20021   1.18877  146.920
 4244.00    1.21353   1.20822  143.927
 4245.00    1.22309   1.20114   -1.000
 4246.00    1.18358   1.16254  149.631
 4247.00    1.14533   1.11031   -1.000
 4248.00    1.09075   1.06509   -1.000
 4249.00    1.03194   1.04379  162.349
 4250.00    1.01874   1.04667   -1.000
 4251.00    1.06432   1.06539  158.975
 4252.00    1.10184   1.07444   -1.000
 4253.00    1.09310   1.06214   -1.000
 4254.00    1.05741   1.05080  157.351
 4255.00    1.04450   1.07417   -1.000
 4256.00    1.06860   1.11548   -1.000
 4257.00    1.11112   1.12495  149.253
 4258.00    1.10826   1.08702  153.229
 4259.00    1.05438   1.03740  161.168
 4260.00    0.99788   1.02453   -1.000
 4261.00    0.99385   1.06689   -1.000
 4262.00    1.07216   1.13965   -1.000
 4263.00    1.18749   1.20361  145.788
 4264.00    1.23159   1.23117  141.516
 4265.00    1.24521   1.23032  140.449
 4266.00    1.23830   1.21108   -1.000
 4267.00    1.19001   1.17549  146.252
 4268.00    1.15647   1.12265   -1.000
 4269.00    1.10771   1.05945   -1.000
 4270.00    1.02788   0.99333   -1.000
 4271.00    0.95058   0.95135  176.087
 4272.00    0.91090   0.94219   -1.000
 4273.00    0.91669   0.96277   -1.000
 4274.00    0.93515   0.99870   -1.000
 4275.00    0.98061   1.05240   -1.000
 4276.00    1.08013   1.11978   -1.000
 4277.00    1.16266   1.17426  148.181
 4278.00    1.19347   1.18438  146.356
 4279.00    1.18162   1.16222  151.258
 4280.00    1.14348   1.13697  157.053
 4281.00    1.11476   1.13453  158.757
 4282.00    1.10246   1.14445   -1.000
 4283.00    1.12355   1.14497   -1.000
 4284.00    1.12903   1.13453  156.569
 4285.00    1.10811   1.12132  160.579
 4286.00    1.09321   1.10791  164.861
 4287.00    1.08064   1.08597  167.667
 4288.00    1.06101   1.04626  173.025
 4289.00    1.00851   1.00420  181.263
 4290.00    0.96826   0.99799   -1.000
 4291.00    1.01007   1.03624   -1.000
 4292.00    1.08456   1.08330  166.113
 4293.00    1.12631   1.10300   -1.000
 4294.00    1.09860   1.09621  161.416
 4295.00    1.07126   1.07844  163.849
 4296.00    1.07988   1.05238   -1.000
 4297.00    1.04369   1.00703   -1.000
 4298.00    0.95260   0.95062  188.185
 4299.00    0.85231   0.90583   -1.000
 4300.00    0.80500   0.89420   -1.000
 4301.00    0.82076   0.90643   -1.000
 4302.00    0.88367   0.92301   -1.000
 4303.00    0.93011   0.93539  197.682
 4304.00    0.92504   0.94368  195.130
 4305.00    0.90386   0.93271   -1.000
 4306.00    0.88599   0.89819  200.412
 4307.00    0.84330   0.86118  210.352
 4308.00    0.80682   0.84999   -1.000
 4309.00    0.82407   0.87709   -1.000
 4310.00    0.87522   0.92825   -1.000
 4311.00    0.92184   0.98642   -1.000
 4312.00    0.99424   1.04175   -1.000
 4313.00    1.06672   1.10608   -1.000
 4314.00    1.15034   1.18478   -1.000
 4315.00    0.95276   1.26978   -1.000
 4316.00    0.75760   1.34488   -1.000
 4317.00    1.17475   1.37775   -1.000
 4318.00    1.38999   1.37061  132.208
 4319.00    1.37503   1.34625   -1.000
 4320.00    1.33571   1.31676  136.643
 4321.00    1.29419   1.26776   -1.000
 4322.00    1.23711   1.19406   -1.000
 4323.00    1.14208   1.09647   -1.000
 4324.00    1.04072   1.01773   -1.000
 4325.00    0.96107   1.00624   -1.000
 4326.00    0.99128   1.07629   -1.000
 4327.00    1.11263   1.19208   -1.000
 4328.00    1.23145   1.28853   -1.000
 4329.00    1.30881   1.32654  138.885
 4330.00    1.30861   1.32892  138.755
 4331.00    1.31067   1.32833  138.385
 4332.00    1.33742   1.34470  136.344
 4333.00    1.35938   1.36065  134.667
 4334.00    1.36820   1.35826  134.115
 4335.00    1.38710   1.31812   -1.000
 4336.00    1.34122   1.23099   -1.000
 4337.00    1.21896   1.11151   -1.000
 4338.00    1.11137   1.00128   -1.000
 4339.00    1.02078   0.94861   -1.000
 4340.00    0.97230   0.95959  192.341
 4341.00    1.01827   1.03229  182.572
 4342.00    1.10206   1.12915   -1.000
 4343.00    1.18121   1.20721   -1.000
 4344.00    1.23170   1.25322   -1.000
 4345.00    1.31082   1.28989  143.553
 4346.00    1.35600   1.32285   -1.000
 4347.00    1.37060   1.35483  139.067
 4348.00    1.40909   1.37379   -1.000
 4349.00    1.39252   1.34930   -1.000
 4350.00    1.32317   1.27814   -1.000
 4351.00    1.22494   1.20908  152.568
 4352.00    1.16146   1.18850   -1.000
 4353.00    1.18782   1.22395   -1.000
 4354.00    1.28031   1.28044  145.840
 4355.00    1.32666   1.32448  140.806
 4356.00    1.34065   1.34317  137.554
 4357.00    1.37040   1.34551   -1.000
 4358.00    1.35246   1.33631  139.181
 4359.00    1.33751   1.33685  141.297
 4360.00    1.34133   1.35957  139.671
 4361.00    1.38326   1.39011  135.706
 4362.00    1.42037   1.41252  133.505
 4363.00    1.39572   1.42790   -1.000
 4364.00    1.45228   1.44171  131.528
 4365.00    1.50046   1.43637   -1.000
 4366.00    1.43342   1.39966   -1.000
 4367.00    1.36922   1.35571  138.869
 4368.00    1.35360   1.33475  141.343
 4369.00    1.34744   1.33229  140.631
 4370.00    1.35908   1.33148   -1.000
 4371.00    1.37769   1.31744   -1.000
 4372.00    1.36335   1.28688   -1.000
 4373.00    1.31574   1.24536   -1.000
 4374.00    1.24048   1.21101   -1.000
 4375.00    1.20445   1.21571  152.473
 4376.00    1.26131   1.26251  147.644
 4377.00    1.33465   1.31433  140.430
 4378.00    1.39005   1.33541   -1.000
 4379.00    1.39119   1.31834   -1.000
 4380.00    1.35270   1.26120   -1.000
 4381.00    1.28422   1.16394   -1.000
 4382.00    1.15089   1.05103   -1.000
 4383.00    0.98774   0.98083  176.193
 4384.00    0.92602   0.99466   -1.000
 4385.00    1.03968   1.08402   -1.000
 4386.00    1.17488   1.17828  153.821
 4387.00    1.24372   1.22367  146.406
 4388.00    1.27925   1.22844   -1.000
 4389.00    1.28073   1.22716   -1.000
 4390.00    1.25108   1.23608  147.485
 4391.00    1.26088   1.25647  145.439
 4392.00    1.32112   1.27813   -1.000
 4393.00    1.32803   1.28608   -1.000
 4394.00    1.30697   1.29060  144.781
 4395.00    1.31983   1.31708  145.249
 4396.00    1.38779   1.36440   -1.000
 4397.00    1.42278   1.39271   -1.000
 4398.00    1.40513   1.37617   -1.000
 4399.00    1.39512   1.33710   -1.000
 4400.00    1.34139   1.31234   -1.000
 4401.00    1.31313   1.29851  144.332
 4402.00    1.32983   1.27084   -1.000
 4403.00    1.27700   1.20895   -1.000
 4404.00    1.17948   1.14879   -1.000
 4405.00    1.16173   1.14232  155.942
 4406.00    1.20172   1.18315  152.166
 4407.00    1.23459   1.23396  149.102
 4408.00    1.25963   1.28323   -1.000
 4409.00    1.31350   1.34329   -1.000
 4410.00    1.38515   1.41437   -1.000
 4411.00    1.45058   1.45508  132.019
 4412.00    1.49576   1.43474   -1.000
 4413.00    1.45674   1.37213   -1.000
 4414.00    1.35825   1.30087   -1.000
 4415.00    1.27478   1.26290  144.579
 4416.00    1.26748   1.29291   -1.000
 4417.00    1.33695   1.36749   -1.000
 4418.00    1.42487   1.43915  135.377
 4419.00    1.48647   1.47335  131.085
 4420.00    1.47724   1.46254  130.734
 4421.00    1.41677   1.42026  133.595
 4422.00    1.33716   1.38283   -1.000
 4423.00    1.29397   1.37320   -1.000
 4424.00    1.31684   1.38585   -1.000
 4425.00    1.35964   1.39353   -1.000
 4426.00    1.38538   1.39497  136.482
 4427.00    1.38083   1.40309   -1.000
 4428.00    1.37018   1.40874   -1.000
 4429.00    1.35100   1.40708   -1.000
 4430.00    1.34406   1.40372   -1.000
 4431.00    1.36082   1.40515   -1.000
 4432.00    1.36320   1.40136   -1.000
 4433.00    1.32647   1.36704   -1.000
 4434.00    1.26101   1.32175   -1.000
 4435.00    1.23504   1.31598   -1.000
 4436.00    1.30429   1.36990   -1.000
 4437.00    1.41693   1.45538   -1.000
 4438.00    1.49922   1.51228  128.272
 4439.00    1.53458   1.51503  126.659
 4440.00    1.48852   1.46829  129.635
 4441.00    1.39453   1.40936  135.424
 4442.00    1.33288   1.37889   -1.000
 4443.00    1.33248   1.40308   -1.000
 4444.00    1.40430   1.46857   -1.000
 4445.00    1.50278   1.52692   -1.000
 4446.00    1.54415   1.55245  130.074
 4447.00    1.54107   1.55037  129.537
 4448.00    1.53004   1.54543  129.781
 4449.00    1.52384   1.54478   -1.000
 4450.00    1.51673   1.53785   -1.000
 4451.00    1.49866   1.52015   -1.000
 4452.00    1.50901   1.48518  132.223
 4453.00    1.47615   1.42480   -1.000
 4454.00    1.40135   1.35909   -1.000
 4455.00    1.30987   1.32936   -1.000
 4456.00    1.30040   1.33567   -1.000
 4457.00    1.34197   1.35569  142.310
 4458.00    1.35671   1.36251  141.719
 4459.00    1.36290   1.35645  142.341
 4460.00    1.35624   1.35345  143.652
 4461.00    1.35253   1.36760  145.010
 4462.00    1.37849   1.40646   -1.000
 4463.00    1.41609   1.45618   -1.000
 4464.00    1.45276   1.49081   -1.000
 4465.00    1.49195   1.50018  133.380
 4466.00    1.48761   1.49072  133.454
 4467.00    1.50154   1.47702  134.608
 4468.00    1.51056   1.46433   -1.000
 4469.00    1.47626   1.45722  138.297
 4470.00    1.47257   1.47348  137.039
 4471.00    1.51738   1.51675  133.275
 4472.00    1.58335   1.56410  128.720
 4473.00    1.63240   1.60152   -1.000
 4474.00    1.64553   1.62083  123.322
 4475.00    1.63336   1.63469  123.264
 4476.00    1.66355   1.65286  122.545
 4477.00    1.68649   1.66064  121.707
 4478.00    1.66812   1.63010   -1.000
 4479.00    1.60338   1.56061   -1.000
 4480.00    1.53381   1.48933   -1.000
 4481.00    1.47990   1.46856  135.899
 4482.00    1.49003   1.50708  135.726
 4483.00    1.54836   1.57971   -1.000
 4484.00    1.63269   1.64867  125.770
 4485.00    1.68159   1.68947  122.559
 4486.00    1.71288   1.68188   -1.000
 4487.00    1.70486   1.63379   -1.000
 4488.00    1.65082   1.57372   -1.000
 4489.00    1.58606   1.54434   -1.000
 4490.00    1.53605   1.55666  131.748
 4491.00    1.55984   1.59023   -1.000
 4492.00    1.61651   1.60277  126.213
 4493.00    1.60103   1.57588  127.098
 4494.00    1.53116   1.53845  130.562
 4495.00    1.49977   1.52905   -1.000
 4496.00    1.51362   1.56129   -1.000
 4497.00    1.56592   1.60895   -1.000
 4498.00    1.64330   1.64297  125.588
 4499.00    1.67491   1.65216  123.738
 4500.00    1.65121   1.64474  124.527
 4501.00    1.62733   1.65041   -1.000
 4502.00    1.64753   1.68465   -1.000
 4503.00    1.72629   1.73682  119.168
 4504.00    1.80674   1.77877   -1.000
 4505.00    1.82713   1.79224   -1.000
 4506.00    1.80858   1.77315   -1.000
 4507.00    1.78603   1.74921   -1.000
 4508.00    1.77555   1.74124   -1.000
 4509.00    1.77724   1.74609   -1.000
 4510.00    1.77289   1.75278  118.958
 4511.00    1.76193   1.74369  119.483
 4512.00    1.72385   1.71376  121.534
 4513.00    1.67483   1.68142  123.800
 4514.00    1.68246   1.66389  124.950
 4515.00    1.70059   1.66525   -1.000
 4516.00    1.70078   1.67325   -1.000
 4517.00    1.67928   1.67415  125.519
 4518.00    1.68802   1.67435  126.500
 4519.00    1.73404   1.69124   -1.000
 4520.00    1.77631   1.71815   -1.000
 4521.00    1.78382   1.73096   -1.000
 4522.00    1.75323   1.71637   -1.000
 4523.00    1.70592   1.68088   -1.000
 4524.00    1.67323   1.64313   -1.000
 4525.00    1.62721   1.60319   -1.000
 4526.00    1.56870   1.54941  134.124
 4527.00    1.49367   1.49475  138.046
 4528.00    1.46629   1.45911  140.300
 4529.00    1.45663   1.45734  139.955
 4530.00    1.48002   1.48859  137.820
 4531.00    1.53847   1.52692  135.298
 4532.00    1.57314   1.54552   -1.000
 4533.00    1.56524   1.53497   -1.000
 4534.00    1.52203   1.51485  141.281
 4535.00    1.50273   1.52159  141.222
 4536.00    1.55343   1.57648   -1.000
 4537.00    1.68558   1.65677   -1.000
 4538.00    1.74553   1.71161   -1.000
 4539.00    1.71293   1.71367  122.202
 4540.00    1.69709   1.68208  124.766
 4541.00    1.68267   1.66047  125.520
 4542.00    1.69819   1.66650   -1.000
 4543.00    1.71916   1.67894   -1.000
 4544.00    1.69209   1.68004  159.296
 4545.00    1.66946   1.66675   71.603
 4546.00    1.55349   1.65720   -1.000
 4547.00    0.56176   1.65454   -1.000
 4548.00   -0.18689   1.64464    0.000
 4549.00   -0.20559   1.63385    0.000
 4550.00    0.67001   1.64073   -1.000
 4551.00    0.61297   1.66398   -1.000
 4552.00    0.90490   1.67127   -1.000
 4553.00    1.49216   1.65298   -1.000
 4554.00    1.64880   1.63197  133.009
 4555.00    1.65733   1.63721  131.860
 4556.00    1.70987   1.68210   -1.000
 4557.00    1.76859   1.74924  122.655
 4558.00    1.83886   1.80189   -1.000
 4559.00    1.86968   1.82385   -1.000
 4560.00    1.85106   1.83215   -1.000
 4561.00    1.85346   1.82503   -1.000
 4562.00    1.83545   1.80176   -1.000
 4563.00    1.77960   1.75941  124.959
 4564.00    1.71323   1.72002  127.374
 4565.00    1.67776   1.70976   -1.000
 4566.00    1.72979   1.74046  124.127
 4567.00    1.80212   1.79221  120.842
 4568.00    1.84608   1.83114  119.087
 4569.00    1.86063   1.82735   -1.000
 4570.00    1.80982   1.79480  122.359
 4571.00    1.73158   1.75832  125.588
 4572.00    1.74417   1.75256  125.832
 4573.00    1.81335   1.78563   -1.000
 4574.00    1.84636   1.82168   -1.000
 4575.00    1.85385   1.83553   -1.000
 4576.00    1.83762   1.82914  120.452
 4577.00    1.80578   1.81368  121.120
 4578.00    1.76967   1.78000  122.819
 4579.00    1.72197   1.72935  126.097
 4580.00    1.64564   1.68803   -1.000
 4581.00    1.62198   1.68150   -1.000
 4582.00    1.69582   1.69881  128.035
 4583.00    1.73154   1.71986  126.826
 4584.00    1.70648   1.72315  126.857
 4585.00    1.69692   1.71477  127.565
 4586.00    1.70644   1.72322  126.510
 4587.00    1.76733   1.75848  123.563
 4588.00    1.82465   1.80478   -1.000
 4589.00    1.83709   1.83160  119.910
 4590.00    1.83701   1.82500  121.171
 4591.00    1.81163   1.79341  123.337
 4592.00    1.77810   1.75704   -1.000
 4593.00    1.73423   1.73878  126.247
 4594.00    1.72010   1.73399  125.462
 4595.00    1.72168   1.73499  124.432
 4596.00    1.72107   1.74138  123.923
 4597.00    1.72828   1.75571  123.655
 4598.00    1.74573   1.76893  123.382
 4599.00    1.74277   1.77291   -1.000
 4600.00    1.73477   1.76731   -1.000
 4601.00    1.75333   1.76310  125.793
 4602.00    1.76854   1.76672  124.909
 4603.00    1.75684   1.76977  123.496
 4604.00    1.73871   1.76782   -1.000
 4605.00    1.76400   1.77240  123.194
 4606.00    1.79983   1.79683  122.157
 4607.00    1.86431   1.84015   -1.000
 4608.00    1.94460   1.89377   -1.000
 4609.00    1.96521   1.93555   -1.000
 4610.00    1.93989   1.93471  115.787
 4611.00    1.91548   1.90988  117.118
 4612.00    1.90069   1.88248   -1.000
 4613.00    1.89069   1.87151   -1.000
 4614.00    1.91202   1.88188   -1.000
 4615.00    1.94946   1.90239   -1.000
 4616.00    1.95157   1.91635   -1.000
 4617.00    1.93992   1.91981   -1.000
 4618.00    1.91765   1.91905  118.946
 4619.00    1.89657   1.91643  119.113
 4620.00    1.92189   1.91997  118.238
 4621.00    1.95622   1.93176   -1.000
 4622.00    1.95382   1.94112  115.986
 4623.00    1.94283   1.93907  116.221
 4624.00    1.92703   1.93067  116.473
 4625.00    1.91488   1.92062  117.310
 4626.00    1.91639   1.90869  117.835
 4627.00    1.93169   1.90464   -1.000
 4628.00    1.90622   1.90720  118.383
 4629.00    1.89299   1.91154  118.796
 4630.00    1.93214   1.91732  118.426
 4631.00    1.95981   1.92710   -1.000
 4632.00    1.94363   1.92801  117.236
 4633.00    1.92578   1.90909  118.656
 4634.00    1.90963   1.88378   -1.000
 4635.00    1.87024   1.86917  120.392
 4636.00    1.83948   1.85647  121.039
 4637.00    1.81928   1.83631  122.496
 4638.00    1.79925   1.81377  123.326
 4639.00    1.81188   1.80128  123.320
 4640.00    1.84475   1.81048   -1.000
 4641.00    1.88025   1.83949   -1.000
 4642.00    1.90889   1.86732   -1.000
 4643.00    1.90135   1.87009   -1.000
 4644.00    1.86253   1.83688   -1.000
 4645.00    1.79985   1.78687  121.686
 4646.00    1.73297   1.73135  125.102
 4647.00    1.68402   1.70483  126.458
 4648.00    1.70907   1.72504  124.930
 4649.00    1.79730   1.77719  122.149
 4650.00    1.85458   1.83647  120.133
 4651.00    1.88390   1.87745  119.543
 4652.00    1.92233   1.89557   -1.000
 4653.00    1.90728   1.88874   -1.000
 4654.00    1.83477   1.86295  122.729
 4655.00    1.78556   1.84075   -1.000
 4656.00    1.80232   1.84875   -1.000
 4657.00    1.90468   1.89355  120.965
 4658.00    2.01333   1.96417   -1.000
 4659.00    2.08140   2.02530   -1.000
 4660.00    2.07585   2.04594   -1.000
 4661.00    1.99742   2.01756  113.595
 4662.00    1.92172   1.96896   -1.000
 4663.00    1.88830   1.91893  118.510
 4664.00    1.87989   1.87387  119.353
 4665.00    1.84447   1.82339  120.800
 4666.00    1.75622   1.75998  125.121
 4667.00    1.65677   1.70642   -1.000
 4668.00    1.64639   1.70131   -1.000
 4669.00    1.71495   1.75058   -1.000
 4670.00    1.82506   1.82587  123.983
 4671.00    1.89433   1.88428  120.094
 4672.00    1.90585   1.90874  118.705
 4673.00    1.88883   1.90435  118.619
 4674.00    1.89038   1.90697  118.569
 4675.00    1.90368   1.92485  117.414
 4676.00    1.95700   1.94497  115.682
 4677.00    1.97307   1.94240   -1.000
 4678.00    1.94704   1.91121   -1.000
 4679.00    1.89119   1.87175   -1.000
 4680.00    1.83870   1.84227  122.144
 4681.00    1.81325   1.83078  123.555
 4682.00    1.84451   1.83944  122.763
 4683.00    1.92000   1.86571   -1.000
 4684.00    1.97129   1.88924   -1.000
 4685.00    1.95220   1.89614   -1.000
 4686.00    1.92005   1.89334   -1.000
 4687.00    1.89382   1.88748  118.584
 4688.00    1.90942   1.88786   -1.000
 4689.00    1.93459   1.89345   -1.000
 4690.00    1.92716   1.89744   -1.000
 4691.00    1.90902   1.89573  119.848
 4692.00    1.91417   1.90030  118.878
 4693.00    1.93683   1.91960  117.174
 4694.00    1.98462   1.94532   -1.000
 4695.00    2.02363   1.96438   -1.000
 4696.00    2.03052   1.96751   -1.000
 4697.00    2.00312   1.94177   -1.000
 4698.00    1.92991   1.89684   -1.000
 4699.00    1.86378   1.85738  121.080
 4700.00    1.86084   1.83942   -1.000
 4701.00    1.87634   1.82964   -1.000
 4702.00    1.85548   1.82283   -1.000
 4703.00    1.87007   1.82927   -1.000
 4704.00    1.89140   1.85509   -1.000
 4705.00    1.89925   1.88107   -1.000
 4706.00    1.91993   1.88371   -1.000
 4707.00    1.89154   1.86237   -1.000
 4708.00    1.85385   1.84433  125.017
 4709.00    1.86481   1.85420  124.861
 4710.00    1.89976   1.88461  121.981
 4711.00    1.97282   1.91496   -1.000
 4712.00    2.01809   1.92603   -1.000
 4713.00    1.95308   1.91415   -1.000
 4714.00    1.90213   1.89929  119.223
 4715.00    1.92186   1.91092  119.890
 4716.00    1.97553   1.95236   -1.000
 4717.00    2.03820   2.00537   -1.000
 4718.00    2.10704   2.04700   -1.000
 4719.00    2.13624   2.06992   -1.000
 4720.00    2.15349   2.08120   -1.000
 4721.00    2.10485   2.07676   -1.000
 4722.00    2.05668   2.06456  115.269
 4723.00    2.06438   2.06266  115.012
 4724.00    2.08965   2.07334   -1.000
 4725.00    2.07970   2.06773  113.658
 4726.00    2.02904   2.02701  115.705
 4727.00    1.91746   1.95291   -1.000
 4728.00    1.81425   1.88127   -1.000
 4729.00    1.79836   1.85397   -1.000
 4730.00    1.83278   1.86470   -1.000
 4731.00    1.88503   1.90115  121.242
 4732.00    1.94162   1.94177  119.928
 4733.00    1.96700   1.97472  118.762
 4734.00    1.99693   1.98948  117.994
 4735.00    2.01931   1.98945   -1.000
 4736.00    1.99214   1.98646  118.055
 4737.00    1.97452   1.99185  118.565
 4738.00    2.03798   2.01064   -1.000
 4739.00    2.10526   2.03296   -1.000
 4740.00    2.09354   2.03924   -1.000
 4741.00    2.04081   2.03144  117.902
 4742.00    2.03746   2.03208  117.257
 4743.00    2.06499   2.04013   -1.000
 4744.00    2.09015   2.04930   -1.000
 4745.00    2.12671   2.06390   -1.000
 4746.00    2.13850   2.08055   -1.000
 4747.00    2.13505   2.10017   -1.000
 4748.00    2.14473   2.11573   -1.000
 4749.00    2.15132   2.12626   -1.000
 4750.00    2.12744   2.13085  113.997
 4751.00    2.11153   2.12035  114.608
 4752.00    2.10191   2.09540  115.794
 4753.00    2.04385   2.06506  116.875
 4754.00    1.98863   2.03902   -1.000
 4755.00    1.98085   2.03249   -1.000
 4756.00    2.01126   2.03930  118.048
 4757.00    2.04633   2.05266  118.821
 4758.00    2.05798   2.06883  119.176
 4759.00    2.06022   2.08303  118.489
 4760.00    2.02340   2.08364   -1.000
 4761.00    1.95450   2.05904   -1.000
 4762.00    1.90732   2.01581   -1.000
 4763.00    1.88197   1.96886   -1.000
 4764.00    1.86363   1.93731   -1.000
 4765.00    1.84210   1.91927   -1.000
 4766.00    1.85265   1.91169   -1.000
 4767.00    1.89967   1.93314   -1.000
 4768.00    1.95574   1.99036   -1.000
 4769.00    2.02474   2.05209   -1.000
 4770.00    2.05197   2.07893   -1.000
 4771.00    2.02635   2.06992   -1.000
 4772.00    2.00532   2.05627   -1.000
 4773.00    2.02293   2.07265   -1.000
 4774.00    2.08111   2.11212   -1.000
 4775.00    2.10848   2.14623   -1.000
 4776.00    2.13194   2.16081   -1.000
 4777.00    2.14951   2.16187  115.218
 4778.00    2.12828   2.15783   -1.000
 4779.00    2.07341   2.14503   -1.000
 4780.00    2.02861   2.12528   -1.000
 4781.00    2.03291   2.10297   -1.000
 4782.00    2.03810   2.07477   -1.000
 4783.00    2.01195   2.04477   -1.000
 4784.00    2.01288   2.03311  119.896
 4785.00    2.02494   2.03638  120.148
 4786.00    2.01187   2.04044   -1.000
 4787.00    2.00908   2.04066   -1.000
 4788.00    2.01322   2.04493   -1.000
 4789.00    2.02559   2.05170  121.619
 4790.00    2.02434   2.06432   -1.000
 4791.00    2.04105   2.09016   -1.000
 4792.00    2.07822   2.13544   -1.000
 4793.00    2.14327   2.19403   -1.000
 4794.00    2.21841   2.24910  113.399
 4795.00    2.25672   2.28310  112.548
 4796.00    2.23965   2.27574   -1.000
 4797.00    2.19005   2.23239   -1.000
 4798.00    2.12580   2.17761   -1.000
 4799.00    2.08902   2.13960   -1.000
 4800.00    2.09805   2.13573   -1.000
 4801.00    2.14786   2.17148  116.701
 4802.00    2.20085   2.22371  114.800
 4803.00    2.21043   2.25436   -1.000
 4804.00    2.16378   2.23567   -1.000
 4805.00    2.12691   2.19461   -1.000
 4806.00    2.11798   2.15884   -1.000
 4807.00    2.07479   2.13763   -1.000
 4808.00    2.06313   2.13316   -1.000
 4809.00    2.09007   2.15198   -1.000
 4810.00    2.09950   2.18049   -1.000
 4811.00    2.12972   2.19975   -1.000
 4812.00    2.15349   2.20490   -1.000
 4813.00    2.14926   2.20514   -1.000
 4814.00    2.14365   2.21226   -1.000
 4815.00    2.14763   2.23014   -1.000
 4816.00    2.19729   2.25480   -1.000
 4817.00    2.22914   2.27906   -1.000
 4818.00    2.23376   2.29871   -1.000
 4819.00    2.24230   2.31129   -1.000
 4820.00    2.23694   2.30933   -1.000
 4821.00    2.20317   2.28099   -1.000
 4822.00    2.14617   2.22812   -1.000
 4823.00    2.10102   2.16882   -1.000
 4824.00    2.10360   2.13781   -1.000
 4825.00    2.15059   2.15993  117.049
 4826.00    2.18914   2.20700  115.129
 4827.00    2.19357   2.23029   -1.000
 4828.00    2.16887   2.21812   -1.000
 4829.00    2.15988   2.20121   -1.000
 4830.00    2.14648   2.19075   -1.000
 4831.00    2.10922   2.17084   -1.000
 4832.00    2.09414   2.15118   -1.000
 4833.00    2.12494   2.15990   -1.000
 4834.00    2.16916   2.19312  115.440
 4835.00    2.18314   2.23146   -1.000
 4836.00    2.19109   2.24846   -1.000
 4837.00    2.19736   2.24285   -1.000
 4838.00    2.17508   2.21994   -1.000
 4839.00    2.12943   2.18823   -1.000
 4840.00    2.11814   2.16635   -1.000
 4841.00    2.12790   2.16151   -1.000
 4842.00    2.13100   2.16481   -1.000
 4843.00    2.11250   2.16838   -1.000
 4844.00    2.11833   2.18585   -1.000
 4845.00    2.17238   2.22594   -1.000
 4846.00    2.19652   2.25935   -1.000
 4847.00    2.15594   2.25563   -1.000
 4848.00    2.11575   2.22589   -1.000
 4849.00    2.13568   2.20813   -1.000
 4850.00    2.18324   2.22111   -1.000
 4851.00    2.19515   2.23911   -1.000
 4852.00    2.15903   2.23838   -1.000
 4853.00    2.11847   2.20676   -1.000
 4854.00    2.07978   2.14713   -1.000
 4855.00    2.01906   2.08470   -1.000
 4856.00    2.00713   2.05355   -1.000
 4857.00    2.02986   2.05485  123.333
 4858.00    1.99164   2.03183   -1.000
 4859.00    1.89257   1.92950   -1.000
 4860.00    1.76153   1.76685  148.438
 4861.00    1.66963   1.65251   -1.000
 4862.00    1.66641   1.66507  154.130
 4863.00    1.75362   1.78137  141.380
 4864.00    1.86860   1.91382   -1.000
 4865.00    1.97597   2.01740   -1.000
 4866.00    2.04967   2.08878   -1.000
 4867.00    2.07740   2.13437   -1.000
 4868.00    2.09333   2.15359   -1.000
 4869.00    2.09547   2.13818   -1.000
 4870.00    2.03362   2.07965   -1.000
 4871.00    1.93138   1.99893   -1.000
 4872.00    1.88227   1.96425   -1.000
 4873.00    1.94950   2.01752   -1.000
 4874.00    2.03987   2.10681   -1.000
 4875.00    2.05662   2.16841   -1.000
 4876.00    2.05329   2.19457   -1.000
 4877.00    2.11709   2.21701   -1.000
 4878.00    2.15605   2.25195   -1.000
 4879.00    2.15465   2.28517   -1.000
 4880.00    2.14382   2.29590   -1.000
 4881.00    2.08363   2.27171   -1.000
 4882.00    2.06164   2.24095   -1.000
 4883.00    2.08852   2.22968   -1.000
 4884.00    2.09179   2.21565   -1.000
 4885.00    2.04442   2.17648   -1.000
 4886.00    2.00763   2.13705   -1.000
 4887.00    2.03752   2.12877   -1.000
 4888.00    2.04912   2.13594   -1.000
 4889.00    2.03500   2.11652   -1.000
 4890.00    1.99771   2.06384   -1.000
 4891.00    1.97538   2.02719   -1.000
 4892.00    2.05096   2.07373  122.213
 4893.00    2.17849   2.20337  116.690
 4894.00    2.31262   2.35480   -1.000
 4895.00    2.39459   2.45399   -1.000
 4896.00    2.42184   2.48664   -1.000
 4897.00    2.41522   2.48553   -1.000
 4898.00    2.36629   2.46141   -1.000
 4899.00    2.31540   2.42020   -1.000
 4900.00    2.28380   2.38119   -1.000
 4901.00    2.26596   2.36167   -1.000
 4902.00    2.25568   2.34638   -1.000
 4903.00    2.25533   2.32796   -1.000
 4904.00    2.27508   2.33009   -1.000
 4905.00    2.30350   2.37698   -1.000
 4906.00    2.33915   2.43416   -1.000
 4907.00    2.34095   2.44240   -1.000
 4908.00    2.27068   2.38974   -1.000
 4909.00    2.18788   2.31308   -1.000
 4910.00    2.14677   2.25554   -1.000
 4911.00    2.16510   2.24866   -1.000
 4912.00    2.22208   2.29138   -1.000
 4913.00    2.28508   2.35004   -1.000
 4914.00    2.34509   2.40077   -1.000
 4915.00    2.39764   2.43552  113.066
 4916.00    2.41526   2.43266  113.123
 4917.00    2.32915   2.35736  116.008
 4918.00    2.15135   2.20477   -1.000
 4919.00    1.98711   2.04126   -1.000
 4920.00    1.92638   1.95043  130.785
 4921.00    1.99336   1.97327   -1.000
 4922.00    2.12256   2.07843   -1.000
 4923.00    2.19315   2.18088   -1.000
 4924.00    2.21996   2.23595  120.374
 4925.00    2.25205   2.26945  119.305
 4926.00    2.28209   2.32886   -1.000
 4927.00    2.34490   2.40143   -1.000
 4928.00    2.41311   2.46637   -1.000
 4929.00    2.44902   2.51538   -1.000
 4930.00    2.47203   2.53614   -1.000
 4931.00    2.47130   2.51762  111.855
 4932.00    2.39130   2.45676   -1.000
 4933.00    2.29626   2.38025   -1.000
 4934.00    2.27290   2.33542   -1.000
 4935.00    2.31071   2.34341  118.332
 4936.00    2.30554   2.35074   -1.000
 4937.00    2.23899   2.29715   -1.000
 4938.00    2.14974   2.21259   -1.000
 4939.00    2.15281   2.18277  123.716
 4940.00    2.26772   2.24774   -1.000
 4941.00    2.37225   2.36047   -1.000
 4942.00    2.40254   2.45325   -1.000
 4943.00    2.43181   2.50159   -1.000
 4944.00    2.45638   2.51058   -1.000
 4945.00    2.45487   2.49757  112.746
 4946.00    2.44993   2.48555  113.180
 4947.00    2.47302   2.49957  112.553
 4948.00    2.53066   2.53610  111.301
 4949.00    2.56501   2.56795  110.647
 4950.00    2.57220   2.58236  110.233
 4951.00    2.57074   2.58416  110.473
 4952.00    2.54021   2.56974  111.188
 4953.00    2.49123   2.54240   -1.000
 4954.00    2.44301   2.49689   -1.000
 4955.00    2.36495   2.40619   -1.000
 4956.00    2.21784   2.26099   -1.000
 4957.00    2.09032   2.11060  126.697
 4958.00    2.11078   2.07523   -1.000
 4959.00    2.24366   2.19086   -1.000
 4960.00    2.35876   2.34717  115.584
 4961.00    2.41228   2.44638   -1.000
 4962.00    2.41602   2.46906   -1.000
 4963.00    2.39049   2.45224   -1.000
 4964.00    2.35289   2.41080   -1.000
 4965.00    2.29634   2.35034   -1.000
 4966.00    2.24285   2.30388   -1.000
 4967.00    2.23156   2.28883   -1.000
 4968.00    2.25808   2.29718   -1.000
 4969.00    2.27944   2.32318   -1.000
 4970.00    2.32738   2.36412   -1.000
 4971.00    2.35939   2.40942   -1.000
 4972.00    2.39309   2.45795   -1.000
 4973.00    2.43514   2.49139   -1.000
 4974.00    2.44100   2.50548   -1.000
 4975.00    2.41324   2.50208   -1.000
 4976.00    2.39868   2.48071   -1.000
 4977.00    2.37261   2.44023   -1.000
 4978.00    2.31609   2.39362   -1.000
 4979.00    2.26608   2.35391   -1.000
 4980.00    2.22657   2.31587   -1.000
 4981.00    2.15700   2.24802   -1.000
 4982.00    2.06474   2.15076   -1.000
 4983.00    2.04115   2.08411   -1.000
 4984.00    2.08523   2.09384  128.795
 4985.00    2.17982   2.17236  125.528
 4986.00    2.27901   2.27588  121.670
 4987.00    2.33714   2.36746  118.373
 4988.00    2.35917   2.41710   -1.000
 4989.00    2.34786   2.41180   -1.000
 4990.00    2.32282   2.38126   -1.000
 4991.00    2.32997   2.36807  120.581
 4992.00    2.37633   2.37931  119.855
 4993.00    2.39794   2.39741  119.153
 4994.00    2.36772   2.40806   -1.000
 4995.00    2.35334   2.41775   -1.000
 4996.00    2.37980   2.43734   -1.000
 4997.00    2.39495   2.44344   -1.000
 4998.00    2.34611   2.40598   -1.000
 4999.00    2.25565   2.33557   -1.000
 5000.00    2.20506   2.26376   -1.000
 5001.00    2.20504   2.22835  124.098
 5002.00    2.22789   2.23602  123.314
 5003.00    2.25129   2.25161  122.369
 5004.00    2.23541   2.23825  123.284
 5005.00    2.15893   2.18704  126.013
 5006.00    2.11843   2.14191  127.567
 5007.00    2.17469   2.16052  125.648
 5008.00    2.24897   2.24533  122.010
 5009.00    2.28848   2.32845   -1.000
 5010.00    2.29111   2.35274   -1.000
 5011.00    2.23680   2.31009   -1.000
 5012.00    2.13967   2.22421   -1.000
 5013.00    2.07737   2.13974   -1.000
 5014.00    2.07201   2.10154   -1.000
 5015.00    2.12990   2.12303  129.848
 5016.00    2.18402   2.16763  127.051
 5017.00    2.16981   2.20165  125.822
 5018.00    2.19131   2.22276  125.690
 5019.00    2.24426   2.24930  124.738
 5020.00    2.25406   2.27590  123.569
 5021.00    2.20911   2.27589   -1.000
 5022.00    2.18137   2.26243   -1.000
 5023.00    2.21826   2.27226   -1.000
 5024.00    2.30781   2.32089  122.474
 5025.00    2.36053   2.37093  121.489
 5026.00    2.31931   2.37752   -1.000
 5027.00    2.27453   2.34622   -1.000
 5028.00    2.30398   2.33143  121.654
 5029.00    2.36333   2.36084  119.719
 5030.00    2.39931   2.42227  117.819
 5031.00    2.42995   2.48907   -1.000
 5032.00    2.48702   2.54440   -1.000
 5033.00    2.51917   2.57030   -1.000
 5034.00    2.47768   2.53564   -1.000
 5035.00    2.38089   2.45123   -1.000
 5036.00    2.30215   2.37170   -1.000
 5037.00    2.29778   2.33833   -1.000
 5038.00    2.28514   2.31712  126.142
 5039.00    2.18054   2.24481   -1.000
 5040.00    2.04140   2.13275   -1.000
 5041.00    2.01681   2.07333   -1.000
 5042.00    2.14938   2.13495   -1.000
 5043.00    2.33679   2.29028   -1.000
 5044.00    2.48744   2.45740   -1.000
 5045.00    2.56446   2.57233  115.654
 5046.00    2.58797   2.60773  111.876
 5047.00    2.55600   2.57315  112.722
 5048.00    1.88400   2.48419   -1.000
 5049.00    0.51511   2.38455   -1.000
 5050.00   -0.11144   2.32413    0.000
 5051.00    0.47296   2.32353   -1.000
 5052.00    1.93750   2.35910   -1.000
 5053.00    2.52992   2.42435   -1.000
 5054.00    2.51228   2.49640   -1.000
 5055.00    2.54277   2.53985  114.424
 5056.00    2.55456   2.56032  113.832
 5057.00    2.58073   2.57706  113.862
 5058.00    2.61742   2.59633   -1.000
 5059.00    2.63066   2.62500  114.119
 5060.00    2.63986   2.65491  113.574
 5061.00    2.64916   2.67661  113.354
 5062.00    2.59162   2.66415   -1.000
 5063.00    2.48899   2.58978   -1.000
 5064.00    2.39165   2.48181   -1.000
 5065.00    2.35411   2.40129   -1.000
 5066.00    2.37651   2.38367  122.925
 5067.00    2.40018   2.40252  121.141
 5068.00    2.42659   2.42322  120.278
 5069.00    2.45878   2.44598  119.788
 5070.00    2.48386   2.47149  119.065
 5071.00    2.46499   2.47489  119.453
 5072.00    2.43530   2.45390  120.433
 5073.00    2.45300   2.44682  119.735
 5074.00    2.51322   2.46809   -1.000
 5075.00    2.52202   2.48905   -1.000
 5076.00    2.49749   2.49482  118.084
 5077.00    2.48721   2.47864  118.828
 5078.00    2.42436   2.42123  122.006
 5079.00    2.30381   2.32422  127.365
 5080.00    2.22259   2.25125  130.381
 5081.00    2.23264   2.25002  128.932
 5082.00    2.29877   2.29300  126.130
 5083.00    2.34677   2.34187  124.114
 5084.00    2.40031   2.39032  121.997
 5085.00    2.47688   2.44409   -1.000
 5086.00    2.51123   2.49428   -1.000
 5087.00    2.51684   2.52299  118.215
 5088.00    2.54562   2.53723  117.769
 5089.00    2.58081   2.54899   -1.000
 5090.00    2.59068   2.56335   -1.000
 5091.00    2.60601   2.58868   -1.000
 5092.00    2.64205   2.62811   -1.000
 5093.00    2.67109   2.66354  113.430
 5094.00    2.65950   2.66319  113.799
 5095.00    2.60485   2.60712  115.773
 5096.00    2.51965   2.51819  118.273
 5097.00    2.43339   2.43793  121.041
 5098.00    2.35424   2.37604  123.718
 5099.00    2.33464   2.35438  124.825
 5100.00    2.38945   2.39459  122.831
 5101.00    2.49438   2.47275   -1.000
 5102.00    2.55353   2.53360   -1.000
 5103.00    2.54522   2.54197  117.717
 5104.00    2.50534   2.51848  119.017
 5105.00    2.48011   2.48958  120.559
 5106.00    2.45516   2.45799  122.051
 5107.00    2.37854   2.42415   -1.000
 5108.00    2.33581   2.39721   -1.000
 5109.00    2.35083   2.39120   -1.000
 5110.00    2.38331   2.41185  122.459
 5111.00    2.43851   2.45560  120.978
 5112.00    2.51740   2.50705  119.398
 5113.00    2.56803   2.54498   -1.000
 5114.00    2.61474   2.57947   -1.000
 5115.00    2.65137   2.61879   -1.000
 5116.00    2.66037   2.65643  114.975
 5117.00    2.67848   2.68580  113.922
 5118.00    2.69028   2.69588  113.843
 5119.00    2.66296   2.67421  114.980
 5120.00    2.60952   2.62610  116.659
 5121.00    2.55233   2.56647  118.536
 5122.00    2.47415   2.49466  121.235
 5123.00    2.39056   2.42203   -1.000
 5124.00    2.35683   2.37074  126.568
 5125.00    2.36636   2.35841  126.041
 5126.00    2.39506   2.37842  125.230
 5127.00    2.40746   2.39689  124.534
 5128.00    2.39614   2.40100  124.412
 5129.00    2.40113   2.40636  124.410
 5130.00    2.44767   2.43126  123.266
 5131.00    2.52475   2.48157   -1.000
 5132.00    2.56122   2.53271   -1.000
 5133.00    2.57578   2.56432   -1.000
 5134.00    2.62536   2.58771   -1.000
 5135.00    2.64611   2.60649   -1.000
 5136.00    2.61225   2.60187   -1.000
 5137.00    2.53472   2.54758  121.287
 5138.00    2.45754   2.47470  123.572
 5139.00    2.42647   2.44243  124.308
 5140.00    2.45950   2.45320  123.574
 5141.00    2.50969   2.46938   -1.000
 5142.00    2.49857   2.46738   -1.000
 5143.00    2.48042   2.46293   -1.000
 5144.00    2.48710   2.47769   -1.000
 5145.00    2.48118   2.48289  122.982
 5146.00    2.43478   2.45035  123.651
 5147.00    2.40849   2.42201  124.262
 5148.00    2.44294   2.43605  123.306
 5149.00    2.48005   2.46928  122.315
 5150.00    2.47210   2.47530  123.129
 5151.00    2.43912   2.44751  125.188
 5152.00    2.40082   2.41582  126.503
 5153.00    2.39740   2.40026  126.310
 5154.00    2.44355   2.41255   -1.000
 5155.00    2.52349   2.47235   -1.000
 5156.00    2.62143   2.56604   -1.000
 5157.00    2.69451   2.65070   -1.000
 5158.00    2.72095   2.69682   -1.000
 5159.00    2.72967   2.71192   -1.000
 5160.00    2.72066   2.70650   -1.000
 5161.00    2.69496   2.68233   -1.000
 5162.00    2.64977   2.63248   -1.000
 5163.00    2.58471   2.55917   -1.000
 5164.00    2.46777   2.46332  121.623
 5165.00    2.26861   2.31177   -1.000
 5166.00    2.00935   2.08814   -1.000
 5167.00    1.80701   1.89404   -1.000
 5168.00    1.80632   1.85074   -1.000
 5169.00    1.94833   1.94788  147.855
 5170.00    2.01219   2.02864   -1.000
 5171.00    1.88969   1.96594   -1.000
 5172.00    1.73610   1.83575   -1.000
 5173.00    1.77061   1.82062   -1.000
 5174.00    2.00097   1.98242   -1.000
 5175.00    2.26728   2.22839   -1.000
 5176.00    2.41335   2.40018  124.249
 5177.00    2.45871   2.46837  121.884
 5178.00    2.49557   2.48827  121.321
 5179.00    2.48311   2.47136  122.074
 5180.00    2.37078   2.39947   -1.000
 5181.00    2.16835   2.23523   -1.000
 5182.00    1.90894   2.00281   -1.000
 5183.00    1.72931   1.82028   -1.000
 5184.00    1.78231   1.81958   -1.000
 5185.00    2.06739   2.02405   -1.000
 5186.00    2.37785   2.29028   -1.000
 5187.00    2.54925   2.47601   -1.000
 5188.00    2.62813   2.56314   -1.000
 5189.00    2.66943   2.58918   -1.000
 5190.00    2.62800   2.56836   -1.000
 5191.00    2.50512   2.48529   -1.000
 5192.00    2.38161   2.38596  128.747
 5193.00    2.36840   2.35576  129.211
 5194.00    2.46947   2.40457   -1.000
 5195.00    2.51994   2.45854   -1.000
 5196.00    2.53927   2.51117   -1.000
 5197.00    2.59266   2.57871   -1.000
 5198.00    2.68028   2.65054   -1.000
 5199.00    2.71373   2.69992   -1.000
 5200.00    2.71287   2.71703  117.321
 5201.00    2.71229   2.69951   -1.000
 5202.00    2.66684   2.64661   -1.000
 5203.00    2.59153   2.55847   -1.000
 5204.00    2.48332   2.42926   -1.000
 5205.00    2.37356   2.29761   -1.000
 5206.00    2.32771   2.21974   -1.000
 5207.00    2.29971   2.19377   -1.000
 5208.00    2.28489   2.19743   -1.000
 5209.00    2.32355   2.23267   -1.000
 5210.00    2.45076   2.33435   -1.000
 5211.00    2.62798   2.49347   -1.000
 5212.00    2.77345   2.65479   -1.000
 5213.00    2.85148   2.74812   -1.000
 5214.00    2.81189   2.74786   -1.000
 5215.00    2.69464   2.68506   -1.000
 5216.00    2.64893   2.63368   -1.000
 5217.00    2.69258   2.65115   -1.000
 5218.00    2.75629   2.73065   -1.000
 5219.00    2.83773   2.81836   -1.000
 5220.00    2.91344   2.87628   -1.000
 5221.00    2.93529   2.89367   -1.000
 5222.00    2.87418   2.86182   -1.000
 5223.00    2.75590   2.77258  117.091
 5224.00    2.63018   2.63428  121.569
 5225.00    2.47878   2.47601  127.085
 5226.00    2.34860   2.36078  131.425
 5227.00    2.40088   2.35519   -1.000
 5228.00    2.58876   2.48083   -1.000
 5229.00    2.74478   2.66931   -1.000
 5230.00    2.84483   2.79648   -1.000
 5231.00    2.85443   2.80606   -1.000
 5232.00    2.78202   2.73465   -1.000
 5233.00    2.72315   2.65701   -1.000
 5234.00    2.71552   2.64960   -1.000
 5235.00    2.76481   2.72961   -1.000
 5236.00    2.85022   2.83783   -1.000
 5237.00    2.96915   2.92813   -1.000
 5238.00    3.02203   2.96413   -1.000
 5239.00    2.98219   2.95819   -1.000
 5240.00    2.92118   2.93976  112.627
 5241.00    2.91846   2.92295  112.095
 5242.00    2.94356   2.92106   -1.000
 5243.00    2.95977   2.94179   -1.000
 5244.00    2.98438   2.96604   -1.000
 5245.00    2.96151   2.94058   -1.000
 5246.00    2.83653   2.85327  116.367
 5247.00    2.72830   2.75586  119.416
 5248.00    2.72219   2.70749   -1.000
 5249.00    2.72837   2.70638   -1.000
 5250.00    2.70168   2.70720  121.284
 5251.00    2.71597   2.71948  121.153
 5252.00    2.77020   2.75662   -1.000
 5253.00    2.79342   2.78477   -1.000
 5254.00    2.78628   2.78605   -1.000
 5255.00    2.79181   2.79259   -1.000
 5256.00    2.87360   2.85712   -1.000
 5257.00    3.00665   2.96857   -1.000
 5258.00    3.06651   3.04684   -1.000
 5259.00    3.03879   3.04912  111.111
 5260.00    2.96770   2.97595  113.558
 5261.00    2.83837   2.84454  117.875
 5262.00    2.67717   2.68408  123.340
 5263.00    2.55054   2.52789   -1.000
 5264.00    2.44877   2.41138   -1.000
 5265.00    2.38948   2.35529   -1.000
 5266.00    2.43104   2.36751   -1.000
 5267.00    2.49134   2.40718   -1.000
 5268.00    2.44503   2.38553   -1.000
 5269.00    2.32459   2.28516   -1.000
 5270.00    2.32415   2.23874   -1.000
 5271.00    2.51436   2.35278   -1.000
 5272.00    2.71257   2.57031   -1.000
 5273.00    2.81872   2.71786   -1.000
 5274.00    2.83238   2.73887   -1.000
 5275.00    2.83964   2.75409   -1.000
 5276.00    2.91139   2.81592   -1.000
 5277.00    3.01994   2.93298   -1.000
 5278.00    3.12030   3.03455   -1.000
 5279.00    3.10844   3.04799   -1.000
 5280.00    3.01449   2.98254   -1.000
 5281.00    2.92352   2.88214   -1.000
 5282.00    2.86420   2.78949   -1.000
 5283.00    2.81802   2.74652   -1.000
 5284.00    2.87541   2.80237   -1.000
 5285.00    3.03181   2.94452   -1.000
 5286.00    3.15087   3.09369   -1.000
 5287.00    3.18126   3.16753   -1.000
 5288.00    3.20152   3.16959   16.377
 5289.00    3.21928   3.16184   10.965
 5290.00    3.23042   3.17152   10.919
 5291.00    3.22970   3.18243   10.881
 5292.00    3.18789   3.17056   10.918
 5293.00    3.16644   3.14799   11.011
 5294.00    3.16643   3.11958   11.145
 5295.00    3.08039   3.05035   11.399
 5296.00    2.92329   2.91339   11.800
 5297.00    2.78545   2.76636   12.165
 5298.00    2.76317   2.71088   12.213
 5299.00    2.87091   2.76678   11.967
 5300.00    2.95670   2.86227   11.714
 5301.00    2.98686   2.92502   11.595
 5302.00    3.05467   2.97549   11.478
 5303.00    3.16491   3.05774   11.219
 5304.00    3.28220   3.16437   10.978
 5305.00    3.32753   3.23062   10.897
 5306.00    3.27672   3.22333   10.964
 5307.00    3.22954   3.18773   11.066
 5308.00    3.24570   3.18140   11.047
 5309.00    3.29456   3.21382   10.941
 5310.00    3.31565   3.25030   10.856
 5311.00    3.31614   3.25267   10.842
 5312.00    3.29186   3.22862   10.889
 5313.00    3.27699   3.19826   10.942
 5314.00    3.26937   3.16775   11.011
 5315.00    3.24207   3.13992   11.111
 5316.00    3.21570   3.11121   11.215
 5317.00    3.20236   3.10192   11.249
 5318.00    3.20491   3.11735   11.190
 5319.00    3.21303   3.13315   11.129
 5320.00    3.22423   3.13708   11.143
 5321.00    3.19483   3.12218   11.212
 5322.00    3.14237   3.07651   11.328
 5323.00    3.10324   3.00049   11.507
 5324.00    3.05821   2.93028   11.646
 5325.00    3.02083   2.88297   11.675
 5326.00    2.95488   2.79584   11.887
 5327.00    2.77737   2.63226   12.519
 5328.00    2.63381   2.48984   13.066
 5329.00    2.68032   2.50964   12.837
 5330.00    2.89686   2.71484   12.130
 5331.00    3.08644   2.92798   11.629
 5332.00    3.15191   3.02927   11.434
 5333.00    3.17996   3.07558   11.327
 5334.00    3.23941   3.12692   11.203
 5335.00    3.28093   3.18649   11.127
 5336.00    3.27667   3.21210   11.163
 5337.00    3.25159   3.18697   11.238
 5338.00    3.21277   3.11993   11.345
 5339.00    3.11796   3.01239   11.581
 5340.00    3.00466   2.90540   11.818
 5341.00    3.00076   2.88049   11.815
 5342.00    3.09944   2.96741   11.557
 5343.00    3.18181   3.06723   11.311
 5344.00    3.20399   3.10604   11.249
 5345.00    3.19003   3.09273   11.304
 5346.00    3.15773   3.06122   11.379
 5347.00    3.12744   3.03102   11.440
 5348.00    3.12097   3.00179   11.528
 5349.00    3.14419   2.99163   11.581
 5350.00    3.20212   3.03979   11.465
 5351.00    3.27076   3.13354   11.221
 5352.00    3.32658   3.22379   11.041
 5353.00    3.37699   3.28215   10.976
 5354.00    3.44073   3.31830   10.909
 5355.00    3.51369   3.36621   10.784
 5356.00    3.52175   3.40269   10.684
 5357.00    3.52602   3.41363   10.666
 5358.00    3.50400   3.40767   10.683
 5359.00    3.44819   3.38931   10.715
 5360.00    3.39839   3.34900   10.813
 5361.00    3.34563   3.29245   10.980
 5362.00    3.29736   3.24139   11.150
 5363.00    3.24769   3.20290   11.255
 5364.00    3.19944   3.16809   11.323
 5365.00    3.15444   3.13832   11.390
 5366.00    3.17789   3.12367   11.388
 5367.00    3.23681   3.12440   11.373
 5368.00    3.20501   3.09729   11.453
 5369.00    3.05260   2.99500   11.688
 5370.00    2.93479   2.85626   12.028
 5371.00    2.91221   2.77983   12.172
 5372.00    3.01562   2.84021   11.867
 5373.00    3.20891   3.01929   11.342
 5374.00    3.35000   3.19867   10.985
 5375.00    3.39720   3.29813   10.850
 5376.00    3.42327   3.30507   10.852
 5377.00    3.42496   3.29052   10.868
 5378.00    3.42227   3.29959   10.883
 5379.00    3.41432   3.31588   10.933
 5380.00    3.38358   3.30864   11.028
 5381.00    3.35827   3.26788   11.139
 5382.00    3.33286   3.22153   11.211
 5383.00    3.30744   3.20080   11.221
 5384.00    3.34508   3.21262   11.181
 5385.00    3.40826   3.25345   11.081
 5386.00    3.41133   3.29305   11.026
 5387.00    3.37202   3.29584   11.056
 5388.00    3.31217   3.25168   11.147
 5389.00    3.25680   3.18280   11.300
 5390.00    3.21245   3.11880   11.443
 5391.00    3.17251   3.08344   11.517
 5392.00    3.15374   3.07637   11.535
 5393.00    3.15753   3.07998   11.560
 5394.00    3.14081   3.07399   11.631
 5395.00    3.09964   3.03125   11.765
 5396.00    3.04149   2.95685   11.979
 5397.00    3.01082   2.90307   12.065
 5398.00    3.06303   2.94067   11.812
 5399.00    3.16897   3.05218   11.459
 5400.00    3.24868   3.14661   11.309
 5401.00    3.28084   3.19186   11.310
 5402.00    3.25957   3.17966   11.380
 5403.00    3.14708   3.09796   11.646
 5404.00    2.96567   2.95068   12.027
 5405.00    2.86011   2.81049   12.276
 5406.00    2.89725   2.78287   12.236
 5407.00    2.97930   2.87439   12.007
 5408.00    3.03888   2.95537   11.853
 5409.00    3.07307   2.96815   11.896
 5410.00    3.10207   2.95772   11.896
 5411.00    3.18464   3.01862   11.655
 5412.00    3.31157   3.13586   11.365
 5413.00    3.36317   3.22127   11.202
 5414.00    3.35670   3.25223   11.174
 5415.00    3.38417   3.27612   11.183
 5416.00    3.42871   3.32736   11.127
 5417.00    3.46478   3.37817   11.049
 5418.00    3.45175   3.38431   11.059
 5419.00    3.37584   3.34901   11.152
 5420.00    3.33084   3.31088   11.235
 5421.00    3.35532   3.29453   11.223
 5422.00    3.37559   3.29329   11.175
 5423.00    3.36036   3.26880   11.268
 5424.00    3.32352   3.24017   11.395
 5425.00    3.33272   3.27466   11.342
 5426.00    3.42670   3.35794   11.165
 5427.00    3.46414   3.39154   11.128
 5428.00    3.34146   3.30103   11.356
 5429.00    3.18665   3.14185   11.714
 5430.00    3.16168   3.05728   11.848
 5431.00    3.23960   3.08603   11.697
 5432.00    3.24435   3.13394   11.620
 5433.00    3.16945   3.11478   11.740
 5434.00    3.14395   3.04810   11.891
 5435.00    3.14292   3.02774   11.902
 5436.00    3.20045   3.09418   11.720
 5437.00    3.34024   3.22070   11.418
 5438.00    3.49266   3.35291   11.153
 5439.00    3.56752   3.44989   10.975
 5440.00    3.62265   3.50627   10.867
 5441.00    3.63266   3.52960   10.828
 5442.00    3.60641   3.53945   10.824
 5443.00    3.56539   3.51489   10.902
 5444.00    3.48825   3.42047   11.142
 5445.00    3.30001   3.25330   11.556
 5446.00    3.10760   3.08167   11.975
 5447.00    3.08312   3.00535   12.035
 5448.00    3.22282   3.06824   11.724
 5449.00    3.34331   3.20612   11.373
 5450.00    3.37514   3.30991   11.201
 5451.00    3.36991   3.32887   11.175
 5452.00    3.35130   3.29901   11.244
 5453.00    3.28725   3.22595   11.457
 5454.00    3.16771   3.10931   11.773
 5455.00    3.08256   3.00348   12.057
 5456.00    3.13997   3.00400   12.016
 5457.00    3.30772   3.13135   11.659
 5458.00    3.43374   3.29425   11.307
 5459.00    3.43515   3.36860   11.170
 5460.00    3.38748   3.34311   11.248
 5461.00    3.32104   3.26642   11.441
 5462.00    3.25313   3.19070   11.618
 5463.00    3.22622   3.16410   11.709
 5464.00    3.27954   3.19434   11.625
 5465.00    3.38268   3.25320   11.480
 5466.00    3.44312   3.30452   11.402
 5467.00    3.44354   3.33738   11.300
 5468.00    3.41404   3.35075   11.225
 5469.00    3.37342   3.33974   11.286
 5470.00    3.35393   3.30737   11.405
 5471.00    3.37616   3.27722   11.471
 5472.00    3.38302   3.25992   11.521
 5473.00    3.34506   3.24013   11.622
 5474.00    3.28438   3.19370   11.774
 5475.00    3.19045   3.11688   12.002
 5476.00    3.11297   3.03949   12.214
 5477.00    3.13014   3.02878   12.195
 5478.00    3.24466   3.12457   11.891
 5479.00    3.31795   3.22759   11.614
 5480.00    3.28842   3.23703   11.611
 5481.00    3.21970   3.18277   11.748
 5482.00    3.22569   3.15807   11.780
 5483.00    3.31359   3.23181   11.624
 5484.00    3.41066   3.34509   11.391
 5485.00    3.46063   3.40604   11.249
 5486.00    3.40358   3.38879   11.298
 5487.00    3.30364   3.31818   11.451
 5488.00    3.27781   3.27023   11.550
 5489.00    3.33939   3.27835   11.569
 5490.00    3.40068   3.32788   11.511
 5491.00    3.44648   3.36616   11.426
 5492.00    3.45881   3.37506   11.371
 5493.00    3.43096   3.36711   11.376
 5494.00    3.43626   3.36083   11.390
 5495.00    3.46542   3.35715   11.389
 5496.00    3.44788   3.33717   11.445
 5497.00    3.43949   3.31512   11.530
 5498.00    3.47787   3.32877   11.512
 5499.00    3.51017   3.36702   11.398
 5500.00    3.45474   3.36914   11.418
 5501.00    3.39819   3.31735   11.581
 5502.00    3.40358   3.26180   11.656
 5503.00    3.39785   3.25664   11.590
 5504.00    3.38731   3.27472   11.540
 5505.00    3.35488   3.25439   11.643
 5506.00    3.31304   3.21248   11.778
 5507.00    3.34474   3.21423   11.738
 5508.00    3.40166   3.27905   11.566
 5509.00    3.42578   3.34718   11.471
 5510.00    3.40745   3.34460   11.513
 5511.00    3.33933   3.27014   11.696
 5512.00    3.26736   3.18277   11.907
 5513.00    3.24406   3.13351   12.039
 5514.00    3.26898   3.14740   11.971
 5515.00    3.31588   3.19440   11.773
 5516.00    3.39718   3.25827   11.585
 5517.00    3.50970   3.33777   11.381
 5518.00    3.58871   3.42377   11.183
 5519.00    3.59990   3.48904   11.106
 5520.00    3.58566   3.51073   11.115
 5521.00    3.59389   3.49638   11.137
 5522.00    3.60057   3.48908   11.170
 5523.00    3.57775   3.49309   11.196
 5524.00    3.53978   3.48928   11.248
 5525.00    3.50601   3.44754   11.376
 5526.00    3.42172   3.35852   11.608
 5527.00    3.31311   3.25177   11.902
 5528.00    3.29242   3.18742   12.047
 5529.00    3.34947   3.23114   11.879
 5530.00    3.46082   3.34448   11.571
 5531.00    3.53836   3.43133   11.371
 5532.00    3.54680   3.45112   11.346
 5533.00    3.52137   3.42685   11.432
 5534.00    3.48621   3.40268   11.507
 5535.00    3.49289   3.38990   11.496
 5536.00    3.51509   3.39153   11.415
 5537.00    3.52008   3.40849   11.364
 5538.00    3.53824   3.43442   11.324
 5539.00    3.59180   3.47241   11.231
 5540.00    3.65916   3.52013   11.134
 5541.00    3.70347   3.54394   11.110
 5542.00    3.66264   3.52551   11.194
 5543.00    3.58719   3.48537   11.312
 5544.00    3.55453   3.46064   11.368
 5545.00    3.55576   3.46074   11.352
 5546.00    3.56860   3.47280   11.323
 5547.00    3.62225   3.50003   11.266
 5548.00    3.69549   3.55447   11.165
 5549.00    3.73222   3.60693   11.065
 5550.00    3.77704   3.62548   11.019
 5551.00    3.75956   3.61620   11.054
 5552.00    3.69659   3.58304   11.141
 5553.00    3.66503   3.53764   11.261
 5554.00    3.63957   3.50516   11.340
 5555.00    3.65534   3.50014   11.343
 5556.00    3.67462   3.50865   11.311
 5557.00    3.64370   3.51238   11.286
 5558.00    3.63832   3.51201   11.271
 5559.00    3.65682   3.52050   11.258
 5560.00    3.64350   3.52463   11.271
 5561.00    3.60288   3.50301   11.320
 5562.00    3.56313   3.46584   11.418
 5563.00    3.57174   3.44428   11.512
 5564.00    3.59172   3.43904   11.558
 5565.00    3.54649   3.43102   11.583
 5566.00    3.49945   3.41361   11.599
 5567.00    3.52666   3.40297   11.585
 5568.00    3.56164   3.40488   11.559
 5569.00    3.56920   3.41456   11.575
 5570.00    3.59757   3.42943   11.582
 5571.00    3.60117   3.43821   11.578
 5572.00    3.57376   3.42757   11.603
 5573.00    3.59159   3.41318   11.580
 5574.00    3.76929   3.43280   -1.000
 5575.00    4.42148   3.48831   -1.000
 5576.00    5.87225   3.52063   -1.000
 5577.00    6.74903   3.52763   -1.000
 5578.00    5.02612   3.54919   -1.000
 5579.00    1.75534   3.57454   -1.000
 5580.00    0.47049   3.57999   -1.000
 5581.00    1.53290   3.56854   -1.000
 5582.00    2.82438   3.54173   -1.000
 5583.00    3.43493   3.51917   11.411
 5584.00    3.60181   3.49515   11.453
 5585.00    3.55430   3.42139   11.651
 5586.00    3.41957   3.30292   11.944
 5587.00    3.33902   3.18469   12.224
 5588.00    3.33010   3.13156   -1.000
 5589.00    3.38453   3.16415   -1.000
 5590.00    3.42108   3.23883   12.088
 5591.00    3.43387   3.31854   11.901
 5592.00    3.48000   3.35969   11.825
 5593.00    3.49684   3.37387   11.852
 5594.00    3.49695   3.40164   11.821
 5595.00    3.58592   3.46426   11.676
 5596.00    3.67650   3.52290   11.553
 5597.00    3.63817   3.51187   11.601
 5598.00    3.53421   3.43133   11.783
 5599.00    3.47792   3.35144   11.937
 5600.00    3.45147   3.30585   11.968
 5601.00    3.43054   3.28394   12.008
 5602.00    3.44981   3.27991   12.073
 5603.00    3.52311   3.33154   11.954
 5604.00    3.64216   3.45135   11.656
 5605.00    3.74862   3.57929   11.369
 5606.00    3.77816   3.65952   11.196
 5607.00    3.76174   3.69245   11.142
 5608.00    3.75531   3.69065   11.150
 5609.00    3.75908   3.68240   11.173
 5610.00    3.77691   3.68826   11.172
 5611.00    3.80099   3.71431   11.143
 5612.00    3.78753   3.71696   11.168
 5613.00    3.70900   3.64172   11.346
 5614.00    3.56377   3.47949   11.698
 5615.00    3.43479   3.31726   12.021
 5616.00    3.44499   3.27457   12.034
 5617.00    3.54346   3.35113   11.790
 5618.00    3.60574   3.45169   11.583
 5619.00    3.61774   3.49530   11.519
 5620.00    3.67122   3.51875   11.480
 5621.00    3.71567   3.56265   11.423
 5622.00    3.70607   3.57521   11.438
 5623.00    3.65119   3.50897   11.613
 5624.00    3.55892   3.41303   11.841
 5625.00    3.50416   3.36513   11.874
 5626.00    3.54877   3.41541   11.709
 5627.00    3.62613   3.50635   11.525
 5628.00    3.70456   3.57214   11.383
 5629.00    3.75018   3.61882   11.285
 5630.00    3.77258   3.65069   11.239
 5631.00    3.81111   3.66219   11.200
 5632.00    3.80770   3.65385   11.193
 5633.00    3.76352   3.63080   11.260
 5634.00    3.74077   3.60303   11.346
 5635.00    3.70333   3.56616   11.420
 5636.00    3.64925   3.52858   11.500
 5637.00    3.63112   3.50863   11.581
 5638.00    3.66331   3.51268   11.606
 5639.00    3.68596   3.52570   11.595
 5640.00    3.66564   3.52060   11.618
 5641.00    3.64058   3.49643   11.637
 5642.00    3.64691   3.48884   11.605
 5643.00    3.67502   3.51439   11.551
 5644.00    3.71353   3.54447   11.522
 5645.00    3.74321   3.56757   11.462
 5646.00    3.72949   3.58981   11.412
 5647.00    3.71729   3.60037   11.384
 5648.00    3.74241   3.59456   11.363
 5649.00    3.75519   3.58383   11.377
 5650.00    3.75139   3.59465   11.387
 5651.00    3.78332   3.63562   11.323
 5652.00    3.82413   3.67031   11.270
 5653.00    3.80092   3.66177   11.294
 5654.00    3.74129   3.62433   11.373
 5655.00    3.68234   3.59439   11.479
 5656.00    3.60124   3.55658   11.666
 5657.00    3.51511   3.47723   11.989
 5658.00    3.46742   3.38211   12.245
 5659.00    3.49510   3.35776   12.177
 5660.00    3.58450   3.42578   11.923
 5661.00    3.62560   3.48687   11.807
 5662.00    3.62233   3.48454   11.816
 5663.00    3.68417   3.50018   11.732
 5664.00    3.75382   3.56552   11.570
 5665.00    3.76654   3.62311   11.486
 5666.00    3.73011   3.63338   11.519
 5667.00    3.68304   3.60007   11.590
 5668.00    3.68360   3.57293   11.621
 5669.00    3.69476   3.57686   11.603
 5670.00    3.70950   3.59444   11.540
 5671.00    3.75408   3.62915   11.445
 5672.00    3.82878   3.68628   11.334
 5673.00    3.90137   3.73723   11.223
 5674.00    3.91208   3.75603   11.191
 5675.00    3.88988   3.75583   11.223
 5676.00    3.91582   3.75663   11.211
 5677.00    3.95671   3.76890   11.185
 5678.00    3.92059   3.76783   11.220
 5679.00    3.89255   3.73944   11.272
 5680.00    3.86522   3.70123   11.332
 5681.00    3.79394   3.65601   11.445
 5682.00    3.72410   3.60095   11.584
 5683.00    3.73336   3.57745   11.644
 5684.00    3.76181   3.61279   11.601
 5685.00    3.76995   3.65153   11.540
 5686.00    3.75068   3.63614   11.563
 5687.00    3.71762   3.59381   11.679
 5688.00    3.74093   3.57336   11.752
 5689.00    3.80269   3.60715   -1.000
 5690.00    3.85329   3.67862   11.471
 5691.00    3.89484   3.74802   11.327
 5692.00    3.92212   3.79649   11.249
 5693.00    3.93017   3.80859   11.214
 5694.00    3.94784   3.79862   11.220
 5695.00    3.96376   3.78430   11.231
 5696.00    3.92434   3.76744   11.256
 5697.00    3.86324   3.73401   11.344
 5698.00    3.81371   3.68576   11.473
 5699.00    3.77673   3.64285   11.585
 5700.00    3.76388   3.61134   11.701
 5701.00    3.71069   3.57755   11.779
 5702.00    3.65045   3.57477   11.731
 5703.00    3.67259   3.61783   11.613
 5704.00    3.69965   3.65471   11.554
 5705.00    3.66270   3.64763   11.604
 5706.00    3.60784   3.58740   11.746
 5707.00    3.57936   3.51187   11.954
 5708.00    3.54764   3.46014   12.154
 5709.00    3.53774   3.42838   12.259
 5710.00    3.54287   3.43195   12.256
 5711.00    3.55958   3.46668   12.155
 5712.00    3.63915   3.53076   11.939
 5713.00    3.78536   3.63171   11.652
 5714.00    3.90934   3.72311   11.439
 5715.00    3.94447   3.76671   11.361
 5716.00    3.93565   3.79203   11.337
 5717.00    3.94412   3.80624   11.305
 5718.00    3.96798   3.81799   11.255
 5719.00    3.98896   3.83855   11.187
 5720.00    4.02558   3.87277   11.127
 5721.00    4.06909   3.90999   11.094
 5722.00    4.10494   3.93807   11.075
 5723.00    4.12225   3.95343   11.061
 5724.00    4.09639   3.94626   11.075
 5725.00    4.02184   3.90042   11.150
 5726.00    3.96352   3.83194   11.264
 5727.00    3.94897   3.79159   11.364
 5728.00    3.95809   3.80795   11.348
 5729.00    3.98819   3.85080   11.275
 5730.00    3.97833   3.85765   11.276
 5731.00    3.93618   3.83221   11.330
 5732.00    3.95906   3.82693   11.319
 5733.00    4.02047   3.87405   11.224
 5734.00    4.06228   3.93375   11.139
 5735.00    4.09094   3.94866   11.126
 5736.00    4.10143   3.92714   11.142
 5737.00    4.08063   3.89777   11.169
 5738.00    4.05361   3.88650   11.186
 5739.00    4.04573   3.89569   11.204
 5740.00    4.03279   3.90149   11.224
 5741.00    4.01056   3.89889   11.247
 5742.00    3.99936   3.88846   11.236
 5743.00    4.02691   3.89772   11.218
 5744.00    4.07353   3.93811   11.158
 5745.00    4.09728   3.97462   11.088
 5746.00    4.07480   3.96689   11.113
 5747.00    4.00937   3.90970   11.214
 5748.00    3.99078   3.87302   11.280
 5749.00    4.04086   3.90527   11.244
 5750.00    4.06811   3.94815   11.195
 5751.00    4.04309   3.93881   11.247
 5752.00    3.98223   3.85278   11.375
 5753.00    3.93367   3.76416   11.499
 5754.00    3.95153   3.75708   -1.000
 5755.00    4.02218   3.83783   -1.000
 5756.00    4.12294   3.95441   11.224
 5757.00    4.18516   4.02383   11.066
 5758.00    4.17177   4.02597   11.053
 5759.00    4.09844   3.96747   11.156
 5760.00    3.98330   3.87372   11.300
 5761.00    3.86631   3.78607   11.453
 5762.00    3.83545   3.74187   11.542
 5763.00    3.92189   3.78125   11.468
 5764.00    4.04409   3.89331   11.280
 5765.00    4.11385   3.99908   11.120
 5766.00    4.12373   4.03841   11.057
 5767.00    4.15139   4.04830   11.043
 5768.00    4.16572   4.04465   11.027
 5769.00    4.14912   4.02920   11.036
 5770.00    4.11307   4.00930   11.070
 5771.00    4.06737   3.99101   11.125
 5772.00    4.01226   3.96822   11.193
 5773.00    3.99097   3.94910   11.234
 5774.00    3.98218   3.93660   11.250
 5775.00    3.97843   3.93697   11.238
 5776.00    3.97316   3.96024   11.190
 5777.00    3.93329   3.97776   11.164
 5778.00    3.83761   3.95459   11.187
 5779.00    3.64962   3.87622   11.312
 5780.00    3.46644   3.76135   11.545
 5781.00    3.45198   3.66339   11.735
 5782.00    3.53394   3.62775   11.763
 5783.00    3.63943   3.64807   11.718
 5784.00    3.70994   3.65636   11.674
 5785.00    3.72886   3.65985   11.632
 5786.00    3.80096   3.71796   11.529
 5787.00    3.91043   3.81262   11.380
 5788.00    3.97872   3.88333   11.272
 5789.00    4.01896   3.90749   11.256
 5790.00    4.01546   3.89053   11.299
 5791.00    4.02119   3.88048   11.305
 5792.00    4.08178   3.91528   11.232
 5793.00    4.11429   3.99591   11.147
 5794.00    4.11612   4.07114   11.078
 5795.00    4.10963   4.09057   11.052
 5796.00    4.04359   4.05313   11.097
 5797.00    3.98383   3.99109   11.170
 5798.00    4.04504   3.97867   11.156
 5799.00    4.19452   4.03656   11.036
 5800.00    4.30620   4.12823   10.885
 5801.00    4.30898   4.18665   10.819
 5802.00    4.26816   4.17777   10.878
 5803.00    4.25437   4.12244   10.970
 5804.00    4.23102   4.05676   11.058
 5805.00    4.17748   4.02664   11.120
 5806.00    4.15139   4.03253   11.117
 5807.00    4.15739   4.05485   11.077
 5808.00    4.17053   4.07619   11.041
 5809.00    4.19567   4.09384   11.031
 5810.00    4.21853   4.11025   11.025
 5811.00    4.24602   4.11488   10.992
 5812.00    4.22659   4.10241   10.955
 5813.00    4.18876   4.07484   10.961
 5814.00    4.14367   4.02853   11.032
 5815.00    4.11516   3.97415   11.099
 5816.00    4.13803   3.95549   11.075
 5817.00    4.18338   4.00775   11.000
 5818.00    4.25004   4.09210   10.935
 5819.00    4.31404   4.15114   10.880
 5820.00    4.33650   4.16536   10.838
 5821.00    4.29462   4.15102   10.839
 5822.00    4.25336   4.12474   10.873
 5823.00    4.24128   4.10896   10.873
 5824.00    4.27239   4.11533   10.853
 5825.00    4.30671   4.12871   10.835
 5826.00    4.30308   4.14459   10.821
 5827.00    4.30526   4.15410   10.820
 5828.00    4.32421   4.16211   10.836
 5829.00    4.35277   4.17323   10.829
 5830.00    4.35338   4.17962   10.823
 5831.00    4.34153   4.17825   10.815
 5832.00    4.34281   4.17069   10.824
 5833.00    4.33281   4.15080   10.882
 5834.00    4.29019   4.12344   10.920
 5835.00    4.26110   4.11135   10.898
 5836.00    4.26802   4.12452   10.869
 5837.00    4.25427   4.12871   10.888
 5838.00    4.23453   4.12186   10.918
 5839.00    4.28264   4.13521   10.902
 5840.00    4.35551   4.17146   10.833
 5841.00    4.37139   4.21355   10.767
 5842.00    4.36371   4.23493   10.752
 5843.00    4.35266   4.22241   10.780
 5844.00    4.29772   4.19000   10.821
 5845.00    4.24597   4.14594   10.884
 5846.00    4.22310   4.10144   10.946
 5847.00    4.18743   4.06821   10.999
 5848.00    4.17599   4.05902   11.008
 5849.00    4.19384   4.06523   11.013
 5850.00    4.18641   4.06184   11.064
 5851.00    4.13851   4.02390   11.133
 5852.00    4.09380   3.97124   11.230
 5853.00    4.07751   3.94297   11.304
 5854.00    4.07413   3.94701   11.332
 5855.00    4.07226   3.94493   11.345
 5856.00    4.03184   3.88239   11.428
 5857.00    3.97529   3.79916   11.543
 5858.00    3.97184   3.78073   -1.000
 5859.00    4.03358   3.84839   11.389
 5860.00    4.11714   3.94397   11.278
 5861.00    4.18694   3.99077   -1.000
 5862.00    4.21347   3.99578   -1.000
 5863.00    4.21122   3.99268   -1.000
 5864.00    4.22121   3.99622   -1.000
 5865.00    4.22655   3.98824   -1.000
 5866.00    4.20931   3.95555   -1.000
 5867.00    4.20477   3.94588   -1.000
 5868.00    4.19430   3.99771   -1.000
 5869.00    4.20423   4.06549   11.091
 5870.00    4.20460   4.10236   11.030
 5871.00    4.20678   4.10332   11.015
 5872.00    4.22324   4.07811   11.036
 5873.00    4.22322   4.05584   11.048
 5874.00    4.21970   4.04798   11.036
 5875.00    4.19972   4.04958   11.052
 5876.00    4.17142   4.03673   11.097
 5877.00    4.17166   4.00470   11.124
 5878.00    4.18321   3.96432   -1.000
 5879.00    4.17974   3.92612   -1.000
 5880.00    4.14403   3.90536   -1.000
 5881.00    4.10374   3.91309   11.266
 5882.00    4.10163   3.93387   11.255
 5883.00    4.09727   3.92227   11.290
 5884.00    4.12314   3.89746   -1.000
 5885.00    4.14325   3.88422   -1.000
 5886.00    4.11736   3.81989   -1.000
 5887.00    4.04439   3.61267   -1.000
 5888.00    3.98941   3.23584   -1.000
 5889.00    3.99155   2.83740   -1.000
 5890.00    3.72127   2.66869   -1.000
 5891.00    2.83683   2.81457   13.512
 5892.00    1.96703   3.10327   -1.000
 5893.00    2.01106   3.25431   -1.000
 5894.00    2.68216   3.17664   -1.000
 5895.00    3.27843   2.98804   -1.000
 5896.00    3.46734   2.92517   -1.000
 5897.00    3.18950   3.12976   12.800
 5898.00    2.83939   3.40820   -1.000
 5899.00    2.96850   3.60144   -1.000
 5900.00    3.48708   3.73846   11.688
 5901.00    3.90531   3.83707   11.464
 5902.00    4.06917   3.89731   11.359
 5903.00    4.11974   3.92902   11.339
 5904.00    4.15803   3.93460   -1.000
 5905.00    4.16618   3.92910   -1.000
 5906.00    4.14653   3.93138   -1.000
 5907.00    4.13285   3.95644   11.331
 5908.00    4.12651   3.98740   11.305
 5909.00    4.14618   4.01013   11.324
 5910.00    4.18857   4.03115   11.351
 5911.00    4.20275   4.03529   11.362
 5912.00    4.18646   4.00278   11.395
 5913.00    4.14925   3.93338   -1.000
 5914.00    4.09813   3.86646   -1.000
 5915.00    4.07780   3.84798   -1.000
 5916.00    4.06763   3.87813   11.590
 5917.00    4.04934   3.93015   11.539
 5918.00    4.06657   3.98718   11.494
 5919.00    4.13433   4.02361   11.460
 5920.00    4.17478   4.03484   11.423
 5921.00    4.18740   4.02339   11.411
 5922.00    4.19065   4.00365   11.423
 5923.00    4.15401   4.00168   11.394
 5924.00    4.16807   4.02818   11.352
 5925.00    4.21317   4.06396   11.328
 5926.00    4.22059   4.08747   11.316
 5927.00    4.18446   4.07541   11.329
 5928.00    4.12818   4.02777   11.394
 5929.00    4.10333   3.98355   11.484
 5930.00    4.14413   3.97861   11.505
 5931.00    4.23445   4.02576   -1.000
 5932.00    4.30115   4.06429   -1.000
 5933.00    4.28474   4.05070   -1.000
 5934.00    4.18976   4.01556   11.475
 5935.00    4.12469   4.01199   11.511
 5936.00    4.14446   4.06198   11.463
 5937.00    4.20489   4.11113   11.369
 5938.00    4.24545   4.12728   11.308
 5939.00    4.25219   4.11412   11.327
 5940.00    4.20484   4.06867   11.424
 5941.00    4.16886   4.01949   11.508
 5942.00    4.20676   4.00853   -1.000
 5943.00    4.25844   4.05106   -1.000
 5944.00    4.28796   4.10663   11.397
 5945.00    4.32595   4.13936   -1.000
 5946.00    4.32173   4.13808   11.355
 5947.00    4.24454   4.09964   11.439
 5948.00    4.17946   4.04608   11.558
 5949.00    4.17547   4.02821   11.614
 5950.00    4.20801   4.05275   11.576
 5951.00    4.25677   4.06038   -1.000
 5952.00    4.26279   4.04178   -1.000
 5953.00    4.23533   4.03063   -1.000
 5954.00    4.21296   4.05026   11.519
 5955.00    4.18576   4.06026   11.514
 5956.00    4.12965   4.03037   11.549
 5957.00    4.11103   4.00464   11.577
 5958.00    4.15582   4.02835   11.549
 5959.00    4.22088   4.08874   11.440
 5960.00    4.27727   4.15216   11.319
 5961.00    4.31073   4.19267   11.257
 5962.00    4.32018   4.19959   11.237
 5963.00    4.30707   4.18732   11.253
 5964.00    4.26682   4.16003   11.306
 5965.00    4.25545   4.13025   11.353
 5966.00    4.28354   4.12561   11.392
 5967.00    4.31186   4.15887   11.387
 5968.00    4.34392   4.19469   11.315
 5969.00    4.37381   4.21690   11.266
 5970.00    4.39700   4.23755   11.259
 5971.00    4.40528   4.25093   11.242
 5972.00    4.37120   4.24773   11.225
 5973.00    4.31701   4.22977   11.264
 5974.00    4.28765   4.19183   11.349
 5975.00    4.28141   4.13135   11.437
 5976.00    4.28026   4.07732   -1.000
 5977.00    4.25390   4.05603   -1.000
 5978.00    4.21683   4.07129   11.560
 5979.00    4.21787   4.12073   11.470
 5980.00    4.27315   4.17021   11.408
 5981.00    4.30395   4.18131   11.417
 5982.00    4.25573   4.12903   11.493
 5983.00    4.16933   4.04822   11.595
 5984.00    4.12497   4.00191   11.666
 5985.00    4.17668   4.03305   11.653
 5986.00    4.26356   4.10876   11.551
 5987.00    4.32426   4.15768   11.462
 5988.00    4.34152   4.18480   11.417
 5989.00    4.33701   4.20332   11.368
 5990.00    4.32453   4.20651   11.362
 5991.00    4.30071   4.20751   11.390
 5992.00    4.31896   4.23770   11.359
 5993.00    4.36178   4.29361   11.271
 5994.00    4.38350   4.32647   11.219
 5995.00    4.39601   4.30212   11.266
 5996.00    4.35567   4.23554   11.350
 5997.00    4.29580   4.17853   11.408
 5998.00    4.29403   4.16437   11.439
 5999.00    4.30509   4.18549   11.431
 6000.00    4.31847   4.20595   11.430
 6001.00    4.32908   4.20667   11.482
 6002.00    4.32980   4.18642   11.533
 6003.00    4.34145   4.17725   11.540
 6004.00    4.33980   4.20137   11.515
 6005.00    4.27386   4.20445   11.509
 6006.00    4.18254   4.14618   11.571
 6007.00    4.14787   4.07452   11.681
 6008.00    4.16483   4.06194   11.719
 6009.00    4.19592   4.13757   11.619
 6010.00    4.23300   4.22427   11.489
 6011.00    4.26498   4.23235   11.456
 6012.00    4.23230   4.18906   11.525
 6013.00    4.20953   4.15137   11.598
 6014.00    4.27345   4.15482   11.576
 6015.00    4.32114   4.17447   11.550
 6016.00    4.30573   4.16148   11.589
 6017.00    4.28956   4.14923   11.622
 6018.00    4.27517   4.15869   11.607
 6019.00    4.24381   4.14589   11.619
 6020.00    4.23467   4.12461   11.685
 6021.00    4.26523   4.13434   11.680
 6022.00    4.31658   4.16338   11.605
 6023.00    4.37091   4.19495   -1.000
 6024.00    4.39885   4.22858   -1.000
 6025.00    4.39327   4.26776   11.495
 6026.00    4.41492   4.30190   11.446
 6027.00    4.46731   4.32855   11.388
 6028.00    4.50847   4.36247   11.329
 6029.00    4.52014   4.38947   11.304
 6030.00    4.50771   4.39304   11.303
 6031.00    4.53649   4.39668   11.323
 6032.00    4.58581   4.41310   -1.000
 6033.00    4.58878   4.44431   11.275
 6034.00    4.57775   4.48045   11.238
 6035.00    4.55323   4.49025   11.227
 6036.00    4.49362   4.47535   11.212
 6037.00    4.44555   4.45233   11.213
 6038.00    4.44895   4.42735   11.262
 6039.00    4.44895   4.40581   11.301
 6040.00    4.41308   4.39425   11.330
 6041.00    4.43743   4.40304   11.326
 6042.00    4.51111   4.42921   11.305
 6043.00    4.56071   4.46745   11.261
 6044.00    4.61288   4.49653   11.179
 6045.00    4.64151   4.50949   11.153
 6046.00    4.61782   4.51991   11.163
 6047.00    4.58616   4.52536   11.150
 6048.00    4.58011   4.52614   11.151
 6049.00    4.58741   4.52560   11.183
 6050.00    4.59043   4.53004   11.213
 6051.00    4.58578   4.52426   11.227
 6052.00    4.59221   4.48984   11.245
 6053.00    4.58038   4.44635   11.284
 6054.00    4.53550   4.41280   11.323
 6055.00    4.50821   4.37869   11.376
 6056.00    4.47468   4.35954   11.422
 6057.00    4.46597   4.37473   11.418
 6058.00    4.52259   4.41223   11.368
 6059.00    4.57770   4.45453   11.307
 6060.00    4.60318   4.47612   11.298
 6061.00    4.59651   4.46138   11.323
 6062.00    4.53109   4.41129   11.441
 6063.00    4.43300   4.33960   11.654
 6064.00    4.33937   4.27756   11.464
 6065.00    4.29462   4.26877   15.006
 6066.00    4.42533   4.34546    5.154
 6067.00    4.21647   4.45483    5.903
 6068.00    2.63177   4.53210   -1.000
 6069.00    2.31763   4.56535   -1.000
 6070.00    3.77435   4.58283   -1.000
 6071.00    4.68325   4.59588   10.914
 6072.00    4.23059   4.59983   11.033
 6073.00    2.13974   4.59421   -1.000
 6074.00    2.60755   4.58400   -1.000
 6075.00    4.34642   4.56220   11.232
 6076.00    4.66645   4.52209   11.285
 6077.00    4.58671   4.46890   11.349
 6078.00    4.49856   4.42308   11.430
 6079.00    4.44398   4.40211   11.507
 6080.00    4.46969   4.38796   11.533
 6081.00    4.50177   4.36101   11.539
 6082.00    4.48028   4.34808   11.566
 6083.00    4.45624   4.36887   11.577
 6084.00    4.49241   4.38961   11.569
 6085.00    4.50335   4.40562   11.558
 6086.00    4.49613   4.43158   11.531
 6087.00    4.53831   4.45086   11.488
 6088.00    4.55087   4.44142   11.487
 6089.00    4.48649   4.39978   11.545
 6090.00    4.45804   4.35631   11.603
 6091.00    4.48354   4.34869   11.614
 6092.00    4.51945   4.37372   11.560
 6093.00    4.56259   4.41916   11.493
 6094.00    4.61142   4.47006   11.432
 6095.00    4.65411   4.50043   -1.000
 6096.00    4.64935   4.50331   11.364
 6097.00    4.62560   4.50528   11.387
 6098.00    4.62075   4.53124   11.402
 6099.00    4.61408   4.53310   11.404
 6100.00    4.56374   4.46082   11.495
 6101.00    4.44064   4.31360   11.736
 6102.00    4.32350   4.17743   11.965
 6103.00    4.31999   4.18402   11.966
 6104.00    4.42574   4.30011   11.771
 6105.00    4.55844   4.40967   11.573
 6106.00    4.62847   4.46435   -1.000
 6107.00    4.61119   4.48407   11.513
 6108.00    4.58273   4.50899   11.550
 6109.00    4.58866   4.53177   11.555
 6110.00    4.58629   4.52364   11.535
 6111.00    4.57795   4.51414   11.492
 6112.00    4.57873   4.53831   11.472
 6113.00    4.60651   4.57918   11.433
 6114.00    4.63276   4.59993   11.391
 6115.00    4.62515   4.57572   11.413
 6116.00    4.61463   4.54521   11.482
 6117.00    4.59617   4.53853   11.519
 6118.00    4.56135   4.50690   11.558
 6119.00    4.49191   4.42279   11.691
 6120.00    4.40432   4.29864   11.855
 6121.00    4.33046   4.19281   11.980
 6122.00    4.34298   4.19391   12.023
 6123.00    4.46544   4.29260   -1.000
 6124.00    4.55167   4.40143   -1.000
 6125.00    4.55604   4.44840   11.665
 6126.00    4.53844   4.44562   11.716
 6127.00    4.51966   4.43009   11.732
 6128.00    4.52021   4.43736   11.706
 6129.00    4.57036   4.49835   11.634
 6130.00    4.63472   4.57678   11.525
 6131.00    4.68317   4.62813   11.472
 6132.00    4.68035   4.62880   11.483
 6133.00    4.63221   4.56116   11.564
 6134.00    4.52635   4.41077   11.778
 6135.00    4.35285   4.20337   12.107
 6136.00    4.19990   4.04742   12.435
 6137.00    4.16863   4.06781   12.562
 6138.00    4.29633   4.23352   12.351
 6139.00    4.48688   4.39832   12.000
 6140.00    4.56881   4.46407   11.797
 6141.00    4.57568   4.45537   11.776
 6142.00    4.61814   4.48691   11.802
 6143.00    4.67991   4.56128   11.729
 6144.00    4.68583   4.61458   11.588
 6145.00    4.66597   4.62331   11.529
 6146.00    4.62411   4.59653   11.565
 6147.00    4.52572   4.54169   11.634
 6148.00    4.44957   4.47842   11.716
 6149.00    4.44371   4.43750   11.790
 6150.00    4.44612   4.43465   11.813
 6151.00    4.46610   4.47345   11.782
 6152.00    4.49679   4.50756   11.711
 6153.00    4.48725   4.49760   11.672
 6154.00    4.44801   4.45358   11.736
 6155.00    4.43042   4.42024   11.815
 6156.00    4.41300   4.41184   11.838
 6157.00    4.35820   4.39549   11.872
 6158.00    4.27717   4.34238   11.974
 6159.00    4.16297   4.21143   12.172
 6160.00    4.01395   4.00903   12.500
 6161.00    3.89167   3.81067   12.876
 6162.00    3.83655   3.72891   13.084
 6163.00    3.85773   3.80890   12.985
 6164.00    3.97022   3.95825   12.667
 6165.00    4.09404   4.09375   12.414
 6166.00    4.16309   4.17038   12.323
 6167.00    4.15844   4.16666   12.332
 6168.00    4.10388   4.08124   12.453
 6169.00    4.04986   4.01205   12.598
 6170.00    4.08286   4.04480   12.577
 6171.00    4.13743   4.15698   12.372
 6172.00    4.15635   4.25241   12.171
 6173.00    4.18088   4.28478   12.125
 6174.00    4.21110   4.29485   12.144
 6175.00    4.23450   4.29694   12.126
 6176.00    4.23516   4.30102   12.099
 6177.00    4.23552   4.32602   12.070
 6178.00    4.27035   4.36311   12.019
 6179.00    4.28467   4.38808   11.968
 6180.00    4.26818   4.40680   11.930
 6181.00    4.31779   4.43628   11.880
 6182.00    4.38541   4.45399   11.840
 6183.00    4.37906   4.44194   11.848
 6184.00    4.34508   4.40390   11.886
 6185.00    4.30023   4.34592   11.964
 6186.00    4.22509   4.28113   12.086
 6187.00    4.17583   4.23349   12.215
 6188.00    4.15721   4.19986   12.334
 6189.00    4.13947   4.14490   12.432
 6190.00    4.09528   4.06158   12.570
 6191.00    4.07493   4.02841   12.683
 6192.00    4.12952   4.09839   12.610
 6193.00    4.22239   4.21362   12.342
 6194.00    4.29064   4.30866   12.098
 6195.00    4.30660   4.36685   11.989
 6196.00    4.30225   4.39430   11.958
 6197.00    4.29230   4.37527   12.007
 6198.00    4.26633   4.31354   12.131
 6199.00    4.21578   4.26302   12.247
 6200.00    4.20489   4.28778   12.270
 6201.00    4.24032   4.35440   12.177
 6202.00    4.26219   4.41403   12.028
 6203.00    4.27001   4.45097   11.955
 6204.00    4.27529   4.46468   11.951
 6205.00    4.30060   4.47538   11.939
 6206.00    4.35187   4.48598   11.930
 6207.00    4.39614   4.49638   11.962
 6208.00    4.41688   4.49358   11.980
 6209.00    4.40992   4.46677   12.011
 6210.00    4.37521   4.42191   12.106
 6211.00    4.29911   4.35492   12.209
 6212.00    4.19907   4.25543   12.319
 6213.00    4.13610   4.15137   12.487
 6214.00    4.14823   4.08873   12.638
 6215.00    4.32574   4.08405   -1.000
 6216.00    4.62317   4.12308   -1.000
 6217.00    4.65648   4.16399   -1.000
 6218.00    4.54241   4.16689   -1.000
 6219.00    4.51020   4.14042   -1.000
 6220.00    4.46765   4.14146   -1.000
 6221.00    4.68696   4.17223   -1.000
 6222.00    4.76681   4.19503   -1.000
 6223.00    4.45223   4.20213   -1.000
 6224.00    3.89468   4.21288   -1.000
 6225.00    3.48324   4.23128   -1.000
 6226.00    3.87694   4.24676   -1.000
 6227.00    4.22693   4.23178   12.422
 6228.00    4.17142   4.16376   12.562
 6229.00    4.10422   4.04926   12.764
 6230.00    4.04471   3.96092   12.945
 6231.00    4.06797   3.96631   12.961
 6232.00    4.16058   4.05023   12.807
 6233.00    4.28528   4.17346   12.579
 6234.00    4.40937   4.28906   12.360
 6235.00    4.44511   4.34679   12.257
 6236.00    4.38778   4.32956   12.299
 6237.00    4.26376   4.27005   12.416
 6238.00    4.12338   4.20084   12.544
 6239.00    4.04488   4.14790   12.675
 6240.00    4.05613   4.12192   12.757
 6241.00    4.07660   4.11303   12.767
 6242.00    4.05162   4.09074   12.824
 6243.00    4.00932   4.06204   12.918
 6244.00    4.02886   4.06172   12.940
 6245.00    4.08691   4.09116   12.878
 6246.00    4.12023   4.15515   12.763
 6247.00    4.20855   4.24573   12.610
 6248.00    4.29127   4.31436   12.467
 6249.00    4.28966   4.33449   12.416
 6250.00    4.23452   4.29718   12.493
 6251.00    4.17135   4.21124   12.691
 6252.00    4.12986   4.12796   12.881
 6253.00    4.08106   4.09840   12.988
 6254.00    4.05556   4.10026   13.039
 6255.00    4.06534   4.09015   13.046
 6256.00    4.07968   4.04102   13.120
 6257.00    4.09007   3.99484   13.245
 6258.00    4.09590   4.00980   13.247
 6259.00    4.10105   4.08185   13.088
 6260.00    4.11014   4.18726   12.885
 6261.00    4.14673   4.29572   12.705
 6262.00    4.23202   4.37616   12.517
 6263.00    4.32493   4.39904   12.407
 6264.00    4.32623   4.37666   12.457
 6265.00    4.29894   4.35171   12.553
 6266.00    4.31399   4.35782   12.543
 6267.00    4.28923   4.37482   12.457
 6268.00    4.21799   4.37002   12.453
 6269.00    4.19275   4.36141   12.517
 6270.00    4.22644   4.37701   12.528
 6271.00    4.30208   4.41142   12.490
 6272.00    4.34854   4.43798   12.455
 6273.00    4.32963   4.43544   12.467
 6274.00    4.30139   4.40045   12.541
 6275.00    4.26663   4.35275   12.641
 6276.00    4.20571   4.30319   12.809
 6277.00    4.11558   4.25896   13.097
 6278.00    4.00631   4.22162   13.374
 6279.00    3.88576   4.19366   -1.000
 6280.00    3.81251   4.19347   -1.000
 6281.00    3.76133   4.23422   -1.000
 6282.00    3.70427   4.30853   -1.000
 6283.00    3.69630   4.38382   -1.000
 6284.00    3.75981   4.43661   -1.000
 6285.00    3.90357   4.47794   -1.000
 6286.00    4.08607   4.52164   -1.000
 6287.00    4.25638   4.56564   12.398
 6288.00    4.37110   4.58557   12.353
 6289.00    4.37484   4.56058   12.389
 6290.00    4.29836   4.50906   12.485
 6291.00    4.27813   4.46159   12.584
 6292.00    4.31417   4.43724   12.633
 6293.00    4.34756   4.43219   12.647
 6294.00    4.36016   4.42822   12.666
 6295.00    4.35021   4.38608   12.738
 6296.00    4.32583   4.32370   12.831
 6297.00    4.31423   4.31023   12.872
 6298.00    4.35321   4.34232   12.864
 6299.00    4.38902   4.36518   12.821
 6300.00    4.35445   4.35135   12.763
 6301.00    4.26607   4.32220   12.812
 6302.00    4.19324   4.33272   12.954
 6303.00    4.21110   4.37982   12.938
 6304.00    4.32009   4.42894   12.755
 6305.00    4.43987   4.47492   12.579
 6306.00    4.54556   4.53366   12.457
 6307.00    4.57822   4.59668   12.348
 6308.00    4.51285   4.62759   12.294
 6309.00    4.40318   4.60467   12.326
 6310.00    4.31701   4.56395   12.403
 6311.00    4.32483   4.53300   12.465
 6312.00    4.40159   4.51860   12.513
 6313.00    4.43070   4.50131   12.539
 6314.00    4.38222   4.46368   12.616
 6315.00    4.31245   4.43072   12.693
 6316.00    4.29020   4.40637   12.699
 6317.00    4.29444   4.37785   12.686
 6318.00    4.32386   4.37643   12.693
 6319.00    4.38816   4.43933   12.671
 6320.00    4.48314   4.51718   12.553
 6321.00    4.56910   4.56049   12.415
 6322.00    4.56364   4.59239   12.342
 6323.00    4.51559   4.63400   12.302
 6324.00    4.52544   4.66938   12.245
 6325.00    4.59530   4.68068   12.195
 6326.00    4.66513   4.68304   12.178
 6327.00    4.71227   4.69116   12.138
 6328.00    4.73733   4.70401   12.120
 6329.00    4.74208   4.70713   12.134
 6330.00    4.72488   4.71001   12.142
 6331.00    4.65905   4.74356   12.117
 6332.00    4.58056   4.76767   12.085
 6333.00    4.54264   4.72717   12.100
 6334.00    4.49714   4.63013   12.134
 6335.00    4.46595   4.53241   12.323
 6336.00    4.43791   4.51109   12.461
 6337.00    4.48051   4.55691   12.391
 6338.00    4.57273   4.61880   12.268
 6339.00    4.61515   4.68539   12.136
 6340.00    4.66940   4.73157   12.049
 6341.00    4.69571   4.72565   11.993
 6342.00    4.65916   4.67291   11.977
 6343.00    4.60986   4.60699   12.052
 6344.00    4.58485   4.58797   12.108
 6345.00    4.63169   4.63925   12.088
 6346.00    4.72622   4.70807   12.033
 6347.00    4.76643   4.77035   11.954
 6348.00    4.76381   4.81718   11.894
 6349.00    4.76982   4.84378   11.880
 6350.00    4.75386   4.85093   11.867
 6351.00    4.71623   4.84004   11.863
 6352.00    4.70523   4.80563   11.901
 6353.00    4.69874   4.74249   11.956
 6354.00    4.67038   4.68205   12.063
 6355.00    4.63837   4.66057   12.184
 6356.00    4.63411   4.64380   12.225
 6357.00    4.58785   4.59177   12.245
 6358.00    4.47747   4.52438   12.348
 6359.00    4.39029   4.47557   12.439
 6360.00    4.35767   4.44475   12.423
 6361.00    4.38556   4.42606   12.375
 6362.00    4.41960   4.43488   12.354
 6363.00    4.47158   4.48248   12.324
 6364.00    4.55208   4.55365   12.255
 6365.00    4.58948   4.62704   12.174
 6366.00    4.59770   4.69727   12.104
 6367.00    4.65226   4.76614   12.032
 6368.00    4.75756   4.81026   11.953
 6369.00    4.81629   4.81905   11.903
 6370.00    4.82440   4.82823   11.899
 6371.00    4.83691   4.85564   11.879
 6372.00    4.85799   4.89322   11.832
 6373.00    4.87063   4.91325   11.834
 6374.00    4.85890   4.91240   11.855
 6375.00    4.83305   4.90965   11.873
 6376.00    4.78384   4.89709   11.911
 6377.00    4.74033   4.85129   11.967
 6378.00    4.74703   4.79912   12.041
 6379.00    4.76702   4.77312   12.102
 6380.00    4.75874   4.77029   12.123
 6381.00    4.74723   4.78775   12.139
 6382.00    4.75573   4.80954   12.147
 6383.00    4.77173   4.82240   12.124
 6384.00    4.77556   4.82806   12.145
 6385.00    4.82457   4.84766   12.188
 6386.00    4.87242   4.87373   12.191
 6387.00    4.83953   4.88539   12.208
 6388.00    4.81588   4.88960   12.249
 6389.00    4.77802   4.89142   12.327
 6390.00    4.70183   4.86505   12.428
 6391.00    4.63993   4.78900   12.553
 6392.00    4.55824   4.69147   12.729
 6393.00    4.51330   4.64595   12.872
 6394.00    4.57833   4.70874   12.886
 6395.00    4.65010   4.82251   12.745
 6396.00    4.65084   4.89880   12.652
 6397.00    4.63004   4.88879   12.700
 6398.00    4.60218   4.78894   12.852
 6399.00    4.52797   4.67645   13.114
 6400.00    4.45853   4.65976   13.295
 6401.00    4.49690   4.77008   13.240
 6402.00    4.59907   4.90167   13.047
 6403.00    4.64890   4.97952   12.924
 6404.00    4.63567   4.99614   12.927
 6405.00    4.58406   4.95386   12.988
 6406.00    4.51644   4.88190   13.132
 6407.00    4.44408   4.83765   -1.000
 6408.00    4.40827   4.85226   -1.000
 6409.00    4.40525   4.87109   -1.000
 6410.00    4.38412   4.85387   -1.000
 6411.00    4.35868   4.81758   -1.000
 6412.00    4.34440   4.80775   -1.000
 6413.00    4.32024   4.83592   -1.000
 6414.00    4.27822   4.87454   -1.000
 6415.00    4.26116   4.91513   -1.000
 6416.00    4.25801   4.93459   -1.000
 6417.00    4.20344   4.91235   -1.000
 6418.00    4.13620   4.84698   -1.000
 6419.00    4.08165   4.76578   -1.000
 6420.00    4.02260   4.72216   -1.000
 6421.00    3.98994   4.76764   -1.000
 6422.00    3.99844   4.87280   -1.000
 6423.00    4.04257   4.95438   -1.000
 6424.00    4.06221   4.99970   -1.000
 6425.00    4.03222   5.02850   -1.000
 6426.00    4.01260   5.05469   -1.000
 6427.00    4.00205   5.05258   -1.000
 6428.00    3.95070   4.97974   -1.000
