###################################################################
## OUTPUT of StarlightChains_v04.for    [Cid@UFSC - 01/Apr/2007] ##
###################################################################

## Some input info
NGC6652_a_1.cxt                          [arq_obs]
Base.BC03.N                              [arq_base]
NGC6652_a_1.msk                          [arq_masks]
StCv04.C11.config                        [arq_config]
   45                                    [N_base]
    0                                    [N_YAV_components = # of components with extra extinction!]
    0                                    [i_FitPowerLaw (1/0 = Yes/No)]
-9.99                                    [alpha_PowerLaw]
CCM                                      [red_law_option]
 1.458241                                [q_norm = A(l_norm)/A(V)]

## (Re)Sampling Parameters
 3359.00                                 [l_ini (A)]
 6428.00                                 [l_fin (A)]
    1.00                                 [dl    (A)]     (OBS: dl_cushion =    50.00 A)

## Normalization info
 4020.00                                 [l_norm (A) - for base]
 4010.00                                 [llow_norm (A) - window for f_obs]
 4060.00                                 [lupp_norm (A) - window for f_obs]
1.310531E-14                             [fobs_norm (in input units)]

## S/N
 4730.00                                 [llow_SN (A) - window for S/N]
 4780.00                                 [lupp_SN (A) - window for S/N]
  53.684                                 [S/N in S/N window]
  42.801                                 [S/N in norm. window]
  62.234                                 [S/N_err in S/N window]
  49.617                                 [S/N_err in norm. window]
  1.0000                                 [fscale_chi2]

## etc...
  2147483592                             [idum_orig]
  3067                                   [NOl_eff]
  2092                                   [Nl_eff]
   975    NSIGMA                         [Ntot_cliped & clip_method]
   601020                                [Nglobal_steps]
   7                                     [N_chains]
   8                                     [NEX0s_base = N_base in EX0s-fits]
 0   0   1      386   2.0   9.034E+02    [Clip-Bug, RC-Crash & Burn-In warning-flags, n_censored_weights, wei_nsig_threshold & wei_limit]
     8      8.413      8.413      0.000  [idt_all, wdt_TotTime, wdt_UsrTime & wdt_SysTime (sec)]

## Synthesis Results - Best model ##

 2.48182E+00                             [chi2/Nl_eff]
     2.07172                             [adev (%)]

   102.19021                             [sum-of-x (%)]
 1.57717E-14                             [Flux_tot (units of input spectrum!)]
 3.32003E-10                             [Mini_tot (???)]
 1.75598E-10                             [Mcor_tot (???)]

 -12.39                                  [v0_min  (km/s)]
  75.99                                  [vd_min  (km/s)]
 0.1218                                  [AV_min  (mag)]
 0.0000                                  [YAV_min (mag)]

# j     x_j(%)      Mini_j(%)     Mcor_j(%)     age_j(yr)     Z_j      (L/M)_j    YAV?  Mstars   component_j        a/Fe...       SSP_chi2r SSP_adev(%)   SSP_AV   SSP_x(%)
  1      0.0000     0.0000E+00    0.0000E+00    1.000000E+06  0.00400  1.114E-02    0   1.0000   age020_m42            0.0000     2.6042E+02    14.9315   4.0000    70.7774
  2      2.3939     2.7322E-03    5.1652E-03    3.160000E+06  0.00400  4.073E-02    0   0.9999   age045_m42            0.0000     1.2784E+02     7.8237   3.2059    86.3691
  3      0.0000     0.0000E+00    0.0000E+00    5.010000E+06  0.00400  2.534E-02    0   0.9488   age055_m42            0.0000     1.3809E+02    10.4468   3.6843    78.4959
  4      0.0000     0.0000E+00    0.0000E+00    1.000000E+07  0.00400  1.271E-02    0   0.8862   age070_m42            0.0000     1.3776E+02    10.8944   2.9032    81.7324
  5      0.0000     0.0000E+00    0.0000E+00    2.512000E+07  0.00400  5.070E-03    0   0.8174   age090_m42            0.0000     1.3630E+02    10.4132   2.7643    83.5203
  6      0.0000     0.0000E+00    0.0000E+00    4.000000E+07  0.00400  3.505E-03    0   0.7851   age104_m42            0.0000     1.3611E+02     8.7759   2.4095    87.6171
  7      2.8574     5.8568E-02    7.9806E-02    1.015200E+08  0.00400  2.268E-03    0   0.7207   age116_m42            0.0000     5.8906E+02     6.6019   2.1943   102.5318
  8      0.0000     0.0000E+00    0.0000E+00    2.861200E+08  0.00400  1.079E-03    0   0.6613   age125_m42            0.0000     5.8995E+02     6.6991   1.6718   105.8997
  9      0.0000     0.0000E+00    0.0000E+00    6.405400E+08  0.00400  5.077E-04    0   0.6197   age132_m42            0.0000     5.9603E+02     7.1993   1.2830   110.9741
 10      0.0000     0.0000E+00    0.0000E+00    9.047900E+08  0.00400  3.535E-04    0   0.6024   age135_m42            0.0000     3.8548E+02     6.1289   1.0628   110.0596
 11      0.0000     0.0000E+00    0.0000E+00    1.434000E+09  0.00400  1.910E-04    0   0.5716   age139_m42            0.0000     1.5694E+02     4.1830   0.5440   109.5798
 12     25.5266     1.2086E+01    1.2484E+01    2.500000E+09  0.00400  9.818E-05    0   0.5463   age150_m42            0.0000     1.8120E+01     2.3574   0.3210   103.9753
 13     38.8264     3.8256E+01    3.7814E+01    5.000000E+09  0.00400  4.718E-05    0   0.5228   age161_m42            0.0000     3.5265E+00     2.0000   0.1906    99.7210
 14      8.9340     1.8835E+01    1.7734E+01    1.100000E+10  0.00400  2.205E-05    0   0.4980   age185_m42            0.0000     2.7898E+01     2.7336  -0.0773    98.3443
 15      0.0000     0.0000E+00    0.0000E+00    1.300000E+10  0.00400  1.883E-05    0   0.4927   age193_m42            0.0000     3.5843E+01     2.8819  -0.0928    98.1892
 16      0.0000     0.0000E+00    0.0000E+00    1.000000E+06  0.02000  1.989E-02    0   1.0000   age020_m62            0.0000     2.4848E+02    14.2550   4.0000    71.4453
 17      0.0000     0.0000E+00    0.0000E+00    3.160000E+06  0.02000  3.772E-02    0   0.9858   age045_m62            0.0000     1.9921E+02    12.3311   4.0000    73.2978
 18      0.0000     0.0000E+00    0.0000E+00    5.010000E+06  0.02000  3.227E-02    0   0.9342   age055_m62            0.0000     1.4250E+02     9.2031   3.5062    82.1180
 19      0.0000     0.0000E+00    0.0000E+00    1.000000E+07  0.02000  1.011E-02    0   0.8751   age070_m62            0.0000     1.9431E+02    14.6690   3.0170    76.0261
 20      0.0000     0.0000E+00    0.0000E+00    2.512000E+07  0.02000  4.206E-03    0   0.8099   age090_m62            0.0000     1.7487E+02    12.6799   2.9142    78.0913
 21      0.0000     0.0000E+00    0.0000E+00    4.000000E+07  0.02000  3.373E-03    0   0.7799   age104_m62            0.0000     1.9643E+02     8.4796   2.6068    89.3810
 22      0.0000     0.0000E+00    0.0000E+00    1.015200E+08  0.02000  1.878E-03    0   0.7221   age116_m62            0.0000     5.4529E+02     6.8987   2.2697   101.2240
 23      0.0000     0.0000E+00    0.0000E+00    2.861200E+08  0.02000  8.869E-04    0   0.6700   age125_m62            0.0000     9.3219E+02     8.2116   1.6343   112.0549
 24      0.0000     0.0000E+00    0.0000E+00    6.405400E+08  0.02000  3.657E-04    0   0.6322   age132_m62            0.0000     5.1637E+02     7.4194   0.8870   119.5369
 25      0.0000     0.0000E+00    0.0000E+00    9.047900E+08  0.02000  2.312E-04    0   0.6152   age135_m62            0.0000     2.4370E+02     5.9050   0.5440   118.3728
 26      0.0000     0.0000E+00    0.0000E+00    1.434000E+09  0.02000  1.168E-04    0   0.5865   age139_m62            0.0000     3.3136E+01     3.2117   0.2196   109.8844
 27      0.0000     0.0000E+00    0.0000E+00    2.500000E+09  0.02000  5.505E-05    0   0.5610   age150_m62            0.0000     8.6061E+00     2.9314  -0.1325   106.8962
 28      9.9204     1.7764E+01    1.7979E+01    5.000000E+09  0.02000  2.596E-05    0   0.5353   age161_m62            0.0000     6.2036E+01     4.2220  -0.4875   108.2526
 29      0.0000     0.0000E+00    0.0000E+00    1.100000E+10  0.02000  1.169E-05    0   0.5103   age185_m62            0.0000     1.5196E+02     5.8803  -0.8897   111.5317
 30      0.0000     0.0000E+00    0.0000E+00    1.300000E+10  0.02000  9.691E-06    0   0.5047   age193_m62            0.0000     1.7314E+02     6.1392  -0.9404   112.0204
 31      0.0000     0.0000E+00    0.0000E+00    1.000000E+06  0.05000  2.651E-02    0   0.9998   age020_m72            0.0000     2.3654E+02    13.8820   4.0000    72.3972
 32      0.0000     0.0000E+00    0.0000E+00    3.160000E+06  0.05000  4.817E-02    0   0.9577   age045_m72            0.0000     1.5669E+02    10.8733   3.9365    76.7054
 33      0.0000     0.0000E+00    0.0000E+00    5.010000E+06  0.05000  3.101E-02    0   0.9147   age055_m72            0.0000     1.4775E+02    10.8624   3.5816    79.0423
 34      0.0000     0.0000E+00    0.0000E+00    1.000000E+07  0.05000  8.954E-03    0   0.8524   age070_m72            0.0000     1.5158E+02    10.6531   3.8301    77.7569
 35      0.0000     0.0000E+00    0.0000E+00    2.512000E+07  0.05000  4.207E-03    0   0.7902   age090_m72            0.0000     1.4555E+02     8.4612   3.3326    84.6637
 36      0.0000     0.0000E+00    0.0000E+00    4.000000E+07  0.05000  3.198E-03    0   0.7618   age104_m72            0.0000     3.5474E+02     6.3101   2.6881    95.9633
 37      0.0000     0.0000E+00    0.0000E+00    1.015200E+08  0.05000  1.716E-03    0   0.7092   age116_m72            0.0000     6.2062E+02     6.8644   2.3364   102.0639
 38      0.0000     0.0000E+00    0.0000E+00    2.861200E+08  0.05000  7.047E-04    0   0.6618   age125_m72            0.0000     8.6187E+02     7.9280   1.3895   114.3889
 39      0.0000     0.0000E+00    0.0000E+00    6.405400E+08  0.05000  2.633E-04    0   0.6253   age132_m72            0.0000     3.3047E+02     6.9352   0.4942   120.3510
 40      0.0000     0.0000E+00    0.0000E+00    9.047900E+08  0.05000  1.484E-04    0   0.6088   age135_m72            0.0000     5.7047E+01     4.7731   0.0751   113.9484
 41      6.1988     3.6816E+00    4.0700E+00    1.434000E+09  0.05000  7.827E-05    0   0.5847   age139_m72            0.0000     1.9231E+01     4.1654  -0.2745   109.6228
 42      7.5327     9.3155E+00    9.8332E+00    2.500000E+09  0.05000  3.759E-05    0   0.5583   age150_m72            0.0000     7.0281E+01     4.7565  -0.5855   108.7536
 43      0.0000     0.0000E+00    0.0000E+00    5.000000E+09  0.05000  1.548E-05    0   0.5320   age161_m72            0.0000     1.4119E+02     6.3381  -1.0000   109.8273
 44      0.0000     0.0000E+00    0.0000E+00    1.100000E+10  0.05000  6.532E-06    0   0.5070   age185_m72            0.0000     3.3777E+02    15.9573  -1.0000   108.1343
 45      0.0000     0.0000E+00    0.0000E+00    1.300000E+10  0.05000  5.316E-06    0   0.5018   age193_m72            0.0000     4.6330E+02    19.6389  -1.0000   107.3461


## Synthesis Results - Average & Chains ##

# j      x_j: min, <> & last-chain-values for 1 ...  7 chains
  1      0.0000      0.0148      0.0000      0.0000      0.0000      0.0000      0.0000      0.0000      0.0261
  2      2.3939      0.8509      1.1487      0.9098      0.9081      1.0649      0.9377      1.1964      0.8956
  3      0.0000      0.1974      0.1243      0.1805      0.3800      0.1847      0.2610      0.0000      0.2489
  4      0.0000      0.4183      0.5982      0.6755      0.3621      0.6699      0.6596      0.6129      0.4510
  5      0.0000      0.0803      0.1040      0.0000      0.0948      0.0000      0.0000      0.0000      0.0000
  6      0.0000      0.0106      0.0000      0.0000      0.0000      0.0000      0.0000      0.0000      0.0000
  7      2.8574      3.4759      3.1124      3.4882      3.3221      3.3248      3.4707      3.3727      3.4833
  8      0.0000      0.0119      0.0000      0.0000      0.0000      0.0000      0.0000      0.0000      0.0000
  9      0.0000      0.0425      0.0000      0.0000      0.0598      0.0000      0.0000      0.0247      0.0000
 10      0.0000      0.0391      0.1879      0.0000      0.0609      0.0000      0.0000      0.0000      0.0546
 11      0.0000      0.0578      0.0469      0.0000      0.0000      0.0438      0.0296      0.2092      0.1460
 12     25.5266     23.9591     23.8528     24.3092     24.7875     23.9760     24.1802     23.9303     24.5203
 13     38.8264     34.6690     36.1153     34.9069     34.5279     35.6891     34.8545     34.9859     34.8743
 14      8.9340     13.6785     12.4907     13.0129     13.6636     13.4464     13.6913     13.2614     13.5940
 15      0.0000      0.3020      0.1600      0.2286      0.3610      0.0000      0.1250      0.5331      0.4126
 16      0.0000      0.0023      0.0000      0.0000      0.0000      0.0000      0.0000      0.0000      0.0000
 17      0.0000      0.0024      0.0000      0.0000      0.0000      0.0000      0.0000      0.0000      0.0000
 18      0.0000      0.0634      0.0000      0.0000      0.0351      0.0000      0.0000      0.1705      0.0000
 19      0.0000      0.0155      0.0332      0.0000      0.0000      0.0000      0.0000      0.0000      0.0944
 20      0.0000      0.0058      0.0000      0.0000      0.0000      0.0000      0.0000      0.0000      0.0000
 21      0.0000      0.0062      0.0000      0.0000      0.0000      0.0000      0.0000      0.0000      0.0000
 22      0.0000      0.0083      0.0000      0.0000      0.0000      0.0000      0.0000      0.0000      0.0000
 23      0.0000      0.0059      0.0000      0.0000      0.0000      0.0000      0.0269      0.0000      0.0000
 24      0.0000      0.0041      0.0000      0.0000      0.0000      0.0000      0.0000      0.0000      0.0000
 25      0.0000      0.0326      0.0000      0.0453      0.0000      0.0000      0.0000      0.0000      0.0000
 26      0.0000      0.0598      0.0000      0.0000      0.0000      0.0468      0.0000      0.0000      0.0000
 27      0.0000      0.3228      0.0000      0.2597      0.8918      0.6499      0.1916      0.2717      0.0000
 28      9.9204      7.7419      8.0090      8.0371      7.5946      7.7723      7.7841      7.5003      8.5424
 29      0.0000      0.1566      0.3910      0.1898      0.0000      0.0000      0.4931      0.1938      0.0338
 30      0.0000      0.1508      0.0000      0.0000      0.1663      0.4935      0.1462      0.2898      0.0383
 31      0.0000      0.0019      0.0000      0.0000      0.0000      0.0000      0.0000      0.0000      0.0000
 32      0.0000      0.0235      0.0000      0.1491      0.0000      0.0000      0.0000      0.0000      0.0000
 33      0.0000      0.0578      0.0000      0.0000      0.0000      0.0000      0.0000      0.0000      0.0000
 34      0.0000      0.0060      0.0167      0.0000      0.0000      0.0000      0.0000      0.0000      0.0000
 35      0.0000      0.0113      0.0000      0.0000      0.0000      0.0000      0.0000      0.0000      0.0000
 36      0.0000      0.0064      0.0000      0.0000      0.0000      0.0000      0.0000      0.0000      0.0000
 37      0.0000      0.0111      0.0000      0.0000      0.0000      0.0413      0.0000      0.0000      0.0000
 38      0.0000      0.0060      0.0000      0.0000      0.0000      0.0000      0.0000      0.0000      0.0000
 39      0.0000      0.0172      0.0000      0.0000      0.0000      0.1173      0.0000      0.0000      0.0000
 40      0.0000      0.0337      0.0070      0.0000      0.0000      0.0000      0.0000      0.0000      0.0000
 41      6.1988     11.0884     11.3657     11.0195     10.5927     10.2755     10.8738     11.0334     10.4769
 42      7.5327      4.4182      4.4226      4.6714      4.4635      4.3503      4.4896      4.5719      4.2148
 43      0.0000      0.1733      0.0585      0.1849      0.0000      0.0284      0.0705      0.1098      0.1504
 44      0.0000      0.0636      0.0000      0.0000      0.0000      0.0578      0.0000      0.0000      0.0000
 45      0.0000      0.0079      0.0000      0.0000      0.0000      0.0000      0.0000      0.0000      0.0000

# j      m_j: min, <> & last-chain-values for 1 ...  7 chains
  1  0.0000E+00  1.1287E-04  0.0000E+00  0.0000E+00  0.0000E+00  0.0000E+00  0.0000E+00  0.0000E+00  2.0089E-04
  2  5.1652E-03  1.7791E-03  2.4404E-03  1.9287E-03  1.9224E-03  2.2273E-03  1.9567E-03  2.5079E-03  1.8823E-03
  3  0.0000E+00  6.2951E-04  4.0291E-04  5.8354E-04  1.2271E-03  5.8909E-04  8.3076E-04  0.0000E+00  7.9795E-04
  4  0.0000E+00  2.4840E-03  3.6094E-03  4.0676E-03  2.1770E-03  3.9792E-03  3.9091E-03  3.6486E-03  2.6920E-03
  5  0.0000E+00  1.1026E-03  1.4510E-03  0.0000E+00  1.3180E-03  0.0000E+00  0.0000E+00  0.0000E+00  0.0000E+00
  6  0.0000E+00  2.0237E-04  0.0000E+00  0.0000E+00  0.0000E+00  0.0000E+00  0.0000E+00  0.0000E+00  0.0000E+00
  7  7.9806E-02  9.4075E-02  8.5586E-02  9.5725E-02  9.1033E-02  9.0010E-02  9.3743E-02  9.1509E-02  9.4764E-02
  8  0.0000E+00  6.2297E-04  0.0000E+00  0.0000E+00  0.0000E+00  0.0000E+00  0.0000E+00  0.0000E+00  0.0000E+00
  9  0.0000E+00  4.4194E-03  0.0000E+00  0.0000E+00  6.2968E-03  0.0000E+00  0.0000E+00  2.5722E-03  0.0000E+00
 10  0.0000E+00  5.6787E-03  2.7704E-02  0.0000E+00  8.9441E-03  0.0000E+00  0.0000E+00  0.0000E+00  7.9678E-03
 11  0.0000E+00  1.4732E-02  1.2148E-02  0.0000E+00  0.0000E+00  1.1164E-02  7.5284E-03  5.3446E-02  3.7402E-02
 12  1.2484E+01  1.1355E+01  1.1485E+01  1.1681E+01  1.1894E+01  1.1366E+01  1.1436E+01  1.1369E+01  1.1681E+01
 13  3.7814E+01  3.2720E+01  3.4631E+01  3.3404E+01  3.2993E+01  3.3692E+01  3.2829E+01  3.3102E+01  3.3084E+01
 14  1.7734E+01  2.6312E+01  2.4412E+01  2.5380E+01  2.6611E+01  2.5872E+01  2.6283E+01  2.5573E+01  2.6285E+01
 15  0.0000E+00  6.7304E-01  3.6228E-01  5.1654E-01  8.1459E-01  0.0000E+00  2.7809E-01  1.1909E+00  9.2438E-01
 16  0.0000E+00  9.8291E-06  0.0000E+00  0.0000E+00  0.0000E+00  0.0000E+00  0.0000E+00  0.0000E+00  0.0000E+00
 17  0.0000E+00  5.2562E-06  0.0000E+00  0.0000E+00  0.0000E+00  0.0000E+00  0.0000E+00  0.0000E+00  0.0000E+00
 18  0.0000E+00  1.5621E-04  0.0000E+00  0.0000E+00  8.7500E-05  0.0000E+00  0.0000E+00  4.2134E-04  0.0000E+00
 19  0.0000E+00  1.1448E-04  2.4880E-04  0.0000E+00  0.0000E+00  0.0000E+00  0.0000E+00  0.0000E+00  6.9985E-04
 20  0.0000E+00  9.5648E-05  0.0000E+00  0.0000E+00  0.0000E+00  0.0000E+00  0.0000E+00  0.0000E+00  0.0000E+00
 21  0.0000E+00  1.2142E-04  0.0000E+00  0.0000E+00  0.0000E+00  0.0000E+00  0.0000E+00  0.0000E+00  0.0000E+00
 22  0.0000E+00  2.7315E-04  0.0000E+00  0.0000E+00  0.0000E+00  0.0000E+00  0.0000E+00  0.0000E+00  0.0000E+00
 23  0.0000E+00  3.8138E-04  0.0000E+00  0.0000E+00  0.0000E+00  0.0000E+00  1.7271E-03  0.0000E+00  0.0000E+00
 24  0.0000E+00  6.0559E-04  0.0000E+00  0.0000E+00  0.0000E+00  0.0000E+00  0.0000E+00  0.0000E+00  0.0000E+00
 25  0.0000E+00  7.3865E-03  0.0000E+00  1.0410E-02  0.0000E+00  0.0000E+00  0.0000E+00  0.0000E+00  0.0000E+00
 26  0.0000E+00  2.5585E-02  0.0000E+00  0.0000E+00  0.0000E+00  2.0001E-02  0.0000E+00  0.0000E+00  0.0000E+00
 27  0.0000E+00  2.8016E-01  0.0000E+00  2.2852E-01  7.8365E-01  5.6426E-01  1.6597E-01  2.3645E-01  0.0000E+00
 28  1.7979E+01  1.3597E+01  1.4291E+01  1.4312E+01  1.3504E+01  1.3654E+01  1.3643E+01  1.3205E+01  1.5080E+01
 29  0.0000E+00  5.8208E-01  1.4771E+00  7.1534E-01  0.0000E+00  0.0000E+00  1.8296E+00  7.2238E-01  1.2637E-01
 30  0.0000E+00  6.6896E-01  0.0000E+00  0.0000E+00  7.4666E-01  2.1898E+00  6.4715E-01  1.2888E+00  1.7069E-01
 31  0.0000E+00  5.9564E-06  0.0000E+00  0.0000E+00  0.0000E+00  0.0000E+00  0.0000E+00  0.0000E+00  0.0000E+00
 32  0.0000E+00  3.9723E-05  0.0000E+00  2.5596E-04  0.0000E+00  0.0000E+00  0.0000E+00  0.0000E+00  0.0000E+00
 33  0.0000E+00  1.4532E-04  0.0000E+00  0.0000E+00  0.0000E+00  0.0000E+00  0.0000E+00  0.0000E+00  0.0000E+00
 34  0.0000E+00  4.8365E-05  1.3762E-04  0.0000E+00  0.0000E+00  0.0000E+00  0.0000E+00  0.0000E+00  0.0000E+00
 35  0.0000E+00  1.8002E-04  0.0000E+00  0.0000E+00  0.0000E+00  0.0000E+00  0.0000E+00  0.0000E+00  0.0000E+00
 36  0.0000E+00  1.3076E-04  0.0000E+00  0.0000E+00  0.0000E+00  0.0000E+00  0.0000E+00  0.0000E+00  0.0000E+00
 37  0.0000E+00  3.9114E-04  0.0000E+00  0.0000E+00  0.0000E+00  1.4533E-03  0.0000E+00  0.0000E+00  0.0000E+00
 38  0.0000E+00  4.8169E-04  0.0000E+00  0.0000E+00  0.0000E+00  0.0000E+00  0.0000E+00  0.0000E+00  0.0000E+00
 39  0.0000E+00  3.4849E-03  0.0000E+00  0.0000E+00  0.0000E+00  2.3725E-02  0.0000E+00  0.0000E+00  0.0000E+00
 40  0.0000E+00  1.1761E-02  2.4680E-03  0.0000E+00  0.0000E+00  0.0000E+00  0.0000E+00  0.0000E+00  0.0000E+00
 41  4.0700E+00  7.0551E+00  7.3473E+00  7.1090E+00  6.8236E+00  6.5396E+00  6.9045E+00  7.0376E+00  6.7005E+00
 42  9.8332E+00  5.5891E+00  5.6842E+00  5.9917E+00  5.7167E+00  5.5046E+00  5.6679E+00  5.7979E+00  5.3593E+00
 43  0.0000E+00  5.0712E-01  1.7399E-01  5.4887E-01  0.0000E+00  8.3077E-02  2.0591E-01  3.2211E-01  4.4252E-01
 44  0.0000E+00  4.2049E-01  0.0000E+00  0.0000E+00  0.0000E+00  3.8227E-01  0.0000E+00  0.0000E+00  0.0000E+00
 45  0.0000E+00  6.3233E-02  0.0000E+00  0.0000E+00  0.0000E+00  0.0000E+00  0.0000E+00  0.0000E+00  0.0000E+00

# AV, chi2 & Mass for <> & i_chain = 1 ...  7 solutions
AV       0.1218      0.1113      0.1161      0.1163      0.1173      0.1165      0.1121      0.1146      0.1157
chi2 2.4818E+00  2.5217E+00  2.5079E+00  2.5125E+00  2.5136E+00  2.5108E+00  2.5148E+00  2.5100E+00  2.5139E+00
Mass 1.7560E-10  1.7868E-10  1.7701E-10  1.7742E-10  1.7791E-10  1.7987E-10  1.7924E-10  1.7902E-10  1.7882E-10
 -12.39                                  [v0_min (km/s) before EX0s...]
  75.99                                  [vd_min (km/s) before EX0s...]


## Synthetic spectrum (Best Model) ##l_obs f_obs f_syn wei
 3070    [Nl_obs]
 3359.00    0.00000   0.43062   -2.000
 3360.00    0.00000   0.40067   -2.000
 3361.00    0.14296   0.40217   -1.000
 3362.00    0.22996   0.43458   -1.000
 3363.00    0.25273   0.47843   -1.000
 3364.00    0.27435   0.50905   -1.000
 3365.00    0.27774   0.51269   -1.000
 3366.00    0.27822   0.49219   -1.000
 3367.00    0.27392   0.46201   -1.000
 3368.00    0.26636   0.43733   -1.000
 3369.00    0.25831   0.42379   -1.000
 3370.00    0.26018   0.41759   -1.000
 3371.00    0.25134   0.41515   -1.000
 3372.00    0.25920   0.42058   -1.000
 3373.00    0.28432   0.44079   -1.000
 3374.00    0.30391   0.47517   -1.000
 3375.00    0.31641   0.51241   -1.000
 3376.00    0.34243   0.53329   -1.000
 3377.00    0.36089   0.52572   -1.000
 3378.00    0.34823   0.49664   -1.000
 3379.00    0.33032   0.46587   -1.000
 3380.00    0.32822   0.45185   -1.000
 3381.00    0.33185   0.45981   -1.000
 3382.00    0.33573   0.48088   -1.000
 3383.00    0.33667   0.50187   -1.000
 3384.00    0.34606   0.51799   -1.000
 3385.00    0.35881   0.53053   -1.000
 3386.00    0.36445   0.53721   -1.000
 3387.00    0.36918   0.53662   -1.000
 3388.00    0.37151   0.53275   -1.000
 3389.00    0.38263   0.52804   -1.000
 3390.00    0.39381   0.51961   -1.000
 3391.00    0.38974   0.50501   -1.000
 3392.00    0.37702   0.48926   -1.000
 3393.00    0.36615   0.48436   -1.000
 3394.00    0.38128   0.49752   -1.000
 3395.00    0.40372   0.52402   -1.000
 3396.00    0.41158   0.55374   -1.000
 3397.00    0.42836   0.57876   -1.000
 3398.00    0.44659   0.59331   -1.000
 3399.00    0.45188   0.59417   -1.000
 3400.00    0.46067   0.58318   -1.000
 3401.00    0.47163   0.56530   -1.000
 3402.00    0.46947   0.54569   -1.000
 3403.00    0.46204   0.53016   -1.000
 3404.00    0.44437   0.52128   -1.000
 3405.00    0.43375   0.51505   -1.000
 3406.00    0.42989   0.50698   -1.000
 3407.00    0.41891   0.49863   -1.000
 3408.00    0.41511   0.49628   -1.000
 3409.00    0.41662   0.50332   -1.000
 3410.00    0.42093   0.51356   -1.000
 3411.00    0.42495   0.51587   -1.000
 3412.00    0.42253   0.50607   -1.000
 3413.00    0.41747   0.49178   -1.000
 3414.00    0.40303   0.48508   -1.000
 3415.00    0.39644   0.49172   -1.000
 3416.00    0.41681   0.50937   -1.000
 3417.00    0.43584   0.53217   -1.000
 3418.00    0.46325   0.55495   -1.000
 3419.00    0.47235   0.57222   -1.000
 3420.00    0.47001   0.57778   -1.000
 3421.00    0.47074   0.57031   -1.000
 3422.00    0.46745   0.55656   -1.000
 3423.00    0.46804   0.54538   -1.000
 3424.00    0.47065   0.54138   -1.000
 3425.00    0.46975   0.54369   -1.000
 3426.00    0.47421   0.55093   -1.000
 3427.00    0.48456   0.56545   -1.000
 3428.00    0.49183   0.58681   -1.000
 3429.00    0.50408   0.60352   -1.000
 3430.00    0.51178   0.60294   -1.000
 3431.00    0.51124   0.58472   -1.000
 3432.00    0.49758   0.56218   -1.000
 3433.00    0.48078   0.55000   -1.000
 3434.00    0.48754   0.55192   -1.000
 3435.00    0.49926   0.55933   -1.000
 3436.00    0.49062   0.56004   -1.000
 3437.00    0.47862   0.54767   -1.000
 3438.00    0.45468   0.52132   -1.000
 3439.00    0.42516   0.48486   -1.000
 3440.00    0.40361   0.44756   -1.000
 3441.00    0.38879   0.42265   -1.000
 3442.00    0.38451   0.41796   -1.000
 3443.00    0.39483   0.42972   -1.000
 3444.00    0.41111   0.44949   -1.000
 3445.00    0.43083   0.47266   -1.000
 3446.00    0.45564   0.49948   -1.000
 3447.00    0.47006   0.52926   -1.000
 3448.00    0.48832   0.55670   -1.000
 3449.00    0.50920   0.57311   -1.000
 3450.00    0.51992   0.57171   -1.000
 3451.00    0.52462   0.55489   -1.000
 3452.00    0.51388   0.53536   -1.000
 3453.00    0.49992   0.52709   -1.000
 3454.00    0.49610   0.53213   -1.000
 3455.00    0.50659   0.54045   -1.000
 3456.00    0.51211   0.53965   -1.000
 3457.00    0.50680   0.52572   -1.000
 3458.00    0.49427   0.50584   -1.000
 3459.00    0.48498   0.48813  903.397
 3460.00    0.47509   0.47808  204.475
 3461.00    0.46774   0.48243  133.948
 3462.00    0.48193   0.50146  134.098
 3463.00    0.50626   0.52241   -1.000
 3464.00    0.52031   0.53281   -1.000
 3465.00    0.52022   0.53320   -1.000
 3466.00    0.52079   0.53350   -1.000
 3467.00    0.52788   0.54143   -1.000
 3468.00    0.53870   0.55468   -1.000
 3469.00    0.55813   0.56563   -1.000
 3470.00    0.56788   0.56810  903.397
 3471.00    0.55494   0.55936  903.397
 3472.00    0.53641   0.53969  903.397
 3473.00    0.51956   0.51187   -1.000
 3474.00    0.49579   0.48261   -1.000
 3475.00    0.46879   0.46433   -1.000
 3476.00    0.45806   0.46702  207.873
 3477.00    0.47662   0.48823  136.975
 3478.00    0.49969   0.51568  137.136
 3479.00    0.52217   0.53724   -1.000
 3480.00    0.54412   0.54673  903.397
 3481.00    0.55403   0.54448   -1.000
 3482.00    0.55432   0.53522   -1.000
 3483.00    0.54395   0.52682   -1.000
 3484.00    0.54083   0.52817   -1.000
 3485.00    0.54921   0.54262   -1.000
 3486.00    0.56521   0.56033   -1.000
 3487.00    0.57770   0.56375   -1.000
 3488.00    0.56814   0.54662   -1.000
 3489.00    0.53710   0.51979   -1.000
 3490.00    0.51134   0.50067   -1.000
 3491.00    0.50215   0.49761   -1.000
 3492.00    0.50217   0.50465  903.397
 3493.00    0.51627   0.51032   -1.000
 3494.00    0.52512   0.50701   -1.000
 3495.00    0.51264   0.49721   -1.000
 3496.00    0.49861   0.49297   -1.000
 3497.00    0.50550   0.50612   -1.000
 3498.00    0.53499   0.53344   -1.000
 3499.00    0.56160   0.55798   -1.000
 3500.00    0.58356   0.57057   -1.000
 3501.00    0.59968   0.57652   -1.000
 3502.00    0.60827   0.58211   -1.000
 3503.00    0.61140   0.58511   -1.000
 3504.00    0.60058   0.57992   -1.000
 3505.00    0.58376   0.56928   -1.000
 3506.00    0.56977   0.56148   -1.000
 3507.00    0.56959   0.55884   -1.000
 3508.00    0.57586   0.55622   -1.000
 3509.00    0.58173   0.54847   -1.000
 3510.00    0.57722   0.53671   -1.000
 3511.00    0.55597   0.52475   -1.000
 3512.00    0.53725   0.51342   -1.000
 3513.00    0.53065   0.50509   -1.000
 3514.00    0.52380   0.50857   -1.000
 3515.00    0.53680   0.52929   -1.000
 3516.00    0.56782   0.56034   -1.000
 3517.00    0.59539   0.58554   -1.000
 3518.00    0.60206   0.59152   -1.000
 3519.00    0.58481   0.57697   -1.000
 3520.00    0.57239   0.55081   -1.000
 3521.00    0.55351   0.52455   -1.000
 3522.00    0.52436   0.50190   -1.000
 3523.00    0.50418   0.48071   -1.000
 3524.00    0.48047   0.46396   -1.000
 3525.00    0.46860   0.46024  212.156
 3526.00    0.47171   0.47629  135.561
 3527.00    0.49618   0.50844  137.053
 3528.00    0.53275   0.54261  284.367
 3529.00    0.56531   0.56483  903.397
 3530.00    0.57825   0.57095   -1.000
 3531.00    0.57168   0.56822   -1.000
 3532.00    0.56266   0.56777   -1.000
 3533.00    0.55919   0.57458   -1.000
 3534.00    0.57306   0.58461   -1.000
 3535.00    0.58703   0.59199   -1.000
 3536.00    0.59078   0.59705   -1.000
 3537.00    0.60033   0.60436   -1.000
 3538.00    0.61422   0.61410  903.397
 3539.00    0.61223   0.61940   -1.000
 3540.00    0.60242   0.61580   -1.000
 3541.00    0.60572   0.60971   -1.000
 3542.00    0.60142   0.61000   -1.000
 3543.00    0.60050   0.61680   -1.000
 3544.00    0.60210   0.62348   -1.000
 3545.00    0.59512   0.62391   -1.000
 3546.00    0.58865   0.61887   -1.000
 3547.00    0.58067   0.61432   -1.000
 3548.00    0.58029   0.61429   -1.000
 3549.00    0.58341   0.61729   -1.000
 3550.00    0.58864   0.61807   -1.000
 3551.00    0.59199   0.61224   -1.000
 3552.00    0.57548   0.60041   -1.000
 3553.00    0.55569   0.58920   -1.000
 3554.00    0.54915   0.58489   -1.000
 3555.00    0.55725   0.58749   -1.000
 3556.00    0.56498   0.59117   -1.000
 3557.00    0.56376   0.59001   -1.000
 3558.00    0.55899   0.58501   -1.000
 3559.00    0.54991   0.58330   -1.000
 3560.00    0.54680   0.59066   -1.000
 3561.00    0.55676   0.60402   -1.000
 3562.00    0.56403   0.60949   -1.000
 3563.00    0.56036   0.59127   -1.000
 3564.00    0.53125   0.55059   -1.000
 3565.00    0.48515   0.51137   -1.000
 3566.00    0.45986   0.49258   -1.000
 3567.00    0.46674   0.48881  137.220
 3568.00    0.47165   0.48354  138.711
 3569.00    0.46203   0.47099  137.551
 3570.00    0.45560   0.46274  139.877
 3571.00    0.46507   0.46932  143.442
 3572.00    0.48294   0.48565  141.938
 3573.00    0.49513   0.50096  136.343
 3574.00    0.50603   0.51040  269.784
 3575.00    0.51635   0.51571  903.397
 3576.00    0.51861   0.51854  903.397
 3577.00    0.50859   0.51515   -1.000
 3578.00    0.50027   0.49965  903.397
 3579.00    0.47844   0.47259   -1.000
 3580.00    0.44443   0.44473  228.372
 3581.00    0.41553   0.42844  144.671
 3582.00    0.41429   0.42640  154.244
 3583.00    0.42580   0.42865  158.470
 3584.00    0.42191   0.42343  159.246
 3585.00    0.40668   0.41263  161.792
 3586.00    0.39473   0.40804  166.608
 3587.00    0.40176   0.41772  170.351
 3588.00    0.42466   0.44198  166.375
 3589.00    0.45427   0.47584  157.639
 3590.00    0.49206   0.51127  149.687
 3591.00    0.52151   0.53867  138.837
 3592.00    0.54415   0.55285  264.183
 3593.00    0.55598   0.55848  903.397
 3594.00    0.55978   0.56636   -1.000
 3595.00    0.56978   0.58194   -1.000
 3596.00    0.59213   0.60060   -1.000
 3597.00    0.60737   0.61674   -1.000
 3598.00    0.61910   0.62841   -1.000
 3599.00    0.62581   0.63227   -1.000
 3600.00    0.61948   0.62272   -1.000
 3601.00    0.60626   0.59830   -1.000
 3602.00    0.58411   0.56669   -1.000
 3603.00    0.55478   0.54053   -1.000
 3604.00    0.53491   0.52834   -1.000
 3605.00    0.53571   0.52776   -1.000
 3606.00    0.54176   0.52750   -1.000
 3607.00    0.53367   0.51896   -1.000
 3608.00    0.51485   0.50535   -1.000
 3609.00    0.50405   0.49962   -1.000
 3610.00    0.50764   0.50896  903.397
 3611.00    0.52203   0.52562  903.397
 3612.00    0.53804   0.54057  903.397
 3613.00    0.54730   0.55421   -1.000
 3614.00    0.56230   0.56868   -1.000
 3615.00    0.57564   0.57682  903.397
 3616.00    0.56620   0.56370  903.397
 3617.00    0.54181   0.52889   -1.000
 3618.00    0.50658   0.49741   -1.000
 3619.00    0.48716   0.49342   -1.000
 3620.00    0.50262   0.51702  223.615
 3621.00    0.53914   0.55065  257.189
 3622.00    0.57750   0.57851  903.397
 3623.00    0.59424   0.59878   -1.000
 3624.00    0.60401   0.62022   -1.000
 3625.00    0.62502   0.64777   -1.000
 3626.00    0.64005   0.67456   -1.000
 3627.00    0.64506   0.68666   -1.000
 3628.00    0.64401   0.67033   -1.000
 3629.00    0.61167   0.62431   -1.000
 3630.00    0.55523   0.56816   -1.000
 3631.00    0.51105   0.52910   -1.000
 3632.00    0.50018   0.52072   -1.000
 3633.00    0.51945   0.53540   -1.000
 3634.00    0.53670   0.55618   -1.000
 3635.00    0.54407   0.57278   -1.000
 3636.00    0.56170   0.58728   -1.000
 3637.00    0.59049   0.60653   -1.000
 3638.00    0.61388   0.63065   -1.000
 3639.00    0.62983   0.65102   -1.000
 3640.00    0.63986   0.65673   -1.000
 3641.00    0.63384   0.64388   -1.000
 3642.00    0.61345   0.61871   -1.000
 3643.00    0.58487   0.59245   -1.000
 3644.00    0.56332   0.57332   -1.000
 3645.00    0.55761   0.56111   -1.000
 3646.00    0.55093   0.55172  903.397
 3647.00    0.53562   0.54567   -1.000
 3648.00    0.53487   0.54721   -1.000
 3649.00    0.55235   0.55911   -1.000
 3650.00    0.57311   0.58117   -1.000
 3651.00    0.59745   0.60935   -1.000
 3652.00    0.62081   0.63631   -1.000
 3653.00    0.63879   0.65596   -1.000
 3654.00    0.64615   0.66773   -1.000
 3655.00    0.65437   0.67684   -1.000
 3656.00    0.66967   0.68809   -1.000
 3657.00    0.67419   0.69970   -1.000
 3658.00    0.67005   0.70714   -1.000
 3659.00    0.67567   0.70854   -1.000
 3660.00    0.67772   0.70354   -1.000
 3661.00    0.67270   0.69266   -1.000
 3662.00    0.66164   0.67897   -1.000
 3663.00    0.64639   0.66769   -1.000
 3664.00    0.64618   0.66289   -1.000
 3665.00    0.65182   0.66297   -1.000
 3666.00    0.65175   0.66139   -1.000
 3667.00    0.64529   0.65267   -1.000
 3668.00    0.63996   0.63991  903.397
 3669.00    0.63568   0.63469  903.397
 3670.00    0.63372   0.64415   -1.000
 3671.00    0.64298   0.66269   -1.000
 3672.00    0.65984   0.67821   -1.000
 3673.00    0.67084   0.68323   -1.000
 3674.00    0.66372   0.67729   -1.000
 3675.00    0.65200   0.66210   -1.000
 3676.00    0.64162   0.64070  903.397
 3677.00    0.62403   0.61796   -1.000
 3678.00    0.60440   0.59963  903.397
 3679.00    0.59300   0.59069  903.397
 3680.00    0.59871   0.59284   -1.000
 3681.00    0.61764   0.60370   -1.000
 3682.00    0.62804   0.61648   -1.000
 3683.00    0.62673   0.62154   -1.000
 3684.00    0.62064   0.61171   -1.000
 3685.00    0.60035   0.58957   -1.000
 3686.00    0.57557   0.56887   -1.000
 3687.00    0.57037   0.56467   -1.000
 3688.00    0.58712   0.58247   -1.000
 3689.00    0.61561   0.61596  903.397
 3690.00    0.64836   0.65029  903.397
 3691.00    0.66713   0.66999   -1.000
 3692.00    0.66494   0.67101   -1.000
 3693.00    0.65696   0.66209   -1.000
 3694.00    0.65593   0.65302  903.397
 3695.00    0.65614   0.64860   -1.000
 3696.00    0.65717   0.65222  903.397
 3697.00    0.67097   0.66685  903.397
 3698.00    0.69303   0.68989  903.397
 3699.00    0.71303   0.71050  903.397
 3700.00    0.72102   0.71533  888.893
 3701.00    0.71390   0.69554   -1.000
 3702.00    0.67758   0.65270   -1.000
 3703.00    0.61989   0.59973   -1.000
 3704.00    0.57320   0.55427   -1.000
 3705.00    0.54774   0.52984   -1.000
 3706.00    0.54546   0.52737   -1.000
 3707.00    0.55974   0.53689   -1.000
 3708.00    0.57203   0.54973   -1.000
 3709.00    0.58384   0.56433   -1.000
 3710.00    0.60220   0.58388   -1.000
 3711.00    0.63056   0.61266   -1.000
 3712.00    0.66639   0.64954   -1.000
 3713.00    0.70090   0.68500   -1.000
 3714.00    0.72781   0.70810   -1.000
 3715.00    0.73292   0.71271   -1.000
 3716.00    0.72045   0.69681   -1.000
 3717.00    0.69632   0.66016   -1.000
 3718.00    0.64145   0.60336   -1.000
 3719.00    0.56498   0.53675   -1.000
 3720.00    0.50216   0.48454   -1.000
 3721.00    0.47671   0.46873   -1.000
 3722.00    0.50278   0.49358  243.025
 3723.00    0.56131   0.54548   -1.000
 3724.00    0.62397   0.59857   -1.000
 3725.00    0.66449   0.62907   -1.000
 3726.00    0.66468   0.63487   -1.000
 3727.00    0.64835   0.63287   -1.000
 3728.00    0.64764   0.63467   -1.000
 3729.00    0.65717   0.63489   -1.000
 3730.00    0.65073   0.61910   -1.000
 3731.00    0.61686   0.57856   -1.000
 3732.00    0.56199   0.51983   -1.000
 3733.00    0.49788   0.46040   -1.000
 3734.00    0.44709   0.41891   -1.000
 3735.00    0.42658   0.40889  139.904
 3736.00    0.43981   0.43335  151.113
 3737.00    0.49046   0.48493  149.898
 3738.00    0.55788   0.54936  138.843
 3739.00    0.61654   0.60752   -1.000
 3740.00    0.66304   0.64214   -1.000
 3741.00    0.67365   0.64686   -1.000
 3742.00    0.64685   0.62641   -1.000
 3743.00    0.61407   0.59198   -1.000
 3744.00    0.58246   0.55603   -1.000
 3745.00    0.55140   0.52448   -1.000
 3746.00    0.52341   0.49423   -1.000
 3747.00    0.48917   0.46101   -1.000
 3748.00    0.45694   0.43225   -1.000
 3749.00    0.45355   0.42709   -1.000
 3750.00    0.48746   0.45775   -1.000
 3751.00    0.55374   0.51645   -1.000
 3752.00    0.62317   0.58488   -1.000
 3753.00    0.67813   0.64644   -1.000
 3754.00    0.71748   0.68727   -1.000
 3755.00    0.73372   0.69505   -1.000
 3756.00    0.70631   0.66794   -1.000
 3757.00    0.64285   0.62302   -1.000
 3758.00    0.59250   0.58763   -1.000
 3759.00    0.57896   0.57860  903.397
 3760.00    0.60496   0.59061   -1.000
 3761.00    0.64061   0.60684   -1.000
 3762.00    0.65370   0.61772   -1.000
 3763.00    0.65382   0.62285   -1.000
 3764.00    0.65341   0.62154   -1.000
 3765.00    0.65457   0.61222   -1.000
 3766.00    0.64332   0.59713   -1.000
 3767.00    0.62363   0.58073   -1.000
 3768.00    0.61436   0.56613   -1.000
 3769.00    0.61037   0.55639   -1.000
 3770.00    0.61271   0.55797   -1.000
 3771.00    0.62662   0.57750   -1.000
 3772.00    0.65353   0.61098   -1.000
 3773.00    0.68564   0.64384   -1.000
 3774.00    0.70230   0.66640   -1.000
 3775.00    0.71006   0.68079   -1.000
 3776.00    0.71955   0.69378   -1.000
 3777.00    0.72893   0.71033   -1.000
 3778.00    0.74245   0.73109   -1.000
 3779.00    0.76501   0.75261   -1.000
 3780.00    0.79018   0.77031   -1.000
 3781.00    0.79519   0.78195   -1.000
 3782.00    0.79310   0.78722  845.409
 3783.00    0.79125   0.78288   -1.000
 3784.00    0.77913   0.76293   -1.000
 3785.00    0.75158   0.72797   -1.000
 3786.00    0.70903   0.68872   -1.000
 3787.00    0.67686   0.65780   -1.000
 3788.00    0.65841   0.64145   -1.000
 3789.00    0.65190   0.63836   -1.000
 3790.00    0.66203   0.64150   -1.000
 3791.00    0.67163   0.64057   -1.000
 3792.00    0.66066   0.62791   -1.000
 3793.00    0.63621   0.60364   -1.000
 3794.00    0.61130   0.57336   -1.000
 3795.00    0.58462   0.54145   -1.000
 3796.00    0.55781   0.50939   -1.000
 3797.00    0.53127   0.48406   -1.000
 3798.00    0.52011   0.48192   -1.000
 3799.00    0.55201   0.51277   -1.000
 3800.00    0.60843   0.56786   -1.000
 3801.00    0.66201   0.62854   -1.000
 3802.00    0.70604   0.67809   -1.000
 3803.00    0.73324   0.70734   -1.000
 3804.00    0.74045   0.71493   -1.000
 3805.00    0.72984   0.70600   -1.000
 3806.00    0.70534   0.69469   -1.000
 3807.00    0.69272   0.69750   -1.000
 3808.00    0.71340   0.71786   -1.000
 3809.00    0.73743   0.74255   -1.000
 3810.00    0.74714   0.75304   -1.000
 3811.00    0.73465   0.73914   -1.000
 3812.00    0.70641   0.70426  903.397
 3813.00    0.67366   0.66168   -1.000
 3814.00    0.63376   0.62813   -1.000
 3815.00    0.61585   0.61619  903.397
 3816.00    0.63126   0.62320   -1.000
 3817.00    0.64935   0.63131   -1.000
 3818.00    0.64260   0.62369   -1.000
 3819.00    0.60981   0.60161   -1.000
 3820.00    0.58469   0.58340  903.397
 3821.00    0.58809   0.58157   -1.000
 3822.00    0.60241   0.58585   -1.000
 3823.00    0.59521   0.57777   -1.000
 3824.00    0.55911   0.55395   -1.000
 3825.00    0.53081   0.52710   -1.000
 3826.00    0.51917   0.51009   -1.000
 3827.00    0.51381   0.50536  140.113
 3828.00    0.52040   0.50647  141.102
 3829.00    0.52656   0.50445   -1.000
 3830.00    0.51370   0.49201   -1.000
 3831.00    0.48199   0.46754  136.642
 3832.00    0.45056   0.43605  140.497
 3833.00    0.43299   0.40808   -1.000
 3834.00    0.42702   0.39390   -1.000
 3835.00    0.43589   0.39569   -1.000
 3836.00    0.44713   0.40631   -1.000
 3837.00    0.44325   0.41794   -1.000
 3838.00    0.43946   0.43045  148.836
 3839.00    0.45852   0.45185  152.312
 3840.00    0.49524   0.48893  152.987
 3841.00    0.54959   0.53862  147.265
 3842.00    0.60752   0.58981   -1.000
 3843.00    0.64349   0.63083   -1.000
 3844.00    0.65789   0.65710  903.397
 3845.00    0.66276   0.67348   -1.000
 3846.00    0.66783   0.68636   -1.000
 3847.00    0.66951   0.69441   -1.000
 3848.00    0.66410   0.69421   -1.000
 3849.00    0.65343   0.68987   -1.000
 3850.00    0.64517   0.69009   -1.000
 3851.00    0.65313   0.69801   -1.000
 3852.00    0.66906   0.70692   -1.000
 3853.00    0.67136   0.70631   -1.000
 3854.00    0.65946   0.69408   -1.000
 3855.00    0.64337   0.67635   -1.000
 3856.00    0.61990   0.65641   -1.000
 3857.00    0.60321   0.63374   -1.000
 3858.00    0.58062   0.61265   -1.000
 3859.00    0.56220   0.60535   -1.000
 3860.00    0.57941   0.62143   -1.000
 3861.00    0.60796   0.65675   -1.000
 3862.00    0.65562   0.69337   -1.000
 3863.00    0.68417   0.71401   -1.000
 3864.00    0.69031   0.71674   -1.000
 3865.00    0.68566   0.71156   -1.000
 3866.00    0.67806   0.70668   -1.000
 3867.00    0.66495   0.70309   -1.000
 3868.00    0.64692   0.69576   -1.000
 3869.00    0.63550   0.67869   -1.000
 3870.00    0.61373   0.65241   -1.000
 3871.00    0.57890   0.62776   -1.000
 3872.00    0.56987   0.61919   -1.000
 3873.00    0.60986   0.63400   -1.000
 3874.00    0.65641   0.66204   -1.000
 3875.00    0.67860   0.67987  903.397
 3876.00    0.66576   0.67281   -1.000
 3877.00    0.62302   0.64983   -1.000
 3878.00    0.59916   0.63066   -1.000
 3879.00    0.60497   0.62454   -1.000
 3880.00    0.60180   0.62575   -1.000
 3881.00    0.58649   0.62582   -1.000
 3882.00    0.58387   0.62253   -1.000
 3883.00    0.60322   0.61496   -1.000
 3884.00    0.62845   0.59787   -1.000
 3885.00    0.61669   0.56624   -1.000
 3886.00    0.57864   0.52662   -1.000
 3887.00    0.55315   0.49547   -1.000
 3888.00    0.54544   0.48791   -1.000
 3889.00    0.56120   0.50904   -1.000
 3890.00    0.61026   0.55294   -1.000
 3891.00    0.66415   0.60242   -1.000
 3892.00    0.69227   0.63834   -1.000
 3893.00    0.70061   0.65464   -1.000
 3894.00    0.70660   0.66141   -1.000
 3895.00    0.71337   0.67128   -1.000
 3896.00    0.72826   0.68588   -1.000
 3897.00    0.73654   0.69794   -1.000
 3898.00    0.73608   0.70415   -1.000
 3899.00    0.73551   0.70948   -1.000
 3900.00    0.74139   0.71731   -1.000
 3901.00    0.74300   0.72332   -1.000
 3902.00    0.74053   0.72030   -1.000
 3903.00    0.73031   0.70716   -1.000
 3904.00    0.71115   0.69237   -1.000
 3905.00    0.69341   0.68834   -1.000
 3906.00    0.69826   0.70216   -1.000
 3907.00    0.73453   0.73174   -1.000
 3908.00    0.77226   0.76603   -1.000
 3909.00    0.79639   0.79314  873.629
 3910.00    0.81360   0.80955  831.496
 3911.00    0.82236   0.81748  817.685
 3912.00    0.82562   0.81797   -1.000
 3913.00    0.81562   0.81177  803.841
 3914.00    0.79419   0.80119   -1.000
 3915.00    0.78271   0.78917   -1.000
 3916.00    0.77965   0.77703  836.433
 3917.00    0.77150   0.76281   -1.000
 3918.00    0.75513   0.74412   -1.000
 3919.00    0.72916   0.72251   -1.000
 3920.00    0.70138   0.70477   -1.000
 3921.00    0.68682   0.69821   -1.000
 3922.00    0.69113   0.70267   -1.000
 3923.00    0.70392   0.70788  903.397
 3924.00    0.70271   0.70098  903.397
 3925.00    0.67770   0.67549  903.397
 3926.00    0.62701   0.63207   -1.000
 3927.00    0.55809   0.57562   -1.000
 3928.00    0.49505   0.51274   -1.000
 3929.00    0.43474   0.44704  301.424
 3930.00    0.35753   0.38060   -1.000
 3931.00    0.29613   0.31786   -1.000
 3932.00    0.25514   0.26850  215.571
 3933.00    0.22697   0.24509   -1.000
 3934.00    0.22520   0.25637   -1.000
 3935.00    0.26405   0.29949   -1.000
 3936.00    0.32610   0.36420   -1.000
 3937.00    0.39438   0.43802   -1.000
 3938.00    0.47755   0.50910   -1.000
 3939.00    0.54518   0.56845  158.640
 3940.00    0.59649   0.61055  227.961
 3941.00    0.62737   0.63404  903.397
 3942.00    0.63028   0.64439   -1.000
 3943.00    0.62286   0.65256   -1.000
 3944.00    0.64802   0.66811   -1.000
 3945.00    0.69837   0.69144   -1.000
 3946.00    0.73608   0.71362   -1.000
 3947.00    0.74833   0.72846   -1.000
 3948.00    0.75037   0.73984   -1.000
 3949.00    0.76851   0.75202  190.942
 3950.00    0.78618   0.76167   88.413
 3951.00    0.78380   0.76593   85.276
 3952.00    0.77683   0.76860   83.826
 3953.00    0.79081   0.77319   84.614
 3954.00    0.80868   0.77529   84.711
 3955.00    0.79877   0.76922   82.904
 3956.00    0.77614   0.75908   82.057
 3957.00    0.77041   0.75237   83.872
 3958.00    0.77454   0.74464   86.282
 3959.00    0.75918   0.72196   -1.000
 3960.00    0.71104   0.67805   86.305
 3961.00    0.63633   0.62346   91.223
 3962.00    0.57938   0.57355  101.953
 3963.00    0.53835   0.53078  114.323
 3964.00    0.49081   0.48433  123.824
 3965.00    0.42538   0.42265   29.391
 3966.00    0.34624   0.35016   14.708
 3967.00    0.27520   0.28760   17.593
 3968.00    0.23786   0.25666   21.655
 3969.00    0.24279   0.26546   25.494
 3970.00    0.29292   0.30886   26.212
 3971.00    0.37328   0.37302   23.056
 3972.00    0.45552   0.44457   18.959
 3973.00    0.52957   0.51567   15.704
 3974.00    0.59662   0.58196   21.990
 3975.00    0.65385   0.64134  116.147
 3976.00    0.70664   0.69361  103.480
 3977.00    0.75545   0.74090   94.163
 3978.00    0.80539   0.78312   87.580
 3979.00    0.84315   0.81489   82.682
 3980.00    0.86793   0.83028   78.300
 3981.00    0.86879   0.83142   75.430
 3982.00    0.84768   0.82852   75.160
 3983.00    0.84713   0.83138   76.088
 3984.00    0.86870   0.84161   76.752
 3985.00    0.88510   0.85559   75.730
 3986.00    0.89263   0.87090   74.167
 3987.00    0.90354   0.88611   72.814
 3988.00    0.91364   0.89903   71.550
 3989.00    0.91712   0.90867   70.452
 3990.00    0.93248   0.91749   70.168
 3991.00    0.95399   0.92813   70.157
 3992.00    0.96366   0.93755   69.209
 3993.00    0.95770   0.93885   67.547
 3994.00    0.94297   0.92862   66.893
 3995.00    0.92234   0.91112   68.072
 3996.00    0.89892   0.89640   69.706
 3997.00    0.89695   0.89457   71.203
 3998.00    0.91756   0.90819   72.256
 3999.00    0.94285   0.93196   71.932
 4000.00    0.96731   0.95635   69.565
 4001.00    0.98290   0.97133   66.676
 4002.00    0.99493   0.96852   64.917
 4003.00    0.98596   0.94559   63.945
 4004.00    0.93987   0.91089   63.899
 4005.00    0.89738   0.88523   66.410
 4006.00    0.89621   0.88698   70.596
 4007.00    0.94177   0.91397   72.538
 4008.00    0.98177   0.94762   70.383
 4009.00    1.00107   0.97210   66.764
 4010.00    1.00522   0.98427   64.855
 4011.00    1.00979   0.98892   64.094
 4012.00    1.01298   0.99179   63.595
 4013.00    1.00902   0.99541   63.658
 4014.00    1.00621   0.99829   64.087
 4015.00    1.00493   0.99825   64.102
 4016.00    1.00000   0.99644   63.431
 4017.00    0.98944   0.99761   63.091
 4018.00    0.99087   1.00399   63.762
 4019.00    1.00486   1.01212   64.122
 4020.00    1.00627   1.01618   63.515
 4021.00    1.00288   1.01412   62.963
 4022.00    0.99889   1.00816   63.443
 4023.00    0.98785   1.00213   64.174
 4024.00    0.98214   1.00117   64.556
 4025.00    0.99461   1.00980   65.013
 4026.00    1.02322   1.02579   64.675
 4027.00    1.04859   1.03571   62.742
 4028.00    1.04593   1.02389   60.870
 4029.00    1.01348   0.98859   60.352
 4030.00    0.96351   0.94372   61.683
 4031.00    0.92237   0.90812   64.924
 4032.00    0.91633   0.89313   68.778
 4033.00    0.92824   0.90078   70.838
 4034.00    0.94880   0.92748   70.959
 4035.00    0.98022   0.96818   69.457
 4036.00    1.02203   1.01369   66.684
 4037.00    1.04932   1.04947   63.360
 4038.00    1.06219   1.06281   60.589
 4039.00    1.05550   1.05561   59.213
 4040.00    1.03207   1.04119   59.596
 4041.00    1.02056   1.02609   60.961
 4042.00    1.01298   1.00166   62.119
 4043.00    0.98002   0.95675   62.634
 4044.00    0.91044   0.90284   63.955
 4045.00    0.84938   0.87185   68.283
 4046.00    0.86279   0.88447   74.562
 4047.00    0.93673   0.93160   76.829
 4048.00    0.99772   0.98600   71.738
 4049.00    1.02324   1.02465   65.717
 4050.00    1.03075   1.03998   62.595
 4051.00    1.02931   1.03570   61.254
 4052.00    1.01211   1.01869   60.997
 4053.00    0.99425   0.99822   61.918
 4054.00    0.98953   0.98160   63.618
 4055.00    0.98465   0.96927   65.016
 4056.00    0.97232   0.96019   65.826
 4057.00    0.96135   0.95845   66.310
 4058.00    0.96418   0.96896   66.851
 4059.00    0.98876   0.98667   66.989
 4060.00    1.01344   0.99302   65.525
 4061.00    0.99266   0.97359   63.521
 4062.00    0.93367   0.93530   63.165
 4063.00    0.89732   0.90198   65.599
 4064.00    0.90220   0.89129   70.428
 4065.00    0.92861   0.90222   73.036
 4066.00    0.95413   0.92413   70.813
 4067.00    0.97109   0.94880   67.938
 4068.00    1.00036   0.96730   66.248
 4069.00    1.02299   0.96841   -1.000
 4070.00    1.00022   0.95161   62.702
 4071.00    0.96209   0.93281   63.133
 4072.00    0.95646   0.92901   65.862
 4073.00    0.97632   0.93695   67.587
 4074.00    0.98242   0.93597   66.257
 4075.00    0.95148   0.91474   64.548
 4076.00    0.89540   0.88474   65.509
 4077.00    0.85641   0.86951   69.651
 4078.00    0.87250   0.88331   74.284
 4079.00    0.93259   0.92189   74.662
 4080.00    0.98948   0.96395   71.061
 4081.00    1.01764   0.98717   66.110
 4082.00    1.00536   0.98475   62.511
 4083.00    0.97627   0.96882   61.745
 4084.00    0.96370   0.95916   63.250
 4085.00    0.96636   0.96781   65.014
 4086.00    0.98978   0.99290   65.251
 4087.00    1.02713   1.02148   63.769
 4088.00    1.05497   1.03936   61.468
 4089.00    1.05514   1.03965   59.239
 4090.00    1.04761   1.02656   58.136
 4091.00    1.03433   1.01016   58.791
 4092.00    1.01959   0.99572   59.993
 4093.00    1.01161   0.98034   60.951
 4094.00    0.99674   0.95829   61.397
 4095.00    0.96541   0.92927   61.827
 4096.00    0.93606   0.89810   63.606
 4097.00    0.92530   0.86617   -1.000
 4098.00    0.90882   0.82739   -1.000
 4099.00    0.85346   0.77680   -1.000
 4100.00    0.76877   0.72450   70.631
 4101.00    0.71690   0.69420   75.547
 4102.00    0.73431   0.70376   82.042
 4103.00    0.78833   0.75114   85.000
 4104.00    0.85736   0.81498   -1.000
 4105.00    0.92129   0.87100   -1.000
 4106.00    0.95734   0.90783   -1.000
 4107.00    0.96738   0.92670   66.050
 4108.00    0.95989   0.93352   64.675
 4109.00    0.94919   0.93599   64.730
 4110.00    0.94266   0.94098   65.604
 4111.00    0.95544   0.95166   66.797
 4112.00    0.98402   0.96765   67.120
 4113.00    1.00384   0.98740   65.991
 4114.00    1.01301   1.00651   64.611
 4115.00    1.01947   1.01800   63.551
 4116.00    1.02134   1.01681   62.704
 4117.00    1.00891   1.00505   62.429
 4118.00    0.98390   0.99076   63.122
 4119.00    0.96887   0.98209   64.777
 4120.00    0.97734   0.98162   66.492
 4121.00    0.98224   0.98621   66.658
 4122.00    0.98030   0.99276   65.835
 4123.00    0.98983   1.00087   65.423
 4124.00    1.00809   1.00906   65.233
 4125.00    1.01615   1.01198   64.347
 4126.00    1.00488   1.00659   63.519
 4127.00    0.98798   0.99663   63.703
 4128.00    0.96936   0.98785   64.772
 4129.00    0.96358   0.97933   65.888
 4130.00    0.95897   0.96503   66.337
 4131.00    0.94320   0.94512   66.841
 4132.00    0.92889   0.93023   68.139
 4133.00    0.92088   0.93309   70.332
 4134.00    0.93726   0.95640   71.847
 4135.00    0.97679   0.99153   71.073
 4136.00    1.00439   1.02586   68.215
 4137.00    1.02680   1.05187   65.167
 4138.00    1.04994   1.06720   63.450
 4139.00    1.05496   1.06798   62.461
 4140.00    1.03778   1.04762   61.739
 4141.00    1.00029   1.00814   62.032
 4142.00    0.95286   0.96495   64.023
 4143.00    0.91839   0.94028   68.142
 4144.00    0.92246   0.94682   73.270
 4145.00    0.96237   0.97520   74.769
 4146.00    1.00081   1.00330   71.240
 4147.00    1.00944   1.01622   67.477
 4148.00    0.99526   1.01580   65.625
 4149.00    0.97546   1.01230   65.644
 4150.00    0.97046   1.01109   -1.000
 4151.00    0.97407   1.00887   68.697
 4152.00    0.96775   1.00068   69.058
 4153.00    0.95748   0.98769   68.557
 4154.00    0.94475   0.97731   68.518
 4155.00    0.94385   0.97692   69.355
 4156.00    0.95610   0.98778   69.513
 4157.00    0.96703   1.00598   -1.000
 4158.00    0.99449   1.02625   68.042
 4159.00    1.03646   1.04404   67.615
 4160.00    1.03481   1.05777   65.786
 4161.00    1.01601   1.06885   -1.000
 4162.00    1.01454   1.07795   -1.000
 4163.00    1.02666   1.08247   -1.000
 4164.00    1.02546   1.07819   -1.000
 4165.00    1.01436   1.06467   -1.000
 4166.00    1.00554   1.04811   -1.000
 4167.00    0.99104   1.03656   -1.000
 4168.00    0.98803   1.03102   -1.000
 4169.00    0.99656   1.02158   67.892
 4170.00    0.98257   0.99837   67.107
 4171.00    0.94289   0.96393   66.542
 4172.00    0.90314   0.93517   68.352
 4173.00    0.89051   0.92838   -1.000
 4174.00    0.90904   0.94328   -1.000
 4175.00    0.93383   0.96462   74.711
 4176.00    0.94829   0.98029   71.937
 4177.00    0.94716   0.99120   -1.000
 4178.00    0.94830   1.00279   -1.000
 4179.00    0.95885   1.01314   -1.000
 4180.00    0.96717   1.01585   -1.000
 4181.00    0.96978   1.01142   -1.000
 4182.00    0.96509   1.00915   -1.000
 4183.00    0.97313   1.01501   -1.000
 4184.00    0.99729   1.02229   67.382
 4185.00    0.99845   1.02026   66.061
 4186.00    0.97382   1.00867   65.313
 4187.00    0.95822   0.99822   -1.000
 4188.00    0.96088   0.99822   -1.000
 4189.00    0.96905   1.00794   -1.000
 4190.00    0.98177   1.02170   -1.000
 4191.00    0.99510   1.03635   -1.000
 4192.00    1.01134   1.04857   66.679
 4193.00    1.01894   1.05093   65.587
 4194.00    0.99850   1.03734   -1.000
 4195.00    0.96460   1.00989   -1.000
 4196.00    0.93463   0.97858   -1.000
 4197.00    0.91739   0.95361   -1.000
 4198.00    0.91753   0.93929   71.914
 4199.00    0.92892   0.93502   72.788
 4200.00    0.93634   0.93820   72.599
 4201.00    0.93449   0.94581   71.652
 4202.00    0.93621   0.95726   70.798
 4203.00    0.94959   0.97431   70.550
 4204.00    0.96242   0.99685   69.869
 4205.00    0.97137   1.02154   -1.000
 4206.00    0.99099   1.04360   -1.000
 4207.00    1.01469   1.05853   -1.000
 4208.00    1.02545   1.06451   -1.000
 4209.00    1.02424   1.06476   -1.000
 4210.00    1.01641   1.06566   -1.000
 4211.00    1.01100   1.06875   -1.000
 4212.00    1.01394   1.06640   -1.000
 4213.00    0.99732   1.05072   -1.000
 4214.00    0.95590   1.02594   -1.000
 4215.00    0.92780   1.00715   -1.000
 4216.00    0.93691   1.00751   -1.000
 4217.00    0.98246   1.02809   -1.000
 4218.00    1.02750   1.05729   67.202
 4219.00    1.05135   1.08009   63.275
 4220.00    1.06646   1.08632   60.847
 4221.00    1.06040   1.07086   59.514
 4222.00    1.02028   1.03081   59.275
 4223.00    0.96678   0.96847   60.439
 4224.00    0.90641   0.89546   63.540
 4225.00    0.82925   0.83491   68.624
 4226.00    0.77749   0.81312   76.226
 4227.00    0.80252   0.84365   -1.000
 4228.00    0.89203   0.91083   88.194
 4229.00    0.98564   0.97921   80.125
 4230.00    1.03194   1.02124   70.028
 4231.00    1.03696   1.03210   64.061
 4232.00    1.01849   1.02267   61.705
 4233.00    0.99629   1.00613   61.886
 4234.00    0.98740   0.99065   63.422
 4235.00    0.97477   0.97968   64.778
 4236.00    0.95734   0.97539   65.653
 4237.00    0.94994   0.98017   67.127
 4238.00    0.96232   0.99378   67.797
 4239.00    0.97820   1.01229   66.890
 4240.00    0.99377   1.03086   65.478
 4241.00    1.00878   1.04703   64.466
 4242.00    1.01429   1.06098   -1.000
 4243.00    1.01975   1.07252   -1.000
 4244.00    1.02705   1.07712   -1.000
 4245.00    1.03452   1.06793   60.982
 4246.00    1.01256   1.04362   60.273
 4247.00    0.96612   1.01308   -1.000
 4248.00    0.93657   0.98925   -1.000
 4249.00    0.93105   0.98100   -1.000
 4250.00    0.94225   0.98792   -1.000
 4251.00    0.97228   1.00127   68.312
 4252.00    0.99671   1.00877   67.619
 4253.00    0.99452   1.00526   65.612
 4254.00    0.97530   1.00037   64.437
 4255.00    0.97940   1.00607   65.306
 4256.00    1.01100   1.01794   66.346
 4257.00    1.01515   1.01843   64.845
 4258.00    0.97680   0.99852   62.849
 4259.00    0.93875   0.97221   63.274
 4260.00    0.91759   0.96423   -1.000
 4261.00    0.94033   0.98663   -1.000
 4262.00    0.99424   1.02874   69.676
 4263.00    1.04092   1.06921   66.358
 4264.00    1.05829   1.09278   62.459
 4265.00    1.05846   1.09658   59.990
 4266.00    1.04209   1.08474   59.015
 4267.00    1.01189   1.06086   -1.000
 4268.00    0.98843   1.02570   60.555
 4269.00    0.95999   0.98177   62.562
 4270.00    0.91203   0.93701   64.605
 4271.00    0.86269   0.90366   -1.000
 4272.00    0.85807   0.89131   72.106
 4273.00    0.87006   0.90060   75.465
 4274.00    0.88629   0.92668   -1.000
 4275.00    0.92475   0.96543   -1.000
 4276.00    0.97382   1.00871   71.232
 4277.00    1.00482   1.04140   67.536
 4278.00    1.00406   1.05104   -1.000
 4279.00    0.97923   1.04038   -1.000
 4280.00    0.95175   1.02462   -1.000
 4281.00    0.94840   1.01656   -1.000
 4282.00    0.95755   1.01572   -1.000
 4283.00    0.97159   1.01306   -1.000
 4284.00    0.96711   1.00359   65.522
 4285.00    0.93625   0.98866   -1.000
 4286.00    0.91646   0.96990   -1.000
 4287.00    0.89684   0.94604   -1.000
 4288.00    0.87303   0.91798   -1.000
 4289.00    0.84548   0.89588   -1.000
 4290.00    0.83851   0.89395   -1.000
 4291.00    0.87345   0.91407   -1.000
 4292.00    0.92094   0.94172   76.070
 4293.00    0.94305   0.95888   71.786
 4294.00    0.93202   0.95774   68.101
 4295.00    0.91659   0.94049   67.475
 4296.00    0.88252   0.91053   68.313
 4297.00    0.83775   0.86927   69.586
 4298.00    0.78460   0.82325   -1.000
 4299.00    0.73507   0.78572   -1.000
 4300.00    0.71906   0.76700   -1.000
 4301.00    0.72524   0.76691   -1.000
 4302.00    0.73350   0.77781   -1.000
 4303.00    0.74278   0.79146   -1.000
 4304.00    0.75384   0.80001   -1.000
 4305.00    0.76299   0.79590   82.370
 4306.00    0.74787   0.77801   81.765
 4307.00    0.71987   0.75627   -1.000
 4308.00    0.69570   0.74652   -1.000
 4309.00    0.70446   0.75896   -1.000
 4310.00    0.73267   0.79046   -1.000
 4311.00    0.74874   0.83103   -1.000
 4312.00    0.78273   0.87634   -1.000
 4313.00    0.83173   0.92906   -1.000
 4314.00    0.89869   0.99168   -1.000
 4315.00    0.98599   1.05847   -1.000
 4316.00    1.07196   1.11550   -1.000
 4317.00    1.12165   1.14924   60.679
 4318.00    1.11341   1.15624   56.832
 4319.00    1.09912   1.14315   55.475
 4320.00    1.08274   1.11604   55.790
 4321.00    1.04136   1.07410   56.811
 4322.00    0.98478   1.01648   58.293
 4323.00    0.91503   0.95297   60.546
 4324.00    0.84609   0.90568   -1.000
 4325.00    0.82573   0.89668   -1.000
 4326.00    0.87816   0.93207   -1.000
 4327.00    0.96578   0.99327   75.035
 4328.00    1.02315   1.04973   68.971
 4329.00    1.03906   1.08258   -1.000
 4330.00    1.05032   1.09412   58.745
 4331.00    1.04530   1.09766   -1.000
 4332.00    1.05290   1.10119   -1.000
 4333.00    1.06228   1.10122   57.727
 4334.00    1.05169   1.08740   56.797
 4335.00    1.03108   1.04949   56.363
 4336.00    0.98151   0.98386   56.555
 4337.00    0.91038   0.90078   58.278
 4338.00    0.83158   0.82297   62.674
 4339.00    0.76123   0.77518   68.822
 4340.00    0.75709   0.77284   75.024
 4341.00    0.78701   0.81408   80.037
 4342.00    0.84999   0.87877   79.541
 4343.00    0.91553   0.94239   72.780
 4344.00    0.97125   0.99299   66.276
 4345.00    1.02155   1.03181   62.853
 4346.00    1.03800   1.06323   61.024
 4347.00    1.04840   1.08706   59.544
 4348.00    1.06637   1.09637   58.666
 4349.00    1.06450   1.08274   57.971
 4350.00    1.01671   1.04858   57.294
 4351.00    0.94850   1.01367   -1.000
 4352.00    0.92524   1.00119   -1.000
 4353.00    0.95846   1.01801   -1.000
 4354.00    1.00136   1.05124   -1.000
 4355.00    1.03180   1.08234   -1.000
 4356.00    1.04486   1.10107   -1.000
 4357.00    1.05390   1.10747   -1.000
 4358.00    1.04848   1.10811   -1.000
 4359.00    1.04176   1.11207   -1.000
 4360.00    1.05704   1.12491   -1.000
 4361.00    1.07929   1.14362   -1.000
 4362.00    1.09215   1.16111   -1.000
 4363.00    1.09707   1.17345   -1.000
 4364.00    1.10735   1.17803   -1.000
 4365.00    1.10307   1.17055   -1.000
 4366.00    1.08146   1.15129   -1.000
 4367.00    1.05475   1.12855   -1.000
 4368.00    1.04101   1.11108   -1.000
 4369.00    1.04484   1.10081   -1.000
 4370.00    1.04561   1.09294   -1.000
 4371.00    1.04220   1.08054   58.772
 4372.00    1.03410   1.05989   58.504
 4373.00    1.00561   1.03515   58.631
 4374.00    0.97500   1.01855   -1.000
 4375.00    0.97381   1.02237   -1.000
 4376.00    1.00429   1.04657   -1.000
 4377.00    1.04923   1.07683   63.291
 4378.00    1.07185   1.09588   60.398
 4379.00    1.06716   1.09212   57.844
 4380.00    1.06400   1.05990   57.264
 4381.00    1.03014   1.00140   57.844
 4382.00    0.94261   0.93261   59.337
 4383.00    0.86458   0.88348   63.136
 4384.00    0.84871   0.87979   70.438
 4385.00    0.90186   0.91873   76.621
 4386.00    0.97259   0.97099   74.910
 4387.00    1.01399   1.00853   67.618
 4388.00    1.02621   1.02456   62.306
 4389.00    1.01087   1.02942   60.987
 4390.00    0.99953   1.03501   61.279
 4391.00    1.01711   1.04508   61.861
 4392.00    1.04310   1.05511   61.675
 4393.00    1.04289   1.06064   60.358
 4394.00    1.02915   1.06565   59.428
 4395.00    1.02908   1.07795   -1.000
 4396.00    1.05728   1.09626   61.155
 4397.00    1.08727   1.10786   60.175
 4398.00    1.08152   1.10316   57.542
 4399.00    1.05181   1.08727   56.533
 4400.00    1.02569   1.07230   -1.000
 4401.00    1.03361   1.06220   59.891
 4402.00    1.05758   1.04928   61.026
 4403.00    1.03848   1.02747   60.082
 4404.00    0.99748   1.00500   59.745
 4405.00    0.98597   0.99634   62.366
 4406.00    1.00658   1.00577   65.349
 4407.00    1.02772   1.02694   65.018
 4408.00    1.02659   1.05535   63.000
 4409.00    1.05570   1.09130   62.242
 4410.00    1.09750   1.12895   61.244
 4411.00    1.13128   1.15311   58.727
 4412.00    1.13879   1.15118   56.328
 4413.00    1.12383   1.12398   54.747
 4414.00    1.07301   1.08674   54.671
 4415.00    1.02886   1.06214   56.663
 4416.00    1.02792   1.06610   59.760
 4417.00    1.06282   1.09633   61.238
 4418.00    1.10469   1.13565   60.312
 4419.00    1.13309   1.16422   58.012
 4420.00    1.13849   1.17079   55.770
 4421.00    1.11313   1.15928   -1.000
 4422.00    1.09457   1.14354   -1.000
 4423.00    1.08913   1.13443   -1.000
 4424.00    1.09534   1.13253   57.476
 4425.00    1.08975   1.13272   57.089
 4426.00    1.07916   1.13313   -1.000
 4427.00    1.08508   1.13516   -1.000
 4428.00    1.09994   1.13825   57.299
 4429.00    1.10667   1.14045   56.904
 4430.00    1.09089   1.14077   -1.000
 4431.00    1.09191   1.13743   -1.000
 4432.00    1.09267   1.12630   57.368
 4433.00    1.07747   1.10615   56.696
 4434.00    1.04578   1.08687   56.795
 4435.00    1.03156   1.08572   -1.000
 4436.00    1.06008   1.11058   -1.000
 4437.00    1.12191   1.14993   61.271
 4438.00    1.16215   1.18125   58.336
 4439.00    1.16711   1.18744   54.946
 4440.00    1.14084   1.16696   53.192
 4441.00    1.10073   1.13444   53.570
 4442.00    1.06416   1.11215   -1.000
 4443.00    1.05608   1.11514   -1.000
 4444.00    1.07998   1.14093   -1.000
 4445.00    1.12130   1.17299   -1.000
 4446.00    1.14005   1.19535   -1.000
 4447.00    1.14378   1.20373   -1.000
 4448.00    1.14278   1.20324   -1.000
 4449.00    1.13323   1.19932   -1.000
 4450.00    1.12379   1.19270   -1.000
 4451.00    1.13395   1.17983   -1.000
 4452.00    1.13437   1.15564   55.615
 4453.00    1.11004   1.12029   55.316
 4454.00    1.05953   1.08438   56.106
 4455.00    1.03252   1.06215   58.400
 4456.00    1.04598   1.05858   60.806
 4457.00    1.06748   1.06595   61.458
 4458.00    1.06632   1.07356   60.283
 4459.00    1.05716   1.07784   59.457
 4460.00    1.05671   1.08240   59.618
 4461.00    1.06367   1.09250   60.010
 4462.00    1.07336   1.11050   60.638
 4463.00    1.09725   1.13288   60.784
 4464.00    1.12596   1.15146   59.213
 4465.00    1.13334   1.15977   57.023
 4466.00    1.12640   1.15727   56.010
 4467.00    1.11411   1.14868   56.022
 4468.00    1.09887   1.14167   56.194
 4469.00    1.09171   1.14425   -1.000
 4470.00    1.10232   1.16034   -1.000
 4471.00    1.13343   1.18663   -1.000
 4472.00    1.16924   1.21451   -1.000
 4473.00    1.19341   1.23574   55.000
 4474.00    1.20522   1.24754   53.178
 4475.00    1.21359   1.25276   51.971
 4476.00    1.21805   1.25407   51.699
 4477.00    1.22314   1.24868   51.705
 4478.00    1.21454   1.23068   51.251
 4479.00    1.17750   1.19982   51.123
 4480.00    1.13274   1.16726   51.926
 4481.00    1.09999   1.14982   -1.000
 4482.00    1.10790   1.15717   -1.000
 4483.00    1.14723   1.18530   57.390
 4484.00    1.18693   1.22021   56.235
 4485.00    1.21035   1.24525   53.819
 4486.00    1.21267   1.24984   51.990
 4487.00    1.19582   1.23491   51.173
 4488.00    1.16006   1.21175   -1.000
 4489.00    1.13235   1.19487   -1.000
 4490.00    1.13883   1.19284   -1.000
 4491.00    1.17085   1.20208   55.691
 4492.00    1.19359   1.21030   54.795
 4493.00    1.17884   1.20837   53.403
 4494.00    1.14110   1.19953   -1.000
 4495.00    1.12352   1.19540   -1.000
 4496.00    1.13146   1.20255   -1.000
 4497.00    1.15993   1.21715   -1.000
 4498.00    1.19822   1.23083   55.392
 4499.00    1.20452   1.23840   53.480
 4500.00    1.19531   1.24212   52.194
 4501.00    1.18905   1.24981   -1.000
 4502.00    1.20364   1.26689   -1.000
 4503.00    1.22659   1.28990   -1.000
 4504.00    1.24961   1.30948   -1.000
 4505.00    1.25548   1.31791   -1.000
 4506.00    1.24885   1.31475   -1.000
 4507.00    1.24667   1.30652   -1.000
 4508.00    1.24459   1.30058   -1.000
 4509.00    1.23660   1.29904   -1.000
 4510.00    1.24214   1.29777   -1.000
 4511.00    1.23918   1.29141   -1.000
 4512.00    1.21810   1.27890   -1.000
 4513.00    1.20426   1.26442   -1.000
 4514.00    1.19496   1.25310   -1.000
 4515.00    1.19229   1.24708   -1.000
 4516.00    1.19059   1.24469   -1.000
 4517.00    1.18414   1.24309   -1.000
 4518.00    1.18119   1.24259   -1.000
 4519.00    1.19085   1.24568   -1.000
 4520.00    1.20981   1.25118   53.029
 4521.00    1.20934   1.25303   52.033
 4522.00    1.18809   1.24606   -1.000
 4523.00    1.16460   1.23056   -1.000
 4524.00    1.14960   1.20996   -1.000
 4525.00    1.13387   1.18575   -1.000
 4526.00    1.11639   1.15813   54.359
 4527.00    1.10339   1.13095   55.444
 4528.00    1.08610   1.11226   57.167
 4529.00    1.08400   1.10815   58.596
 4530.00    1.09870   1.11663   59.029
 4531.00    1.11952   1.12806   58.422
 4532.00    1.12599   1.13207   57.354
 4533.00    1.11055   1.12696   56.450
 4534.00    1.08427   1.12276   56.560
 4535.00    1.08063   1.13331   -1.000
 4536.00    1.12764   1.16372   59.801
 4537.00    1.19069   1.20415   58.350
 4538.00    1.22218   1.23697   54.870
 4539.00    1.22141   1.25104   51.963
 4540.00    1.20101   1.24958   51.005
 4541.00    1.19171   1.24389   -1.000
 4542.00    1.19748   1.24098   52.786
 4543.00    1.19596   1.23886   52.595
 4544.00    1.18107   1.23276   -1.000
 4545.00    1.16548   1.22239   -1.000
 4546.00    1.16963   1.21042   55.316
 4547.00    1.11737   1.19761   26.501
 4548.00    0.47060   1.18467   -1.000
 4549.00   -0.06305   1.17632    0.000
 4550.00    0.05250   1.17750   -1.000
 4551.00    0.59990   1.18551   -1.000
 4552.00    0.61092   1.19110   -1.000
 4553.00    0.53702   1.18937   -1.000
 4554.00    1.18322   1.18560   54.782
 4555.00    1.13280   1.18998   -1.000
 4556.00    1.16453   1.20811   55.854
 4557.00    1.20051   1.23574   54.721
 4558.00    1.22199   1.26262   52.624
 4559.00    1.22919   1.28119   -1.000
 4560.00    1.23124   1.28939   -1.000
 4561.00    1.23520   1.28726   -1.000
 4562.00    1.22134   1.27524   -1.000
 4563.00    1.19242   1.25668   -1.000
 4564.00    1.17398   1.23997   -1.000
 4565.00    1.16910   1.23483   -1.000
 4566.00    1.19906   1.24475   53.658
 4567.00    1.21969   1.26289   52.853
 4568.00    1.23963   1.27640   51.463
 4569.00    1.22751   1.27626   50.246
 4570.00    1.19561   1.26386   -1.000
 4571.00    1.18285   1.24977   -1.000
 4572.00    1.19098   1.24582   -1.000
 4573.00    1.21519   1.25511   53.101
 4574.00    1.23361   1.26980   52.410
 4575.00    1.23085   1.27965   50.909
 4576.00    1.22013   1.27992   -1.000
 4577.00    1.21648   1.27040   -1.000
 4578.00    1.20528   1.25220   50.708
 4579.00    1.18613   1.22873   51.102
 4580.00    1.16061   1.20688   52.118
 4581.00    1.14595   1.19359   53.640
 4582.00    1.15669   1.19084   54.510
 4583.00    1.16649   1.19468   54.190
 4584.00    1.16828   1.19972   53.455
 4585.00    1.16445   1.20494   53.172
 4586.00    1.18030   1.21393   53.388
 4587.00    1.20355   1.22886   53.554
 4588.00    1.22109   1.24576   52.645
 4589.00    1.21918   1.25651   51.273
 4590.00    1.21284   1.25555   50.364
 4591.00    1.19588   1.24469   50.471
 4592.00    1.18062   1.23162   -1.000
 4593.00    1.18513   1.22373   52.245
 4594.00    1.18713   1.22303   53.018
 4595.00    1.19428   1.22703   52.942
 4596.00    1.20841   1.23276   52.472
 4597.00    1.20894   1.23804   52.106
 4598.00    1.20516   1.24049   51.985
 4599.00    1.19731   1.23849   51.876
 4600.00    1.19438   1.23340   51.850
 4601.00    1.18499   1.22891   52.339
 4602.00    1.18552   1.22779   52.758
 4603.00    1.19495   1.23006   52.776
 4604.00    1.20419   1.23478   52.175
 4605.00    1.21458   1.24224   51.693
 4606.00    1.22171   1.25369   51.787
 4607.00    1.23278   1.26927   51.615
 4608.00    1.24405   1.28611   50.955
 4609.00    1.26194   1.29830   49.911
 4610.00    1.26456   1.30065   48.913
 4611.00    1.25130   1.29403   48.483
 4612.00    1.23715   1.28488   48.809
 4613.00    1.22253   1.27913   -1.000
 4614.00    1.22700   1.27839   49.994
 4615.00    1.23532   1.28028   50.218
 4616.00    1.23683   1.28112   49.910
 4617.00    1.23427   1.27940   49.492
 4618.00    1.22477   1.27722   49.387
 4619.00    1.22782   1.27831   49.752
 4620.00    1.23751   1.28451   50.060
 4621.00    1.25043   1.29336   49.925
 4622.00    1.26597   1.29975   49.377
 4623.00    1.26249   1.30066   48.690
 4624.00    1.25389   1.29740   48.736
 4625.00    1.25011   1.29278   48.861
 4626.00    1.24135   1.28869   49.008
 4627.00    1.24521   1.28614   49.431
 4628.00    1.24435   1.28533   49.511
 4629.00    1.23022   1.28610   -1.000
 4630.00    1.23440   1.28827   -1.000
 4631.00    1.25487   1.29044   49.879
 4632.00    1.25240   1.28938   49.562
 4633.00    1.23217   1.28327   49.086
 4634.00    1.22753   1.27415   49.421
 4635.00    1.22836   1.26513   50.147
 4636.00    1.22280   1.25709   50.603
 4637.00    1.21121   1.24999   50.591
 4638.00    1.20601   1.24549   51.065
 4639.00    1.21055   1.24639   51.691
 4640.00    1.22857   1.25389   51.836
 4641.00    1.25501   1.26514   51.632
 4642.00    1.26610   1.27334   50.655
 4643.00    1.25341   1.27164   49.471
 4644.00    1.24609   1.25813   48.945
 4645.00    1.22883   1.23666   49.290
 4646.00    1.20122   1.21492   50.315
 4647.00    1.18723   1.20252   51.761
 4648.00    1.19573   1.20588   53.024
 4649.00    1.22168   1.22265   53.019
 4650.00    1.23574   1.24322   51.977
 4651.00    1.23149   1.25792   50.815
 4652.00    1.22773   1.26244   50.229
 4653.00    1.22895   1.25776   50.171
 4654.00    1.21576   1.24840   50.160
 4655.00    1.19005   1.24187   50.873
 4656.00    1.19898   1.24606   52.010
 4657.00    1.21739   1.26413   52.431
 4658.00    1.25635   1.29105   51.756
 4659.00    1.28760   1.31524   49.995
 4660.00    1.28866   1.32581   48.169
 4661.00    1.26690   1.31982   47.268
 4662.00    1.24414   1.30208   -1.000
 4663.00    1.23762   1.27888   48.058
 4664.00    1.23485   1.25287   49.244
 4665.00    1.21579   1.22366   50.087
 4666.00    1.17286   1.19330   50.248
 4667.00    1.13452   1.17032   51.287
 4668.00    1.12965   1.16519   53.571
 4669.00    1.16628   1.18076   55.514
 4670.00    1.21091   1.20863   55.213
 4671.00    1.23616   1.23582   53.343
 4672.00    1.23873   1.25428   51.180
 4673.00    1.23816   1.26463   49.978
 4674.00    1.24471   1.27217   49.781
 4675.00    1.25685   1.27941   49.825
 4676.00    1.26423   1.28246   49.690
 4677.00    1.25669   1.27566   48.996
 4678.00    1.24013   1.25914   48.376
 4679.00    1.22510   1.23979   48.776
 4680.00    1.21252   1.22565   49.873
 4681.00    1.20713   1.22089   50.833
 4682.00    1.21531   1.22531   51.621
 4683.00    1.22705   1.23570   51.957
 4684.00    1.25063   1.24704   51.162
 4685.00    1.25854   1.25494   49.910
 4686.00    1.24230   1.25799   49.392
 4687.00    1.24155   1.25744   49.588
 4688.00    1.25014   1.25517   49.629
 4689.00    1.25050   1.25247   49.895
 4690.00    1.23695   1.25005   49.881
 4691.00    1.22863   1.24917   49.930
 4692.00    1.24184   1.25190   50.281
 4693.00    1.26533   1.25881   50.284
 4694.00    1.27387   1.26707   49.629
 4695.00    1.28672   1.27212   48.837
 4696.00    1.27895   1.27001   47.782
 4697.00    1.26166   1.25914   47.299
 4698.00    1.23548   1.24189   47.712
 4699.00    1.22272   1.22350   49.166
 4700.00    1.22205   1.20786   50.550
 4701.00    1.21010   1.19600   50.968
 4702.00    1.19132   1.18897   50.594
 4703.00    1.18280   1.18930   51.081
 4704.00    1.20033   1.19694   51.944
 4705.00    1.22607   1.20578   52.028
 4706.00    1.22210   1.20829   50.996
 4707.00    1.19996   1.20379   50.424
 4708.00    1.18748   1.19950   51.247
 4709.00    1.18551   1.20288   52.235
 4710.00    1.21742   1.21465   52.619
 4711.00    1.24833   1.22914   52.153
 4712.00    1.25846   1.23914   50.556
 4713.00    1.24308   1.24152   49.277
 4714.00    1.23121   1.24057   48.945
 4715.00    1.23591   1.24425   49.519
 4716.00    1.24817   1.25631   50.382
 4717.00    1.26732   1.27322   50.215
 4718.00    1.27760   1.28827   49.166
 4719.00    1.28570   1.29724   48.294
 4720.00    1.28777   1.30004   48.045
 4721.00    1.27351   1.29937   47.882
 4722.00    1.27081   1.29857   47.779
 4723.00    1.27039   1.29917   48.214
 4724.00    1.27853   1.29876   48.484
 4725.00    1.28059   1.29193   48.138
 4726.00    1.25897   1.27494   47.665
 4727.00    1.23204   1.25049   47.887
 4728.00    1.22207   1.22751   49.184
 4729.00    1.20793   1.21455   51.023
 4730.00    1.20657   1.21359   51.978
 4731.00    1.22015   1.22103   51.675
 4732.00    1.22513   1.23195   51.141
 4733.00    1.23832   1.24189   50.725
 4734.00    1.25445   1.24776   50.117
 4735.00    1.25690   1.24943   49.709
 4736.00    1.24536   1.24968   49.435
 4737.00    1.24038   1.25182   49.241
 4738.00    1.25267   1.25707   49.773
 4739.00    1.25895   1.26336   49.734
 4740.00    1.25513   1.26774   49.116
 4741.00    1.25534   1.27017   49.204
 4742.00    1.26839   1.27298   49.484
 4743.00    1.27699   1.27703   49.489
 4744.00    1.27254   1.28124   49.051
 4745.00    1.26759   1.28501   48.569
 4746.00    1.27522   1.28931   48.699
 4747.00    1.28136   1.29518   48.698
 4748.00    1.27725   1.30209   48.297
 4749.00    1.27775   1.30825   47.838
 4750.00    1.27840   1.31133   47.777
 4751.00    1.27267   1.30864   47.856
 4752.00    1.27008   1.29918   47.914
 4753.00    1.25958   1.28567   48.301
 4754.00    1.24259   1.27360   48.849
 4755.00    1.24184   1.26760   49.242
 4756.00    1.24295   1.26878   49.536
 4757.00    1.24718   1.27513   49.450
 4758.00    1.25646   1.28331   49.677
 4759.00    1.25598   1.28905   50.027
 4760.00    1.25530   1.28739   50.020
 4761.00    1.24005   1.27534   49.606
 4762.00    1.21748   1.25504   49.614
 4763.00    1.20356   1.23353   50.483
 4764.00    1.20289   1.21790   51.723
 4765.00    1.20900   1.21138   52.299
 4766.00    1.21779   1.21485   52.327
 4767.00    1.22914   1.22852   52.186
 4768.00    1.25430   1.24939   51.772
 4769.00    1.26857   1.26955   50.994
 4770.00    1.26589   1.28124   49.848
 4771.00    1.25642   1.28392   49.250
 4772.00    1.25057   1.28426   49.405
 4773.00    1.25478   1.28929   49.845
 4774.00    1.27992   1.29992   50.199
 4775.00    1.28903   1.31117   49.516
 4776.00    1.29737   1.31797   48.490
 4777.00    1.29308   1.31903   48.231
 4778.00    1.27893   1.31561   48.298
 4779.00    1.27156   1.30955   48.460
 4780.00    1.25804   1.30220   48.806
 4781.00    1.25861   1.29384   49.348
 4782.00    1.25510   1.28444   49.610
 4783.00    1.25031   1.27507   49.735
 4784.00    1.24898   1.26730   49.998
 4785.00    1.23848   1.26148   50.378
 4786.00    1.23308   1.25736   50.347
 4787.00    1.23297   1.25546   50.555
 4788.00    1.23342   1.25668   51.063
 4789.00    1.23496   1.26149   51.317
 4790.00    1.24549   1.27051   51.230
 4791.00    1.25700   1.28445   50.962
 4792.00    1.26534   1.30293   50.627
 4793.00    1.28223   1.32331   50.062
 4794.00    1.29608   1.34084   49.201
 4795.00    1.30551   1.35010   48.105
 4796.00    1.29853   1.34780   47.344
 4797.00    1.27783   1.33540   47.255
 4798.00    1.25924   1.31901   -1.000
 4799.00    1.24528   1.30647   -1.000
 4800.00    1.25001   1.30372   49.678
 4801.00    1.27796   1.31105   50.173
 4802.00    1.28581   1.32213   49.633
 4803.00    1.28995   1.32847   48.618
 4804.00    1.26257   1.32598   -1.000
 4805.00    1.25258   1.31707   -1.000
 4806.00    1.25262   1.30717   48.823
 4807.00    1.25689   1.30039   49.433
 4808.00    1.25910   1.29879   49.839
 4809.00    1.26401   1.30263   49.793
 4810.00    1.26486   1.30958   49.655
 4811.00    1.27511   1.31621   49.410
 4812.00    1.27736   1.32115   48.955
 4813.00    1.26829   1.32549   48.618
 4814.00    1.27611   1.33091   48.388
 4815.00    1.28334   1.33813   48.347
 4816.00    1.29493   1.34623   48.220
 4817.00    1.30417   1.35313   48.035
 4818.00    1.30682   1.35725   47.725
 4819.00    1.29904   1.35783   47.436
 4820.00    1.29773   1.35323   47.261
 4821.00    1.28452   1.34077   47.255
 4822.00    1.26100   1.32073   -1.000
 4823.00    1.23934   1.29970   -1.000
 4824.00    1.23846   1.28763   49.070
 4825.00    1.26284   1.28936   49.919
 4826.00    1.27935   1.29953   49.718
 4827.00    1.28440   1.30810   48.803
 4828.00    1.27924   1.30968   48.114
 4829.00    1.27152   1.30564   48.390
 4830.00    1.26744   1.29903   48.967
 4831.00    1.25988   1.29164   49.236
 4832.00    1.25453   1.28623   49.234
 4833.00    1.26467   1.28631   49.696
 4834.00    1.26916   1.29233   49.705
 4835.00    1.26368   1.30031   48.870
 4836.00    1.27248   1.30484   48.257
 4837.00    1.27938   1.30262   48.118
 4838.00    1.26288   1.29371   48.220
 4839.00    1.24139   1.28119   48.483
 4840.00    1.23847   1.26988   49.183
 4841.00    1.23917   1.26368   50.029
 4842.00    1.23646   1.26349   50.004
 4843.00    1.24259   1.26798   49.884
 4844.00    1.25388   1.27578   49.619
 4845.00    1.26541   1.28489   49.235
 4846.00    1.26589   1.29066   48.720
 4847.00    1.25854   1.28922   47.967
 4848.00    1.24193   1.28300   47.812
 4849.00    1.24283   1.27837   48.837
 4850.00    1.25447   1.27802   49.513
 4851.00    1.26186   1.27779   49.433
 4852.00    1.25742   1.27081   48.733
 4853.00    1.23800   1.25312   48.670
 4854.00    1.20441   1.22658   48.975
 4855.00    1.17688   1.19827   49.451
 4856.00    1.16733   1.17436   50.987
 4857.00    1.16564   1.15147   52.352
 4858.00    1.13341   1.11603   52.134
 4859.00    1.05698   1.05879   51.676
 4860.00    0.94451   0.99173   53.333
 4861.00    0.87460   0.94494   -1.000
 4862.00    0.93053   0.94340   64.988
 4863.00    1.02484   0.98618   67.550
 4864.00    1.10457   1.05011   -1.000
 4865.00    1.15153   1.11121   57.407
 4866.00    1.18279   1.15799   54.162
 4867.00    1.18788   1.18855   52.338
 4868.00    1.20425   1.20304   51.292
 4869.00    1.20403   1.20093   50.864
 4870.00    1.17437   1.18478   50.686
 4871.00    1.13970   1.16516   51.200
 4872.00    1.14165   1.15767   52.692
 4873.00    1.17599   1.17037   53.900
 4874.00    1.20425   1.19613   53.311
 4875.00    1.21060   1.22068   51.763
 4876.00    1.21204   1.23642   50.914
 4877.00    1.21629   1.24680   50.546
 4878.00    1.22917   1.25842   50.280
 4879.00    1.24426   1.27190   50.094
 4880.00    1.24639   1.28175   49.343
 4881.00    1.23184   1.28322   48.864
 4882.00    1.22591   1.27739   49.358
 4883.00    1.22023   1.26801   50.175
 4884.00    1.21469   1.25645   50.432
 4885.00    1.20932   1.24342   50.256
 4886.00    1.19798   1.23192   50.566
 4887.00    1.19724   1.22402   51.357
 4888.00    1.20064   1.21691   51.588
 4889.00    1.19367   1.20609   51.294
 4890.00    1.17312   1.19391   51.262
 4891.00    1.16666   1.19219   52.073
 4892.00    1.20113   1.21286   53.200
 4893.00    1.25218   1.25530   52.720
 4894.00    1.29506   1.30428   50.517
 4895.00    1.31389   1.34232   48.176
 4896.00    1.31242   1.36173   46.806
 4897.00    1.30531   1.36462   45.968
 4898.00    1.29979   1.35668   45.783
 4899.00    1.27871   1.34370   -1.000
 4900.00    1.26577   1.33064   -1.000
 4901.00    1.26869   1.31997   48.065
 4902.00    1.26389   1.31149   48.548
 4903.00    1.25221   1.30602   48.288
 4904.00    1.25853   1.30748   48.385
 4905.00    1.28158   1.31730   48.976
 4906.00    1.29426   1.32850   48.381
 4907.00    1.29329   1.33015   47.338
 4908.00    1.26993   1.31721   47.018
 4909.00    1.23944   1.29464   47.505
 4910.00    1.21298   1.27407   -1.000
 4911.00    1.22104   1.26627   50.097
 4912.00    1.24397   1.27439   50.668
 4913.00    1.26392   1.29290   49.943
 4914.00    1.28044   1.31216   49.032
 4915.00    1.29293   1.32227   48.370
 4916.00    1.28686   1.31415   47.746
 4917.00    1.26225   1.28298   47.346
 4918.00    1.19808   1.23414   47.628
 4919.00    1.13995   1.18432   49.380
 4920.00    1.13008   1.15337   52.131
 4921.00    1.16479   1.15120   54.569
 4922.00    1.20290   1.17167   55.074
 4923.00    1.21828   1.19976   53.189
 4924.00    1.21566   1.22514   51.270
 4925.00    1.24048   1.24789   50.564
 4926.00    1.27058   1.27220   50.529
 4927.00    1.28087   1.29853   49.850
 4928.00    1.28611   1.32275   48.524
 4929.00    1.29703   1.33962   47.680
 4930.00    1.30055   1.34492   47.249
 4931.00    1.29738   1.33616   46.930
 4932.00    1.26853   1.31496   46.660
 4933.00    1.23138   1.28948   47.163
 4934.00    1.22210   1.27042   48.490
 4935.00    1.23826   1.26143   50.255
 4936.00    1.25346   1.25528   50.303
 4937.00    1.22792   1.24326   49.373
 4938.00    1.19577   1.22861   49.393
 4939.00    1.19891   1.22506   50.910
 4940.00    1.22911   1.24181   52.290
 4941.00    1.26814   1.27371   51.752
 4942.00    1.28620   1.30627   49.938
 4943.00    1.30206   1.32763   48.346
 4944.00    1.29958   1.33511   47.482
 4945.00    1.28925   1.33361   47.068
 4946.00    1.28306   1.33102   47.122
 4947.00    1.29610   1.33367   47.468
 4948.00    1.30895   1.34237   47.557
 4949.00    1.30553   1.35229   47.107
 4950.00    1.30668   1.35778   46.546
 4951.00    1.31458   1.35679   46.421
 4952.00    1.30142   1.35047   46.226
 4953.00    1.29920   1.33955   46.484
 4954.00    1.29143   1.32108   46.808
 4955.00    1.28301   1.28995   47.360
 4956.00    1.22079   1.24773   47.957
 4957.00    1.17380   1.21028   49.275
 4958.00    1.19080   1.19908   51.874
 4959.00    1.24538   1.22144   53.933
 4960.00    1.29515   1.26256   52.729
 4961.00    1.31126   1.29919   49.641
 4962.00    1.31007   1.31834   47.974
 4963.00    1.31367   1.32000   47.648
 4964.00    1.28874   1.30938   47.891
 4965.00    1.26670   1.29266   48.281
 4966.00    1.25406   1.27632   48.861
 4967.00    1.25596   1.26521   49.918
 4968.00    1.26003   1.26130   50.551
 4969.00    1.26323   1.26459   50.542
 4970.00    1.26701   1.27407   50.388
 4971.00    1.27429   1.28762   50.008
 4972.00    1.28381   1.30226   49.467
 4973.00    1.29774   1.31484   48.936
 4974.00    1.30137   1.32259   48.348
 4975.00    1.29997   1.32368   47.896
 4976.00    1.29781   1.31763   47.709
 4977.00    1.28419   1.30552   48.059
 4978.00    1.26839   1.28933   48.572
 4979.00    1.25087   1.26989   49.238
 4980.00    1.23699   1.24530   50.047
 4981.00    1.20802   1.21366   50.658
 4982.00    1.16776   1.17953   51.378
 4983.00    1.15171   1.15540   53.108
 4984.00    1.16141   1.15331   54.834
 4985.00    1.19369   1.17478   54.787
 4986.00    1.23640   1.20957   53.728
 4987.00    1.26922   1.24294   52.203
 4988.00    1.26730   1.26359   50.538
 4989.00    1.26062   1.26842   49.294
 4990.00    1.24378   1.26295   49.369
 4991.00    1.24207   1.25646   50.118
 4992.00    1.25740   1.25506   50.629
 4993.00    1.25802   1.25895   50.639
 4994.00    1.25873   1.26537   50.175
 4995.00    1.26772   1.27185   49.968
 4996.00    1.27166   1.27583   49.950
 4997.00    1.26577   1.27351   49.686
 4998.00    1.25002   1.26163   49.439
 4999.00    1.23065   1.24144   49.751
 5000.00    1.21675   1.21975   50.428
 5001.00    1.21418   1.20461   51.458
 5002.00    1.22945   1.19897   52.096
 5003.00    1.23908   1.19774   52.120
 5004.00    1.23161   1.19258   51.614
 5005.00    1.19456   1.18124   51.276
 5006.00    1.17658   1.17196   52.033
 5007.00    1.20254   1.17593   53.379
 5008.00    1.24700   1.19432   53.660
 5009.00    1.26451   1.21522   52.316
 5010.00    1.25606   1.22333   50.711
 5011.00    1.21978   1.21186   50.187
 5012.00    1.18693   1.18663   50.865
 5013.00    1.16212   1.16114   52.412
 5014.00    1.16134   1.14697   54.393
 5015.00    1.18505   1.14658   55.651
 5016.00    1.20347   1.15423   55.361
 5017.00    1.20386   1.16332   54.118
 5018.00    1.20110   1.17208   52.985
 5019.00    1.21947   1.18167   52.773
 5020.00    1.23595   1.19113   52.789
 5021.00    1.22997   1.19781   52.179
 5022.00    1.22330   1.20212   51.754
 5023.00    1.23465   1.20824   51.992
 5024.00    1.24535   1.21830   52.106
 5025.00    1.24677   1.22792   51.803
 5026.00    1.23742   1.23141   51.250
 5027.00    1.22857   1.22991   50.908
 5028.00    1.23391   1.23036   51.158
 5029.00    1.25164   1.23828   51.405
 5030.00    1.27087   1.25367   50.927
 5031.00    1.28333   1.27212   49.960
 5032.00    1.30566   1.28707   49.250
 5033.00    1.30502   1.29136   48.447
 5034.00    1.27555   1.28052   47.890
 5035.00    1.23804   1.25770   47.975
 5036.00    1.21537   1.23235   49.531
 5037.00    1.21367   1.21095   51.511
 5038.00    1.21059   1.19014   52.358
 5039.00    1.17830   1.16349   52.537
 5040.00    1.13624   1.13546   53.190
 5041.00    1.12712   1.12276   55.300
 5042.00    1.16717   1.13907   57.560
 5043.00    1.22865   1.18142   57.575
 5044.00    1.26727   1.23239   54.770
 5045.00    1.29749   1.27299   51.370
 5046.00    1.29874   1.29228   49.280
 5047.00    1.27817   1.28857   48.250
 5048.00    1.26908   1.26752   46.391
 5049.00    1.20311   1.24012   47.846
 5050.00    0.62214   1.21872   -1.000
 5051.00    0.10375   1.21183   -1.000
 5052.00    0.02232   1.22104   -1.000
 5053.00    0.98430   1.24128   -1.000
 5054.00    1.33688   1.26389   -1.000
 5055.00    1.30945   1.28189   49.266
 5056.00    1.31016   1.29379   48.370
 5057.00    1.31106   1.30204   47.911
 5058.00    1.31249   1.30913   47.757
 5059.00    1.30548   1.31569   47.846
 5060.00    1.30635   1.32046   47.935
 5061.00    1.30715   1.32038   47.916
 5062.00    1.30050   1.31104   47.588
 5063.00    1.27496   1.29011   47.615
 5064.00    1.23951   1.26260   48.259
 5065.00    1.23044   1.23942   49.672
 5066.00    1.25014   1.22844   51.449
 5067.00    1.25704   1.22886   52.044
 5068.00    1.25310   1.23459   51.410
 5069.00    1.26181   1.24058   50.628
 5070.00    1.26915   1.24417   50.467
 5071.00    1.26399   1.24370   50.228
 5072.00    1.25926   1.24005   49.896
 5073.00    1.25779   1.23742   50.300
 5074.00    1.26703   1.23904   50.700
 5075.00    1.27956   1.24286   50.075
 5076.00    1.27814   1.24276   49.683
 5077.00    1.27248   1.23267   49.616
 5078.00    1.23097   1.21104   49.577
 5079.00    1.18348   1.18450   50.059
 5080.00    1.16929   1.16513   51.809
 5081.00    1.18716   1.16096   54.286
 5082.00    1.21428   1.17054   54.923
 5083.00    1.23073   1.18750   53.769
 5084.00    1.25234   1.20717   52.618
 5085.00    1.27171   1.22721   51.909
 5086.00    1.28519   1.24500   50.929
 5087.00    1.28253   1.25787   50.055
 5088.00    1.27919   1.26583   49.695
 5089.00    1.28844   1.27137   49.626
 5090.00    1.29352   1.27721   49.377
 5091.00    1.30053   1.28476   49.020
 5092.00    1.30887   1.29333   48.749
 5093.00    1.30575   1.29915   48.496
 5094.00    1.31318   1.29640   47.937
 5095.00    1.29935   1.28111   47.505
 5096.00    1.26698   1.25509   47.934
 5097.00    1.25099   1.22604   48.936
 5098.00    1.22020   1.20394   49.994
 5099.00    1.21142   1.19676   51.207
 5100.00    1.24437   1.20635   52.283
 5101.00    1.27583   1.22617   52.457
 5102.00    1.29765   1.24457   51.178
 5103.00    1.29423   1.25290   49.693
 5104.00    1.27479   1.24991   49.247
 5105.00    1.25817   1.23895   49.532
 5106.00    1.24657   1.22416   50.185
 5107.00    1.22666   1.20975   50.821
 5108.00    1.23003   1.20028   51.443
 5109.00    1.23531   1.19935   52.089
 5110.00    1.24104   1.20780   52.018
 5111.00    1.25650   1.22326   51.686
 5112.00    1.27349   1.24120   51.315
 5113.00    1.28557   1.25768   50.579
 5114.00    1.29091   1.27146   49.958
 5115.00    1.29175   1.28319   49.349
 5116.00    1.30120   1.29306   48.902
 5117.00    1.32249   1.29960   48.639
 5118.00    1.32377   1.30033   48.127
 5119.00    1.31305   1.29330   47.723
 5120.00    1.29139   1.27856   47.857
 5121.00    1.27174   1.25822   48.480
 5122.00    1.24589   1.23524   49.210
 5123.00    1.22036   1.21300   50.023
 5124.00    1.20959   1.19562   51.307
 5125.00    1.21559   1.18633   52.855
 5126.00    1.22316   1.18475   53.243
 5127.00    1.22572   1.18714   52.780
 5128.00    1.22969   1.19028   52.517
 5129.00    1.23818   1.19425   52.204
 5130.00    1.23866   1.20101   52.274
 5131.00    1.24633   1.21119   52.229
 5132.00    1.25119   1.22302   51.558
 5133.00    1.25807   1.23391   50.678
 5134.00    1.27413   1.24168   50.259
 5135.00    1.27921   1.24383   49.782
 5136.00    1.25841   1.23779   49.342
 5137.00    1.24105   1.22394   49.210
 5138.00    1.21684   1.20735   50.080
 5139.00    1.20635   1.19455   51.298
 5140.00    1.22003   1.18855   52.127
 5141.00    1.22281   1.18781   52.212
 5142.00    1.21257   1.18974   51.751
 5143.00    1.21204   1.19341   52.119
 5144.00    1.23126   1.19783   52.964
 5145.00    1.24112   1.20004   52.680
 5146.00    1.23212   1.19808   51.799
 5147.00    1.23289   1.19467   51.604
 5148.00    1.24087   1.19433   52.077
 5149.00    1.24325   1.19676   52.214
 5150.00    1.23363   1.19713   51.587
 5151.00    1.22434   1.19284   51.288
 5152.00    1.22049   1.18672   51.905
 5153.00    1.22463   1.18420   52.852
 5154.00    1.23543   1.18982   53.214
 5155.00    1.25147   1.20499   52.957
 5156.00    1.27852   1.22674   51.959
 5157.00    1.29447   1.24889   50.643
 5158.00    1.29973   1.26575   49.354
 5159.00    1.30460   1.27456   48.423
 5160.00    1.30083   1.27498   48.053
 5161.00    1.29389   1.26720   48.038
 5162.00    1.27922   1.25099   48.196
 5163.00    1.26726   1.22486   48.471
 5164.00    1.24119   1.18497   49.012
 5165.00    1.16669   1.12843   49.769
 5166.00    1.07706   1.06227   51.641
 5167.00    1.01771   1.00663   55.856
 5168.00    1.01414   0.98099   61.682
 5169.00    1.08338   0.98390   -1.000
 5170.00    1.10361   0.99201   -1.000
 5171.00    1.04361   0.98615   -1.000
 5172.00    0.98362   0.97431   60.149
 5173.00    1.01416   0.98279   63.898
 5174.00    1.12085   1.02654   -1.000
 5175.00    1.21595   1.09283   -1.000
 5176.00    1.25896   1.15516   -1.000
 5177.00    1.28318   1.19581   -1.000
 5178.00    1.29137   1.21160   -1.000
 5179.00    1.27886   1.20400   -1.000
 5180.00    1.25092   1.17145   -1.000
 5181.00    1.18213   1.11418   -1.000
 5182.00    1.05695   1.04496   53.178
 5183.00    0.97834   0.99142   56.971
 5184.00    1.00403   0.98098   63.540
 5185.00    1.10260   1.01922   -1.000
 5186.00    1.20510   1.08460   -1.000
 5187.00    1.24363   1.14615   -1.000
 5188.00    1.25062   1.18540   -1.000
 5189.00    1.25596   1.20097   -1.000
 5190.00    1.25285   1.19839   51.078
 5191.00    1.21910   1.18406   50.862
 5192.00    1.19112   1.16712   51.386
 5193.00    1.20273   1.15751   52.990
 5194.00    1.22212   1.15956   -1.000
 5195.00    1.23046   1.17068   -1.000
 5196.00    1.23930   1.18682   53.196
 5197.00    1.25798   1.20613   52.404
 5198.00    1.26823   1.22683   51.640
 5199.00    1.27918   1.24461   50.608
 5200.00    1.29528   1.25412   49.743
 5201.00    1.28723   1.25146   49.320
 5202.00    1.26789   1.23516   49.261
 5203.00    1.24547   1.20676   49.645
 5204.00    1.21467   1.17144   50.531
 5205.00    1.19844   1.13734   -1.000
 5206.00    1.19699   1.11218   -1.000
 5207.00    1.19528   1.09965   -1.000
 5208.00    1.20199   1.10019   -1.000
 5209.00    1.20980   1.11444   -1.000
 5210.00    1.23086   1.14302   -1.000
 5211.00    1.27975   1.18222   -1.000
 5212.00    1.30802   1.22156   -1.000
 5213.00    1.31432   1.24796   -1.000
 5214.00    1.30290   1.25430   49.140
 5215.00    1.27090   1.24527   48.088
 5216.00    1.25760   1.23465   48.565
 5217.00    1.26414   1.23532   49.699
 5218.00    1.28774   1.25046   50.331
 5219.00    1.30761   1.27329   49.952
 5220.00    1.32130   1.29339   48.891
 5221.00    1.32717   1.30271   48.135
 5222.00    1.32478   1.29688   47.753
 5223.00    1.29998   1.27408   47.555
 5224.00    1.26063   1.23565   48.138
 5225.00    1.20608   1.18957   49.580
 5226.00    1.16052   1.15194   51.613
 5227.00    1.16991   1.13979   54.025
 5228.00    1.21891   1.15834   -1.000
 5229.00    1.27038   1.19478   -1.000
 5230.00    1.30209   1.22735   -1.000
 5231.00    1.30675   1.24148   -1.000
 5232.00    1.27938   1.23781   48.454
 5233.00    1.25494   1.22833   48.349
 5234.00    1.25849   1.22693   49.287
 5235.00    1.28365   1.24032   50.177
 5236.00    1.30542   1.26461   50.111
 5237.00    1.31683   1.28974   49.001
 5238.00    1.32206   1.30731   47.827
 5239.00    1.32714   1.31486   47.263
 5240.00    1.33367   1.31495   47.200
 5241.00    1.33586   1.31203   47.344
 5242.00    1.32617   1.31008   47.271
 5243.00    1.32732   1.31064   46.999
 5244.00    1.33983   1.31089   47.054
 5245.00    1.33179   1.30501   46.967
 5246.00    1.30465   1.29014   46.890
 5247.00    1.27667   1.27019   47.785
 5248.00    1.26588   1.25257   49.267
 5249.00    1.26615   1.24195   50.436
 5250.00    1.26381   1.23851   50.613
 5251.00    1.26554   1.24048   50.704
 5252.00    1.27548   1.24565   51.020
 5253.00    1.28632   1.25144   50.806
 5254.00    1.28376   1.25726   50.119
 5255.00    1.29458   1.26635   49.611
 5256.00    1.31241   1.28194   49.596
 5257.00    1.33844   1.30136   49.259
 5258.00    1.35324   1.31558   48.144
 5259.00    1.33309   1.31475   46.846
 5260.00    1.31185   1.29399   46.389
 5261.00    1.26537   1.25552   46.784
 5262.00    1.21970   1.20713   48.030
 5263.00    1.18060   1.15943   50.035
 5264.00    1.16008   1.12265   52.412
 5265.00    1.15856   1.10293   -1.000
 5266.00    1.17925   1.09842   -1.000
 5267.00    1.19727   1.09911   -1.000
 5268.00    1.18153   1.09467   -1.000
 5269.00    1.13617   1.08602   53.730
 5270.00    1.14809   1.08646   -1.000
 5271.00    1.19781   1.10713   -1.000
 5272.00    1.24143   1.14290   -1.000
 5273.00    1.26403   1.17783   -1.000
 5274.00    1.26038   1.20260   -1.000
 5275.00    1.25859   1.22123   50.001
 5276.00    1.28270   1.24252   50.005
 5277.00    1.31677   1.26832   49.899
 5278.00    1.34378   1.29062   48.986
 5279.00    1.33692   1.29861   47.343
 5280.00    1.30472   1.28853   46.416
 5281.00    1.29002   1.26682   46.634
 5282.00    1.27068   1.24549   47.716
 5283.00    1.25750   1.23618   48.960
 5284.00    1.27913   1.24561   49.879
 5285.00    1.31541   1.27186   50.163
 5286.00    1.35066   1.30445   49.218
 5287.00    1.36216   1.33126   47.734
 5288.00    1.36045   1.34682   46.230
 5289.00    1.36364   1.35352   45.813
 5290.00    1.36058   1.35570   46.027
 5291.00    1.35667   1.35515   46.039
 5292.00    1.35032   1.35167   45.783
 5293.00    1.35389   1.34420   45.674
 5294.00    1.34238   1.33013   45.920
 5295.00    1.31481   1.30654   46.348
 5296.00    1.28185   1.27498   46.954
 5297.00    1.24954   1.24476   48.188
 5298.00    1.24430   1.22803   50.014
 5299.00    1.27174   1.22985   51.399
 5300.00    1.29964   1.24476   -1.000
 5301.00    1.30339   1.26399   49.936
 5302.00    1.30368   1.28365   48.980
 5303.00    1.32944   1.30413   48.630
 5304.00    1.35038   1.32373   48.054
 5305.00    1.36040   1.33737   46.800
 5306.00    1.34967   1.34235   45.909
 5307.00    1.33971   1.34226   45.744
 5308.00    1.34463   1.34365   46.158
 5309.00    1.35029   1.34954   46.566
 5310.00    1.36926   1.35715   46.309
 5311.00    1.36887   1.36134   45.830
 5312.00    1.36254   1.35912   45.524
 5313.00    1.35690   1.35073   45.547
 5314.00    1.34627   1.33817   45.791
 5315.00    1.33365   1.32430   45.995
 5316.00    1.32138   1.31318   46.319
 5317.00    1.31267   1.30899   46.771
 5318.00    1.33356   1.31254   47.191
 5319.00    1.34515   1.31919   47.234
 5320.00    1.33298   1.32173   46.906
 5321.00    1.32724   1.31537   46.694
 5322.00    1.32076   1.30001   46.840
 5323.00    1.30292   1.27918   47.161
 5324.00    1.29100   1.25665   47.702
 5325.00    1.28316   1.23241   48.521
 5326.00    1.25751   1.20319   49.002
 5327.00    1.19917   1.17060   49.015
 5328.00    1.16569   1.14753   50.257
 5329.00    1.20269   1.14983   -1.000
 5330.00    1.26623   1.17996   -1.000
 5331.00    1.30656   1.22288   -1.000
 5332.00    1.31338   1.26041   -1.000
 5333.00    1.32106   1.28570   48.501
 5334.00    1.33179   1.30191   47.920
 5335.00    1.33753   1.31203   47.464
 5336.00    1.33730   1.31486   46.919
 5337.00    1.33176   1.30820   46.690
 5338.00    1.31464   1.29210   46.954
 5339.00    1.28695   1.27063   47.261
 5340.00    1.26224   1.25234   47.763
 5341.00    1.26855   1.24668   48.921
 5342.00    1.30073   1.25632   49.816
 5343.00    1.32348   1.27348   49.503
 5344.00    1.33018   1.28627   48.225
 5345.00    1.32439   1.28838   47.320
 5346.00    1.31620   1.28196   47.252
 5347.00    1.31205   1.27319   47.543
 5348.00    1.30155   1.26774   47.851
 5349.00    1.30437   1.26943   48.091
 5350.00    1.31311   1.27967   48.510
 5351.00    1.33564   1.29643   48.654
 5352.00    1.34733   1.31492   47.968
 5353.00    1.34496   1.33124   46.875
 5354.00    1.35272   1.34497   46.248
 5355.00    1.37247   1.35712   46.069
 5356.00    1.37015   1.36709   45.726
 5357.00    1.37158   1.37296   45.157
 5358.00    1.38035   1.37361   44.797
 5359.00    1.37879   1.36899   44.808
 5360.00    1.36523   1.35922   44.877
 5361.00    1.34886   1.34482   45.033
 5362.00    1.33648   1.32756   45.532
 5363.00    1.31735   1.31029   46.281
 5364.00    1.30596   1.29582   46.971
 5365.00    1.30268   1.28593   47.330
 5366.00    1.30129   1.28000   47.607
 5367.00    1.30573   1.27389   47.893
 5368.00    1.29578   1.26176   47.782
 5369.00    1.27125   1.24140   47.764
 5370.00    1.24737   1.21892   48.210
 5371.00    1.24479   1.20702   49.356
 5372.00    1.27815   1.21616   -1.000
 5373.00    1.32224   1.24564   -1.000
 5374.00    1.35352   1.28329   -1.000
 5375.00    1.37146   1.31443   -1.000
 5376.00    1.37433   1.33179   45.908
 5377.00    1.36426   1.33706   45.507
 5378.00    1.35797   1.33550   45.607
 5379.00    1.34837   1.33051   45.639
 5380.00    1.34049   1.32309   45.721
 5381.00    1.33024   1.31413   45.972
 5382.00    1.31831   1.30613   46.413
 5383.00    1.31808   1.30271   46.872
 5384.00    1.33607   1.30623   47.122
 5385.00    1.35280   1.31514   47.112
 5386.00    1.35657   1.32400   46.904
 5387.00    1.35291   1.32677   46.423
 5388.00    1.33493   1.32088   46.292
 5389.00    1.32095   1.30827   46.478
 5390.00    1.32092   1.29328   46.910
 5391.00    1.31048   1.27991   47.608
 5392.00    1.30498   1.27004   48.162
 5393.00    1.29898   1.26291   48.405
 5394.00    1.29942   1.25555   48.443
 5395.00    1.28620   1.24497   48.579
 5396.00    1.26307   1.23233   48.922
 5397.00    1.25463   1.22419   49.545
 5398.00    1.28056   1.22760   50.522
 5399.00    1.30648   1.24274   -1.000
 5400.00    1.31837   1.26141   -1.000
 5401.00    1.31957   1.27266   47.841
 5402.00    1.30983   1.26892   47.454
 5403.00    1.28232   1.24934   47.518
 5404.00    1.24814   1.22124   47.871
 5405.00    1.23640   1.19774   49.229
 5406.00    1.24663   1.18949   -1.000
 5407.00    1.27702   1.19640   -1.000
 5408.00    1.29423   1.20918   -1.000
 5409.00    1.27640   1.21996   -1.000
 5410.00    1.27321   1.22970   49.702
 5411.00    1.30338   1.24373   -1.000
 5412.00    1.33086   1.26259   -1.000
 5413.00    1.33896   1.28079   -1.000
 5414.00    1.32575   1.29387   47.508
 5415.00    1.32152   1.30314   46.956
 5416.00    1.33593   1.31182   46.940
 5417.00    1.33762   1.31977   46.967
 5418.00    1.33628   1.32398   46.650
 5419.00    1.33040   1.32290   46.345
 5420.00    1.32935   1.31803   46.489
 5421.00    1.33194   1.31141   46.930
 5422.00    1.32972   1.30374   47.232
 5423.00    1.31520   1.29624   47.086
 5424.00    1.29984   1.29272   46.893
 5425.00    1.31755   1.29650   47.466
 5426.00    1.34150   1.30403   47.933
 5427.00    1.33692   1.30501   47.514
 5428.00    1.30623   1.29250   46.727
 5429.00    1.26883   1.27160   46.778
 5430.00    1.27314   1.25485   47.966
 5431.00    1.29800   1.24896   49.500
 5432.00    1.30035   1.24904   49.745
 5433.00    1.28231   1.24716   48.932
 5434.00    1.27413   1.24312   48.812
 5435.00    1.28001   1.24477   49.448
 5436.00    1.29937   1.25908   50.041
 5437.00    1.32361   1.28493   49.933
 5438.00    1.35118   1.31423   49.013
 5439.00    1.36513   1.33840   47.689
 5440.00    1.36652   1.35361   46.656
 5441.00    1.36630   1.36010   45.973
 5442.00    1.36121   1.35784   45.568
 5443.00    1.34764   1.34457   45.461
 5444.00    1.31562   1.31878   45.454
 5445.00    1.28164   1.28509   45.884
 5446.00    1.25748   1.25537   47.037
 5447.00    1.26765   1.24265   48.918
 5448.00    1.31196   1.25176   -1.000
 5449.00    1.34669   1.27528   -1.000
 5450.00    1.35393   1.29922   -1.000
 5451.00    1.35831   1.31207   47.513
 5452.00    1.35715   1.30921   46.969
 5453.00    1.33170   1.29220   46.937
 5454.00    1.29300   1.26830   47.301
 5455.00    1.26774   1.24974   48.332
 5456.00    1.28211   1.24806   49.707
 5457.00    1.32893   1.26520   -1.000
 5458.00    1.35960   1.29061   -1.000
 5459.00    1.36353   1.30918   -1.000
 5460.00    1.35705   1.31199   47.254
 5461.00    1.33366   1.30091   46.878
 5462.00    1.31210   1.28513   47.350
 5463.00    1.31040   1.27477   48.217
 5464.00    1.32100   1.27508   48.902
 5465.00    1.32454   1.28449   49.212
 5466.00    1.33714   1.29735   48.692
 5467.00    1.34830   1.30838   48.110
 5468.00    1.34937   1.31493   47.847
 5469.00    1.34370   1.31634   47.351
 5470.00    1.34826   1.31307   47.112
 5471.00    1.34264   1.30631   47.487
 5472.00    1.32823   1.29688   47.986
 5473.00    1.31997   1.28415   48.195
 5474.00    1.30529   1.26709   48.429
 5475.00    1.28087   1.24758   48.898
 5476.00    1.25468   1.23215   49.575
 5477.00    1.26662   1.22843   50.598
 5478.00    1.29489   1.23804   -1.000
 5479.00    1.31487   1.25366   -1.000
 5480.00    1.31472   1.26548   49.645
 5481.00    1.30361   1.27089   48.622
 5482.00    1.30515   1.27565   48.848
 5483.00    1.32291   1.28559   49.446
 5484.00    1.34533   1.29926   49.438
 5485.00    1.35049   1.30942   48.652
 5486.00    1.34031   1.31068   47.661
 5487.00    1.32365   1.30458   47.179
 5488.00    1.31677   1.29785   47.541
 5489.00    1.32081   1.29618   48.211
 5490.00    1.32304   1.29987   48.545
 5491.00    1.32953   1.30526   48.581
 5492.00    1.32913   1.30890   48.276
 5493.00    1.33166   1.30990   47.921
 5494.00    1.33799   1.30864   47.723
 5495.00    1.33974   1.30537   47.798
 5496.00    1.33184   1.30073   47.830
 5497.00    1.32100   1.29667   47.825
 5498.00    1.32362   1.29494   48.131
 5499.00    1.33482   1.29424   48.478
 5500.00    1.33477   1.29096   48.290
 5501.00    1.32213   1.28399   47.768
 5502.00    1.31607   1.27668   48.031
 5503.00    1.32651   1.27248   48.774
 5504.00    1.33307   1.27046   -1.000
 5505.00    1.31964   1.26744   48.595
 5506.00    1.30418   1.26371   48.450
 5507.00    1.30680   1.26339   49.018
 5508.00    1.32707   1.26851   -1.000
 5509.00    1.33117   1.27519   -1.000
 5510.00    1.32111   1.27666   48.434
 5511.00    1.30806   1.26975   48.149
 5512.00    1.28942   1.25808   48.410
 5513.00    1.29064   1.24913   49.288
 5514.00    1.30369   1.24873   -1.000
 5515.00    1.31624   1.25787   -1.000
 5516.00    1.33342   1.27353   -1.000
 5517.00    1.34925   1.29148   -1.000
 5518.00    1.36029   1.30795   48.530
 5519.00    1.36564   1.32005   47.642
 5520.00    1.36243   1.32646   46.835
 5521.00    1.35971   1.32810   46.633
 5522.00    1.36040   1.32681   46.691
 5523.00    1.35242   1.32297   46.783
 5524.00    1.34057   1.31455   46.937
 5525.00    1.32453   1.29921   47.030
 5526.00    1.29810   1.27796   47.284
 5527.00    1.27376   1.25716   47.883
 5528.00    1.26270   1.24611   48.934
 5529.00    1.28130   1.25065   50.191
 5530.00    1.31599   1.26771   50.617
 5531.00    1.34043   1.28695   -1.000
 5532.00    1.34262   1.29874   48.383
 5533.00    1.33343   1.30052   47.663
 5534.00    1.32337   1.29661   47.673
 5535.00    1.32074   1.29321   48.085
 5536.00    1.32951   1.29393   48.356
 5537.00    1.34043   1.29873   48.242
 5538.00    1.35008   1.30567   47.870
 5539.00    1.35428   1.31296   47.711
 5540.00    1.35542   1.31898   47.520
 5541.00    1.35584   1.32160   47.089
 5542.00    1.34511   1.31942   46.699
 5543.00    1.33400   1.31398   46.667
 5544.00    1.33002   1.30922   47.092
 5545.00    1.33721   1.30831   47.579
 5546.00    1.34714   1.31194   47.752
 5547.00    1.35187   1.31914   47.649
 5548.00    1.35934   1.32808   47.534
 5549.00    1.36223   1.33621   47.262
 5550.00    1.36704   1.34073   46.813
 5551.00    1.36294   1.33997   46.407
 5552.00    1.35529   1.33448   46.261
 5553.00    1.34502   1.32690   46.462
 5554.00    1.33832   1.32065   46.852
 5555.00    1.34105   1.31792   47.376
 5556.00    1.35608   1.31842   47.653
 5557.00    1.35371   1.32037   47.619
 5558.00    1.34590   1.32214   47.475
 5559.00    1.34953   1.32253   47.383
 5560.00    1.35233   1.32025   47.322
 5561.00    1.34404   1.31463   47.270
 5562.00    1.33516   1.30681   47.349
 5563.00    1.32696   1.29919   47.575
 5564.00    1.32022   1.29338   48.028
 5565.00    1.32014   1.28932   48.391
 5566.00    1.32192   1.28624   48.555
 5567.00    1.32422   1.28379   48.657
 5568.00    1.32354   1.28207   48.714
 5569.00    1.32177   1.28100   48.634
 5570.00    1.32129   1.28000   48.528
 5571.00    1.31392   1.27832   48.633
 5572.00    1.29965   1.27652   48.629
 5573.00    1.30663   1.27677   48.624
 5574.00    1.32380   1.28071   48.748
 5575.00    1.33394   1.28755   48.595
 5576.00    1.34663   1.29508   48.114
 5577.00    1.35040   1.30203   47.687
 5578.00    1.32367   1.30825   47.036
 5579.00    1.25446   1.31300   46.261
 5580.00    1.21747   1.31501   -1.000
 5581.00    1.29278   1.31414   48.340
 5582.00    1.36667   1.31114   -1.000
 5583.00    1.36110   1.30561   -1.000
 5584.00    1.33335   1.29484   48.082
 5585.00    1.31089   1.27591   47.913
 5586.00    1.27925   1.25010   48.139
 5587.00    1.25090   1.22444   49.096
 5588.00    1.24646   1.20815   50.336
 5589.00    1.25873   1.20643   -1.000
 5590.00    1.28094   1.21723   -1.000
 5591.00    1.30191   1.23331   -1.000
 5592.00    1.30798   1.24755   -1.000
 5593.00    1.30060   1.25737   49.882
 5594.00    1.29814   1.26473   49.648
 5595.00    1.31286   1.27187   49.804
 5596.00    1.32236   1.27703   49.592
 5597.00    1.31305   1.27613   48.929
 5598.00    1.29423   1.26810   48.467
 5599.00    1.29243   1.25615   48.793
 5600.00    1.29511   1.24489   49.605
 5601.00    1.28010   1.23808   50.196
 5602.00    1.27745   1.23925   50.247
 5603.00    1.29519   1.25160   50.470
 5604.00    1.32817   1.27457   -1.000
 5605.00    1.35238   1.30187   50.070
 5606.00    1.36548   1.32546   48.759
 5607.00    1.36849   1.34064   47.597
 5608.00    1.36624   1.34785   46.951
 5609.00    1.36425   1.35046   46.784
 5610.00    1.36933   1.35099   46.836
 5611.00    1.36934   1.34846   46.932
 5612.00    1.35950   1.33849   46.909
 5613.00    1.33520   1.31751   46.774
 5614.00    1.30071   1.28826   46.933
 5615.00    1.27768   1.26166   47.788
 5616.00    1.29045   1.24936   49.361
 5617.00    1.32034   1.25452   -1.000
 5618.00    1.33716   1.27046   -1.000
 5619.00    1.34002   1.28726   -1.000
 5620.00    1.33720   1.29913   48.563
 5621.00    1.34631   1.30434   48.368
 5622.00    1.34188   1.30189   48.178
 5623.00    1.31640   1.29272   47.937
 5624.00    1.30129   1.28185   48.068
 5625.00    1.31120   1.27661   48.906
 5626.00    1.33181   1.28117   49.843
 5627.00    1.34566   1.29312   -1.000
 5628.00    1.35546   1.30645   49.054
 5629.00    1.36531   1.31670   48.312
 5630.00    1.36612   1.32288   47.733
 5631.00    1.36369   1.32588   47.350
 5632.00    1.36417   1.32600   47.185
 5633.00    1.35629   1.32278   47.008
 5634.00    1.34576   1.31631   47.015
 5635.00    1.34099   1.30791   47.336
 5636.00    1.33173   1.29985   47.689
 5637.00    1.32816   1.29422   47.995
 5638.00    1.33761   1.29159   48.340
 5639.00    1.33706   1.29068   48.674
 5640.00    1.33238   1.28990   48.734
 5641.00    1.33099   1.28915   48.684
 5642.00    1.32765   1.28968   48.812
 5643.00    1.33538   1.29254   48.868
 5644.00    1.34296   1.29720   48.707
 5645.00    1.34406   1.30213   48.480
 5646.00    1.34819   1.30599   48.377
 5647.00    1.34876   1.30792   48.087
 5648.00    1.35010   1.30784   47.910
 5649.00    1.34552   1.30721   47.789
 5650.00    1.34386   1.30776   47.709
 5651.00    1.34747   1.30950   47.794
 5652.00    1.35038   1.31033   47.818
 5653.00    1.33433   1.30769   47.499
 5654.00    1.33494   1.30063   47.318
 5655.00    1.32835   1.28938   47.453
 5656.00    1.31297   1.27427   47.808
 5657.00    1.27927   1.25744   48.259
 5658.00    1.25464   1.24407   49.107
 5659.00    1.27015   1.23932   50.535
 5660.00    1.29762   1.24389   -1.000
 5661.00    1.30902   1.25329   -1.000
 5662.00    1.30545   1.26305   49.936
 5663.00    1.31167   1.27267   49.575
 5664.00    1.32985   1.28259   49.632
 5665.00    1.33415   1.29107   49.196
 5666.00    1.32884   1.29539   48.505
 5667.00    1.32638   1.29524   48.219
 5668.00    1.32342   1.29376   48.408
 5669.00    1.32836   1.29457   48.704
 5670.00    1.33730   1.29912   48.806
 5671.00    1.34433   1.30652   48.709
 5672.00    1.35596   1.31469   48.423
 5673.00    1.36142   1.32136   48.016
 5674.00    1.35100   1.32527   47.542
 5675.00    1.34534   1.32688   47.079
 5676.00    1.35324   1.32736   47.006
 5677.00    1.35790   1.32708   47.150
 5678.00    1.35560   1.32499   47.060
 5679.00    1.35051   1.31950   46.963
 5680.00    1.34360   1.30992   47.148
 5681.00    1.33115   1.29755   47.357
 5682.00    1.31326   1.28560   47.619
 5683.00    1.30527   1.27783   48.129
 5684.00    1.30804   1.27577   48.709
 5685.00    1.31435   1.27700   48.905
 5686.00    1.31250   1.27771   48.680
 5687.00    1.30099   1.27657   48.441
 5688.00    1.30533   1.27617   48.589
 5689.00    1.31542   1.28033   49.114
 5690.00    1.32577   1.28998   49.364
 5691.00    1.34072   1.30238   48.931
 5692.00    1.34970   1.31337   48.071
 5693.00    1.34841   1.32039   47.528
 5694.00    1.34138   1.32322   47.210
 5695.00    1.34427   1.32283   47.087
 5696.00    1.35220   1.31982   47.124
 5697.00    1.34200   1.31403   47.168
 5698.00    1.33241   1.30572   47.283
 5699.00    1.32279   1.29598   47.691
 5700.00    1.31880   1.28698   48.240
 5701.00    1.31294   1.28114   48.693
 5702.00    1.30780   1.27966   49.195
 5703.00    1.31742   1.28136   49.482
 5704.00    1.32584   1.28246   49.217
 5705.00    1.31629   1.27916   48.713
 5706.00    1.29788   1.26991   48.516
 5707.00    1.27248   1.25616   48.769
 5708.00    1.25884   1.24170   49.403
 5709.00    1.24427   1.23102   50.295
 5710.00    1.24381   1.22787   51.116
 5711.00    1.26393   1.23442   51.504
 5712.00    1.28864   1.24965   51.449
 5713.00    1.30977   1.26953   50.988
 5714.00    1.32525   1.28882   50.025
 5715.00    1.33301   1.30349   48.810
 5716.00    1.33739   1.31279   47.969
 5717.00    1.33937   1.31881   47.702
 5718.00    1.34262   1.32426   47.600
 5719.00    1.34661   1.33048   47.460
 5720.00    1.35174   1.33729   47.241
 5721.00    1.35607   1.34370   46.947
 5722.00    1.35992   1.34842   46.709
 5723.00    1.35612   1.35033   46.579
 5724.00    1.35184   1.34847   46.503
 5725.00    1.34648   1.34284   46.444
 5726.00    1.33947   1.33541   46.523
 5727.00    1.34069   1.32918   46.865
 5728.00    1.34527   1.32634   47.351
 5729.00    1.34862   1.32615   47.755
 5730.00    1.34439   1.32639   47.620
 5731.00    1.34033   1.32655   47.321
 5732.00    1.34476   1.32812   47.369
 5733.00    1.34969   1.33250   47.602
 5734.00    1.35443   1.33838   47.510
 5735.00    1.35297   1.34273   47.089
 5736.00    1.34961   1.34386   46.751
 5737.00    1.35230   1.34265   46.731
 5738.00    1.35735   1.34107   46.793
 5739.00    1.35201   1.34009   46.917
 5740.00    1.34194   1.33921   46.977
 5741.00    1.34382   1.33805   47.062
 5742.00    1.34254   1.33727   47.141
 5743.00    1.34469   1.33804   47.239
 5744.00    1.34845   1.34020   47.173
 5745.00    1.35415   1.34158   47.108
 5746.00    1.34750   1.34034   46.824
 5747.00    1.33485   1.33710   46.543
 5748.00    1.33149   1.33453   46.697
 5749.00    1.33408   1.33363   47.136
 5750.00    1.33444   1.33179   47.382
 5751.00    1.32777   1.32557   47.187
 5752.00    1.31044   1.31510   47.001
 5753.00    1.30395   1.30585   47.270
 5754.00    1.30417   1.30419   47.821
 5755.00    1.32450   1.31217   48.327
 5756.00    1.34103   1.32591   48.417
 5757.00    1.34497   1.33830   47.910
 5758.00    1.35084   1.34359   47.059
 5759.00    1.34653   1.33995   46.429
 5760.00    1.33591   1.32951   46.435
 5761.00    1.32341   1.31743   46.897
 5762.00    1.31313   1.31008   47.505
 5763.00    1.31904   1.31180   48.151
 5764.00    1.33795   1.32238   48.483
 5765.00    1.35147   1.33677   48.109
 5766.00    1.35495   1.34894   47.298
 5767.00    1.35572   1.35549   46.654
 5768.00    1.35550   1.35673   46.426
 5769.00    1.35520   1.35465   46.370
 5770.00    1.34725   1.35072   46.300
 5771.00    1.34505   1.34561   46.355
 5772.00    1.34675   1.34009   46.502
 5773.00    1.33531   1.33527   46.740
 5774.00    1.32346   1.33252   47.027
 5775.00    1.33043   1.33245   47.184
 5776.00    1.34221   1.33359   47.249
 5777.00    1.34333   1.33269   47.184
 5778.00    1.33472   1.32646   46.972
 5779.00    1.31556   1.31370   46.880
 5780.00    1.28639   1.29732   46.992
 5781.00    1.26319   1.28262   47.561
 5782.00    1.26277   1.27347   48.571
 5783.00    1.27165   1.27062   49.322
 5784.00    1.28122   1.27241   49.384
 5785.00    1.29750   1.27779   49.193
 5786.00    1.31460   1.28663   49.013
 5787.00    1.32606   1.29760   48.835
 5788.00    1.32856   1.30753   48.373
 5789.00    1.32745   1.31309   47.740
 5790.00    1.32136   1.31457   47.311
 5791.00    1.31952   1.31579   47.275
 5792.00    1.32251   1.32024   47.465
 5793.00    1.32697   1.32837   47.464
 5794.00    1.33546   1.33706   47.136
 5795.00    1.34194   1.34231   46.789
 5796.00    1.33891   1.34259   46.501
 5797.00    1.32888   1.34024   46.411
 5798.00    1.32756   1.33961   46.624
 5799.00    1.33583   1.34340   46.928
 5800.00    1.34551   1.35039   46.829
 5801.00    1.35384   1.35617   46.301
 5802.00    1.34806   1.35699   45.665
 5803.00    1.33925   1.35239   45.433
 5804.00    1.33297   1.34517   45.714
 5805.00    1.32895   1.33917   46.092
 5806.00    1.33632   1.33689   46.462
 5807.00    1.34008   1.33834   46.712
 5808.00    1.34022   1.34185   46.675
 5809.00    1.34304   1.34577   46.506
 5810.00    1.34445   1.34892   46.357
 5811.00    1.35219   1.35041   46.323
 5812.00    1.35253   1.34935   46.293
 5813.00    1.35356   1.34518   46.148
 5814.00    1.35164   1.33874   45.999
 5815.00    1.34675   1.33279   46.036
 5816.00    1.34494   1.33093   46.356
 5817.00    1.34940   1.33498   46.622
 5818.00    1.35518   1.34313   46.488
 5819.00    1.35759   1.35127   46.173
 5820.00    1.35753   1.35605   45.904
 5821.00    1.36441   1.35722   45.674
 5822.00    1.36998   1.35650   45.504
 5823.00    1.36716   1.35550   45.524
 5824.00    1.36091   1.35503   45.671
 5825.00    1.36026   1.35529   45.652
 5826.00    1.36017   1.35624   45.573
 5827.00    1.36404   1.35770   45.494
 5828.00    1.36450   1.35919   45.439
 5829.00    1.35845   1.36021   45.439
 5830.00    1.35574   1.36029   45.513
 5831.00    1.35602   1.35925   45.471
 5832.00    1.35513   1.35699   45.450
 5833.00    1.35557   1.35390   45.411
 5834.00    1.35329   1.35104   45.460
 5835.00    1.35126   1.34962   45.718
 5836.00    1.35699   1.35001   45.858
 5837.00    1.35795   1.35156   45.753
 5838.00    1.35897   1.35353   45.641
 5839.00    1.36331   1.35583   45.732
 5840.00    1.36638   1.35861   45.856
 5841.00    1.36547   1.36116   45.771
 5842.00    1.36029   1.36214   45.472
 5843.00    1.35890   1.36051   45.204
 5844.00    1.36093   1.35623   45.155
 5845.00    1.35256   1.35020   45.279
 5846.00    1.34540   1.34396   45.452
 5847.00    1.34378   1.33917   45.725
 5848.00    1.33990   1.33635   45.978
 5849.00    1.34329   1.33425   46.202
 5850.00    1.34596   1.33047   46.223
 5851.00    1.34322   1.32371   46.255
 5852.00    1.33173   1.31511   46.477
 5853.00    1.32347   1.30661   46.768
 5854.00    1.31945   1.29887   47.187
 5855.00    1.31286   1.29011   47.482
 5856.00    1.30410   1.27944   47.592
 5857.00    1.29921   1.27002   47.646
 5858.00    1.30106   1.26678   48.022
 5859.00    1.31546   1.27240   48.497
 5860.00    1.32927   1.28408   48.364
 5861.00    1.33069   1.29608   47.798
 5862.00    1.33265   1.30518   47.342
 5863.00    1.33788   1.31072   47.134
 5864.00    1.34122   1.31291   46.952
 5865.00    1.33117   1.31234   46.849
 5866.00    1.32470   1.31042   46.933
 5867.00    1.33176   1.31026   47.094
 5868.00    1.34360   1.31421   47.309
 5869.00    1.35066   1.32144   47.338
 5870.00    1.35486   1.32872   46.983
 5871.00    1.35296   1.33299   46.560
 5872.00    1.35219   1.33360   46.311
 5873.00    1.35450   1.33193   46.257
 5874.00    1.35332   1.32958   46.353
 5875.00    1.35177   1.32692   46.395
 5876.00    1.35529   1.32337   46.340
 5877.00    1.35431   1.31828   46.419
 5878.00    1.34345   1.31190   46.611
 5879.00    1.33365   1.30530   46.716
 5880.00    1.33316   1.29953   46.997
 5881.00    1.33826   1.29473   47.331
 5882.00    1.33444   1.29020   47.413
 5883.00    1.32351   1.28493   47.303
 5884.00    1.32236   1.27774   47.265
 5885.00    1.32292   1.26522   -1.000
 5886.00    1.30969   1.24042   -1.000
 5887.00    1.27381   1.19772   -1.000
 5888.00    1.20609   1.13997   -1.000
 5889.00    1.12573   1.08422   49.532
 5890.00    1.06898   1.05171   52.418
 5891.00    1.06180   1.05007   55.844
 5892.00    1.10349   1.06888   57.589
 5893.00    1.15557   1.08557   -1.000
 5894.00    1.17452   1.08773   -1.000
 5895.00    1.15403   1.08108   -1.000
 5896.00    1.13170   1.08173   -1.000
 5897.00    1.14263   1.10096   54.640
 5898.00    1.18632   1.13639   -1.000
 5899.00    1.23383   1.17762   -1.000
 5900.00    1.28209   1.21425   -1.000
 5901.00    1.30858   1.24258   -1.000
 5902.00    1.31670   1.26267   -1.000
 5903.00    1.31992   1.27523   48.113
 5904.00    1.31797   1.28208   47.697
 5905.00    1.31863   1.28589   47.614
 5906.00    1.31965   1.28900   47.599
 5907.00    1.32497   1.29265   47.652
 5908.00    1.33448   1.29665   47.659
 5909.00    1.33467   1.30005   47.582
 5910.00    1.33186   1.30158   47.472
 5911.00    1.32743   1.29981   47.559
 5912.00    1.31486   1.29378   47.668
 5913.00    1.30357   1.28481   47.717
 5914.00    1.29828   1.27620   47.861
 5915.00    1.29692   1.27180   48.419
 5916.00    1.30074   1.27345   48.900
 5917.00    1.31062   1.27991   48.916
 5918.00    1.31822   1.28816   48.663
 5919.00    1.32459   1.29514   48.451
 5920.00    1.32141   1.29912   48.262
 5921.00    1.31629   1.30011   48.121
 5922.00    1.31467   1.29991   47.963
 5923.00    1.32481   1.30036   47.922
 5924.00    1.33079   1.30241   47.969
 5925.00    1.32729   1.30501   47.842
 5926.00    1.32651   1.30582   47.669
 5927.00    1.31885   1.30300   47.568
 5928.00    1.31014   1.29710   47.521
 5929.00    1.30559   1.29118   47.578
 5930.00    1.30867   1.28866   47.859
 5931.00    1.31698   1.29022   48.238
 5932.00    1.32464   1.29336   48.312
 5933.00    1.32271   1.29563   47.936
 5934.00    1.31633   1.29696   47.627
 5935.00    1.31970   1.29926   47.831
 5936.00    1.32423   1.30346   48.196
 5937.00    1.32598   1.30781   48.339
 5938.00    1.32524   1.30961   48.128
 5939.00    1.32677   1.30753   47.732
 5940.00    1.32447   1.30277   47.486
 5941.00    1.31647   1.29829   47.570
 5942.00    1.31362   1.29661   47.989
 5943.00    1.31704   1.29856   48.333
 5944.00    1.32299   1.30209   48.371
 5945.00    1.32838   1.30430   48.146
 5946.00    1.32607   1.30309   47.853
 5947.00    1.31090   1.29887   47.640
 5948.00    1.29811   1.29414   47.687
 5949.00    1.30117   1.29132   48.047
 5950.00    1.30359   1.29079   48.547
 5951.00    1.29946   1.29073   48.774
 5952.00    1.29805   1.29012   48.607
 5953.00    1.29796   1.28939   48.393
 5954.00    1.30302   1.28903   48.436
 5955.00    1.30952   1.28880   48.458
 5956.00    1.31487   1.28824   48.371
 5957.00    1.31528   1.28845   48.352
 5958.00    1.31105   1.29171   48.502
 5959.00    1.31868   1.29816   48.618
 5960.00    1.32856   1.30582   48.496
 5961.00    1.32788   1.31203   48.031
 5962.00    1.32942   1.31499   47.527
 5963.00    1.32917   1.31452   47.269
 5964.00    1.32644   1.31176   47.189
 5965.00    1.32242   1.30865   47.257
 5966.00    1.32427   1.30711   47.482
 5967.00    1.32838   1.30808   47.679
 5968.00    1.32135   1.31115   47.842
 5969.00    1.31620   1.31526   47.816
 5970.00    1.32053   1.31900   47.510
 5971.00    1.32383   1.32127   47.311
 5972.00    1.32893   1.32087   47.283
 5973.00    1.32514   1.31690   47.209
 5974.00    1.30962   1.30954   47.136
 5975.00    1.30264   1.30047   47.305
 5976.00    1.30076   1.29261   47.662
 5977.00    1.29598   1.28900   48.034
 5978.00    1.29815   1.29061   48.383
 5979.00    1.30864   1.29573   48.637
 5980.00    1.31527   1.30029   48.543
 5981.00    1.30942   1.30053   48.164
 5982.00    1.29960   1.29511   47.906
 5983.00    1.29181   1.28673   47.945
 5984.00    1.28689   1.28023   48.267
 5985.00    1.29017   1.27916   48.696
 5986.00    1.30180   1.28362   48.993
 5987.00    1.30537   1.29074   48.934
 5988.00    1.30793   1.29740   48.502
 5989.00    1.31185   1.30193   48.131
 5990.00    1.31281   1.30477   47.945
 5991.00    1.31125   1.30738   47.738
 5992.00    1.31152   1.31124   47.713
 5993.00    1.31455   1.31553   47.830
 5994.00    1.31317   1.31784   47.699
 5995.00    1.31310   1.31608   47.331
 5996.00    1.30961   1.31073   47.112
 5997.00    1.30325   1.30508   47.313
 5998.00    1.30273   1.30175   47.665
 5999.00    1.30518   1.30117   47.908
 6000.00    1.30689   1.30142   48.036
 6001.00    1.30388   1.30050   48.003
 6002.00    1.29947   1.29833   47.999
 6003.00    1.29710   1.29606   48.220
 6004.00    1.29915   1.29389   48.431
 6005.00    1.29844   1.29043   48.461
 6006.00    1.28680   1.28474   48.356
 6007.00    1.27853   1.27898   48.332
 6008.00    1.27723   1.27720   48.592
 6009.00    1.28168   1.28118   49.055
 6010.00    1.29134   1.28800   49.213
 6011.00    1.29026   1.29280   48.794
 6012.00    1.28348   1.29331   48.246
 6013.00    1.28668   1.29078   48.110
 6014.00    1.29230   1.28804   48.398
 6015.00    1.29033   1.28611   48.705
 6016.00    1.28918   1.28474   48.611
 6017.00    1.29115   1.28294   48.504
 6018.00    1.28469   1.28007   48.665
 6019.00    1.27378   1.27643   48.807
 6020.00    1.26757   1.27327   48.743
 6021.00    1.26911   1.27235   48.793
 6022.00    1.27410   1.27434   49.071
 6023.00    1.27940   1.27887   49.050
 6024.00    1.28570   1.28520   48.734
 6025.00    1.29067   1.29259   48.553
 6026.00    1.29332   1.30037   48.490
 6027.00    1.29357   1.30771   48.272
 6028.00    1.29684   1.31390   48.069
 6029.00    1.30128   1.31894   47.826
 6030.00    1.30324   1.32282   47.577
 6031.00    1.30952   1.32577   47.473
 6032.00    1.31109   1.32849   47.466
 6033.00    1.30929   1.33135   47.549
 6034.00    1.31077   1.33382   47.532
 6035.00    1.31545   1.33499   47.349
 6036.00    1.31403   1.33436   47.194
 6037.00    1.31174   1.33196   47.147
 6038.00    1.30714   1.32839   47.085
 6039.00    1.29948   1.32443   47.086
 6040.00    1.29992   1.32129   47.293
 6041.00    1.29587   1.32011   47.458
 6042.00    1.29220   1.32146   47.579
 6043.00    1.29836   1.32472   47.566
 6044.00    1.30592   1.32869   47.474
 6045.00    1.30907   1.33230   47.294
 6046.00    1.30429   1.33529   46.949
 6047.00    1.30322   1.33774   46.837
 6048.00    1.30964   1.33972   46.877
 6049.00    1.30570   1.34075   46.824
 6050.00    1.30111   1.34018   46.825
 6051.00    1.30099   1.33758   46.958
 6052.00    1.30113   1.33277   47.089
 6053.00    1.29662   1.32640   47.148
 6054.00    1.29010   1.31959   47.220
 6055.00    1.29201   1.31433   47.382
 6056.00    1.29229   1.31219   47.549
 6057.00    1.29332   1.31376   47.769
 6058.00    1.29983   1.31784   47.963
 6059.00    1.30226   1.32213   47.950
 6060.00    1.29923   1.32402   47.742
 6061.00    1.29614   1.32172   47.486
 6062.00    1.28745   1.31489   47.442
 6063.00    1.28341   1.30498   47.549
 6064.00    1.28263   1.29581   48.033
 6065.00    1.04058   1.29222   -1.000
 6066.00    0.97723   1.29647   -1.000
 6067.00    1.21252   1.30699   -1.000
 6068.00    1.15133   1.31931   -1.000
 6069.00    0.67507   1.32916   -1.000
 6070.00    0.67051   1.33557   -1.000
 6071.00    1.13433   1.33910   -1.000
 6072.00    1.30110   1.34077   46.753
 6073.00    1.31441   1.34100   45.844
 6074.00    0.87430   1.33948   -1.000
 6075.00    0.64931   1.33571   -1.000
 6076.00    1.09257   1.32956   -1.000
 6077.00    1.30045   1.32182   47.163
 6078.00    1.26659   1.31428   47.386
 6079.00    1.27100   1.30836   47.652
 6080.00    1.27150   1.30428   47.989
 6081.00    1.27422   1.30154   48.317
 6082.00    1.27248   1.29951   48.433
 6083.00    1.26812   1.29834   48.457
 6084.00    1.26792   1.29859   48.566
 6085.00    1.26673   1.30033   48.619
 6086.00    1.26911   1.30304   48.586
 6087.00    1.27646   1.30530   48.539
 6088.00    1.27677   1.30562   48.429
 6089.00    1.27073   1.30360   48.248
 6090.00    1.26365   1.30067   48.236
 6091.00    1.26386   1.29918   48.475
 6092.00    1.27065   1.30046   48.722
 6093.00    1.28038   1.30448   48.775
 6094.00    1.28460   1.30966   48.553
 6095.00    1.28278   1.31452   48.271
 6096.00    1.28363   1.31804   48.016
 6097.00    1.28009   1.31970   47.782
 6098.00    1.27635   1.31822   47.721
 6099.00    1.27402   1.31108   47.815
 6100.00    1.26194   1.29690   47.883
 6101.00    1.23939   1.27824   47.890
 6102.00    1.22360   1.26258   48.252
 6103.00    1.22947   1.25756   49.244
 6104.00    1.25239   1.26462   50.226
 6105.00    1.26432   1.27921   50.266
 6106.00    1.26737   1.29389   49.464
 6107.00    1.27022   1.30491   48.620
 6108.00    1.26667   1.31227   48.256
 6109.00    1.26107   1.31672   48.339
 6110.00    1.26258   1.31918   48.498
 6111.00    1.26887   1.32053   48.524
 6112.00    1.27339   1.32176   48.444
 6113.00    1.27035   1.32337   48.267
 6114.00    1.26730   1.32449   48.175
 6115.00    1.26587   1.32408   48.024
 6116.00    1.26481   1.32190   47.839
 6117.00    1.26304   1.31736   47.921
 6118.00    1.25659   1.30922   48.205
 6119.00    1.24687   1.29616   48.374
 6120.00    1.23343   1.27909   48.529
 6121.00    1.22039   1.26316   49.068
 6122.00    1.21718   1.25439   49.760
 6123.00    1.23054   1.25570   50.292
 6124.00    1.24707   1.26505   50.491
 6125.00    1.25181   1.27659   49.973
 6126.00    1.25203   1.28632   49.222
 6127.00    1.25144   1.29309   48.985
 6128.00    1.24994   1.29885   49.189
 6129.00    1.25163   1.30511   49.273
 6130.00    1.25767   1.31196   49.161
 6131.00    1.26257   1.31719   48.872
 6132.00    1.25843   1.31713   48.417
 6133.00    1.25132   1.30816   48.178
 6134.00    1.24057   1.28894   48.217
 6135.00    1.21278   1.26329   48.541
 6136.00    1.18613   1.23997   49.412
 6137.00    1.18491   1.22842   50.780
 6138.00    1.20274   1.23044   52.166
 6139.00    1.22162   1.24168   52.754
 6140.00    1.22758   1.25528   51.933
 6141.00    1.22378   1.26809   50.453
 6142.00    1.22165   1.28111   49.558
 6143.00    1.23535   1.29365   49.445
 6144.00    1.25218   1.30350   49.559
 6145.00    1.25284   1.30835   49.279
 6146.00    1.24734   1.30750   48.691
 6147.00    1.24176   1.30279   48.416
 6148.00    1.23765   1.29659   48.554
 6149.00    1.23959   1.29129   48.843
 6150.00    1.24108   1.28874   49.184
 6151.00    1.23916   1.28904   49.500
 6152.00    1.23804   1.29022   49.612
 6153.00    1.23263   1.28992   49.486
 6154.00    1.23119   1.28714   49.195
 6155.00    1.23354   1.28297   49.014
 6156.00    1.23444   1.27857   49.261
 6157.00    1.23390   1.27248   49.607
 6158.00    1.22934   1.26093   49.715
 6159.00    1.21513   1.24071   49.843
 6160.00    1.18814   1.21330   50.257
 6161.00    1.16381   1.18578   51.065
 6162.00    1.15781   1.16808   52.411
 6163.00    1.16679   1.16598   53.997
 6164.00    1.18483   1.17737   54.927
 6165.00    1.20243   1.19424   54.581
 6166.00    1.20496   1.20724   53.275
 6167.00    1.20054   1.21185   52.167
 6168.00    1.19390   1.20939   51.758
 6169.00    1.18332   1.20691   51.779
 6170.00    1.18620   1.21028   52.257
 6171.00    1.19968   1.22118   52.879
 6172.00    1.20897   1.23545   52.844
 6173.00    1.21350   1.24794   52.015
 6174.00    1.21329   1.25655   51.145
 6175.00    1.21507   1.26171   50.910
 6176.00    1.21784   1.26533   50.998
 6177.00    1.22111   1.26863   50.931
 6178.00    1.22684   1.27224   50.814
 6179.00    1.22765   1.27598   50.696
 6180.00    1.22696   1.27978   50.487
 6181.00    1.22860   1.28343   50.270
 6182.00    1.23331   1.28605   50.107
 6183.00    1.23781   1.28612   49.903
 6184.00    1.23377   1.28283   49.729
 6185.00    1.22795   1.27640   49.746
 6186.00    1.22475   1.26811   49.905
 6187.00    1.21766   1.25880   50.217
 6188.00    1.20845   1.24854   50.722
 6189.00    1.20353   1.23731   51.267
 6190.00    1.19796   1.22709   51.768
 6191.00    1.18772   1.22241   52.188
 6192.00    1.19169   1.22630   52.741
 6193.00    1.21067   1.23784   53.245
 6194.00    1.22408   1.25229   53.000
 6195.00    1.23033   1.26408   51.915
 6196.00    1.23265   1.27080   50.851
 6197.00    1.22669   1.27179   50.364
 6198.00    1.21981   1.26880   50.222
 6199.00    1.21568   1.26522   50.397
 6200.00    1.21188   1.26468   50.905
 6201.00    1.21474   1.26833   51.407
 6202.00    1.22421   1.27516   51.534
 6203.00    1.22599   1.28233   51.175
 6204.00    1.22455   1.28820   50.554
 6205.00    1.22543   1.29210   50.207
 6206.00    1.22096   1.29428   50.187
 6207.00    1.22305   1.29471   50.142
 6208.00    1.23214   1.29296   50.099
 6209.00    1.23086   1.28810   50.221
 6210.00    1.22109   1.27936   50.310
 6211.00    1.21385   1.26682   50.423
 6212.00    1.20400   1.25222   50.807
 6213.00    1.19100   1.23864   51.246
 6214.00    1.18667   1.22910   51.699
 6215.00    1.19385   1.22481   52.381
 6216.00    1.19987   1.22434   53.042
 6217.00    1.19802   1.22481   53.321
 6218.00    1.19099   1.22487   52.943
 6219.00    1.19092   1.22496   52.452
 6220.00    1.19478   1.22692   52.621
 6221.00    1.19703   1.23111   52.713
 6222.00    1.20550   1.23619   52.354
 6223.00    1.21183   1.24062   52.376
 6224.00    1.21282   1.24327   54.786
 6225.00    1.21123   1.24407   55.668
 6226.00    1.20802   1.24185   52.949
 6227.00    1.20311   1.23513   51.850
 6228.00    1.19327   1.22350   51.973
 6229.00    1.17748   1.20952   52.141
 6230.00    1.16155   1.19854   52.698
 6231.00    1.15959   1.19564   53.536
 6232.00    1.17518   1.20240   54.314
 6233.00    1.19313   1.21568   54.458
 6234.00    1.20786   1.22931   53.846
 6235.00    1.21476   1.23828   52.901
 6236.00    1.20732   1.24013   51.968
 6237.00    1.19669   1.23638   51.483
 6238.00    1.19220   1.22977   51.618
 6239.00    1.18818   1.22316   52.101
 6240.00    1.18277   1.21737   52.637
 6241.00    1.17968   1.21191   53.186
 6242.00    1.17124   1.20602   53.558
 6243.00    1.16513   1.20005   53.617
 6244.00    1.16500   1.19572   53.819
 6245.00    1.16064   1.19555   54.223
 6246.00    1.16073   1.20109   54.350
 6247.00    1.17096   1.21107   54.112
 6248.00    1.18420   1.22187   53.640
 6249.00    1.18758   1.22807   53.011
 6250.00    1.17925   1.22662   52.396
 6251.00    1.16615   1.21788   52.138
 6252.00    1.14931   1.20599   52.419
 6253.00    1.13891   1.19536   53.212
 6254.00    1.14015   1.18833   54.043
 6255.00    1.13718   1.18450   54.515
 6256.00    1.13526   1.18229   54.747
 6257.00    1.13982   1.18183   54.789
 6258.00    1.14693   1.18440   55.047
 6259.00    1.15818   1.19189   55.581
 6260.00    1.16655   1.20398   55.660
 6261.00    1.17400   1.21815   55.038
 6262.00    1.17554   1.23067   54.177
 6263.00    1.17236   1.23875   53.413
 6264.00    1.17192   1.24261   52.635
 6265.00    1.17256   1.24426   52.118
 6266.00    1.17336   1.24567   -1.000
 6267.00    1.17816   1.24698   52.688
 6268.00    1.18231   1.24747   52.703
 6269.00    1.17837   1.24721   52.347
 6270.00    1.17542   1.24717   -1.000
 6271.00    1.18144   1.24781   52.541
 6272.00    1.18462   1.24793   52.623
 6273.00    1.18123   1.24511   52.469
 6274.00    1.18282   1.23827   52.315
 6275.00    1.18128   1.22774   52.340
 6276.00    1.17458   1.21604   52.628
 6277.00    1.16229   1.20542   53.048
 6278.00    1.13821   1.19783   53.707
 6279.00    1.11251   1.19474   -1.000
 6280.00    1.09466   1.19713   -1.000
 6281.00    1.09356   1.20502   -1.000
 6282.00    1.09987   1.21701   -1.000
 6283.00    1.10378   1.23010   -1.000
 6284.00    1.11027   1.24190   -1.000
 6285.00    1.11800   1.25079   -1.000
 6286.00    1.12874   1.25662   -1.000
 6287.00    1.14466   1.25937   -1.000
 6288.00    1.15666   1.25886   -1.000
 6289.00    1.16290   1.25549   -1.000
 6290.00    1.16198   1.25050   -1.000
 6291.00    1.15540   1.24569   -1.000
 6292.00    1.15553   1.24223   -1.000
 6293.00    1.16043   1.23966   -1.000
 6294.00    1.16181   1.23655   -1.000
 6295.00    1.15482   1.23178   -1.000
 6296.00    1.14477   1.22576   -1.000
 6297.00    1.14173   1.22006   -1.000
 6298.00    1.13484   1.21572   -1.000
 6299.00    1.12297   1.21259   -1.000
 6300.00    1.10915   1.21026   -1.000
 6301.00    1.08855   1.20992   -1.000
 6302.00    1.07500   1.21358   -1.000
 6303.00    1.08331   1.22178   -1.000
 6304.00    1.11732   1.23282   -1.000
 6305.00    1.15095   1.24376   -1.000
 6306.00    1.16135   1.25243   -1.000
 6307.00    1.16479   1.25793   -1.000
 6308.00    1.16419   1.26021   -1.000
 6309.00    1.15843   1.25977   -1.000
 6310.00    1.15642   1.25733   -1.000
 6311.00    1.15333   1.25355   -1.000
 6312.00    1.14830   1.24835   -1.000
 6313.00    1.14295   1.24179   -1.000
 6314.00    1.13495   1.23447   -1.000
 6315.00    1.13325   1.22742   -1.000
 6316.00    1.13469   1.22212   -1.000
 6317.00    1.12880   1.21988   -1.000
 6318.00    1.12820   1.22196   -1.000
 6319.00    1.13452   1.22828   -1.000
 6320.00    1.14217   1.23715   -1.000
 6321.00    1.14895   1.24633   -1.000
 6322.00    1.15326   1.25465   -1.000
 6323.00    1.16233   1.26193   -1.000
 6324.00    1.16878   1.26794   -1.000
 6325.00    1.16914   1.27216   -1.000
 6326.00    1.16854   1.27414   -1.000
 6327.00    1.16732   1.27472   -1.000
 6328.00    1.17042   1.27474   -1.000
 6329.00    1.17183   1.27496   -1.000
 6330.00    1.16741   1.27545   -1.000
 6331.00    1.16847   1.27517   -1.000
 6332.00    1.16981   1.27221   -1.000
 6333.00    1.16337   1.26505   -1.000
 6334.00    1.15087   1.25458   -1.000
 6335.00    1.14015   1.24439   -1.000
 6336.00    1.14352   1.23881   -1.000
 6337.00    1.14436   1.23968   -1.000
 6338.00    1.13081   1.24597   -1.000
 6339.00    1.14466   1.25442   -1.000
 6340.00    1.17078   1.26154   -1.000
 6341.00    1.16919   1.26499   -1.000
 6342.00    1.17083   1.26446   -1.000
 6343.00    1.17010   1.26187   -1.000
 6344.00    1.16932   1.26028   -1.000
 6345.00    1.17279   1.26178   -1.000
 6346.00    1.17217   1.26680   -1.000
 6347.00    1.17276   1.27405   -1.000
 6348.00    1.17913   1.28153   -1.000
 6349.00    1.18360   1.28728   -1.000
 6350.00    1.18485   1.28987   -1.000
 6351.00    1.18734   1.28874   -1.000
 6352.00    1.18571   1.28421   -1.000
 6353.00    1.17650   1.27748   -1.000
 6354.00    1.17031   1.27021   -1.000
 6355.00    1.16584   1.26359   -1.000
 6356.00    1.15937   1.25744   -1.000
 6357.00    1.15705   1.25116   -1.000
 6358.00    1.15749   1.24459   -1.000
 6359.00    1.15397   1.23827   -1.000
 6360.00    1.14966   1.23310   -1.000
 6361.00    1.15001   1.22991   -1.000
 6362.00    1.15110   1.22960   -1.000
 6363.00    1.14921   1.23277   -1.000
 6364.00    1.15055   1.23913   -1.000
 6365.00    1.15133   1.24736   -1.000
 6366.00    1.14946   1.25585   -1.000
 6367.00    1.15187   1.26302   -1.000
 6368.00    1.16212   1.26797   -1.000
 6369.00    1.17033   1.27104   -1.000
 6370.00    1.17127   1.27347   -1.000
 6371.00    1.17439   1.27645   -1.000
 6372.00    1.17863   1.27996   -1.000
 6373.00    1.17784   1.28288   -1.000
 6374.00    1.17144   1.28408   -1.000
 6375.00    1.16723   1.28308   -1.000
 6376.00    1.17015   1.28008   -1.000
 6377.00    1.16801   1.27583   -1.000
 6378.00    1.16417   1.27119   -1.000
 6379.00    1.16382   1.26711   -1.000
 6380.00    1.15806   1.26420   -1.000
 6381.00    1.15146   1.26270   -1.000
 6382.00    1.15031   1.26256   -1.000
 6383.00    1.15227   1.26373   -1.000
 6384.00    1.15341   1.26611   -1.000
 6385.00    1.15294   1.26926   -1.000
 6386.00    1.15684   1.27221   -1.000
 6387.00    1.15856   1.27400   -1.000
 6388.00    1.15146   1.27374   -1.000
 6389.00    1.14184   1.27085   -1.000
 6390.00    1.13482   1.26478   -1.000
 6391.00    1.12260   1.25625   -1.000
 6392.00    1.10784   1.24812   -1.000
 6393.00    1.09937   1.24411   -1.000
 6394.00    1.10667   1.24624   -1.000
 6395.00    1.11296   1.25222   -1.000
 6396.00    1.11110   1.25708   -1.000
 6397.00    1.10605   1.25649   -1.000
 6398.00    1.08985   1.25055   -1.000
 6399.00    1.07250   1.24404   -1.000
 6400.00    1.06514   1.24248   -1.000
 6401.00    1.07566   1.24832   -1.000
 6402.00    1.09051   1.25877   -1.000
 6403.00    1.09203   1.26871   -1.000
 6404.00    1.08922   1.27371   -1.000
 6405.00    1.08588   1.27267   -1.000
 6406.00    1.07555   1.26765   -1.000
 6407.00    1.06156   1.26215   -1.000
 6408.00    1.05346   1.25865   -1.000
 6409.00    1.04500   1.25700   -1.000
 6410.00    1.03633   1.25627   -1.000
 6411.00    1.03185   1.25612   -1.000
 6412.00    1.02952   1.25729   -1.000
 6413.00    1.02882   1.26003   -1.000
 6414.00    1.02265   1.26349   -1.000
 6415.00    1.01630   1.26612   -1.000
 6416.00    1.01575   1.26650   -1.000
 6417.00    1.00616   1.26361   -1.000
 6418.00    0.99096   1.25769   -1.000
 6419.00    0.97821   1.25107   -1.000
 6420.00    0.96634   1.24732   -1.000
 6421.00    0.96148   1.24955   -1.000
 6422.00    0.96287   1.25755   -1.000
 6423.00    0.96702   1.26850   -1.000
 6424.00    0.96401   1.27893   -1.000
 6425.00    0.95478   1.28621   -1.000
 6426.00    0.94977   1.28910   -1.000
 6427.00    0.94502   1.28642   -1.000
 6428.00    0.93431   1.27832   -1.000
