###################################################################
## OUTPUT of StarlightChains_v04.for    [Cid@UFSC - 01/Apr/2007] ##
###################################################################

## Some input info
NGC6528_c_1.cxt                          [arq_obs]
Base.BC03.N                              [arq_base]
NGC6528_c_1.msk                          [arq_masks]
StCv04.C11.config                        [arq_config]
   45                                    [N_base]
    0                                    [N_YAV_components = # of components with extra extinction!]
    0                                    [i_FitPowerLaw (1/0 = Yes/No)]
-9.99                                    [alpha_PowerLaw]
CCM                                      [red_law_option]
 1.458241                                [q_norm = A(l_norm)/A(V)]

## (Re)Sampling Parameters
 3359.00                                 [l_ini (A)]
 6428.00                                 [l_fin (A)]
    1.00                                 [dl    (A)]     (OBS: dl_cushion =    50.00 A)

## Normalization info
 4020.00                                 [l_norm (A) - for base]
 4010.00                                 [llow_norm (A) - window for f_obs]
 4060.00                                 [lupp_norm (A) - window for f_obs]
3.081180E-15                             [fobs_norm (in input units)]

## S/N
 4730.00                                 [llow_SN (A) - window for S/N]
 4780.00                                 [lupp_SN (A) - window for S/N]
  26.871                                 [S/N in S/N window]
  13.196                                 [S/N in norm. window]
 236.951                                 [S/N_err in S/N window]
 116.363                                 [S/N_err in norm. window]
  1.0000                                 [fscale_chi2]

## etc...
  2147483602                             [idum_orig]
  3069                                   [NOl_eff]
  1267                                   [Nl_eff]
  1802    NSIGMA                         [Ntot_cliped & clip_method]
  1215340                                [Nglobal_steps]
   7                                     [N_chains]
  16                                     [NEX0s_base = N_base in EX0s-fits]
 0   0   1       80   2.0   2.880E+02    [Clip-Bug, RC-Crash & Burn-In warning-flags, n_censored_weights, wei_nsig_threshold & wei_limit]
    13     12.458     12.454      0.004  [idt_all, wdt_TotTime, wdt_UsrTime & wdt_SysTime (sec)]

## Synthesis Results - Best model ##

 2.35274E+00                             [chi2/Nl_eff]
     2.49240                             [adev (%)]

   101.11834                             [sum-of-x (%)]
 3.23421E-14                             [Flux_tot (units of input spectrum!)]
 2.43862E-09                             [Mini_tot (???)]
 1.23527E-09                             [Mcor_tot (???)]

 -34.01                                  [v0_min  (km/s)]
 112.69                                  [vd_min  (km/s)]
 1.7422                                  [AV_min  (mag)]
 0.0000                                  [YAV_min (mag)]

# j     x_j(%)      Mini_j(%)     Mcor_j(%)     age_j(yr)     Z_j      (L/M)_j    YAV?  Mstars   component_j        a/Fe...       SSP_chi2r SSP_adev(%)   SSP_AV   SSP_x(%)
  1      2.6381     3.1060E-03    6.1317E-03    1.000000E+06  0.00400  1.114E-02    0   1.0000   age020_m42            0.0000     2.7298E+03    52.8571   4.0000   104.1552
  2      3.5983     1.1587E-03    2.2872E-03    3.160000E+06  0.00400  4.073E-02    0   0.9999   age045_m42            0.0000     9.2282E+02    29.8364   4.0000   113.3265
  3      3.0005     1.5530E-03    2.9090E-03    5.010000E+06  0.00400  2.534E-02    0   0.9488   age055_m42            0.0000     1.5767E+03    40.2317   4.0000   110.8924
  4      4.1289     4.2607E-03    7.4541E-03    1.000000E+07  0.00400  1.271E-02    0   0.8862   age070_m42            0.0000     6.6702E+02    20.9722   4.0000   106.4554
  5      1.0843     2.8051E-03    4.5265E-03    2.512000E+07  0.00400  5.070E-03    0   0.8174   age090_m42            0.0000     5.3305E+02    17.6064   4.0000   106.0938
  6      0.0000     0.0000E+00    0.0000E+00    4.000000E+07  0.00400  3.505E-03    0   0.7851   age104_m42            0.0000     3.1104E+02    11.6766   4.0000   103.0206
  7      0.0000     0.0000E+00    0.0000E+00    1.015200E+08  0.00400  2.268E-03    0   0.7207   age116_m42            0.0000     4.4921E+02    14.6214   4.0000   109.8596
  8      0.0000     0.0000E+00    0.0000E+00    2.861200E+08  0.00400  1.079E-03    0   0.6613   age125_m42            0.0000     3.9549E+02    12.4223   3.7894   105.2101
  9      0.0000     0.0000E+00    0.0000E+00    6.405400E+08  0.00400  5.077E-04    0   0.6197   age132_m42            0.0000     3.9938E+02    12.6684   3.4309   109.4802
 10      0.0000     0.0000E+00    0.0000E+00    9.047900E+08  0.00400  3.535E-04    0   0.6024   age135_m42            0.0000     3.0972E+02    11.2321   3.1858   109.0326
 11      0.0000     0.0000E+00    0.0000E+00    1.434000E+09  0.00400  1.910E-04    0   0.5716   age139_m42            0.0000     1.6813E+02     8.7685   2.6548   107.6204
 12      0.0000     0.0000E+00    0.0000E+00    2.500000E+09  0.00400  9.818E-05    0   0.5463   age150_m42            0.0000     7.5696E+01     6.3155   2.3547   103.5760
 13      0.0000     0.0000E+00    0.0000E+00    5.000000E+09  0.00400  4.718E-05    0   0.5228   age161_m42            0.0000     4.0996E+01     5.0124   2.1861   100.5113
 14      7.9322     4.7183E+00    4.6387E+00    1.100000E+10  0.00400  2.205E-05    0   0.4980   age185_m42            0.0000     1.9282E+01     4.5482   1.9134    98.2747
 15      3.4429     2.3981E+00    2.3325E+00    1.300000E+10  0.00400  1.883E-05    0   0.4927   age193_m42            0.0000     1.7836E+01     4.4863   1.8988    98.0748
 16      0.8218     5.4191E-04    1.0698E-03    1.000000E+06  0.02000  1.989E-02    0   1.0000   age020_m62            0.0000     2.6600E+03    51.9314   4.0000   105.1019
 17      0.0000     0.0000E+00    0.0000E+00    3.160000E+06  0.02000  3.772E-02    0   0.9858   age045_m62            0.0000     2.3811E+03    49.1970   4.0000   107.5128
 18      1.2560     5.1051E-04    9.4150E-04    5.010000E+06  0.02000  3.227E-02    0   0.9342   age055_m62            0.0000     1.3304E+03    36.7425   4.0000   113.0313
 19      0.9951     1.2909E-03    2.2302E-03    1.000000E+07  0.02000  1.011E-02    0   0.8751   age070_m62            0.0000     8.4100E+02    21.6957   4.0000   104.2432
 20      0.0000     0.0000E+00    0.0000E+00    2.512000E+07  0.02000  4.206E-03    0   0.8099   age090_m62            0.0000     6.6975E+02    19.9694   4.0000   103.6335
 21      0.0000     0.0000E+00    0.0000E+00    4.000000E+07  0.02000  3.373E-03    0   0.7799   age104_m62            0.0000     4.5061E+02    15.0842   4.0000   108.3788
 22      0.0000     0.0000E+00    0.0000E+00    1.015200E+08  0.02000  1.878E-03    0   0.7221   age116_m62            0.0000     4.5302E+02    13.7901   4.0000   111.5384
 23      0.0000     0.0000E+00    0.0000E+00    2.861200E+08  0.02000  8.869E-04    0   0.6700   age125_m62            0.0000     5.0392E+02    13.8214   3.8196   109.6906
 24      0.0000     0.0000E+00    0.0000E+00    6.405400E+08  0.02000  3.657E-04    0   0.6322   age132_m62            0.0000     3.3215E+02    11.9208   3.1007   113.3701
 25      0.0000     0.0000E+00    0.0000E+00    9.047900E+08  0.02000  2.312E-04    0   0.6152   age135_m62            0.0000     2.1475E+02     9.9328   2.7242   112.5698
 26      0.0000     0.0000E+00    0.0000E+00    1.434000E+09  0.02000  1.168E-04    0   0.5865   age139_m62            0.0000     8.5886E+01     6.7488   2.2926   107.3744
 27      0.0000     0.0000E+00    0.0000E+00    2.500000E+09  0.02000  5.505E-05    0   0.5610   age150_m62            0.0000     3.3425E+01     5.4749   1.9061   104.7390
 28      0.0000     0.0000E+00    0.0000E+00    5.000000E+09  0.02000  2.596E-05    0   0.5353   age161_m62            0.0000     2.4930E+01     6.4513   1.5552   104.5887
 29     28.0554     3.1477E+01    3.1711E+01    1.100000E+10  0.02000  1.169E-05    0   0.5103   age185_m62            0.0000     5.3778E+01     8.6886   1.1839   105.5585
 30     33.9931     4.6006E+01    4.5839E+01    1.300000E+10  0.02000  9.691E-06    0   0.5047   age193_m62            0.0000     6.2054E+01     9.0142   1.1405   105.6406
 31      1.2426     6.1480E-04    1.2135E-03    1.000000E+06  0.05000  2.651E-02    0   0.9998   age020_m72            0.0000     2.6160E+03    51.8684   4.0000   106.3951
 32      0.0000     0.0000E+00    0.0000E+00    3.160000E+06  0.05000  4.817E-02    0   0.9577   age045_m72            0.0000     1.9978E+03    45.8123   4.0000   111.0104
 33      0.0000     0.0000E+00    0.0000E+00    5.010000E+06  0.05000  3.101E-02    0   0.9147   age055_m72            0.0000     1.4322E+03    37.6606   4.0000   111.5491
 34      0.0000     0.0000E+00    0.0000E+00    1.000000E+07  0.05000  8.954E-03    0   0.8524   age070_m72            0.0000     1.7487E+03    42.8122   4.0000   111.9566
 35      0.0000     0.0000E+00    0.0000E+00    2.512000E+07  0.05000  4.207E-03    0   0.7902   age090_m72            0.0000     1.0162E+03    32.0410   4.0000   114.0793
 36      0.0000     0.0000E+00    0.0000E+00    4.000000E+07  0.05000  3.198E-03    0   0.7618   age104_m72            0.0000     5.6003E+02    19.3929   4.0000   114.4732
 37      0.0000     0.0000E+00    0.0000E+00    1.015200E+08  0.05000  1.716E-03    0   0.7092   age116_m72            0.0000     5.1019E+02    15.7945   4.0000   113.3046
 38      0.0000     0.0000E+00    0.0000E+00    2.861200E+08  0.05000  7.047E-04    0   0.6618   age125_m72            0.0000     4.6142E+02    13.1637   3.6076   109.9307
 39      0.0000     0.0000E+00    0.0000E+00    6.405400E+08  0.05000  2.633E-04    0   0.6253   age132_m72            0.0000     2.4699E+02    10.3635   2.7347   112.3594
 40      0.0000     0.0000E+00    0.0000E+00    9.047900E+08  0.05000  1.484E-04    0   0.6088   age135_m72            0.0000     1.0235E+02     7.8454   2.2203   108.0034
 41      0.0000     0.0000E+00    0.0000E+00    1.434000E+09  0.05000  7.827E-05    0   0.5847   age139_m72            0.0000     4.0177E+01     6.7740   1.8047   104.8631
 42      0.0000     0.0000E+00    0.0000E+00    2.500000E+09  0.05000  3.759E-05    0   0.5583   age150_m72            0.0000     2.9628E+01     7.1015   1.4730   104.1768
 43      3.9484     3.3454E+00    3.5135E+00    5.000000E+09  0.05000  1.548E-05    0   0.5320   age161_m72            0.0000     6.4422E+01     8.7012   1.0789   103.0048
 44      0.5433     1.0909E+00    1.0919E+00    1.100000E+10  0.05000  6.532E-06    0   0.5070   age185_m72            0.0000     1.4137E+02    11.9202   0.6856   102.1430
 45      4.4374     1.0948E+01    1.0846E+01    1.300000E+10  0.05000  5.316E-06    0   0.5018   age193_m72            0.0000     1.7786E+02    13.2054   0.5607   101.9962


## Synthesis Results - Average & Chains ##

# j      x_j: min, <> & last-chain-values for 1 ...  7 chains
  1      2.6381      2.6370      2.5616      2.5224      2.6066      2.6213      2.5615      2.7404      2.5914
  2      3.5983      2.6374      2.9107      2.7735      2.7482      2.6934      2.6348      3.0975      2.8571
  3      3.0005      3.1138      3.1392      2.9460      3.3678      3.0551      2.9382      3.1607      3.2953
  4      4.1289      3.6532      3.7247      3.8905      3.6489      3.8607      3.6742      3.5154      3.5185
  5      1.0843      0.8360      0.8373      1.0293      0.9369      0.9767      1.0798      1.0851      0.7925
  6      0.0000      0.0207      0.0875      0.0000      0.0000      0.0000      0.0000      0.0000      0.0000
  7      0.0000      0.0240      0.0000      0.0000      0.0000      0.0000      0.0000      0.0000      0.0325
  8      0.0000      0.0655      0.0529      0.0375      0.0000      0.1049      0.0312      0.5587      0.2554
  9      0.0000      0.0525      0.0730      0.2597      0.0000      0.0000      0.3681      0.0000      0.0192
 10      0.0000      0.1194      0.2229      0.0000      0.5109      0.0761      0.0000      0.0000      0.3977
 11      0.0000      0.0583      0.2100      0.0000      0.0766      0.2172      0.0000      0.0000      0.0214
 12      0.0000      0.2158      0.1131      0.0562      0.0000      0.5503      0.0000      0.0823      0.0000
 13      0.0000      0.4310      0.5862      0.0359      0.1607      0.5900      0.9969      0.4746      0.1344
 14      7.9322      7.1436      7.1206      7.5593      7.4662      6.5108      5.8461      6.9124      7.0079
 15      3.4429      3.7451      4.0149      3.7651      3.9764      3.7074      4.4264      3.6305      3.8830
 16      0.8218      1.0884      1.1332      1.0311      1.0517      1.1174      0.9226      1.0969      1.1274
 17      0.0000      0.3784      0.4551      0.3375      0.4068      0.3824      0.2698      0.3925      0.4165
 18      1.2560      1.0883      1.0548      1.0859      1.1700      0.9883      1.3751      1.1227      1.1008
 19      0.9951      0.6716      0.7558      0.7651      0.8635      0.6976      0.6662      0.3249      0.7082
 20      0.0000      0.0274      0.0796      0.0000      0.0000      0.0000      0.0000      0.0000      0.0000
 21      0.0000      0.0788      0.0000      0.3243      0.0000      0.0683      0.1737      0.0000      0.1107
 22      0.0000      0.0188      0.0000      0.0000      0.0163      0.0000      0.0000      0.0000      0.0000
 23      0.0000      0.0175      0.0000      0.0000      0.0000      0.0000      0.0000      0.0087      0.0545
 24      0.0000      0.0274      0.0990      0.0097      0.0000      0.0000      0.0000      0.0000      0.1212
 25      0.0000      0.0601      0.0406      0.0000      0.0000      0.0000      0.0000      0.0000      0.0000
 26      0.0000      0.0705      0.0000      0.0000      0.0303      0.0116      0.0000      0.0000      0.0000
 27      0.0000      0.1697      0.0000      0.0000      0.0318      0.4582      0.0000      0.0000      0.0000
 28      0.0000      0.3260      0.1219      0.0209      0.0344      0.3226      0.2372      0.1768      0.0000
 29     28.0554     28.3024     27.8551     28.4694     28.2564     28.1961     27.8652     28.3212     29.3527
 30     33.9931     34.7976     34.4057     35.3253     35.2013     34.5615     34.8841     35.0525     34.2229
 31      1.2426      1.4587      1.3762      1.4190      1.2514      1.4076      1.6760      1.4749      1.3812
 32      0.0000      0.1395      0.0000      0.1771      0.0000      0.1077      0.1740      0.0000      0.1968
 33      0.0000      0.0387      0.0000      0.0211      0.0000      0.0515      0.0000      0.1074      0.0000
 34      0.0000      0.0668      0.0000      0.0000      0.0781      0.0828      0.0000      0.0350      0.0000
 35      0.0000      0.0393      0.0000      0.0000      0.0000      0.0000      0.1362      0.0000      0.0000
 36      0.0000      0.0198      0.0000      0.0000      0.0000      0.0000      0.0000      0.0000      0.0000
 37      0.0000      0.0294      0.0000      0.0000      0.0000      0.0000      0.0000      0.0000      0.0000
 38      0.0000      0.0150      0.0000      0.1726      0.0071      0.0000      0.0000      0.0000      0.0000
 39      0.0000      0.0580      0.0000      0.0000      0.0000      0.0000      0.0000      0.1017      0.0000
 40      0.0000      0.0896      0.0000      0.0656      0.1219      0.0377      0.0000      0.0000      0.0000
 41      0.0000      0.1929      0.0810      0.0000      0.0598      0.1908      0.4708      0.3967      0.0000
 42      0.0000      0.3541      0.6438      0.0000      0.0000      0.0000      0.1121      0.0000      0.3666
 43      3.9484      1.2380      1.6213      1.4884      1.6103      1.5487      2.2733      1.7488      1.8101
 44      0.5433      0.8433      0.9604      0.8827      0.8008      1.1744      0.9158      0.8192      0.8020
 45      4.4374      4.7157      4.8062      4.7189      4.6473      4.7947      4.4686      4.7719      4.6458

# j      m_j: min, <> & last-chain-values for 1 ...  7 chains
  1  6.1317E-03  6.0946E-03  5.9266E-03  5.7763E-03  5.9970E-03  6.0392E-03  5.9343E-03  6.3059E-03  5.9714E-03
  2  2.2872E-03  1.6670E-03  1.8417E-03  1.7370E-03  1.7292E-03  1.6971E-03  1.6694E-03  1.9493E-03  1.8005E-03
  3  2.9090E-03  3.0018E-03  3.0295E-03  2.8140E-03  3.2320E-03  2.9359E-03  2.8393E-03  3.0338E-03  3.1672E-03
  4  7.4541E-03  6.5581E-03  6.6936E-03  6.9202E-03  6.5208E-03  6.9088E-03  6.6116E-03  6.2833E-03  6.2974E-03
  5  4.5265E-03  3.4701E-03  3.4793E-03  4.2334E-03  3.8715E-03  4.0416E-03  4.4931E-03  4.4845E-03  3.2798E-03
  6  0.0000E+00  1.1935E-04  5.0513E-04  0.0000E+00  0.0000E+00  0.0000E+00  0.0000E+00  0.0000E+00  0.0000E+00
  7  0.0000E+00  1.9629E-04  0.0000E+00  0.0000E+00  0.0000E+00  0.0000E+00  0.0000E+00  0.0000E+00  2.6508E-04
  8  0.0000E+00  1.0343E-03  8.3520E-04  5.8688E-04  0.0000E+00  1.6502E-03  4.9414E-04  8.7784E-03  4.0181E-03
  9  0.0000E+00  1.6498E-03  2.2955E-03  8.0863E-03  0.0000E+00  0.0000E+00  1.1596E-02  0.0000E+00  6.0086E-04
 10  0.0000E+00  5.2389E-03  9.7880E-03  0.0000E+00  2.2316E-02  3.3300E-03  0.0000E+00  0.0000E+00  1.7395E-02
 11  0.0000E+00  4.4922E-03  1.6202E-02  0.0000E+00  5.8759E-03  1.6684E-02  0.0000E+00  0.0000E+00  1.6461E-03
 12  0.0000E+00  3.0921E-02  1.6220E-02  7.9709E-03  0.0000E+00  7.8586E-02  0.0000E+00  1.1745E-02  0.0000E+00
 13  0.0000E+00  1.2296E-01  1.6743E-01  1.0147E-02  4.5628E-02  1.6779E-01  2.8510E-01  1.3482E-01  3.8238E-02
 14  4.6387E+00  4.1540E+00  4.1450E+00  4.3554E+00  4.3218E+00  3.7741E+00  3.4076E+00  4.0020E+00  4.0628E+00
 15  2.3325E+00  2.5230E+00  2.7076E+00  2.5132E+00  2.6667E+00  2.4897E+00  2.9891E+00  2.4351E+00  2.6081E+00
 16  1.0698E-03  1.4089E-03  1.4684E-03  1.3224E-03  1.3552E-03  1.4419E-03  1.1971E-03  1.4137E-03  1.4550E-03
 17  0.0000E+00  2.5465E-04  3.0657E-04  2.2504E-04  2.7248E-04  2.5649E-04  1.8200E-04  2.6293E-04  2.7943E-04
 18  9.4150E-04  8.1118E-04  7.8701E-04  8.0197E-04  8.6813E-04  7.3431E-04  1.0274E-03  8.3314E-04  8.1805E-04
 19  2.2302E-03  1.4967E-03  1.6862E-03  1.6895E-03  1.9158E-03  1.5498E-03  1.4883E-03  7.2081E-04  1.5735E-03
 20  0.0000E+00  1.3605E-04  3.9498E-04  0.0000E+00  0.0000E+00  0.0000E+00  0.0000E+00  0.0000E+00  0.0000E+00
 21  0.0000E+00  4.6886E-04  0.0000E+00  1.9129E-03  0.0000E+00  4.0503E-04  1.0365E-03  0.0000E+00  6.5679E-04
 22  0.0000E+00  1.8612E-04  0.0000E+00  0.0000E+00  1.6043E-04  0.0000E+00  0.0000E+00  0.0000E+00  0.0000E+00
 23  0.0000E+00  3.4077E-04  0.0000E+00  0.0000E+00  0.0000E+00  0.0000E+00  0.0000E+00  1.6929E-04  1.0562E-03
 24  0.0000E+00  1.2214E-03  4.4114E-03  4.2745E-04  0.0000E+00  0.0000E+00  0.0000E+00  0.0000E+00  5.3794E-03
 25  0.0000E+00  4.1181E-03  2.7873E-03  0.0000E+00  0.0000E+00  0.0000E+00  0.0000E+00  0.0000E+00  0.0000E+00
 26  0.0000E+00  9.1169E-03  0.0000E+00  0.0000E+00  3.9049E-03  1.4889E-03  0.0000E+00  0.0000E+00  0.0000E+00
 27  0.0000E+00  4.4532E-02  0.0000E+00  0.0000E+00  8.3015E-03  1.1984E-01  0.0000E+00  0.0000E+00  0.0000E+00
 28  0.0000E+00  1.7305E-01  6.4801E-02  1.1006E-02  1.8171E-02  1.7075E-01  1.2625E-01  9.3460E-02  0.0000E+00
 29  3.1711E+01  3.1810E+01  3.1340E+01  3.1704E+01  3.1614E+01  3.1590E+01  3.1393E+01  3.1692E+01  3.2891E+01
 30  4.5839E+01  4.6659E+01  4.6183E+01  4.6933E+01  4.6987E+01  4.6196E+01  4.6887E+01  4.6796E+01  4.5751E+01
 31  1.2135E-03  1.4164E-03  1.3377E-03  1.3653E-03  1.2096E-03  1.3625E-03  1.6314E-03  1.4259E-03  1.3371E-03
 32  0.0000E+00  7.1427E-05  0.0000E+00  8.9826E-05  0.0000E+00  5.4976E-05  8.9291E-05  0.0000E+00  1.0045E-04
 33  0.0000E+00  2.9376E-05  0.0000E+00  1.5873E-05  0.0000E+00  3.8984E-05  0.0000E+00  8.1200E-05  0.0000E+00
 34  0.0000E+00  1.6377E-04  0.0000E+00  0.0000E+00  1.9064E-04  2.0241E-04  0.0000E+00  8.5435E-05  0.0000E+00
 35  0.0000E+00  1.9019E-04  0.0000E+00  0.0000E+00  0.0000E+00  0.0000E+00  6.6032E-04  0.0000E+00  0.0000E+00
 36  0.0000E+00  1.2125E-04  0.0000E+00  0.0000E+00  0.0000E+00  0.0000E+00  0.0000E+00  0.0000E+00  0.0000E+00
 37  0.0000E+00  3.1258E-04  0.0000E+00  0.0000E+00  0.0000E+00  0.0000E+00  0.0000E+00  0.0000E+00  0.0000E+00
 38  0.0000E+00  3.6290E-04  0.0000E+00  4.1346E-03  1.7124E-04  0.0000E+00  0.0000E+00  0.0000E+00  0.0000E+00
 39  0.0000E+00  3.5435E-03  0.0000E+00  0.0000E+00  0.0000E+00  0.0000E+00  0.0000E+00  6.1884E-03  0.0000E+00
 40  0.0000E+00  9.4601E-03  0.0000E+00  6.8642E-03  1.2821E-02  3.9688E-03  0.0000E+00  0.0000E+00  0.0000E+00
 41  0.0000E+00  3.7100E-02  1.5596E-02  0.0000E+00  1.1452E-02  3.6580E-02  9.0767E-02  7.5972E-02  0.0000E+00
 42  0.0000E+00  1.3542E-01  2.4643E-01  0.0000E+00  0.0000E+00  0.0000E+00  4.2972E-02  0.0000E+00  1.3975E-01
 43  3.5135E+00  1.0954E+00  1.4361E+00  1.3049E+00  1.4184E+00  1.3660E+00  2.0163E+00  1.5406E+00  1.5969E+00
 44  1.0919E+00  1.6853E+00  1.9212E+00  1.7479E+00  1.5931E+00  2.3395E+00  1.8345E+00  1.6299E+00  1.5978E+00
 45  1.0846E+01  1.1461E+01  1.1693E+01  1.1363E+01  1.1243E+01  1.1616E+01  1.0886E+01  1.1547E+01  1.1257E+01

# AV, chi2 & Mass for <> & i_chain = 1 ...  7 solutions
AV       1.7422      1.7445      1.7452      1.7402      1.7435      1.7409      1.7447      1.7430      1.7424
chi2 2.3527E+00  2.3689E+00  2.3646E+00  2.3662E+00  2.3626E+00  2.3650E+00  2.3653E+00  2.3657E+00  2.3658E+00
Mass 1.2353E-09  1.2460E-09  1.2460E-09  1.2503E-09  1.2502E-09  1.2441E-09  1.2435E-09  1.2491E-09  1.2463E-09
 -34.01                                  [v0_min (km/s) before EX0s...]
 112.69                                  [vd_min (km/s) before EX0s...]


## Synthetic spectrum (Best Model) ##l_obs f_obs f_syn wei
 3070    [Nl_obs]
 3359.00    0.26439   0.37786   -1.000
 3360.00    0.26493   0.36734   -1.000
 3361.00    0.26729   0.37617   -1.000
 3362.00    0.25188   0.39844   -1.000
 3363.00    0.24632   0.42170   -1.000
 3364.00    0.25785   0.43392   -1.000
 3365.00    0.28534   0.43012   -1.000
 3366.00    0.29042   0.41427   -1.000
 3367.00    0.30203   0.39483   -1.000
 3368.00    0.29677   0.37890   -1.000
 3369.00    0.28025   0.36947   -1.000
 3370.00    0.31250   0.36651   -1.000
 3371.00    0.29362   0.37024   -1.000
 3372.00    0.27237   0.38202   -1.000
 3373.00    0.26250   0.40176   -1.000
 3374.00    0.29858   0.42529   -1.000
 3375.00    0.33067   0.44462   -1.000
 3376.00    0.32575   0.45170   -1.000
 3377.00    0.31183   0.44431   -1.000
 3378.00    0.32652   0.42861   -1.000
 3379.00    0.32267   0.41515   -1.000
 3380.00    0.30482   0.41172   -1.000
 3381.00    0.31177   0.41896   -1.000
 3382.00    0.29574   0.43189   -1.000
 3383.00    0.29520   0.44508   -1.000
 3384.00    0.30803   0.45557   -1.000
 3385.00    0.32886   0.46225   -1.000
 3386.00    0.34197   0.46492   -1.000
 3387.00    0.36076   0.46446   -1.000
 3388.00    0.35169   0.46177   -1.000
 3389.00    0.36255   0.45628   -1.000
 3390.00    0.36728   0.44712   -1.000
 3391.00    0.35162   0.43655   -1.000
 3392.00    0.34571   0.43040   -1.000
 3393.00    0.33428   0.43368   -1.000
 3394.00    0.34380   0.44637   -1.000
 3395.00    0.34495   0.46387   -1.000
 3396.00    0.38390   0.48110   -1.000
 3397.00    0.40739   0.49493   32.579
 3398.00    0.42872   0.50336   32.233
 3399.00    0.42835   0.50517   32.645
 3400.00    0.41565   0.50050   33.999
 3401.00    0.40541   0.49094   34.354
 3402.00    0.40278   0.47931   34.967
 3403.00    0.40689   0.46830   35.599
 3404.00    0.41028   0.45890   36.135
 3405.00    0.43452   0.45093   36.335
 3406.00    0.40644   0.44488   36.889
 3407.00    0.43344   0.44235   37.037
 3408.00    0.42335   0.44420   36.702
 3409.00    0.40435   0.44814   35.657
 3410.00    0.38319   0.44900   35.581
 3411.00    0.39995   0.44275   37.074
 3412.00    0.44024   0.43091   37.655
 3413.00    0.43776   0.42031   37.461
 3414.00    0.43555   0.41828   36.434
 3415.00    0.43765   0.42770   34.835
 3416.00    0.42947   0.44585   33.169
 3417.00    0.42329   0.46708   31.660
 3418.00    0.43326   0.48565   31.547
 3419.00    0.44891   0.49676   31.372
 3420.00    0.46991   0.49745   31.653
 3421.00    0.49215   0.48905   32.575
 3422.00    0.45688   0.47763   33.113
 3423.00    0.43456   0.46964   32.144
 3424.00    0.45547   0.46753   31.375
 3425.00    0.45470   0.47055   34.773
 3426.00    0.46471   0.47800   -1.000
 3427.00    0.48249   0.48960  288.032
 3428.00    0.48310   0.50225   -1.000
 3429.00    0.50613   0.50900  288.032
 3430.00    0.48081   0.50473   -1.000
 3431.00    0.45984   0.49201   31.342
 3432.00    0.47236   0.47943   34.827
 3433.00    0.43623   0.47382   -1.000
 3434.00    0.43198   0.47424   -1.000
 3435.00    0.44092   0.47383   31.311
 3436.00    0.44904   0.46610   32.843
 3437.00    0.43905   0.44856   34.903
 3438.00    0.42502   0.42322   37.537
 3439.00    0.41695   0.39571   38.855
 3440.00    0.39356   0.37339   38.875
 3441.00    0.38398   0.36223   38.528
 3442.00    0.39158   0.36368   36.905
 3443.00    0.39500   0.37438   34.872
 3444.00    0.42071   0.38969   33.034
 3445.00    0.43533   0.40713   36.084
 3446.00    0.43527   0.42636   -1.000
 3447.00    0.44095   0.44670  288.032
 3448.00    0.45659   0.46485  288.032
 3449.00    0.48074   0.47540  288.032
 3450.00    0.47827   0.47559  288.032
 3451.00    0.46497   0.46919  288.032
 3452.00    0.48063   0.46373   -1.000
 3453.00    0.50518   0.46371   -1.000
 3454.00    0.48122   0.46669   -1.000
 3455.00    0.49313   0.46604   -1.000
 3456.00    0.47023   0.45741  140.136
 3457.00    0.46336   0.44216   31.290
 3458.00    0.46058   0.42597   31.632
 3459.00    0.45757   0.41492   35.745
 3460.00    0.46390   0.41304   -1.000
 3461.00    0.43703   0.42108   -1.000
 3462.00    0.44051   0.43499  284.147
 3463.00    0.46287   0.44719   -1.000
 3464.00    0.47213   0.45319   -1.000
 3465.00    0.48828   0.45547   -1.000
 3466.00    0.49044   0.45968   -1.000
 3467.00    0.48813   0.46845   -1.000
 3468.00    0.49988   0.47901   -1.000
 3469.00    0.50363   0.48554   -1.000
 3470.00    0.50698   0.48302   -1.000
 3471.00    0.50598   0.46999   -1.000
 3472.00    0.50282   0.44913   -1.000
 3473.00    0.48581   0.42629   31.660
 3474.00    0.45767   0.40868   32.583
 3475.00    0.43771   0.40245   36.662
 3476.00    0.45599   0.40940   -1.000
 3477.00    0.45409   0.42544   -1.000
 3478.00    0.46439   0.44310   -1.000
 3479.00    0.51395   0.45576   -1.000
 3480.00    0.52763   0.46026   -1.000
 3481.00    0.49989   0.45747   -1.000
 3482.00    0.46488   0.45185   -1.000
 3483.00    0.47077   0.44972   -1.000
 3484.00    0.49832   0.45507   -1.000
 3485.00    0.50084   0.46558   -1.000
 3486.00    0.49690   0.47323   -1.000
 3487.00    0.48347   0.47040   -1.000
 3488.00    0.50346   0.45631   -1.000
 3489.00    0.52100   0.43824   -1.000
 3490.00    0.49059   0.42586   -1.000
 3491.00    0.47307   0.42411   -1.000
 3492.00    0.49834   0.43040   -1.000
 3493.00    0.49276   0.43770   -1.000
 3494.00    0.48307   0.44065   -1.000
 3495.00    0.47770   0.44021   -1.000
 3496.00    0.45358   0.44297   -1.000
 3497.00    0.45696   0.45450  260.193
 3498.00    0.47703   0.47312  249.136
 3499.00    0.50858   0.49177   -1.000
 3500.00    0.53104   0.50572   -1.000
 3501.00    0.53210   0.51510   -1.000
 3502.00    0.55215   0.52054   -1.000
 3503.00    0.55990   0.52079   -1.000
 3504.00    0.53969   0.51556   -1.000
 3505.00    0.54431   0.50768   -1.000
 3506.00    0.53612   0.50043   -1.000
 3507.00    0.53982   0.49394   -1.000
 3508.00    0.52156   0.48591   -1.000
 3509.00    0.51327   0.47514   -1.000
 3510.00    0.51732   0.46254   -1.000
 3511.00    0.51481   0.44983   -1.000
 3512.00    0.51438   0.43958   -1.000
 3513.00    0.47784   0.43639   -1.000
 3514.00    0.45726   0.44513   -1.000
 3515.00    0.46846   0.46566  250.162
 3516.00    0.49024   0.49015  248.349
 3517.00    0.51628   0.50709  256.472
 3518.00    0.52137   0.50886   -1.000
 3519.00    0.54509   0.49548   -1.000
 3520.00    0.52596   0.47303   -1.000
 3521.00    0.50534   0.44852   -1.000
 3522.00    0.50097   0.42641   31.411
 3523.00    0.46659   0.40950   32.315
 3524.00    0.45654   0.40168   38.053
 3525.00    0.43864   0.40686   -1.000
 3526.00    0.42938   0.42530  275.504
 3527.00    0.44291   0.45131  262.564
 3528.00    0.46349   0.47564   -1.000
 3529.00    0.52321   0.49072   -1.000
 3530.00    0.53561   0.49577   -1.000
 3531.00    0.51307   0.49644   -1.000
 3532.00    0.49997   0.49931  258.091
 3533.00    0.50382   0.50632  252.856
 3534.00    0.52619   0.51467  249.945
 3535.00    0.53787   0.52128   -1.000
 3536.00    0.54647   0.52626   -1.000
 3537.00    0.53561   0.53097  245.580
 3538.00    0.54987   0.53448   -1.000
 3539.00    0.53862   0.53428  252.550
 3540.00    0.54131   0.53071  253.979
 3541.00    0.51007   0.52804   -1.000
 3542.00    0.50675   0.52994   -1.000
 3543.00    0.51765   0.53531   -1.000
 3544.00    0.52581   0.53947   -1.000
 3545.00    0.53175   0.53935  258.746
 3546.00    0.52028   0.53609   -1.000
 3547.00    0.52666   0.53287  258.578
 3548.00    0.52600   0.53101  257.748
 3549.00    0.51612   0.52864   -1.000
 3550.00    0.51394   0.52294  270.391
 3551.00    0.51294   0.51314  277.570
 3552.00    0.51013   0.50204  280.665
 3553.00    0.50498   0.49432  277.217
 3554.00    0.49634   0.49234  272.266
 3555.00    0.48109   0.49408   -1.000
 3556.00    0.46228   0.49557   -1.000
 3557.00    0.45786   0.49522   -1.000
 3558.00    0.47083   0.49537   -1.000
 3559.00    0.46825   0.49920   -1.000
 3560.00    0.46308   0.50613   -1.000
 3561.00    0.46363   0.51004   -1.000
 3562.00    0.48050   0.50293  110.608
 3563.00    0.50523   0.48200   31.789
 3564.00    0.48329   0.45403   32.759
 3565.00    0.45916   0.43050   32.404
 3566.00    0.43020   0.41709   32.481
 3567.00    0.42760   0.41013   33.504
 3568.00    0.44134   0.40393   33.768
 3569.00    0.42447   0.39849   32.596
 3570.00    0.40481   0.39872   38.400
 3571.00    0.40170   0.40735  288.032
 3572.00    0.40637   0.42135   -1.000
 3573.00    0.43139   0.43497  288.032
 3574.00    0.46895   0.44386   -1.000
 3575.00    0.46143   0.44552   -1.000
 3576.00    0.45493   0.43839  112.161
 3577.00    0.45304   0.42216   33.107
 3578.00    0.42616   0.39943   35.596
 3579.00    0.41745   0.37620   37.181
 3580.00    0.40460   0.35933   37.387
 3581.00    0.38632   0.35210   37.705
 3582.00    0.37857   0.35187   38.730
 3583.00    0.37922   0.35312   39.860
 3584.00    0.38321   0.35289   39.841
 3585.00    0.36666   0.35334   37.775
 3586.00    0.37315   0.35919   35.801
 3587.00    0.38059   0.37373   33.728
 3588.00    0.39049   0.39666   38.721
 3589.00    0.41774   0.42378  286.972
 3590.00    0.44027   0.44861  278.488
 3591.00    0.46647   0.46606  277.127
 3592.00    0.49253   0.47660   -1.000
 3593.00    0.51017   0.48568   -1.000
 3594.00    0.49332   0.49847  250.088
 3595.00    0.47783   0.51525   -1.000
 3596.00    0.49770   0.53236   -1.000
 3597.00    0.53938   0.54659  234.787
 3598.00    0.54222   0.55577   -1.000
 3599.00    0.55621   0.55673  251.659
 3600.00    0.56153   0.54651   -1.000
 3601.00    0.55156   0.52610   -1.000
 3602.00    0.53659   0.50127   -1.000
 3603.00    0.50931   0.47939   -1.000
 3604.00    0.48683   0.46433   -1.000
 3605.00    0.47204   0.45438   -1.000
 3606.00    0.47407   0.44520   -1.000
 3607.00    0.47772   0.43559   -1.000
 3608.00    0.46950   0.42981   -1.000
 3609.00    0.45111   0.43338   -1.000
 3610.00    0.46780   0.44684   -1.000
 3611.00    0.48972   0.46502   -1.000
 3612.00    0.50371   0.48272   -1.000
 3613.00    0.50838   0.49712  254.481
 3614.00    0.51708   0.50482   -1.000
 3615.00    0.50093   0.50042  283.424
 3616.00    0.50169   0.48153  100.422
 3617.00    0.49105   0.45555   39.174
 3618.00    0.47044   0.43809   -1.000
 3619.00    0.46139   0.44057   -1.000
 3620.00    0.48348   0.46227   -1.000
 3621.00    0.52054   0.49297   -1.000
 3622.00    0.52823   0.52307  239.798
 3623.00    0.54164   0.54995  230.523
 3624.00    0.56791   0.57560  222.333
 3625.00    0.59368   0.59926  220.881
 3626.00    0.59020   0.61419   -1.000
 3627.00    0.59839   0.61115   -1.000
 3628.00    0.61034   0.58574   -1.000
 3629.00    0.58764   0.54415   -1.000
 3630.00    0.56076   0.50249   -1.000
 3631.00    0.52740   0.47611   -1.000
 3632.00    0.49488   0.47093   -1.000
 3633.00    0.50368   0.48194   -1.000
 3634.00    0.51774   0.50015   -1.000
 3635.00    0.51987   0.51953  241.656
 3636.00    0.53956   0.53949  231.470
 3637.00    0.55581   0.56060  225.593
 3638.00    0.56721   0.58018   -1.000
 3639.00    0.55719   0.59268   -1.000
 3640.00    0.58841   0.59331  242.264
 3641.00    0.60591   0.58184   -1.000
 3642.00    0.57507   0.56252   -1.000
 3643.00    0.55337   0.54051   -1.000
 3644.00    0.54713   0.51907   -1.000
 3645.00    0.53559   0.49959   -1.000
 3646.00    0.52611   0.48415   -1.000
 3647.00    0.49408   0.47731   -1.000
 3648.00    0.49586   0.48340   -1.000
 3649.00    0.50529   0.50329  239.653
 3650.00    0.52591   0.53255  230.692
 3651.00    0.55495   0.56378  225.709
 3652.00    0.58541   0.58969  223.214
 3653.00    0.59912   0.60796  222.015
 3654.00    0.61860   0.62112  219.483
 3655.00    0.63276   0.63341  216.823
 3656.00    0.63904   0.64656  214.112
 3657.00    0.64060   0.65848   -1.000
 3658.00    0.64623   0.66598   -1.000
 3659.00    0.65859   0.66676  217.351
 3660.00    0.65537   0.66048  220.050
 3661.00    0.64691   0.64904  223.311
 3662.00    0.63191   0.63671  223.800
 3663.00    0.62817   0.62744  221.762
 3664.00    0.62261   0.62238  223.148
 3665.00    0.60848   0.61890  227.355
 3666.00    0.62414   0.61323  230.645
 3667.00    0.62102   0.60474   -1.000
 3668.00    0.61278   0.59771   -1.000
 3669.00    0.60243   0.59831  223.141
 3670.00    0.59834   0.60800  219.715
 3671.00    0.61760   0.62174  219.190
 3672.00    0.63455   0.63239  219.300
 3673.00    0.64061   0.63522  221.496
 3674.00    0.64006   0.62864  228.507
 3675.00    0.65054   0.61316   -1.000
 3676.00    0.62396   0.59125   -1.000
 3677.00    0.61640   0.56764   -1.000
 3678.00    0.59489   0.54895   -1.000
 3679.00    0.56489   0.54112   -1.000
 3680.00    0.55764   0.54550  232.011
 3681.00    0.56890   0.55700  232.056
 3682.00    0.59259   0.56683   -1.000
 3683.00    0.59693   0.56684   -1.000
 3684.00    0.56890   0.55453   -1.000
 3685.00    0.56911   0.53541   -1.000
 3686.00    0.56353   0.52166   -1.000
 3687.00    0.54210   0.52392   -1.000
 3688.00    0.54612   0.54488  218.686
 3689.00    0.56912   0.57683  214.498
 3690.00    0.59940   0.60641  217.469
 3691.00    0.63004   0.62217  222.747
 3692.00    0.65061   0.62235   -1.000
 3693.00    0.64957   0.61433   -1.000
 3694.00    0.62508   0.60751   -1.000
 3695.00    0.62016   0.60833  216.972
 3696.00    0.62836   0.61857  210.232
 3697.00    0.64157   0.63575  205.649
 3698.00    0.64737   0.65294  204.840
 3699.00    0.65433   0.66191  210.428
 3700.00    0.66753   0.65547  223.054
 3701.00    0.66232   0.63043   -1.000
 3702.00    0.63709   0.58944   -1.000
 3703.00    0.60342   0.54270   -1.000
 3704.00    0.57617   0.50229   -1.000
 3705.00    0.53944   0.47761   -1.000
 3706.00    0.51516   0.47004   -1.000
 3707.00    0.52738   0.47639   -1.000
 3708.00    0.52386   0.49372   -1.000
 3709.00    0.52718   0.52087  227.182
 3710.00    0.55568   0.55534  214.823
 3711.00    0.58610   0.59243  206.045
 3712.00    0.62542   0.62481  202.346
 3713.00    0.65739   0.64475  203.528
 3714.00    0.68118   0.64725   -1.000
 3715.00    0.68254   0.63104   -1.000
 3716.00    0.65125   0.59705   -1.000
 3717.00    0.61202   0.54906   -1.000
 3718.00    0.56764   0.49520   -1.000
 3719.00    0.51107   0.44794   42.996
 3720.00    0.45122   0.42172   -1.000
 3721.00    0.43394   0.42394  252.974
 3722.00    0.46964   0.45111   -1.000
 3723.00    0.50606   0.49025   -1.000
 3724.00    0.55272   0.52512   -1.000
 3725.00    0.58864   0.54487   -1.000
 3726.00    0.60202   0.55017   -1.000
 3727.00    0.59741   0.54903   -1.000
 3728.00    0.57816   0.54559   -1.000
 3729.00    0.57450   0.53619   -1.000
 3730.00    0.57948   0.51397   -1.000
 3731.00    0.55287   0.47665   32.168
 3732.00    0.50943   0.43170   35.280
 3733.00    0.46522   0.39082   35.604
 3734.00    0.42089   0.36620   33.283
 3735.00    0.39445   0.36493   42.585
 3736.00    0.41479   0.38775   -1.000
 3737.00    0.44917   0.42816   -1.000
 3738.00    0.47087   0.47536  232.544
 3739.00    0.50407   0.51477  234.576
 3740.00    0.54633   0.53504   -1.000
 3741.00    0.56140   0.53179   -1.000
 3742.00    0.55819   0.51026   -1.000
 3743.00    0.54085   0.47994   -1.000
 3744.00    0.52111   0.45047   -1.000
 3745.00    0.48431   0.42531   32.168
 3746.00    0.45652   0.40427   33.724
 3747.00    0.45807   0.38903   -1.000
 3748.00    0.45179   0.38558   -1.000
 3749.00    0.42282   0.40092   -1.000
 3750.00    0.43495   0.43616  234.813
 3751.00    0.49719   0.48358  218.933
 3752.00    0.55057   0.53197   -1.000
 3753.00    0.56460   0.57018  210.743
 3754.00    0.58604   0.58729  227.741
 3755.00    0.61115   0.57838   -1.000
 3756.00    0.60565   0.54937   -1.000
 3757.00    0.57394   0.51592   -1.000
 3758.00    0.53897   0.49456   -1.000
 3759.00    0.52014   0.49046   -1.000
 3760.00    0.51885   0.49770   -1.000
 3761.00    0.53821   0.50608   -1.000
 3762.00    0.54165   0.51015   -1.000
 3763.00    0.53204   0.50987   -1.000
 3764.00    0.53723   0.50690   -1.000
 3765.00    0.54576   0.50333   -1.000
 3766.00    0.56138   0.50215   -1.000
 3767.00    0.54736   0.50560   -1.000
 3768.00    0.55430   0.51394   -1.000
 3769.00    0.57900   0.52668   -1.000
 3770.00    0.59100   0.54370   -1.000
 3771.00    0.59575   0.56340   -1.000
 3772.00    0.61259   0.58252   -1.000
 3773.00    0.61593   0.59711   -1.000
 3774.00    0.63054   0.60656   -1.000
 3775.00    0.63935   0.61341   -1.000
 3776.00    0.62028   0.62089  208.873
 3777.00    0.62557   0.63104  202.504
 3778.00    0.64315   0.64347  198.952
 3779.00    0.65212   0.65638  197.704
 3780.00    0.65845   0.66724  196.949
 3781.00    0.66710   0.67373  198.578
 3782.00    0.67626   0.67312  205.251
 3783.00    0.68739   0.66186   -1.000
 3784.00    0.66890   0.63817   -1.000
 3785.00    0.64505   0.60570   -1.000
 3786.00    0.60614   0.57232   -1.000
 3787.00    0.56871   0.54643   -1.000
 3788.00    0.55645   0.53332   -1.000
 3789.00    0.55020   0.53197   -1.000
 3790.00    0.54065   0.53561  244.199
 3791.00    0.55015   0.53596   -1.000
 3792.00    0.55189   0.52756   -1.000
 3793.00    0.53047   0.51159   -1.000
 3794.00    0.50278   0.49173   -1.000
 3795.00    0.49971   0.47140   -1.000
 3796.00    0.50377   0.45351   -1.000
 3797.00    0.49829   0.44389   -1.000
 3798.00    0.48414   0.44989   -1.000
 3799.00    0.48231   0.47468  231.706
 3800.00    0.49919   0.51204   -1.000
 3801.00    0.52138   0.55181   -1.000
 3802.00    0.55349   0.58320   -1.000
 3803.00    0.57887   0.60029   -1.000
 3804.00    0.58469   0.60244   -1.000
 3805.00    0.57271   0.59565   -1.000
 3806.00    0.55576   0.58924   -1.000
 3807.00    0.55400   0.59055   -1.000
 3808.00    0.55614   0.59889   -1.000
 3809.00    0.56972   0.60618   -1.000
 3810.00    0.59666   0.60304  239.610
 3811.00    0.59680   0.58494   -1.000
 3812.00    0.56361   0.55593  268.386
 3813.00    0.53013   0.52442  274.386
 3814.00    0.48607   0.49985   -1.000
 3815.00    0.46189   0.48611   -1.000
 3816.00    0.46329   0.47964   -1.000
 3817.00    0.46797   0.47243  288.032
 3818.00    0.47617   0.46025   -1.000
 3819.00    0.46756   0.44752   -1.000
 3820.00    0.44560   0.44077  279.466
 3821.00    0.44421   0.44074  288.032
 3822.00    0.45367   0.44001   76.552
 3823.00    0.45318   0.43191   32.871
 3824.00    0.43305   0.41835   33.206
 3825.00    0.41257   0.40594   32.812
 3826.00    0.40323   0.40034   32.273
 3827.00    0.39562   0.40185   32.084
 3828.00    0.40598   0.40625   32.886
 3829.00    0.42523   0.40751   34.818
 3830.00    0.43237   0.40170   37.014
 3831.00    0.42451   0.38935   37.415
 3832.00    0.41083   0.37512   36.349
 3833.00    0.39999   0.36495   35.118
 3834.00    0.38651   0.36160   34.922
 3835.00    0.39530   0.36391   35.732
 3836.00    0.41304   0.36813   36.030
 3837.00    0.41663   0.37274   34.809
 3838.00    0.42391   0.38062   49.839
 3839.00    0.42426   0.39649   -1.000
 3840.00    0.41910   0.42317  267.997
 3841.00    0.45035   0.45717  255.696
 3842.00    0.48355   0.49178  252.906
 3843.00    0.49564   0.51954   -1.000
 3844.00    0.50472   0.53738   -1.000
 3845.00    0.51190   0.54619   -1.000
 3846.00    0.50845   0.54786   -1.000
 3847.00    0.51151   0.54384   -1.000
 3848.00    0.50644   0.53703   -1.000
 3849.00    0.50854   0.53192   -1.000
 3850.00    0.50424   0.53181   -1.000
 3851.00    0.50005   0.53454   -1.000
 3852.00    0.50925   0.53483   -1.000
 3853.00    0.51866   0.52861  278.693
 3854.00    0.49980   0.51607   -1.000
 3855.00    0.47382   0.49982   69.495
 3856.00    0.47807   0.48222   31.614
 3857.00    0.49572   0.46598   32.565
 3858.00    0.48730   0.45679   48.445
 3859.00    0.47167   0.46024   -1.000
 3860.00    0.46799   0.47782  253.441
 3861.00    0.47781   0.50290   -1.000
 3862.00    0.51697   0.52503  250.452
 3863.00    0.54085   0.53690  255.043
 3864.00    0.53879   0.53871  259.316
 3865.00    0.52949   0.53524  266.479
 3866.00    0.51623   0.53007   -1.000
 3867.00    0.50448   0.52306   -1.000
 3868.00    0.50476   0.51272   69.682
 3869.00    0.50428   0.49939   47.940
 3870.00    0.49568   0.48864  288.032
 3871.00    0.48332   0.48731  264.250
 3872.00    0.48174   0.49902   -1.000
 3873.00    0.49228   0.51902   -1.000
 3874.00    0.52569   0.53669  256.487
 3875.00    0.56185   0.54151   -1.000
 3876.00    0.56452   0.53235   -1.000
 3877.00    0.53994   0.51768   -1.000
 3878.00    0.51283   0.50640  288.032
 3879.00    0.50253   0.50232  288.032
 3880.00    0.50114   0.50399  278.316
 3881.00    0.49969   0.50862  256.768
 3882.00    0.50270   0.51346  249.573
 3883.00    0.52302   0.51332  258.035
 3884.00    0.54722   0.50303   -1.000
 3885.00    0.53753   0.48452   -1.000
 3886.00    0.51473   0.46679   -1.000
 3887.00    0.52078   0.46151   -1.000
 3888.00    0.54129   0.47560   -1.000
 3889.00    0.55600   0.50752   -1.000
 3890.00    0.58815   0.54788   -1.000
 3891.00    0.64045   0.58476   -1.000
 3892.00    0.67195   0.60887   -1.000
 3893.00    0.66499   0.61923   -1.000
 3894.00    0.64962   0.62187   -1.000
 3895.00    0.64692   0.62295   -1.000
 3896.00    0.65472   0.62468   -1.000
 3897.00    0.66969   0.62576   -1.000
 3898.00    0.66499   0.62551   -1.000
 3899.00    0.64873   0.62541   -1.000
 3900.00    0.65360   0.62541   -1.000
 3901.00    0.65941   0.62308   -1.000
 3902.00    0.67491   0.61673   -1.000
 3903.00    0.67017   0.60796   -1.000
 3904.00    0.63678   0.60284   -1.000
 3905.00    0.60946   0.60745  205.675
 3906.00    0.61475   0.62444  195.575
 3907.00    0.65128   0.65012  192.273
 3908.00    0.68340   0.67718  190.538
 3909.00    0.71000   0.69907  189.007
 3910.00    0.72796   0.71358  189.314
 3911.00    0.73827   0.72093   -1.000
 3912.00    0.75114   0.72196   -1.000
 3913.00    0.75190   0.71739   -1.000
 3914.00    0.74218   0.70820   -1.000
 3915.00    0.72207   0.69515   -1.000
 3916.00    0.71037   0.67833   -1.000
 3917.00    0.69936   0.65721   -1.000
 3918.00    0.68523   0.63248   -1.000
 3919.00    0.65929   0.60825   -1.000
 3920.00    0.63125   0.58965   -1.000
 3921.00    0.60556   0.58039   -1.000
 3922.00    0.59431   0.57863   -1.000
 3923.00    0.59943   0.57734   -1.000
 3924.00    0.60484   0.56891   -1.000
 3925.00    0.60017   0.54842   -1.000
 3926.00    0.58327   0.51706   36.832
 3927.00    0.52929   0.47912   43.155
 3928.00    0.46080   0.44004   50.720
 3929.00    0.39729   0.40309   59.773
 3930.00    0.33546   0.36940   68.023
 3931.00    0.31123   0.34099   70.223
 3932.00    0.31541   0.32160   64.242
 3933.00    0.31952   0.31666   54.434
 3934.00    0.32236   0.32914   44.834
 3935.00    0.33140   0.35726   37.223
 3936.00    0.36331   0.39546   54.550
 3937.00    0.41003   0.43783   -1.000
 3938.00    0.46299   0.47753  272.996
 3939.00    0.51373   0.50967  266.206
 3940.00    0.55262   0.53127   -1.000
 3941.00    0.57006   0.54315   -1.000
 3942.00    0.56038   0.55066   -1.000
 3943.00    0.54639   0.56113  222.061
 3944.00    0.55618   0.57875   -1.000
 3945.00    0.59303   0.60164  212.069
 3946.00    0.64681   0.62519   -1.000
 3947.00    0.68086   0.64646   -1.000
 3948.00    0.69660   0.66527   -1.000
 3949.00    0.72059   0.68157   -1.000
 3950.00    0.74475   0.69330   -1.000
 3951.00    0.74958   0.70049   -1.000
 3952.00    0.73681   0.70518   -1.000
 3953.00    0.73992   0.70784   -1.000
 3954.00    0.76014   0.70709   -1.000
 3955.00    0.75050   0.70186   -1.000
 3956.00    0.72303   0.69293   -1.000
 3957.00    0.71464   0.68018   -1.000
 3958.00    0.71370   0.65942   -1.000
 3959.00    0.69740   0.62601   -1.000
 3960.00    0.64798   0.58329   -1.000
 3961.00    0.57615   0.53895   64.448
 3962.00    0.51531   0.50002   34.794
 3963.00    0.47439   0.46624   41.705
 3964.00    0.44368   0.43145   51.327
 3965.00    0.41128   0.39260   60.185
 3966.00    0.36985   0.35275   61.423
 3967.00    0.33838   0.32156   53.736
 3968.00    0.32381   0.30866   44.173
 3969.00    0.33583   0.31886   36.616
 3970.00    0.37100   0.35026   55.273
 3971.00    0.41772   0.39710   -1.000
 3972.00    0.46988   0.45186   -1.000
 3973.00    0.53151   0.50906   -1.000
 3974.00    0.59987   0.56485   -1.000
 3975.00    0.65831   0.61718   -1.000
 3976.00    0.68793   0.66581   -1.000
 3977.00    0.71364   0.70926  177.238
 3978.00    0.76109   0.74558  176.780
 3979.00    0.80169   0.77083   -1.000
 3980.00    0.82136   0.78384   -1.000
 3981.00    0.82056   0.78769   -1.000
 3982.00    0.81189   0.78887   -1.000
 3983.00    0.81740   0.79380   -1.000
 3984.00    0.82334   0.80475  168.018
 3985.00    0.82399   0.82045  165.542
 3986.00    0.83452   0.83747  165.015
 3987.00    0.85525   0.85173  164.874
 3988.00    0.87708   0.86135  162.459
 3989.00    0.88532   0.86793  158.548
 3990.00    0.88760   0.87440  157.410
 3991.00    0.90589   0.88152   -1.000
 3992.00    0.93123   0.88647   -1.000
 3993.00    0.94252   0.88528   -1.000
 3994.00    0.93566   0.87760   -1.000
 3995.00    0.90652   0.86773   -1.000
 3996.00    0.88131   0.86337  162.975
 3997.00    0.88217   0.86995  156.363
 3998.00    0.89410   0.88737  152.446
 3999.00    0.92159   0.90943  150.175
 4000.00    0.95386   0.92775   -1.000
 4001.00    0.96912   0.93425   -1.000
 4002.00    0.98137   0.92443   -1.000
 4003.00    0.97951   0.90060   -1.000
 4004.00    0.93672   0.87445   -1.000
 4005.00    0.89061   0.86109   -1.000
 4006.00    0.86979   0.86815  152.320
 4007.00    0.89238   0.89154  150.552
 4008.00    0.94615   0.91905   -1.000
 4009.00    0.97507   0.94148   -1.000
 4010.00    0.97241   0.95651  150.745
 4011.00    0.97423   0.96612  150.603
 4012.00    0.98687   0.97332  148.935
 4013.00    1.00000   0.97925  148.460
 4014.00    1.01819   0.98334   -1.000
 4015.00    1.02620   0.98539   -1.000
 4016.00    1.02441   0.98700   -1.000
 4017.00    1.01388   0.99044   -1.000
 4018.00    1.01451   0.99537  149.377
 4019.00    1.03459   0.99925   -1.000
 4020.00    1.04002   0.99891   -1.000
 4021.00    1.02334   0.99379   -1.000
 4022.00    1.00775   0.98614  151.658
 4023.00    0.99746   0.98010  146.963
 4024.00    0.99735   0.98021  142.819
 4025.00    1.01471   0.98777   -1.000
 4026.00    1.04051   0.99725   -1.000
 4027.00    1.05968   0.99681   -1.000
 4028.00    1.05676   0.97685   -1.000
 4029.00    1.01427   0.93760   -1.000
 4030.00    0.94547   0.89202   -1.000
 4031.00    0.88274   0.85621   -1.000
 4032.00    0.85460   0.84222  155.890
 4033.00    0.85962   0.85458  148.126
 4034.00    0.87803   0.89058  141.884
 4035.00    0.92168   0.93988   -1.000
 4036.00    0.98739   0.98857  140.468
 4037.00    1.04504   1.02285  143.718
 4038.00    1.08122   1.03645   -1.000
 4039.00    1.08363   1.03202   -1.000
 4040.00    1.06719   1.01483   -1.000
 4041.00    1.05572   0.98518   -1.000
 4042.00    1.04067   0.94025   -1.000
 4043.00    0.99845   0.88497   -1.000
 4044.00    0.90577   0.83716   -1.000
 4045.00    0.81414   0.81974  153.334
 4046.00    0.80053   0.84300   -1.000
 4047.00    0.87618   0.89463   -1.000
 4048.00    0.96675   0.95249  143.545
 4049.00    1.01573   0.99648  146.094
 4050.00    1.04152   1.01779   -1.000
 4051.00    1.05228   1.01815   -1.000
 4052.00    1.04025   1.00427   -1.000
 4053.00    1.01164   0.98395   -1.000
 4054.00    0.98630   0.96292   -1.000
 4055.00    0.97674   0.94507   -1.000
 4056.00    0.95454   0.93373  153.266
 4057.00    0.92937   0.93185  148.948
 4058.00    0.92894   0.93723  148.878
 4059.00    0.94507   0.93984  155.784
 4060.00    0.96962   0.92851   -1.000
 4061.00    0.97403   0.90036   -1.000
 4062.00    0.92046   0.86744   -1.000
 4063.00    0.84267   0.84660  159.189
 4064.00    0.82376   0.84719   -1.000
 4065.00    0.87228   0.86736  150.490
 4066.00    0.92349   0.89631   -1.000
 4067.00    0.95378   0.92137   -1.000
 4068.00    0.98813   0.93276   -1.000
 4069.00    1.01084   0.92764   -1.000
 4070.00    0.99897   0.91324   -1.000
 4071.00    0.95104   0.90314   -1.000
 4072.00    0.93013   0.90333   -1.000
 4073.00    0.96003   0.90723   -1.000
 4074.00    0.97582   0.90335   -1.000
 4075.00    0.95161   0.88906   -1.000
 4076.00    0.89643   0.87722  165.190
 4077.00    0.86183   0.88298   -1.000
 4078.00    0.88928   0.91230   -1.000
 4079.00    0.94996   0.95490  145.591
 4080.00    1.00955   0.99297  149.524
 4081.00    1.04906   1.01305   -1.000
 4082.00    1.05583   1.01463   -1.000
 4083.00    1.03287   1.00966   -1.000
 4084.00    1.00775   1.01180  143.588
 4085.00    1.00652   1.02833   -1.000
 4086.00    1.03036   1.05469   -1.000
 4087.00    1.08137   1.08022  138.712
 4088.00    1.13008   1.09455   -1.000
 4089.00    1.14053   1.09411   -1.000
 4090.00    1.11746   1.08262   -1.000
 4091.00    1.08507   1.06632  145.831
 4092.00    1.07145   1.04763   -1.000
 4093.00    1.07601   1.02492   -1.000
 4094.00    1.06974   0.99691   -1.000
 4095.00    1.02055   0.96510   -1.000
 4096.00    0.95628   0.93323   -1.000
 4097.00    0.92757   0.90162   -1.000
 4098.00    0.91761   0.86817   -1.000
 4099.00    0.90284   0.83401   -1.000
 4100.00    0.86965   0.80814   -1.000
 4101.00    0.82824   0.80253   -1.000
 4102.00    0.82614   0.82391  160.965
 4103.00    0.86315   0.86640  154.431
 4104.00    0.91477   0.91651  151.944
 4105.00    0.96709   0.96017  152.467
 4106.00    1.01605   0.98882   -1.000
 4107.00    1.03360   1.00132   -1.000
 4108.00    1.01396   1.00163  157.406
 4109.00    0.99106   0.99725  154.470
 4110.00    0.96360   0.99595   -1.000
 4111.00    0.94979   1.00234   -1.000
 4112.00    0.95482   1.01631   -1.000
 4113.00    0.97945   1.03329   -1.000
 4114.00    1.02534   1.04640   -1.000
 4115.00    1.04626   1.04982  153.308
 4116.00    1.04264   1.04220  156.661
 4117.00    1.03134   1.02800  156.301
 4118.00    1.01756   1.01458  154.469
 4119.00    0.99686   1.00789  153.860
 4120.00    0.99871   1.00894  153.024
 4121.00    1.01389   1.01531  150.733
 4122.00    1.00847   1.02416  149.252
 4123.00    1.01808   1.03296  150.199
 4124.00    1.03836   1.03867  152.964
 4125.00    1.05470   1.03817  155.155
 4126.00    1.04524   1.03039  156.122
 4127.00    1.01826   1.01673  157.569
 4128.00    0.99500   0.99900  161.268
 4129.00    0.97937   0.97742  166.439
 4130.00    0.96421   0.95431  168.976
 4131.00    0.94428   0.93578  165.871
 4132.00    0.91872   0.93098  158.592
 4133.00    0.91152   0.94570   -1.000
 4134.00    0.92739   0.97658   -1.000
 4135.00    0.96454   1.01394   -1.000
 4136.00    1.01361   1.04713   -1.000
 4137.00    1.04390   1.06842   -1.000
 4138.00    1.06459   1.07359  152.260
 4139.00    1.06685   1.05920  163.138
 4140.00    1.04986   1.02535   -1.000
 4141.00    1.01986   0.98018   -1.000
 4142.00    0.95238   0.94079  165.143
 4143.00    0.86664   0.92386   -1.000
 4144.00    0.84998   0.93384   -1.000
 4145.00    0.90909   0.96093   -1.000
 4146.00    0.96550   0.98767   -1.000
 4147.00    0.99790   1.00273  161.947
 4148.00    1.00504   1.00507  162.062
 4149.00    0.97878   1.00042   -1.000
 4150.00    0.94557   0.99418   -1.000
 4151.00    0.94029   0.98798   -1.000
 4152.00    0.94199   0.98180   -1.000
 4153.00    0.94038   0.97681   -1.000
 4154.00    0.96736   0.97620  160.492
 4155.00    1.10875   0.98368   -1.000
 4156.00    1.15993   1.00034   -1.000
 4157.00    0.90707   1.02396   -1.000
 4158.00    0.79988   1.05046   -1.000
 4159.00    0.95419   1.07488   -1.000
 4160.00    1.05135   1.09460   -1.000
 4161.00    1.05585   1.10768   -1.000
 4162.00    1.05282   1.11222   -1.000
 4163.00    1.05752   1.10652   -1.000
 4164.00    1.04313   1.09185   -1.000
 4165.00    1.01396   1.07293   -1.000
 4166.00    0.98752   1.05701   -1.000
 4167.00    0.96583   1.04739   -1.000
 4168.00    0.96718   1.04045   -1.000
 4169.00    0.98811   1.02894   -1.000
 4170.00    0.99263   1.00815   -1.000
 4171.00    0.95582   0.98308   -1.000
 4172.00    0.90023   0.96384   -1.000
 4173.00    0.87799   0.95807   -1.000
 4174.00    0.88970   0.96542   -1.000
 4175.00    0.92328   0.97941   -1.000
 4176.00    0.94998   0.99415   -1.000
 4177.00    0.94285   1.00727   -1.000
 4178.00    0.93717   1.01747   -1.000
 4179.00    0.95809   1.02394   -1.000
 4180.00    0.97192   1.02790   -1.000
 4181.00    0.96678   1.03272   -1.000
 4182.00    0.97654   1.04164   -1.000
 4183.00    1.00662   1.05142   -1.000
 4184.00    1.03882   1.05535  161.854
 4185.00    1.05620   1.05013  162.793
 4186.00    1.02678   1.04005  159.858
 4187.00    0.98638   1.03447   -1.000
 4188.00    0.97830   1.03851   -1.000
 4189.00    1.00339   1.05084   -1.000
 4190.00    1.02738   1.06607   -1.000
 4191.00    1.03699   1.07848   -1.000
 4192.00    1.05463   1.08218   -1.000
 4193.00    1.07150   1.07241  165.986
 4194.00    1.04781   1.04770  169.861
 4195.00    0.97989   1.01438   -1.000
 4196.00    0.93480   0.98198   -1.000
 4197.00    0.93064   0.95872   -1.000
 4198.00    0.93112   0.94731   -1.000
 4199.00    0.93761   0.94653  165.559
 4200.00    0.94049   0.95442  163.513
 4201.00    0.93883   0.97031   -1.000
 4202.00    0.94051   0.99479   -1.000
 4203.00    0.97038   1.02661   -1.000
 4204.00    1.02366   1.06186   -1.000
 4205.00    1.05241   1.09425   -1.000
 4206.00    1.08805   1.11873   -1.000
 4207.00    1.11706   1.13271  150.946
 4208.00    1.11783   1.13735   -1.000
 4209.00    1.10981   1.13648   -1.000
 4210.00    1.07748   1.13237   -1.000
 4211.00    1.06764   1.12356   -1.000
 4212.00    1.07750   1.10713   -1.000
 4213.00    1.05836   1.08519   -1.000
 4214.00    1.01017   1.06947   -1.000
 4215.00    0.97302   1.07228   -1.000
 4216.00    0.99661   1.09852   -1.000
 4217.00    1.08471   1.13794   -1.000
 4218.00    1.16216   1.17378  139.777
 4219.00    1.18680   1.19047  143.905
 4220.00    1.19741   1.17909  152.543
 4221.00    1.18380   1.13666   -1.000
 4222.00    1.12827   1.06698   -1.000
 4223.00    1.04621   0.98017   -1.000
 4224.00    0.93472   0.89726   -1.000
 4225.00    0.82671   0.84318   -1.000
 4226.00    0.74619   0.83817   -1.000
 4227.00    0.75145   0.88339   -1.000
 4228.00    0.87874   0.95986   -1.000
 4229.00    1.01314   1.03626   -1.000
 4230.00    1.10257   1.08838  150.333
 4231.00    1.15111   1.10839   -1.000
 4232.00    1.14629   1.10319   -1.000
 4233.00    1.11206   1.08641   -1.000
 4234.00    1.08312   1.07046  158.958
 4235.00    1.05484   1.06304  156.044
 4236.00    1.04126   1.06700   -1.000
 4237.00    1.05289   1.08197   -1.000
 4238.00    1.07293   1.10525   -1.000
 4239.00    1.09469   1.13316   -1.000
 4240.00    1.12675   1.16315   -1.000
 4241.00    1.15254   1.19306   -1.000
 4242.00    1.18377   1.22030   -1.000
 4243.00    1.22042   1.23950  147.120
 4244.00    1.26369   1.24303   -1.000
 4245.00    1.28108   1.22535   -1.000
 4246.00    1.23588   1.18907   -1.000
 4247.00    1.15848   1.14446  160.521
 4248.00    1.10016   1.10577  157.365
 4249.00    1.07019   1.08257  152.803
 4250.00    1.03616   1.07551   -1.000
 4251.00    1.02622   1.07745   -1.000
 4252.00    1.05336   1.08073   -1.000
 4253.00    1.06271   1.08477   -1.000
 4254.00    1.04574   1.09374   -1.000
 4255.00    1.05615   1.10775   -1.000
 4256.00    1.11503   1.11731  158.436
 4257.00    1.16342   1.11189   -1.000
 4258.00    1.14522   1.09408   -1.000
 4259.00    1.07796   1.08060  152.526
 4260.00    1.03276   1.09084   -1.000
 4261.00    1.03797   1.12979   -1.000
 4262.00    1.09643   1.18527   -1.000
 4263.00    1.18708   1.23596   -1.000
 4264.00    1.25433   1.26504  144.043
 4265.00    1.28197   1.26574  148.617
 4266.00    1.26609   1.23913   -1.000
 4267.00    1.22479   1.18953   -1.000
 4268.00    1.17345   1.12486   -1.000
 4269.00    1.10613   1.05564   -1.000
 4270.00    1.02210   0.99625   -1.000
 4271.00    0.93356   0.95959   -1.000
 4272.00    0.89745   0.95289   -1.000
 4273.00    0.91862   0.97588   -1.000
 4274.00    0.95032   1.02244   -1.000
 4275.00    0.98969   1.08132   -1.000
 4276.00    1.06430   1.13795   -1.000
 4277.00    1.15982   1.17739  154.724
 4278.00    1.22034   1.19288   -1.000
 4279.00    1.20711   1.18962  155.270
 4280.00    1.16295   1.17964  153.553
 4281.00    1.13383   1.17216   -1.000
 4282.00    1.11988   1.16747   -1.000
 4283.00    1.13908   1.16120   -1.000
 4284.00    1.14448   1.14933  165.408
 4285.00    1.10587   1.13055   -1.000
 4286.00    1.07727   1.10453   -1.000
 4287.00    1.06417   1.07301  181.629
 4288.00    1.02962   1.04269  175.260
 4289.00    0.96914   1.02509   -1.000
 4290.00    0.94766   1.02842   -1.000
 4291.00    0.99203   1.04968   -1.000
 4292.00    1.06758   1.07495  161.625
 4293.00    1.11669   1.08960   -1.000
 4294.00    1.11645   1.08558   -1.000
 4295.00    1.08967   1.06210   -1.000
 4296.00    1.05628   1.02199   -1.000
 4297.00    1.02181   0.97221   -1.000
 4298.00    0.95548   0.92358   -1.000
 4299.00    0.87232   0.88821  198.282
 4300.00    0.83572   0.87227   -1.000
 4301.00    0.84904   0.87281   -1.000
 4302.00    0.87177   0.88033  192.622
 4303.00    0.89046   0.88433  197.536
 4304.00    0.90622   0.87767   -1.000
 4305.00    0.90040   0.85921   -1.000
 4306.00    0.86037   0.83614   -1.000
 4307.00    0.81733   0.82144  203.326
 4308.00    0.79690   0.82771   -1.000
 4309.00    0.81915   0.85998   -1.000
 4310.00    0.87273   0.91507   -1.000
 4311.00    0.93747   0.98625   -1.000
 4312.00    1.00982   1.06814   -1.000
 4313.00    1.08188   1.15809   -1.000
 4314.00    1.15643   1.25059   -1.000
 4315.00    1.25110   1.33574   -1.000
 4316.00    1.37382   1.39987   -1.000
 4317.00    1.46625   1.43292   -1.000
 4318.00    1.48588   1.43314   -1.000
 4319.00    1.45136   1.40492   -1.000
 4320.00    1.38432   1.35267   -1.000
 4321.00    1.32126   1.28045   -1.000
 4322.00    1.26373   1.19693   -1.000
 4323.00    1.17105   1.12138   -1.000
 4324.00    1.04916   1.07943   -1.000
 4325.00    0.96718   1.08952   -1.000
 4326.00    0.99292   1.14895   -1.000
 4327.00    1.13590   1.23414   -1.000
 4328.00    1.29764   1.31442  136.656
 4329.00    1.37205   1.37109  134.686
 4330.00    1.36995   1.40376   -1.000
 4331.00    1.36628   1.42198   -1.000
 4332.00    1.38366   1.43183   -1.000
 4333.00    1.40507   1.42900   -1.000
 4334.00    1.43146   1.40310   -1.000
 4335.00    1.43829   1.34662   -1.000
 4336.00    1.37282   1.26448   -1.000
 4337.00    1.26493   1.17516   -1.000
 4338.00    1.14572   1.10515   -1.000
 4339.00    1.07167   1.07535  163.611
 4340.00    1.05274   1.09169   -1.000
 4341.00    1.10109   1.14359   -1.000
 4342.00    1.19066   1.21150   -1.000
 4343.00    1.26356   1.27750  139.011
 4344.00    1.30801   1.33273   -1.000
 4345.00    1.34373   1.37607   -1.000
 4346.00    1.37073   1.40757   -1.000
 4347.00    1.37933   1.42309   -1.000
 4348.00    1.40408   1.41551  150.464
 4349.00    1.42043   1.38296   -1.000
 4350.00    1.37560   1.33681   -1.000
 4351.00    1.25886   1.29861   -1.000
 4352.00    1.19459   1.28686   -1.000
 4353.00    1.22230   1.30441   -1.000
 4354.00    1.28222   1.33890   -1.000
 4355.00    1.33622   1.37302   -1.000
 4356.00    1.38176   1.39585  139.490
 4357.00    1.40246   1.40719  137.930
 4358.00    1.39636   1.41473  134.023
 4359.00    1.37106   1.42732   -1.000
 4360.00    1.37557   1.44833   -1.000
 4361.00    1.42531   1.47438   -1.000
 4362.00    1.46459   1.49844   -1.000
 4363.00    1.47743   1.51350   -1.000
 4364.00    1.50461   1.51410  137.087
 4365.00    1.51268   1.49833  139.546
 4366.00    1.46559   1.47059  138.854
 4367.00    1.39955   1.44049   -1.000
 4368.00    1.37165   1.41610   -1.000
 4369.00    1.37290   1.39802   -1.000
 4370.00    1.37867   1.38010  143.107
 4371.00    1.37152   1.35595  148.952
 4372.00    1.35363   1.32583   -1.000
 4373.00    1.33060   1.29858   -1.000
 4374.00    1.27507   1.28686  138.636
 4375.00    1.26469   1.29742   -1.000
 4376.00    1.29124   1.32372   -1.000
 4377.00    1.33624   1.34735  137.166
 4378.00    1.38511   1.34774   -1.000
 4379.00    1.39961   1.31215   -1.000
 4380.00    1.36289   1.24186   -1.000
 4381.00    1.27899   1.15402   -1.000
 4382.00    1.15271   1.07781   -1.000
 4383.00    1.00862   1.04173   -1.000
 4384.00    0.94627   1.05718   -1.000
 4385.00    1.02724   1.11094   -1.000
 4386.00    1.17420   1.17478  144.858
 4387.00    1.27114   1.22496   -1.000
 4388.00    1.29929   1.25479   -1.000
 4389.00    1.28493   1.27168  140.366
 4390.00    1.27442   1.28561  140.309
 4391.00    1.29833   1.30126  142.993
 4392.00    1.33049   1.31879  143.396
 4393.00    1.34528   1.33871  138.135
 4394.00    1.32860   1.36313   -1.000
 4395.00    1.34397   1.39118   -1.000
 4396.00    1.40394   1.41521  138.342
 4397.00    1.45856   1.42489   -1.000
 4398.00    1.47374   1.41577   -1.000
 4399.00    1.42877   1.39197   -1.000
 4400.00    1.35090   1.35965  143.113
 4401.00    1.32185   1.32070  150.876
 4402.00    1.31892   1.27556   -1.000
 4403.00    1.25957   1.23121   -1.000
 4404.00    1.16652   1.20206   -1.000
 4405.00    1.12271   1.20061   -1.000
 4406.00    1.16673   1.22901   -1.000
 4407.00    1.23531   1.28000   -1.000
 4408.00    1.28432   1.34301   -1.000
 4409.00    1.33903   1.40603   -1.000
 4410.00    1.41639   1.45396   -1.000
 4411.00    1.47829   1.47236  137.144
 4412.00    1.50938   1.45704   -1.000
 4413.00    1.47879   1.42030   -1.000
 4414.00    1.37516   1.38655  139.154
 4415.00    1.27878   1.37824   -1.000
 4416.00    1.28292   1.40252   -1.000
 4417.00    1.36806   1.44733   -1.000
 4418.00    1.42827   1.48993   -1.000
 4419.00    1.46910   1.51152   -1.000
 4420.00    1.48114   1.50760   -1.000
 4421.00    1.42745   1.48792   -1.000
 4422.00    1.36281   1.46760   -1.000
 4423.00    1.33666   1.45698   -1.000
 4424.00    1.34451   1.45720   -1.000
 4425.00    1.35400   1.46364   -1.000
 4426.00    1.36161   1.47108   -1.000
 4427.00    1.39927   1.47612   -1.000
 4428.00    1.41465   1.47710   -1.000
 4429.00    1.41007   1.47365   -1.000
 4430.00    1.38481   1.46588   -1.000
 4431.00    1.38624   1.45274   -1.000
 4432.00    1.41838   1.43380  145.143
 4433.00    1.40613   1.41465  140.774
 4434.00    1.34666   1.40792   -1.000
 4435.00    1.32260   1.42568   -1.000
 4436.00    1.35562   1.46659   -1.000
 4437.00    1.44274   1.51333   -1.000
 4438.00    1.53746   1.54307  134.011
 4439.00    1.58954   1.54340   -1.000
 4440.00    1.56384   1.52088   -1.000
 4441.00    1.49530   1.49593  137.260
 4442.00    1.43423   1.48966   -1.000
 4443.00    1.43019   1.50993   -1.000
 4444.00    1.50804   1.54842   -1.000
 4445.00    1.58449   1.58829  128.149
 4446.00    1.60102   1.61642  129.340
 4447.00    1.60680   1.62931   -1.000
 4448.00    1.62787   1.62951  130.134
 4449.00    1.61232   1.61966  130.603
 4450.00    1.60040   1.59906  134.666
 4451.00    1.59498   1.56578   -1.000
 4452.00    1.57800   1.52045   -1.000
 4453.00    1.51616   1.47030   -1.000
 4454.00    1.43056   1.42670  140.362
 4455.00    1.37853   1.39874   -1.000
 4456.00    1.37830   1.38719  140.581
 4457.00    1.39255   1.38527  141.923
 4458.00    1.40188   1.38666  143.247
 4459.00    1.40091   1.39087  141.197
 4460.00    1.37855   1.40296   -1.000
 4461.00    1.34737   1.42740   -1.000
 4462.00    1.37106   1.46230   -1.000
 4463.00    1.45749   1.49912   -1.000
 4464.00    1.52402   1.52765  133.005
 4465.00    1.52309   1.54240   -1.000
 4466.00    1.51302   1.54517   -1.000
 4467.00    1.51708   1.54311   -1.000
 4468.00    1.51567   1.54504   -1.000
 4469.00    1.48945   1.55834   -1.000
 4470.00    1.48140   1.58519   -1.000
 4471.00    1.54309   1.62198   -1.000
 4472.00    1.62816   1.66089   -1.000
 4473.00    1.68449   1.69502  120.910
 4474.00    1.69613   1.72124   -1.000
 4475.00    1.69012   1.73754   -1.000
 4476.00    1.71630   1.73966   -1.000
 4477.00    1.75911   1.72212   -1.000
 4478.00    1.76329   1.68490   -1.000
 4479.00    1.68911   1.63995   -1.000
 4480.00    1.59482   1.60733  128.852
 4481.00    1.53442   1.60433   -1.000
 4482.00    1.54808   1.63323   -1.000
 4483.00    1.60937   1.68051   -1.000
 4484.00    1.68331   1.72377   -1.000
 4485.00    1.76327   1.74434  127.281
 4486.00    1.77811   1.73569   -1.000
 4487.00    1.72926   1.70636  129.941
 4488.00    1.66286   1.67403  126.746
 4489.00    1.60275   1.65389   -1.000
 4490.00    1.57629   1.64923   -1.000
 4491.00    1.59160   1.65041   -1.000
 4492.00    1.63085   1.64666  132.277
 4493.00    1.63198   1.63595  131.560
 4494.00    1.56369   1.62768   -1.000
 4495.00    1.52266   1.63326   -1.000
 4496.00    1.54662   1.65547   -1.000
 4497.00    1.58481   1.68687   -1.000
 4498.00    1.64949   1.71630   -1.000
 4499.00    1.70714   1.73867   -1.000
 4500.00    1.71235   1.75760   -1.000
 4501.00    1.70307   1.78022   -1.000
 4502.00    1.72633   1.80982   -1.000
 4503.00    1.80290   1.84153   -1.000
 4504.00    1.87584   1.86586  118.734
 4505.00    1.88266   1.87634  118.990
 4506.00    1.84866   1.87407   -1.000
 4507.00    1.81133   1.86597   -1.000
 4508.00    1.80862   1.85829   -1.000
 4509.00    1.83239   1.85150  120.227
 4510.00    1.83371   1.84139  122.438
 4511.00    1.80981   1.82446  123.431
 4512.00    1.76105   1.80198   -1.000
 4513.00    1.70818   1.77967   -1.000
 4514.00    1.67808   1.76347   -1.000
 4515.00    1.71159   1.75580   -1.000
 4516.00    1.74924   1.75585  123.276
 4517.00    1.73950   1.76230  120.853
 4518.00    1.71244   1.77394   -1.000
 4519.00    1.74010   1.78778   -1.000
 4520.00    1.80081   1.79744  125.895
 4521.00    1.81326   1.79523  127.201
 4522.00    1.76994   1.77673  129.159
 4523.00    1.72012   1.74259   -1.000
 4524.00    1.68652   1.69654  136.697
 4525.00    1.64441   1.64409  138.682
 4526.00    1.58029   1.59241  138.055
 4527.00    1.51884   1.55070   -1.000
 4528.00    1.46024   1.52753   -1.000
 4529.00    1.44585   1.52557   -1.000
 4530.00    1.47796   1.53937   -1.000
 4531.00    1.53287   1.55833   -1.000
 4532.00    1.58152   1.57390  139.181
 4533.00    1.58046   1.58610  132.033
 4534.00    1.54219   1.60309   -1.000
 4535.00    1.52109   1.63351   -1.000
 4536.00    1.60059   1.67698   -1.000
 4537.00    1.73223   1.72212  123.537
 4538.00    1.78671   1.75460   -1.000
 4539.00    1.75805   1.76784  123.061
 4540.00    1.71359   1.76688   -1.000
 4541.00    1.69082   1.76132   -1.000
 4542.00    1.71545   1.75715   64.017
 4543.00    1.59158   1.75365   -1.000
 4544.00    0.59647   1.74768   -1.000
 4545.00    0.05253   1.73846   -1.000
 4546.00    0.12713   1.72739   -1.000
 4547.00    0.97123   1.71718   -1.000
 4548.00    0.67008   1.71017   -1.000
 4549.00    1.08462   1.70814   -1.000
 4550.00    1.60138   1.71043   -1.000
 4551.00    1.69200   1.71351  131.467
 4552.00    1.70335   1.71458  129.920
 4553.00    1.69069   1.71572   -1.000
 4554.00    1.68037   1.72466   -1.000
 4555.00    1.68762   1.74843   -1.000
 4556.00    1.76104   1.78683   -1.000
 4557.00    1.84338   1.83086  118.339
 4558.00    1.89425   1.86883  118.362
 4559.00    1.89374   1.89171  120.752
 4560.00    1.89319   1.89654  123.777
 4561.00    1.89767   1.88451  126.032
 4562.00    1.87816   1.86070  125.109
 4563.00    1.82390   1.83415  122.126
 4564.00    1.75775   1.81661   -1.000
 4565.00    1.74829   1.81660   -1.000
 4566.00    1.81180   1.83366  118.420
 4567.00    1.87830   1.85690  121.235
 4568.00    1.92372   1.87281   -1.000
 4569.00    1.92247   1.87442   -1.000
 4570.00    1.85500   1.86582  120.638
 4571.00    1.79292   1.85870   -1.000
 4572.00    1.78515   1.86145   -1.000
 4573.00    1.82340   1.87390   -1.000
 4574.00    1.87250   1.88758  119.683
 4575.00    1.88071   1.89268  121.565
 4576.00    1.86177   1.88327  125.038
 4577.00    1.84632   1.85929  127.789
 4578.00    1.81390   1.82598  127.801
 4579.00    1.76053   1.79259   -1.000
 4580.00    1.71912   1.76856   -1.000
 4581.00    1.73223   1.75864   -1.000
 4582.00    1.77184   1.76042  126.067
 4583.00    1.78447   1.76754  124.632
 4584.00    1.77733   1.77674  121.511
 4585.00    1.73811   1.78993   -1.000
 4586.00    1.74487   1.81040   -1.000
 4587.00    1.79724   1.83666   -1.000
 4588.00    1.86409   1.86047  122.116
 4589.00    1.91640   1.87215   -1.000
 4590.00    1.87941   1.86707  124.646
 4591.00    1.80774   1.84901   -1.000
 4592.00    1.75025   1.82638   -1.000
 4593.00    1.73738   1.80739   -1.000
 4594.00    1.74285   1.79625   -1.000
 4595.00    1.73960   1.79344   -1.000
 4596.00    1.74395   1.79718   -1.000
 4597.00    1.75708   1.80448   -1.000
 4598.00    1.80312   1.81206  124.246
 4599.00    1.81091   1.81747  123.105
 4600.00    1.80336   1.82035  121.714
 4601.00    1.78368   1.82191   -1.000
 4602.00    1.80206   1.82399  121.596
 4603.00    1.82077   1.82887  120.388
 4604.00    1.82526   1.83985  118.109
 4605.00    1.80315   1.86070   -1.000
 4606.00    1.82327   1.89228   -1.000
 4607.00    1.91744   1.93037  114.420
 4608.00    2.00490   1.96459   -1.000
 4609.00    2.06222   1.98531   -1.000
 4610.00    2.03473   1.98882   -1.000
 4611.00    1.98267   1.98007  117.602
 4612.00    1.96523   1.96926  116.589
 4613.00    1.96560   1.96461  116.059
 4614.00    1.98570   1.96859  116.715
 4615.00    1.99613   1.97804  117.585
 4616.00    2.01687   1.98808   -1.000
 4617.00    2.02193   1.99539   -1.000
 4618.00    2.01736   1.99981  114.746
 4619.00    2.00439   2.00314  114.529
 4620.00    1.98760   2.00653  114.801
 4621.00    2.00215   2.00938  115.035
 4622.00    2.02190   2.00973  116.017
 4623.00    2.00196   2.00656  116.382
 4624.00    1.98399   2.00038  116.347
 4625.00    1.96545   1.99361   -1.000
 4626.00    1.97358   1.98868  117.328
 4627.00    1.97007   1.98707  116.812
 4628.00    1.95201   1.98893   -1.000
 4629.00    1.94188   1.99263   -1.000
 4630.00    1.96447   1.99498   -1.000
 4631.00    1.99238   1.99226  118.815
 4632.00    1.97231   1.98231  118.831
 4633.00    1.92864   1.96603   -1.000
 4634.00    1.90512   1.94605   -1.000
 4635.00    1.90097   1.92502  121.840
 4636.00    1.88053   1.90449   -1.000
 4637.00    1.85638   1.88632   -1.000
 4638.00    1.81982   1.87396   -1.000
 4639.00    1.80046   1.87084   -1.000
 4640.00    1.82577   1.87642   -1.000
 4641.00    1.86786   1.88485  117.543
 4642.00    1.91396   1.88626  120.785
 4643.00    1.90749   1.87355   -1.000
 4644.00    1.87485   1.84633   -1.000
 4645.00    1.81338   1.81304  122.904
 4646.00    1.75458   1.78770   -1.000
 4647.00    1.73091   1.78179   -1.000
 4648.00    1.73775   1.79945   -1.000
 4649.00    1.81174   1.83425   -1.000
 4650.00    1.88770   1.87347  119.048
 4651.00    1.90985   1.90428  121.731
 4652.00    1.94166   1.91954  123.253
 4653.00    1.93026   1.92076  122.371
 4654.00    1.88934   1.91748   -1.000
 4655.00    1.84328   1.92189   -1.000
 4656.00    1.84669   1.94302   -1.000
 4657.00    1.92856   1.97974   -1.000
 4658.00    2.03070   2.02080  112.449
 4659.00    2.10148   2.05031   -1.000
 4660.00    2.10593   2.05655   -1.000
 4661.00    2.03344   2.03661  117.869
 4662.00    1.95928   1.99619   -1.000
 4663.00    1.89290   1.94357   -1.000
 4664.00    1.88082   1.88594  129.877
 4665.00    1.86059   1.83038   -1.000
 4666.00    1.77834   1.78652  126.597
 4667.00    1.66109   1.76546   -1.000
 4668.00    1.62881   1.77412   -1.000
 4669.00    1.69296   1.80838   -1.000
 4670.00    1.80356   1.85496   -1.000
 4671.00    1.89119   1.89801  117.038
 4672.00    1.92684   1.92928  115.595
 4673.00    1.92197   1.94900   -1.000
 4674.00    1.92820   1.96140   -1.000
 4675.00    1.94432   1.96825   -1.000
 4676.00    1.97533   1.96665  119.018
 4677.00    1.98512   1.95414   -1.000
 4678.00    1.94356   1.93221  122.227
 4679.00    1.89037   1.90810  120.851
 4680.00    1.85448   1.89074   -1.000
 4681.00    1.83069   1.88611   -1.000
 4682.00    1.84815   1.89425   -1.000
 4683.00    1.91017   1.90941  116.599
 4684.00    1.95956   1.92445   -1.000
 4685.00    1.96832   1.93362   -1.000
 4686.00    1.95576   1.93598  117.286
 4687.00    1.92958   1.93385  118.093
 4688.00    1.92442   1.93055  118.373
 4689.00    1.94644   1.92847  117.044
 4690.00    1.93850   1.92923  115.306
 4691.00    1.92332   1.93426  112.768
 4692.00    1.92365   1.94432  111.272
 4693.00    1.95608   1.95797  111.734
 4694.00    1.99535   1.97066  114.852
 4695.00    2.01836   1.97536   -1.000
 4696.00    2.03098   1.96682   -1.000
 4697.00    1.99924   1.94489   -1.000
 4698.00    1.93831   1.91536  119.755
 4699.00    1.89061   1.88614  121.840
 4700.00    1.89391   1.86414   -1.000
 4701.00    1.89698   1.85277   -1.000
 4702.00    1.85751   1.85246  118.522
 4703.00    1.84442   1.86072  120.041
 4704.00    1.88004   1.87198  122.447
 4705.00    1.94170   1.88030   -1.000
 4706.00    1.96821   1.88285   -1.000
 4707.00    1.93081   1.88283   -1.000
 4708.00    1.87743   1.88641  116.266
 4709.00    1.88124   1.89738  115.040
 4710.00    1.92936   1.91363  116.071
 4711.00    1.98579   1.92903   -1.000
 4712.00    2.00867   1.93942   -1.000
 4713.00    1.96527   1.94713  116.052
 4714.00    1.92803   1.95909   -1.000
 4715.00    1.93962   1.98141   -1.000
 4716.00    1.99739   2.01445  112.648
 4717.00    2.06785   2.05189  112.262
 4718.00    2.09909   2.08566  113.181
 4719.00    2.12422   2.10939  113.998
 4720.00    2.15582   2.12149   -1.000
 4721.00    2.12790   2.12451  112.149
 4722.00    2.09703   2.12219  112.281
 4723.00    2.07484   2.11480   -1.000
 4724.00    2.08428   2.09873  119.311
 4725.00    2.12972   2.06882   -1.000
 4726.00    2.07778   2.02466   -1.000
 4727.00    1.95869   1.97571  120.436
 4728.00    1.86226   1.93531   -1.000
 4729.00    1.83637   1.91560   -1.000
 4730.00    1.88504   1.91921   -1.000
 4731.00    1.92065   1.93992  116.341
 4732.00    1.97206   1.96719  115.692
 4733.00    2.00741   1.99137  116.902
 4734.00    2.02967   2.00866  117.080
 4735.00    2.03892   2.01990  115.588
 4736.00    2.00255   2.02935   -1.000
 4737.00    2.01207   2.04026   -1.000
 4738.00    2.06532   2.05234  116.438
 4739.00    2.10412   2.06323   -1.000
 4740.00    2.09962   2.07161   -1.000
 4741.00    2.07086   2.07792  114.464
 4742.00    2.04981   2.08426   -1.000
 4743.00    2.08770   2.09326  113.726
 4744.00    2.12698   2.10546  112.572
 4745.00    2.10866   2.12060  112.323
 4746.00    2.11005   2.13723   -1.000
 4747.00    2.14502   2.15273  112.569
 4748.00    2.13830   2.16435   -1.000
 4749.00    2.13434   2.16888   -1.000
 4750.00    2.14607   2.16426  115.639
 4751.00    2.11836   2.15066   -1.000
 4752.00    2.08545   2.13061   -1.000
 4753.00    2.05329   2.10980   -1.000
 4754.00    2.03340   2.09406   -1.000
 4755.00    2.03063   2.08703   -1.000
 4756.00    2.02399   2.08947   -1.000
 4757.00    2.01609   2.09796   -1.000
 4758.00    2.00897   2.10668   -1.000
 4759.00    2.01479   2.10846   -1.000
 4760.00    2.01578   2.09800   -1.000
 4761.00    1.97527   2.07417   -1.000
 4762.00    1.92578   2.04161   -1.000
 4763.00    1.91056   2.00806   -1.000
 4764.00    1.89772   1.98153   -1.000
 4765.00    1.87393   1.96936   -1.000
 4766.00    1.88566   1.97637   -1.000
 4767.00    1.89542   2.00159   -1.000
 4768.00    1.96460   2.03784   -1.000
 4769.00    2.01696   2.07380   -1.000
 4770.00    2.05548   2.10068   -1.000
 4771.00    2.03417   2.11901   -1.000
 4772.00    2.01258   2.13483   -1.000
 4773.00    2.04426   2.15459   -1.000
 4774.00    2.08989   2.17840   -1.000
 4775.00    2.12429   2.20126   -1.000
 4776.00    2.10025   2.21771   -1.000
 4777.00    2.10747   2.22399   -1.000
 4778.00    2.09982   2.21968   -1.000
 4779.00    2.09776   2.20616   -1.000
 4780.00    2.08385   2.18530   -1.000
 4781.00    2.07420   2.15971   -1.000
 4782.00    2.04492   2.13420   -1.000
 4783.00    2.01336   2.11284   -1.000
 4784.00    1.99685   2.09794   -1.000
 4785.00    1.99764   2.08987   -1.000
 4786.00    1.99432   2.08726   -1.000
 4787.00    1.99313   2.08852   -1.000
 4788.00    2.01380   2.09415   -1.000
 4789.00    2.02832   2.10657   -1.000
 4790.00    2.02007   2.12906   -1.000
 4791.00    2.05973   2.16305   -1.000
 4792.00    2.11559   2.20619   -1.000
 4793.00    2.16638   2.25096   -1.000
 4794.00    2.21402   2.28595   -1.000
 4795.00    2.23287   2.30134   -1.000
 4796.00    2.22765   2.29418   -1.000
 4797.00    2.17789   2.27037   -1.000
 4798.00    2.11626   2.24260   -1.000
 4799.00    2.07850   2.22485   -1.000
 4800.00    2.07474   2.22441   -1.000
 4801.00    2.12657   2.23843   -1.000
 4802.00    2.20347   2.25508   -1.000
 4803.00    2.21301   2.26246   -1.000
 4804.00    2.16042   2.25471   -1.000
 4805.00    2.11797   2.23531   -1.000
 4806.00    2.08012   2.21383   -1.000
 4807.00    2.05808   2.20000   -1.000
 4808.00    2.05871   2.19842   -1.000
 4809.00    2.06486   2.20765   -1.000
 4810.00    2.08955   2.22243   -1.000
 4811.00    2.12601   2.23737   -1.000
 4812.00    2.13604   2.25021   -1.000
 4813.00    2.12056   2.26194   -1.000
 4814.00    2.13219   2.27562   -1.000
 4815.00    2.16792   2.29295   -1.000
 4816.00    2.19517   2.31289   -1.000
 4817.00    2.21006   2.33210   -1.000
 4818.00    2.22385   2.34523   -1.000
 4819.00    2.24799   2.34668   -1.000
 4820.00    2.25781   2.33292   -1.000
 4821.00    2.24839   2.30502   -1.000
 4822.00    2.17201   2.27035   -1.000
 4823.00    2.10912   2.24099   -1.000
 4824.00    2.09005   2.22652   -1.000
 4825.00    2.13887   2.22716   -1.000
 4826.00    2.19470   2.23578   -1.000
 4827.00    2.17791   2.24282   -1.000
 4828.00    2.13649   2.24215   -1.000
 4829.00    2.15687   2.23359   -1.000
 4830.00    2.16402   2.22147   -1.000
 4831.00    2.12541   2.21258   -1.000
 4832.00    2.12183   2.21154   -1.000
 4833.00    2.12016   2.22088   -1.000
 4834.00    2.16277   2.23701   -1.000
 4835.00    2.19906   2.25240   -1.000
 4836.00    2.19811   2.25943   -1.000
 4837.00    2.18717   2.25376   -1.000
 4838.00    2.17495   2.23821   -1.000
 4839.00    2.13639   2.21931   -1.000
 4840.00    2.09856   2.20391   -1.000
 4841.00    2.10031   2.19676   -1.000
 4842.00    2.10931   2.20003   -1.000
 4843.00    2.08483   2.21348   -1.000
 4844.00    2.10551   2.23315   -1.000
 4845.00    2.19205   2.25249   -1.000
 4846.00    2.22836   2.26459   -1.000
 4847.00    2.18723   2.26700   -1.000
 4848.00    2.12415   2.26338   -1.000
 4849.00    2.11050   2.25878   -1.000
 4850.00    2.14493   2.25536   -1.000
 4851.00    2.15850   2.24849   -1.000
 4852.00    2.16284   2.23103   -1.000
 4853.00    2.14490   2.19996   -1.000
 4854.00    2.09544   2.16010   -1.000
 4855.00    2.00583   2.11901   -1.000
 4856.00    1.97114   2.07843   -1.000
 4857.00    2.02174   2.03236  152.428
 4858.00    2.01505   1.97071   -1.000
 4859.00    1.93732   1.89711   -1.000
 4860.00    1.77858   1.82948   -1.000
 4861.00    1.65909   1.79406   -1.000
 4862.00    1.69028   1.80664   -1.000
 4863.00    1.83544   1.86278   -1.000
 4864.00    1.93524   1.94221  119.607
 4865.00    1.98959   2.02031   -1.000
 4866.00    2.03968   2.07980   -1.000
 4867.00    2.04208   2.11226   -1.000
 4868.00    2.04748   2.11552   -1.000
 4869.00    2.03402   2.09422   -1.000
 4870.00    1.98770   2.06102   -1.000
 4871.00    1.90851   2.03585   -1.000
 4872.00    1.90360   2.03380   -1.000
 4873.00    1.96628   2.05831   -1.000
 4874.00    2.03463   2.10222   -1.000
 4875.00    2.05288   2.15153   -1.000
 4876.00    2.08486   2.19657   -1.000
 4877.00    2.10124   2.23381   -1.000
 4878.00    2.15262   2.26213   -1.000
 4879.00    2.19850   2.27875   -1.000
 4880.00    2.19123   2.28129   -1.000
 4881.00    2.10353   2.27148   -1.000
 4882.00    2.07571   2.25218   -1.000
 4883.00    2.11140   2.22635   -1.000
 4884.00    2.11086   2.19751   -1.000
 4885.00    2.04660   2.16867   -1.000
 4886.00    2.00483   2.14201   -1.000
 4887.00    2.00673   2.11838   -1.000
 4888.00    2.04093   2.09736   -1.000
 4889.00    2.05265   2.08063   -1.000
 4890.00    2.01150   2.07847   -1.000
 4891.00    1.99095   2.10366   -1.000
 4892.00    2.03630   2.16397   -1.000
 4893.00    2.19860   2.25032   -1.000
 4894.00    2.35354   2.34142  107.943
 4895.00    2.39835   2.41515  110.393
 4896.00    2.40839   2.45715   -1.000
 4897.00    2.43770   2.46734   -1.000
 4898.00    2.42627   2.45441  113.529
 4899.00    2.35103   2.42974   -1.000
 4900.00    2.27974   2.40253   -1.000
 4901.00    2.27557   2.37961   -1.000
 4902.00    2.27097   2.36598   -1.000
 4903.00    2.25610   2.36477   -1.000
 4904.00    2.28134   2.37519   -1.000
 4905.00    2.33415   2.38865   -1.000
 4906.00    2.37876   2.39340  117.784
 4907.00    2.36699   2.38014  119.121
 4908.00    2.31565   2.34895   -1.000
 4909.00    2.24098   2.31290   -1.000
 4910.00    2.21648   2.28912   -1.000
 4911.00    2.23454   2.28854   -1.000
 4912.00    2.26149   2.31018   -1.000
 4913.00    2.29313   2.34244   -1.000
 4914.00    2.35221   2.36703  116.157
 4915.00    2.36231   2.36499  122.625
 4916.00    2.36207   2.32395   -1.000
 4917.00    2.31507   2.24690   -1.000
 4918.00    2.17416   2.15225   -1.000
 4919.00    2.03766   2.07043   -1.000
 4920.00    1.95110   2.02848   -1.000
 4921.00    2.00183   2.03532   -1.000
 4922.00    2.12654   2.08031   -1.000
 4923.00    2.20561   2.14372   -1.000
 4924.00    2.24840   2.21079   -1.000
 4925.00    2.27828   2.27503  111.070
 4926.00    2.32682   2.33680  110.322
 4927.00    2.35201   2.39551   -1.000
 4928.00    2.41587   2.44460  110.957
 4929.00    2.44528   2.47528  114.107
 4930.00    2.43940   2.48144   -1.000
 4931.00    2.42374   2.46289   -1.000
 4932.00    2.36081   2.42718   -1.000
 4933.00    2.27119   2.38631   -1.000
 4934.00    2.25764   2.34847   -1.000
 4935.00    2.28666   2.31426  122.899
 4936.00    2.26921   2.28103  121.529
 4937.00    2.20777   2.25117   -1.000
 4938.00    2.14220   2.23569   -1.000
 4939.00    2.12477   2.24679   -1.000
 4940.00    2.20439   2.28830   -1.000
 4941.00    2.34727   2.34912  110.819
 4942.00    2.43023   2.41012  111.611
 4943.00    2.46671   2.45600  111.769
 4944.00    2.50044   2.48243  110.698
 4945.00    2.49130   2.49581  109.422
 4946.00    2.43873   2.50561   -1.000
 4947.00    2.42649   2.51798   -1.000
 4948.00    2.44060   2.53337   -1.000
 4949.00    2.44076   2.54788   -1.000
 4950.00    2.44941   2.55478   -1.000
 4951.00    2.44110   2.54877   -1.000
 4952.00    2.43288   2.52593   -1.000
 4953.00    2.40485   2.48176   -1.000
 4954.00    2.33926   2.41503   -1.000
 4955.00    2.27836   2.33183   -1.000
 4956.00    2.15121   2.25313   -1.000
 4957.00    2.00218   2.20579   -1.000
 4958.00    1.99266   2.20599   -1.000
 4959.00    2.12464   2.25204   -1.000
 4960.00    2.25785   2.31970   -1.000
 4961.00    2.28910   2.37840   -1.000
 4962.00    2.30661   2.40799   -1.000
 4963.00    2.31478   2.40454   -1.000
 4964.00    2.30233   2.37872   -1.000
 4965.00    2.23921   2.34526   -1.000
 4966.00    2.21670   2.31724   -1.000
 4967.00    2.20977   2.30423   -1.000
 4968.00    2.19765   2.30958   -1.000
 4969.00    2.22077   2.33080   -1.000
 4970.00    2.25285   2.36320   -1.000
 4971.00    2.28999   2.39989   -1.000
 4972.00    2.33576   2.43331   -1.000
 4973.00    2.35500   2.45694   -1.000
 4974.00    2.37657   2.46556   -1.000
 4975.00    2.35822   2.45701   -1.000
 4976.00    2.33357   2.43285   -1.000
 4977.00    2.30607   2.39644   -1.000
 4978.00    2.22256   2.35119   -1.000
 4979.00    2.18760   2.29878   -1.000
 4980.00    2.17270   2.24072   -1.000
 4981.00    2.11883   2.18283   -1.000
 4982.00    2.03929   2.13673   -1.000
 4983.00    1.98589   2.11590   -1.000
 4984.00    2.02224   2.12963   -1.000
 4985.00    2.10305   2.17475   -1.000
 4986.00    2.18416   2.23598   -1.000
 4987.00    2.26072   2.29334   -1.000
 4988.00    2.32583   2.33301  118.972
 4989.00    2.30433   2.35267   -1.000
 4990.00    2.26367   2.35819   -1.000
 4991.00    2.25833   2.35944   -1.000
 4992.00    2.26691   2.36304   -1.000
 4993.00    2.28206   2.37021   -1.000
 4994.00    2.28452   2.37884   -1.000
 4995.00    2.28755   2.38372   -1.000
 4996.00    2.29893   2.37881   -1.000
 4997.00    2.29603   2.36024   -1.000
 4998.00    2.25774   2.32726   -1.000
 4999.00    2.19833   2.28595   -1.000
 5000.00    2.12355   2.24634   -1.000
 5001.00    2.08692   2.21500   -1.000
 5002.00    2.13630   2.19199   -1.000
 5003.00    2.16854   2.17251  125.884
 5004.00    2.15316   2.15427  122.618
 5005.00    2.09164   2.14230   -1.000
 5006.00    2.05181   2.14571   -1.000
 5007.00    2.07719   2.16724   -1.000
 5008.00    2.16399   2.19891   -1.000
 5009.00    2.22929   2.22362  128.221
 5010.00    2.20794   2.22490  130.822
 5011.00    2.15535   2.19965   -1.000
 5012.00    2.08138   2.15933   -1.000
 5013.00    2.01428   2.12227   -1.000
 5014.00    2.01307   2.10207   -1.000
 5015.00    2.04025   2.10264   -1.000
 5016.00    2.10744   2.11868  122.556
 5017.00    2.11523   2.14127   -1.000
 5018.00    2.10978   2.16375   -1.000
 5019.00    2.13437   2.18220   -1.000
 5020.00    2.16689   2.19709   -1.000
 5021.00    2.18248   2.21109   -1.000
 5022.00    2.16515   2.22708   -1.000
 5023.00    2.16040   2.24698   -1.000
 5024.00    2.22115   2.26820   -1.000
 5025.00    2.27061   2.28567  119.473
 5026.00    2.27249   2.29770   -1.000
 5027.00    2.23364   2.30826   -1.000
 5028.00    2.22448   2.32575   -1.000
 5029.00    2.28293   2.35606   -1.000
 5030.00    2.34694   2.39659   -1.000
 5031.00    2.36894   2.43654   -1.000
 5032.00    2.42550   2.46130   -1.000
 5033.00    2.45640   2.46092  123.187
 5034.00    2.39174   2.43431   -1.000
 5035.00    2.27143   2.38821   -1.000
 5036.00    2.18291   2.33177   -1.000
 5037.00    2.18681   2.27154   -1.000
 5038.00    2.19373   2.21150  134.592
 5039.00    2.12040   2.15879   -1.000
 5040.00    1.99606   2.12809   -1.000
 5041.00    1.96052   2.13598   -1.000
 5042.00    2.06392   2.18976   -1.000
 5043.00    2.22972   2.27738   -1.000
 5044.00    2.31136   2.37070   -1.000
 5045.00    1.44875   2.43958   -1.000
 5046.00    0.21503   2.46530   -1.000
 5047.00    0.10692   2.44839   -1.000
 5048.00    0.86770   2.40534   -1.000
 5049.00    2.12505   2.35875   -1.000
 5050.00    2.24575   2.32817   -1.000
 5051.00    2.25381   2.32507   -1.000
 5052.00    2.29636   2.34871   -1.000
 5053.00    2.35144   2.38894   -1.000
 5054.00    2.41159   2.43486   -1.000
 5055.00    2.45859   2.47769  112.701
 5056.00    2.49904   2.51268  112.558
 5057.00    2.50118   2.54114   -1.000
 5058.00    2.49734   2.56532   -1.000
 5059.00    2.50282   2.58445   -1.000
 5060.00    2.52585   2.59347   -1.000
 5061.00    2.56885   2.58396  121.279
 5062.00    2.56308   2.55170  122.209
 5063.00    2.47759   2.50117  120.578
 5064.00    2.35418   2.44470   -1.000
 5065.00    2.26618   2.39750   -1.000
 5066.00    2.29589   2.37021   -1.000
 5067.00    2.34049   2.36432   -1.000
 5068.00    2.34288   2.37288   -1.000
 5069.00    2.37196   2.38587  119.035
 5070.00    2.39594   2.39614  117.554
 5071.00    2.37231   2.40186   -1.000
 5072.00    2.34674   2.40441   -1.000
 5073.00    2.36828   2.40594   -1.000
 5074.00    2.39908   2.40734  118.283
 5075.00    2.39637   2.40460  122.733
 5076.00    2.37463   2.38923  128.065
 5077.00    2.35787   2.35637  128.794
 5078.00    2.31607   2.31088  125.927
 5079.00    2.21174   2.26567   -1.000
 5080.00    2.12735   2.23484   -1.000
 5081.00    2.13619   2.22885   -1.000
 5082.00    2.19935   2.24920   -1.000
 5083.00    2.25655   2.28740   -1.000
 5084.00    2.30147   2.33293   -1.000
 5085.00    2.35868   2.37780  115.944
 5086.00    2.39977   2.41753  115.124
 5087.00    2.42387   2.45027   -1.000
 5088.00    2.45449   2.47666   -1.000
 5089.00    2.45928   2.49981   -1.000
 5090.00    2.46934   2.52276   -1.000
 5091.00    2.49844   2.54471   -1.000
 5092.00    2.52208   2.56013   -1.000
 5093.00    2.54975   2.56072  118.069
 5094.00    2.55045   2.54003  120.891
 5095.00    2.46998   2.49769   -1.000
 5096.00    2.38566   2.44197   -1.000
 5097.00    2.32153   2.38887   -1.000
 5098.00    2.26562   2.35496   -1.000
 5099.00    2.23840   2.34878   -1.000
 5100.00    2.29006   2.36766   -1.000
 5101.00    2.38187   2.39907  118.291
 5102.00    2.42989   2.42656  119.778
 5103.00    2.40946   2.43838   -1.000
 5104.00    2.37386   2.43107   -1.000
 5105.00    2.34390   2.41027   -1.000
 5106.00    2.30752   2.38456   -1.000
 5107.00    2.29751   2.36182   -1.000
 5108.00    2.29396   2.34927   -1.000
 5109.00    2.29287   2.35191   -1.000
 5110.00    2.30405   2.37097   -1.000
 5111.00    2.35191   2.40312   -1.000
 5112.00    2.40824   2.44262   -1.000
 5113.00    2.43938   2.48398   -1.000
 5114.00    2.48054   2.52254   -1.000
 5115.00    2.52928   2.55592   -1.000
 5116.00    2.55871   2.58123   -1.000
 5117.00    2.57168   2.59373   -1.000
 5118.00    2.55778   2.58904   -1.000
 5119.00    2.53026   2.56492   -1.000
 5120.00    2.48953   2.52262   -1.000
 5121.00    2.43662   2.46795   -1.000
 5122.00    2.35681   2.41031   -1.000
 5123.00    2.26930   2.35998   -1.000
 5124.00    2.22206   2.32475   -1.000
 5125.00    2.23712   2.30719   -1.000
 5126.00    2.28754   2.30523   -1.000
 5127.00    2.29769   2.31429   -1.000
 5128.00    2.28387   2.33048   -1.000
 5129.00    2.29771   2.35287   -1.000
 5130.00    2.33332   2.38116   -1.000
 5131.00    2.40160   2.41321  115.899
 5132.00    2.45856   2.44497  116.040
 5133.00    2.46946   2.47068  118.367
 5134.00    2.49974   2.48418  121.116
 5135.00    2.53466   2.48117   -1.000
 5136.00    2.52368   2.46202   -1.000
 5137.00    2.45394   2.43287  121.763
 5138.00    2.35616   2.40212   -1.000
 5139.00    2.32313   2.37840   -1.000
 5140.00    2.36040   2.36612  123.422
 5141.00    2.37984   2.36311  121.581
 5142.00    2.33372   2.36488   -1.000
 5143.00    2.31319   2.36641   -1.000
 5144.00    2.36091   2.36504  122.497
 5145.00    2.35454   2.36152  121.062
 5146.00    2.30612   2.35694   -1.000
 5147.00    2.29610   2.35292   -1.000
 5148.00    2.31213   2.35171   -1.000
 5149.00    2.32411   2.35216   -1.000
 5150.00    2.34334   2.35132  124.009
 5151.00    2.30766   2.34851   -1.000
 5152.00    2.27990   2.34870   -1.000
 5153.00    2.28323   2.36051   -1.000
 5154.00    2.31725   2.38903   -1.000
 5155.00    2.40590   2.43241   -1.000
 5156.00    2.49597   2.48305  113.016
 5157.00    2.57457   2.53005   -1.000
 5158.00    2.59027   2.56280  114.249
 5159.00    2.57670   2.57430  115.660
 5160.00    2.56507   2.56146  117.975
 5161.00    2.51689   2.52294  123.578
 5162.00    2.46061   2.45784  134.572
 5163.00    2.41001   2.36462   -1.000
 5164.00    2.32448   2.24525   -1.000
 5165.00    2.12096   2.11365  150.138
 5166.00    1.85092   1.99203   -1.000
 5167.00    1.67169   1.90055   -1.000
 5168.00    1.66439   1.84732   -1.000
 5169.00    1.82070   1.82433  159.932
 5170.00    1.91638   1.81573   -1.000
 5171.00    1.81327   1.81564  134.362
 5172.00    1.65785   1.83446   -1.000
 5173.00    1.66308   1.89026   -1.000
 5174.00    1.90113   1.98781   -1.000
 5175.00    2.17999   2.10791   -1.000
 5176.00    2.32463   2.21879   -1.000
 5177.00    2.37520   2.28925   -1.000
 5178.00    2.43904   2.30526   -1.000
 5179.00    2.41014   2.26495   -1.000
 5180.00    2.26865   2.17624   -1.000
 5181.00    2.11558   2.06205   -1.000
 5182.00    1.89439   1.95999   -1.000
 5183.00    1.67916   1.90912   -1.000
 5184.00    1.67087   1.93339   -1.000
 5185.00    1.93869   2.02619   -1.000
 5186.00    2.21576   2.15619   -1.000
 5187.00    2.36468   2.27913   -1.000
 5188.00    2.41287   2.36231   -1.000
 5189.00    2.45803   2.39481   -1.000
 5190.00    2.45697   2.38649   -1.000
 5191.00    2.37682   2.35821  124.497
 5192.00    2.30649   2.33021   -1.000
 5193.00    2.29445   2.31870   -1.000
 5194.00    2.34541   2.33282  118.352
 5195.00    2.37885   2.36986  116.587
 5196.00    2.41941   2.41864  115.863
 5197.00    2.48084   2.47006  116.016
 5198.00    2.53178   2.51500  117.259
 5199.00    2.56001   2.54367  119.572
 5200.00    2.55466   2.54797  122.563
 5201.00    2.53094   2.52276  126.468
 5202.00    2.50032   2.46854   -1.000
 5203.00    2.43310   2.39263   -1.000
 5204.00    2.34150   2.30873   -1.000
 5205.00    2.26926   2.23218   -1.000
 5206.00    2.23527   2.17838   -1.000
 5207.00    2.21806   2.15888   -1.000
 5208.00    2.21107   2.17867  118.749
 5209.00    2.24867   2.23430  114.609
 5210.00    2.33693   2.31527  113.160
 5211.00    2.46032   2.40464   -1.000
 5212.00    2.59420   2.48202   -1.000
 5213.00    2.66044   2.53190   -1.000
 5214.00    2.64965   2.55333   -1.000
 5215.00    2.60766   2.55849   -1.000
 5216.00    2.58418   2.56554  112.827
 5217.00    2.60837   2.58665  112.096
 5218.00    2.64119   2.62203  112.106
 5219.00    2.69384   2.65921   -1.000
 5220.00    2.73267   2.68014   -1.000
 5221.00    2.73622   2.67088   -1.000
 5222.00    2.70941   2.62607   -1.000
 5223.00    2.61871   2.55114   -1.000
 5224.00    2.47513   2.46326  126.088
 5225.00    2.33481   2.38846   -1.000
 5226.00    2.25824   2.35114   -1.000
 5227.00    2.29282   2.36298   -1.000
 5228.00    2.46794   2.41546   -1.000
 5229.00    2.65759   2.48375   -1.000
 5230.00    2.74340   2.53982   -1.000
 5231.00    2.74438   2.56874   -1.000
 5232.00    2.68264   2.57573   -1.000
 5233.00    2.61468   2.58045   -1.000
 5234.00    2.61472   2.60035  110.990
 5235.00    2.67538   2.64060   -1.000
 5236.00    2.76690   2.69273   -1.000
 5237.00    2.84093   2.74137   -1.000
 5238.00    2.86026   2.77590   -1.000
 5239.00    2.82767   2.79319   -1.000
 5240.00    2.78456   2.79804  110.355
 5241.00    2.76794   2.79775   -1.000
 5242.00    2.78618   2.79489  113.443
 5243.00    2.80954   2.78617   -1.000
 5244.00    2.83031   2.76613   -1.000
 5245.00    2.79793   2.73251   -1.000
 5246.00    2.68717   2.68837  119.424
 5247.00    2.59370   2.64217   -1.000
 5248.00    2.58173   2.60510   -1.000
 5249.00    2.59925   2.58560  117.372
 5250.00    2.56921   2.58368  116.539
 5251.00    2.58123   2.59349  116.398
 5252.00    2.64303   2.61056   -1.000
 5253.00    2.67563   2.63441   -1.000
 5254.00    2.66693   2.66649  109.596
 5255.00    2.67609   2.70711   -1.000
 5256.00    2.75994   2.75243  110.882
 5257.00    2.85933   2.79146   -1.000
 5258.00    2.89995   2.80745   -1.000
 5259.00    2.87154   2.78382   -1.000
 5260.00    2.81285   2.71741   -1.000
 5261.00    2.71486   2.61763   -1.000
 5262.00    2.56760   2.50317   -1.000
 5263.00    2.41708   2.39488   -1.000
 5264.00    2.30701   2.30976  126.818
 5265.00    2.26819   2.25264  130.474
 5266.00    2.31355   2.21720   -1.000
 5267.00    2.37614   2.19543   -1.000
 5268.00    2.35776   2.18648   -1.000
 5269.00    2.23760   2.19773   -1.000
 5270.00    2.23128   2.23662  117.480
 5271.00    2.39067   2.30436   -1.000
 5272.00    2.59709   2.39220   -1.000
 5273.00    2.70119   2.48393   -1.000
 5274.00    2.71070   2.56540   -1.000
 5275.00    2.71768   2.63525   -1.000
 5276.00    2.78431   2.69908   -1.000
 5277.00    2.89441   2.75228   -1.000
 5278.00    2.96946   2.78464   -1.000
 5279.00    2.98276   2.78709   -1.000
 5280.00    2.91875   2.76138   -1.000
 5281.00    2.83126   2.72511   -1.000
 5282.00    2.76902   2.70150   -1.000
 5283.00    2.72831   2.70897  108.095
 5284.00    2.74979   2.75021  107.805
 5285.00    2.90386   2.81528   -1.000
 5286.00    3.03900   2.88592   -1.000
 5287.00    3.09427   2.94554   -1.000
 5288.00    3.09171   2.98435   -1.000
 5289.00    3.08881   3.00379   -1.000
 5290.00    3.09984   3.00922   -1.000
 5291.00    3.08320   3.00300   -1.000
 5292.00    3.05327   2.98297   -1.000
 5293.00    3.03257   2.94376   -1.000
 5294.00    3.01611   2.88477   -1.000
 5295.00    2.93991   2.81263   -1.000
 5296.00    2.78856   2.74123   -1.000
 5297.00    2.66130   2.68660  114.713
 5298.00    2.64423   2.66257  113.855
 5299.00    2.74078   2.67430   -1.000
 5300.00    2.85157   2.71718   -1.000
 5301.00    2.89810   2.77869   -1.000
 5302.00    2.93745   2.84631   -1.000
 5303.00    3.02707   2.91087   -1.000
 5304.00    3.12641   2.96590   -1.000
 5305.00    3.17289   3.00651   -1.000
 5306.00    3.15991   3.03145   -1.000
 5307.00    3.13631   3.04460   -1.000
 5308.00    3.14559   3.05291   -1.000
 5309.00    3.18566   3.05976   -1.000
 5310.00    3.20796   3.06334   -1.000
 5311.00    3.20553   3.05918   -1.000
 5312.00    3.17221   3.04480   -1.000
 5313.00    3.12992   3.02273   -1.000
 5314.00    3.09904   2.99809   -1.000
 5315.00    3.08164   2.97627   -1.000
 5316.00    3.06273   2.96049   -1.000
 5317.00    3.05789   2.95101   -1.000
 5318.00    3.07220   2.94566   -1.000
 5319.00    3.07500   2.93939   -1.000
 5320.00    3.07815   2.92401   -1.000
 5321.00    3.04818   2.89435   -1.000
 5322.00    2.98435   2.84938   -1.000
 5323.00    2.91773   2.78957   -1.000
 5324.00    2.86879   2.71471   -1.000
 5325.00    2.86691   2.63112   -1.000
 5326.00    2.79842   2.55215   -1.000
 5327.00    2.60430   2.49852   -1.000
 5328.00    2.45262   2.48612   -1.000
 5329.00    2.49883   2.52384  112.204
 5330.00    2.72238   2.60439   -1.000
 5331.00    2.91342   2.70789   -1.000
 5332.00    2.99866   2.80616   -1.000
 5333.00    3.04638   2.88257   -1.000
 5334.00    3.09362   2.93384   -1.000
 5335.00    3.13964   2.96054   -1.000
 5336.00    3.13691   2.96089   -1.000
 5337.00    3.09546   2.93421   -1.000
 5338.00    3.03459   2.88872   -1.000
 5339.00    2.94772   2.84270   -1.000
 5340.00    2.86433   2.81178   -1.000
 5341.00    2.85589   2.80507   -1.000
 5342.00    2.94772   2.82063   -1.000
 5343.00    3.05432   2.84738   -1.000
 5344.00    3.08756   2.86813   -1.000
 5345.00    3.05921   2.87404   -1.000
 5346.00    3.05155   2.86752   -1.000
 5347.00    3.04340   2.85959   -1.000
 5348.00    3.00258   2.86172   -1.000
 5349.00    2.99079   2.88080   -1.000
 5350.00    3.05806   2.91798   -1.000
 5351.00    3.16567   2.96955   -1.000
 5352.00    3.21811   3.02771   -1.000
 5353.00    3.22798   3.08301   -1.000
 5354.00    3.23389   3.12918   -1.000
 5355.00    3.27594   3.16326   -1.000
 5356.00    3.32095   3.18490   -1.000
 5357.00    3.31871   3.19186   -1.000
 5358.00    3.31219   3.18303   -1.000
 5359.00    3.30569   3.16056   -1.000
 5360.00    3.26217   3.12800   -1.000
 5361.00    3.18323   3.08900   -1.000
 5362.00    3.14529   3.04799   -1.000
 5363.00    3.13396   3.00911   -1.000
 5364.00    3.09652   2.97462   -1.000
 5365.00    3.06066   2.94289   -1.000
 5366.00    3.05576   2.90857   -1.000
 5367.00    3.05613   2.86652   -1.000
 5368.00    3.04118   2.81735   -1.000
 5369.00    2.95690   2.77012   -1.000
 5370.00    2.82085   2.74087   -1.000
 5371.00    2.77308   2.74589   -1.000
 5372.00    2.87708   2.79074   -1.000
 5373.00    3.07500   2.86459   -1.000
 5374.00    3.24168   2.94603   -1.000
 5375.00    3.30035   3.01300   -1.000
 5376.00    3.28077   3.05592   -1.000
 5377.00    3.25494   3.07570   -1.000
 5378.00    3.27056   3.07968   -1.000
 5379.00    3.28478   3.07387   -1.000
 5380.00    3.27091   3.06156   -1.000
 5381.00    3.22934   3.04645   -1.000
 5382.00    3.19034   3.03384   -1.000
 5383.00    3.17517   3.02885   -1.000
 5384.00    3.17945   3.03164   -1.000
 5385.00    3.21607   3.03624   -1.000
 5386.00    3.24174   3.03427   -1.000
 5387.00    3.22983   3.01916   -1.000
 5388.00    3.17932   2.99030   -1.000
 5389.00    3.10218   2.95308   -1.000
 5390.00    3.04765   2.91605   -1.000
 5391.00    3.02159   2.88504   -1.000
 5392.00    3.01704   2.86071   -1.000
 5393.00    3.02544   2.83891   -1.000
 5394.00    3.02664   2.81606   -1.000
 5395.00    2.99649   2.79447   -1.000
 5396.00    2.91276   2.78140   -1.000
 5397.00    2.87768   2.78433   -1.000
 5398.00    2.93965   2.80561   -1.000
 5399.00    3.03133   2.83880   -1.000
 5400.00    3.07957   2.86740   -1.000
 5401.00    3.09090   2.87257   -1.000
 5402.00    3.08444   2.84574   -1.000
 5403.00    3.01125   2.79514   -1.000
 5404.00    2.87466   2.73921   -1.000
 5405.00    2.77134   2.69654   -1.000
 5406.00    2.77018   2.67942   -1.000
 5407.00    2.86888   2.69052   -1.000
 5408.00    2.95808   2.72385   -1.000
 5409.00    2.95612   2.76840   -1.000
 5410.00    2.95695   2.81865   -1.000
 5411.00    3.03541   2.87274   -1.000
 5412.00    3.14502   2.93010   -1.000
 5413.00    3.22104   2.98589   -1.000
 5414.00    3.24642   3.03286   -1.000
 5415.00    3.25960   3.06860   -1.000
 5416.00    3.29639   3.09312   -1.000
 5417.00    3.32221   3.10661   -1.000
 5418.00    3.30652   3.10830   -1.000
 5419.00    3.26704   3.09860   -1.000
 5420.00    3.23589   3.08175   -1.000
 5421.00    3.24457   3.06415   -1.000
 5422.00    3.25312   3.05212   -1.000
 5423.00    3.20797   3.04936   -1.000
 5424.00    3.16232   3.05408   -1.000
 5425.00    3.20313   3.05893   -1.000
 5426.00    3.28160   3.05489   -1.000
 5427.00    3.27855   3.03473   -1.000
 5428.00    3.16583   2.99802   -1.000
 5429.00    3.04027   2.95289   -1.000
 5430.00    3.02562   2.91120   -1.000
 5431.00    3.08591   2.88290   -1.000
 5432.00    3.10040   2.86863   -1.000
 5433.00    3.05362   2.86524   -1.000
 5434.00    3.00679   2.87414   -1.000
 5435.00    3.00213   2.90205   -1.000
 5436.00    3.06048   2.95468   -1.000
 5437.00    3.16596   3.02666   -1.000
 5438.00    3.26982   3.10412   -1.000
 5439.00    3.36141   3.17150   -1.000
 5440.00    3.39561   3.21628   -1.000
 5441.00    3.38277   3.23096   -1.000
 5442.00    3.34399   3.21207   -1.000
 5443.00    3.28492   3.16201   -1.000
 5444.00    3.23403   3.09092   -1.000
 5445.00    3.12409   3.01665   -1.000
 5446.00    2.94014   2.96097  110.813
 5447.00    2.87530   2.93886   -1.000
 5448.00    2.98072   2.95228   -1.000
 5449.00    3.13073   2.98638   -1.000
 5450.00    3.21983   3.01748   -1.000
 5451.00    3.25568   3.02495   -1.000
 5452.00    3.21189   3.00269   -1.000
 5453.00    3.13422   2.96325   -1.000
 5454.00    2.99961   2.92677   -1.000
 5455.00    2.91798   2.91189  110.384
 5456.00    2.96502   2.92646   -1.000
 5457.00    3.07583   2.96504   -1.000
 5458.00    3.20485   3.00907   -1.000
 5459.00    3.25681   3.03842   -1.000
 5460.00    3.22055   3.04149   -1.000
 5461.00    3.14736   3.02571   -1.000
 5462.00    3.08518   3.00696   -1.000
 5463.00    3.05706   2.99901   -1.000
 5464.00    3.08347   3.00735   -1.000
 5465.00    3.13595   3.02816   -1.000
 5466.00    3.17359   3.05186   -1.000
 5467.00    3.18509   3.06878   -1.000
 5468.00    3.18197   3.07415   -1.000
 5469.00    3.16019   3.06764   -1.000
 5470.00    3.13035   3.05105   -1.000
 5471.00    3.13199   3.02617   -1.000
 5472.00    3.13096   2.99423   -1.000
 5473.00    3.09601   2.95670   -1.000
 5474.00    3.05497   2.91816   -1.000
 5475.00    2.99032   2.88706   -1.000
 5476.00    2.91455   2.87123   -1.000
 5477.00    2.91851   2.87410   -1.000
 5478.00    3.02292   2.89153   -1.000
 5479.00    3.11672   2.91649   -1.000
 5480.00    3.11331   2.94136   -1.000
 5481.00    3.02997   2.96441   -1.000
 5482.00    2.98498   2.99041  111.240
 5483.00    3.04555   3.02112   -1.000
 5484.00    3.14336   3.05192   -1.000
 5485.00    3.20688   3.07274   -1.000
 5486.00    3.20670   3.07792   -1.000
 5487.00    3.16440   3.07245   -1.000
 5488.00    3.14058   3.06560   -1.000
 5489.00    3.14913   3.06593   -1.000
 5490.00    3.16252   3.07394   -1.000
 5491.00    3.20466   3.08528   -1.000
 5492.00    3.24095   3.09355   -1.000
 5493.00    3.23257   3.09591   -1.000
 5494.00    3.21775   3.09374   -1.000
 5495.00    3.21886   3.09043   -1.000
 5496.00    3.19199   3.08876   -1.000
 5497.00    3.15810   3.08827   -1.000
 5498.00    3.18729   3.08654   -1.000
 5499.00    3.22501   3.08134   -1.000
 5500.00    3.21866   3.07090   -1.000
 5501.00    3.17335   3.05434   -1.000
 5502.00    3.13580   3.03435   -1.000
 5503.00    3.14333   3.01568   -1.000
 5504.00    3.15749   3.00331   -1.000
 5505.00    3.11958   2.99926   -1.000
 5506.00    3.09050   3.00225   -1.000
 5507.00    3.12899   3.01015   -1.000
 5508.00    3.18308   3.01838   -1.000
 5509.00    3.20763   3.01970   -1.000
 5510.00    3.18408   3.00885   -1.000
 5511.00    3.13772   2.98701   -1.000
 5512.00    3.09407   2.96416   -1.000
 5513.00    3.06119   2.95352   -1.000
 5514.00    3.08871   2.96332   -1.000
 5515.00    3.14965   2.99470   -1.000
 5516.00    3.19466   3.04110   -1.000
 5517.00    3.26349   3.09299   -1.000
 5518.00    3.34830   3.14109   -1.000
 5519.00    3.37899   3.17877   -1.000
 5520.00    3.37796   3.20232   -1.000
 5521.00    3.37958   3.21112   -1.000
 5522.00    3.35724   3.20581   -1.000
 5523.00    3.34984   3.18749   -1.000
 5524.00    3.33718   3.15582   -1.000
 5525.00    3.29076   3.11361   -1.000
 5526.00    3.22301   3.06962   -1.000
 5527.00    3.14252   3.03622   -1.000
 5528.00    3.08288   3.02460   -1.000
 5529.00    3.11506   3.03693   -1.000
 5530.00    3.21697   3.06691   -1.000
 5531.00    3.28027   3.10013   -1.000
 5532.00    3.28430   3.12379   -1.000
 5533.00    3.26466   3.13378   -1.000
 5534.00    3.26498   3.13504   -1.000
 5535.00    3.27082   3.13596   -1.000
 5536.00    3.27492   3.14253   -1.000
 5537.00    3.29755   3.15681   -1.000
 5538.00    3.32441   3.17681   -1.000
 5539.00    3.35721   3.19748   -1.000
 5540.00    3.41183   3.21317   -1.000
 5541.00    3.44724   3.22055   -1.000
 5542.00    3.41956   3.21928   -1.000
 5543.00    3.38439   3.21315   -1.000
 5544.00    3.38933   3.20889   -1.000
 5545.00    3.40207   3.21295   -1.000
 5546.00    3.39069   3.22724   -1.000
 5547.00    3.40619   3.24904   -1.000
 5548.00    3.46480   3.27243   -1.000
 5549.00    3.51528   3.29073   -1.000
 5550.00    3.51470   3.29799   -1.000
 5551.00    3.48710   3.29222   -1.000
 5552.00    3.46023   3.27673   -1.000
 5553.00    3.42212   3.25770   -1.000
 5554.00    3.38685   3.24086   -1.000
 5555.00    3.37980   3.23000   -1.000
 5556.00    3.38775   3.22554   -1.000
 5557.00    3.39418   3.22450   -1.000
 5558.00    3.39473   3.22281   -1.000
 5559.00    3.40318   3.21750   -1.000
 5560.00    3.40461   3.20785   -1.000
 5561.00    3.36790   3.19429   -1.000
 5562.00    3.32602   3.17804   -1.000
 5563.00    3.31411   3.16133   -1.000
 5564.00    3.31518   3.14682   -1.000
 5565.00    3.30489   3.13555   -1.000
 5566.00    3.29033   3.12768   -1.000
 5567.00    3.29125   3.12338   -1.000
 5568.00    3.31083   3.12280   -1.000
 5569.00    3.33380   3.12527   -1.000
 5570.00    3.37468   3.12929   -1.000
 5571.00    3.47102   3.13475   -1.000
 5572.00    3.56702   3.14256   -1.000
 5573.00    3.62493   3.15379   -1.000
 5574.00    3.57548   3.16955   -1.000
 5575.00    3.40576   3.18918   -1.000
 5576.00    3.35339   3.21022   -1.000
 5577.00    3.40101   3.22841   -1.000
 5578.00    3.42106   3.24081   -1.000
 5579.00    3.41867   3.24711   -1.000
 5580.00    3.41885   3.24623   -1.000
 5581.00    3.42127   3.23509   -1.000
 5582.00    3.40352   3.21126   -1.000
 5583.00    3.36311   3.17278   -1.000
 5584.00    3.33483   3.12048   -1.000
 5585.00    3.28202   3.06011   -1.000
 5586.00    3.18578   3.00076   -1.000
 5587.00    3.09867   2.95556   -1.000
 5588.00    3.05657   2.93466   -1.000
 5589.00    3.08856   2.94081   -1.000
 5590.00    3.15733   2.96843   -1.000
 5591.00    3.20370   3.00682   -1.000
 5592.00    3.21163   3.04773   -1.000
 5593.00    3.21037   3.08534   -1.000
 5594.00    3.24921   3.11647   -1.000
 5595.00    3.32377   3.13755   -1.000
 5596.00    3.36823   3.14427   -1.000
 5597.00    3.31953   3.13372   -1.000
 5598.00    3.23373   3.10763   -1.000
 5599.00    3.18334   3.07562   -1.000
 5600.00    3.16120   3.05205   -1.000
 5601.00    3.14459   3.04929   -1.000
 5602.00    3.15055   3.07279   -1.000
 5603.00    3.20894   3.12033   -1.000
 5604.00    3.29085   3.18319   -1.000
 5605.00    3.37550   3.24891   -1.000
 5606.00    3.46949   3.30464   -1.000
 5607.00    3.51304   3.34330   -1.000
 5608.00    3.48550   3.36497   -1.000
 5609.00    3.45555   3.37201   -1.000
 5610.00    3.45357   3.36458   -1.000
 5611.00    3.47898   3.33933   -1.000
 5612.00    3.49036   3.29458   -1.000
 5613.00    3.42132   3.23410   -1.000
 5614.00    3.28380   3.17033   -1.000
 5615.00    3.17487   3.11947   -1.000
 5616.00    3.16587   3.09530   -1.000
 5617.00    3.23137   3.10198   -1.000
 5618.00    3.28352   3.12987   -1.000
 5619.00    3.27341   3.16234   -1.000
 5620.00    3.28384   3.18407   -1.000
 5621.00    3.33050   3.18858   -1.000
 5622.00    3.33135   3.17830   -1.000
 5623.00    3.26534   3.16019   -1.000
 5624.00    3.18942   3.14456   -1.000
 5625.00    3.18075   3.14356   -1.000
 5626.00    3.24861   3.16300   -1.000
 5627.00    3.33914   3.20003   -1.000
 5628.00    3.41250   3.24352   -1.000
 5629.00    3.44504   3.28116   -1.000
 5630.00    3.46317   3.30556   -1.000
 5631.00    3.47467   3.31402   -1.000
 5632.00    3.44676   3.30722   -1.000
 5633.00    3.40899   3.28881   -1.000
 5634.00    3.38521   3.26414   -1.000
 5635.00    3.35687   3.23891   -1.000
 5636.00    3.33065   3.21739   -1.000
 5637.00    3.32216   3.20178   -1.000
 5638.00    3.32954   3.19198   -1.000
 5639.00    3.33026   3.18684   -1.000
 5640.00    3.31781   3.18496   -1.000
 5641.00    3.30416   3.18621   -1.000
 5642.00    3.29992   3.19179   -1.000
 5643.00    3.31618   3.20252   -1.000
 5644.00    3.35575   3.21742   -1.000
 5645.00    3.37711   3.23284   -1.000
 5646.00    3.38514   3.24548   -1.000
 5647.00    3.40885   3.25479   -1.000
 5648.00    3.41621   3.26212   -1.000
 5649.00    3.41132   3.26881   -1.000
 5650.00    3.42717   3.27520   -1.000
 5651.00    3.45932   3.27970   -1.000
 5652.00    3.47904   3.27858   -1.000
 5653.00    3.46673   3.26756   -1.000
 5654.00    3.43583   3.24396   -1.000
 5655.00    3.40244   3.20951   -1.000
 5656.00    3.35654   3.17087   -1.000
 5657.00    3.26405   3.13569   -1.000
 5658.00    3.17091   3.11078   -1.000
 5659.00    3.18085   3.10178   -1.000
 5660.00    3.25845   3.11040   -1.000
 5661.00    3.30795   3.13354   -1.000
 5662.00    3.31082   3.16374   -1.000
 5663.00    3.31605   3.19321   -1.000
 5664.00    3.35722   3.21851   -1.000
 5665.00    3.39417   3.23773   -1.000
 5666.00    3.38931   3.24900   -1.000
 5667.00    3.36148   3.25430   -1.000
 5668.00    3.34789   3.25946   -1.000
 5669.00    3.36083   3.27076   -1.000
 5670.00    3.39186   3.29110   -1.000
 5671.00    3.42999   3.31835   -1.000
 5672.00    3.49195   3.34748   -1.000
 5673.00    3.55456   3.37352   -1.000
 5674.00    3.57214   3.39242   -1.000
 5675.00    3.55911   3.40198   -1.000
 5676.00    3.55660   3.40254   -1.000
 5677.00    3.56190   3.39483   -1.000
 5678.00    3.56494   3.37919   -1.000
 5679.00    3.54951   3.35636   -1.000
 5680.00    3.51209   3.32903   -1.000
 5681.00    3.47537   3.30214   -1.000
 5682.00    3.43609   3.28042   -1.000
 5683.00    3.42889   3.26603   -1.000
 5684.00    3.46706   3.25855   -1.000
 5685.00    3.48255   3.25645   -1.000
 5686.00    3.44203   3.25825   -1.000
 5687.00    3.39448   3.26471   -1.000
 5688.00    3.39518   3.27929   -1.000
 5689.00    3.44906   3.30384   -1.000
 5690.00    3.51865   3.33553   -1.000
 5691.00    3.58433   3.36757   -1.000
 5692.00    3.63205   3.39246   -1.000
 5693.00    3.62348   3.40545   -1.000
 5694.00    3.59388   3.40528   -1.000
 5695.00    3.58311   3.39327   -1.000
 5696.00    3.56139   3.37198   -1.000
 5697.00    3.51951   3.34427   -1.000
 5698.00    3.45501   3.31375   -1.000
 5699.00    3.38692   3.28511   -1.000
 5700.00    3.33137   3.26305   -1.000
 5701.00    3.28876   3.25015   -1.000
 5702.00    3.30344   3.24457   -1.000
 5703.00    3.36775   3.24079   -1.000
 5704.00    3.40510   3.23219   -1.000
 5705.00    3.39045   3.21332   -1.000
 5706.00    3.33485   3.18443   -1.000
 5707.00    3.27620   3.15231   -1.000
 5708.00    3.23518   3.12695   -1.000
 5709.00    3.22147   3.11801   -1.000
 5710.00    3.24998   3.13018   -1.000
 5711.00    3.29089   3.16276   -1.000
 5712.00    3.35048   3.21087   -1.000
 5713.00    3.44553   3.26616   -1.000
 5714.00    3.53184   3.32009   -1.000
 5715.00    3.58565   3.36657   -1.000
 5716.00    3.60479   3.40331   -1.000
 5717.00    3.60863   3.43250   -1.000
 5718.00    3.61157   3.45788   -1.000
 5719.00    3.63416   3.48171   -1.000
 5720.00    3.66614   3.50385   -1.000
 5721.00    3.69098   3.52180   -1.000
 5722.00    3.72102   3.53169   -1.000
 5723.00    3.72579   3.53073   -1.000
 5724.00    3.70419   3.51933   -1.000
 5725.00    3.67189   3.50133   -1.000
 5726.00    3.61435   3.48244   -1.000
 5727.00    3.57054   3.46794   -1.000
 5728.00    3.58717   3.46050   -1.000
 5729.00    3.63172   3.45991   -1.000
 5730.00    3.62810   3.46441   -1.000
 5731.00    3.58006   3.47231   -1.000
 5732.00    3.59647   3.48337   -1.000
 5733.00    3.68511   3.49681   -1.000
 5734.00    3.73812   3.50975   -1.000
 5735.00    3.72177   3.51829   11.060
 5736.00    3.67933   3.52014   11.081
 5737.00    3.64917   3.51686   11.102
 5738.00    3.63756   3.51212   11.096
 5739.00    3.64105   3.50882   11.076
 5740.00    3.64867   3.50843   11.023
 5741.00    3.65204   3.51112   10.951
 5742.00    3.65154   3.51652   10.967
 5743.00    3.65411   3.52324   11.065
 5744.00    3.68009   3.52882   11.135
 5745.00    3.72179   3.53071   11.106
 5746.00    3.73359   3.52755   11.054
 5747.00    3.68425   3.52009   11.099
 5748.00    3.64331   3.50998   11.223
 5749.00    3.67698   3.49792   11.347
 5750.00    3.71337   3.48326   11.386
 5751.00    3.69212   3.46589   11.287
 5752.00    3.63239   3.44968   11.093
 5753.00    3.57314   3.44253   10.932
 5754.00    3.56300   3.45104   10.910
 5755.00    3.59911   3.47429   11.008
 5756.00    3.66255   3.50175   11.149
 5757.00    3.72043   3.51923   11.301
 5758.00    3.72588   3.51709   11.393
 5759.00    3.67364   3.49646   11.330
 5760.00    3.59665   3.46872   11.147
 5761.00    3.53020   3.44873   10.985
 5762.00    3.50545   3.44817   10.918
 5763.00    3.55268   3.47017   10.903
 5764.00    3.63521   3.50833   10.888
 5765.00    3.71081   3.55062   10.895
 5766.00    3.73912   3.58520   10.929
 5767.00    3.73462   3.60497   10.981
 5768.00    3.71456   3.60970   11.048
 5769.00    3.67765   3.60349   11.091
 5770.00    3.65910   3.59081   11.107
 5771.00    3.64676   3.57589   11.097
 5772.00    3.60734   3.56231   11.050
 5773.00    3.54594   3.55226   11.022
 5774.00    3.47647   3.54576   11.044
 5775.00    3.40892   3.53976   11.162
 5776.00    3.36237   3.52839   11.390
 5777.00    3.37003   3.50523   11.582
 5778.00    3.43876   3.46717   11.615
 5779.00    3.47402   3.41647   11.571
 5780.00    3.44318   3.36143   11.528
 5781.00    3.39371   3.31335   11.486
 5782.00    3.36987   3.28171   11.388
 5783.00    3.37084   3.27129   11.240
 5784.00    3.38987   3.28194   11.131
 5785.00    3.42809   3.30941   11.112
 5786.00    3.48600   3.34716   11.154
 5787.00    3.56896   3.38843   11.162
 5788.00    3.64457   3.42709   11.092
 5789.00    3.65934   3.45912   11.008
 5790.00    3.61642   3.48537   10.939
 5791.00    3.58567   3.50992   10.912
 5792.00    3.58664   3.53547   10.954
 5793.00    3.63033   3.56078   11.027
 5794.00    3.70725   3.58147   11.016
 5795.00    3.75343   3.59439   10.900
 5796.00    3.75634   3.60107   10.750
 5797.00    3.74620   3.60768   10.682
 5798.00    3.75261   3.62022   10.739
 5799.00    3.78849   3.63940   10.829
 5800.00    3.83216   3.65947   10.916
 5801.00    3.83690   3.67160   10.979
 5802.00    3.82683   3.67009   10.977
 5803.00    3.80211   3.65622   10.938
 5804.00    3.72691   3.63758   10.902
 5805.00    3.68828   3.62288   10.891
 5806.00    3.70173   3.61743   10.885
 5807.00    3.70317   3.62157   10.853
 5808.00    3.72140   3.63149   10.817
 5809.00    3.75821   3.64175   10.821
 5810.00    3.77384   3.64733   10.891
 5811.00    3.78675   3.64499   10.958
 5812.00    3.79543   3.63426   10.935
 5813.00    3.77826   3.61805   10.861
 5814.00    3.75512   3.60264   10.797
 5815.00    3.72546   3.59546   10.742
 5816.00    3.71656   3.60143   10.701
 5817.00    3.75143   3.62020   10.701
 5818.00    3.79718   3.64601   10.735
 5819.00    3.84612   3.67052   10.735
 5820.00    3.88047   3.68693   10.716
 5821.00    3.88492   3.69375   10.697
 5822.00    3.86079   3.69418   10.684
 5823.00    3.84321   3.69328   10.683
 5824.00    3.85357   3.69453   10.699
 5825.00    3.88506   3.69892   10.692
 5826.00    3.90029   3.70548   10.685
 5827.00    3.89020   3.71239   10.678
 5828.00    3.89512   3.71804   10.686
 5829.00    3.89278   3.72089   10.744
 5830.00    3.88808   3.71987   10.781
 5831.00    3.88919   3.71463   10.759
 5832.00    3.87564   3.70588   10.732
 5833.00    3.86186   3.69564   10.750
 5834.00    3.85169   3.68661   10.780
 5835.00    3.85636   3.68107   10.763
 5836.00    3.87524   3.68060   10.695
 5837.00    3.86183   3.68592   10.630
 5838.00    3.83046   3.69661   10.616
 5839.00    3.82346   3.71067   10.644
 5840.00    3.84592   3.72482   10.684
 5841.00    3.88267   3.73474   10.747
 5842.00    3.89800   3.73599   10.808
 5843.00    3.88802   3.72643   10.860
 5844.00    3.84335   3.70744   10.868
 5845.00    3.77875   3.68326   10.874
 5846.00    3.74230   3.65893   10.924
 5847.00    3.73406   3.63762   10.993
 5848.00    3.73442   3.61970   11.090
 5849.00    3.73500   3.60316   11.162
 5850.00    3.71202   3.58537   11.189
 5851.00    3.66266   3.56469   11.202
 5852.00    3.61812   3.54113   11.286
 5853.00    3.61403   3.51569   11.399
 5854.00    3.63827   3.48982   11.374
 5855.00    3.63685   3.46551   11.242
 5856.00    3.58832   3.44631   11.133
 5857.00    3.53818   3.43721   11.082
 5858.00    3.54907   3.44191   11.040
 5859.00    3.60554   3.46042   11.015
 5860.00    3.64649   3.48729   11.033
 5861.00    3.65699   3.51401   11.071
 5862.00    3.66075   3.53369   11.121
 5863.00    3.65849   3.54403   11.130
 5864.00    3.64852   3.54805   11.049
 5865.00    3.63373   3.55078   10.949
 5866.00    3.61544   3.55710   10.889
 5867.00    3.61164   3.56949   10.875
 5868.00    3.65614   3.58704   10.897
 5869.00    3.70437   3.60623   10.908
 5870.00    3.71817   3.62224   10.895
 5871.00    3.71394   3.63106   10.913
 5872.00    3.68615   3.63205   10.958
 5873.00    3.69467   3.62687   10.983
 5874.00    3.73304   3.61688   11.048
 5875.00    3.74605   3.60242   11.127
 5876.00    3.70980   3.58340   11.147
 5877.00    3.66854   3.56097   11.122
 5878.00    3.61173   3.53788   11.112
 5879.00    3.55112   3.51780   11.149
 5880.00    3.50252   3.50285   11.171
 5881.00    3.42860   3.49139   11.200
 5882.00    3.26398   3.47770   11.310
 5883.00    2.98625   3.45200   -1.000
 5884.00    2.69278   3.40210   -1.000
 5885.00    2.48450   3.31644   -1.000
 5886.00    2.44583   3.19139   -1.000
 5887.00    2.52941   3.03724   -1.000
 5888.00    2.50903   2.87912   -1.000
 5889.00    2.30832   2.74996   -1.000
 5890.00    2.11947   2.67482   -1.000
 5891.00    2.09417   2.65766   -1.000
 5892.00    2.27932   2.68124   -1.000
 5893.00    2.56456   2.71983   12.620
 5894.00    2.73425   2.75867   12.177
 5895.00    2.77600   2.80070   11.805
 5896.00    2.83859   2.86175   11.528
 5897.00    3.02028   2.95201   11.310
 5898.00    3.23984   3.06645   11.213
 5899.00    3.39916   3.18851   11.194
 5900.00    3.49561   3.29696   11.191
 5901.00    3.57657   3.37996   11.204
 5902.00    3.62083   3.43678   11.205
 5903.00    3.61131   3.47249   11.186
 5904.00    3.60708   3.49413   11.161
 5905.00    3.62428   3.50884   11.183
 5906.00    3.65480   3.52169   11.207
 5907.00    3.67405   3.53466   11.219
 5908.00    3.65228   3.54659   11.254
 5909.00    3.62154   3.55412   11.388
 5910.00    3.63381   3.55314   11.499
 5911.00    3.66011   3.54157   11.500
 5912.00    3.62927   3.52155   11.439
 5913.00    3.56306   3.49898   11.390
 5914.00    3.49576   3.48185   11.345
 5915.00    3.47264   3.47662   11.313
 5916.00    3.50139   3.48532   11.275
 5917.00    3.55541   3.50476   11.267
 5918.00    3.62420   3.52805   11.278
 5919.00    3.67695   3.54837   11.246
 5920.00    3.65853   3.56283   11.206
 5921.00    3.63145   3.57194   11.183
 5922.00    3.65807   3.57860   11.172
 5923.00    3.65839   3.58505   11.187
 5924.00    3.66815   3.59104   11.255
 5925.00    3.68321   3.59411   11.345
 5926.00    3.68122   3.59178   11.357
 5927.00    3.67186   3.58374   11.265
 5928.00    3.64440   3.57317   11.196
 5929.00    3.60914   3.56481   11.250
 5930.00    3.62822   3.56164   11.335
 5931.00    3.66693   3.56392   11.365
 5932.00    3.67108   3.56933   11.311
 5933.00    3.66759   3.57632   11.217
 5934.00    3.63640   3.58443   11.163
 5935.00    3.62802   3.59400   11.187
 5936.00    3.66696   3.60436   11.289
 5937.00    3.70642   3.61241   11.366
 5938.00    3.72657   3.61489   11.372
 5939.00    3.71775   3.61044   11.315
 5940.00    3.66673   3.60216   11.247
 5941.00    3.64230   3.59604   11.198
 5942.00    3.65360   3.59608   11.214
 5943.00    3.68173   3.60231   11.303
 5944.00    3.71376   3.61072   11.421
 5945.00    3.73954   3.61593   11.468
 5946.00    3.74171   3.61427   11.424
 5947.00    3.71774   3.60640   11.375
 5948.00    3.68678   3.59605   11.390
 5949.00    3.66085   3.58697   11.392
 5950.00    3.64383   3.58093   11.371
 5951.00    3.62218   3.57765   11.368
 5952.00    3.61194   3.57601   11.407
 5953.00    3.61702   3.57455   11.431
 5954.00    3.65036   3.57354   11.398
 5955.00    3.68890   3.57441   11.282
 5956.00    3.65135   3.57945   11.167
 5957.00    3.62315   3.59067   11.111
 5958.00    3.64939   3.60841   11.094
 5959.00    3.69918   3.63094   11.113
 5960.00    3.74275   3.65389   11.169
 5961.00    3.76482   3.67159   11.212
 5962.00    3.77304   3.68066   11.251
 5963.00    3.76254   3.68184   11.239
 5964.00    3.74028   3.67921   11.162
 5965.00    3.72506   3.67820   11.122
 5966.00    3.73321   3.68251   11.117
 5967.00    3.76072   3.69287   11.097
 5968.00    3.77608   3.70699   11.081
 5969.00    3.78455   3.72089   11.128
 5970.00    3.79938   3.72981   11.214
 5971.00    3.80598   3.73017   11.301
 5972.00    3.78964   3.72042   11.382
 5973.00    3.77171   3.70121   11.439
 5974.00    3.74567   3.67600   11.407
 5975.00    3.70768   3.65069   11.315
 5976.00    3.68211   3.63151   11.260
 5977.00    3.66824   3.62222   11.276
 5978.00    3.70003   3.62210   11.358
 5979.00    3.73058   3.62596   11.458
 5980.00    3.74997   3.62658   11.523
 5981.00    3.76647   3.61967   11.499
 5982.00    3.74588   3.60651   11.390
 5983.00    3.66589   3.59363   11.310
 5984.00    3.63226   3.58858   11.269
 5985.00    3.67295   3.59578   11.218
 5986.00    3.72787   3.61415   11.221
 5987.00    3.76169   3.63850   11.248
 5988.00    3.78581   3.66315   11.207
 5989.00    3.81262   3.68454   11.118
 5990.00    3.83265   3.70271   11.074
 5991.00    3.82669   3.71853   11.134
 5992.00    3.81649   3.73111   11.215
 5993.00    3.83686   3.73779   11.269
 5994.00    3.85540   3.73596   11.296
 5995.00    3.83281   3.72536   11.283
 5996.00    3.77629   3.70917   11.287
 5997.00    3.75315   3.69295   11.346
 5998.00    3.76164   3.68147   11.390
 5999.00    3.77391   3.67633   11.392
 6000.00    3.77418   3.67541   11.365
 6001.00    3.75320   3.67524   11.365
 6002.00    3.72648   3.67262   11.436
 6003.00    3.72634   3.66588   11.548
 6004.00    3.73272   3.65495   11.568
 6005.00    3.70521   3.64156   11.454
 6006.00    3.66388   3.62975   11.329
 6007.00    3.64017   3.62385   11.314
 6008.00    3.65208   3.62608   11.391
 6009.00    3.70111   3.63485   11.458
 6010.00    3.74430   3.64492   11.419
 6011.00    3.77883   3.65108   11.405
 6012.00    3.76921   3.65101   11.449
 6013.00    3.73332   3.64600   11.477
 6014.00    3.72027   3.63963   11.455
 6015.00    3.73205   3.63425   11.478
 6016.00    3.74252   3.63004   11.547
 6017.00    3.75273   3.62618   11.523
 6018.00    3.76559   3.62248   11.447
 6019.00    3.74478   3.62079   11.413
 6020.00    3.73079   3.62394   11.398
 6021.00    3.76140   3.63377   11.338
 6022.00    3.78476   3.65087   11.298
 6023.00    3.80033   3.67439   11.233
 6024.00    3.83888   3.70175   11.180
 6025.00    3.88354   3.73018   11.160
 6026.00    3.89812   3.75761   11.161
 6027.00    3.89282   3.78293   11.184
 6028.00    3.90365   3.80568   11.171
 6029.00    3.92292   3.82606   11.124
 6030.00    3.92915   3.84496   11.092
 6031.00    3.93099   3.86325   11.084
 6032.00    3.93805   3.88083   11.067
 6033.00    3.95089   3.89635   11.073
 6034.00    3.96697   3.90719   11.130
 6035.00    3.98382   3.91082   11.160
 6036.00    3.98459   3.90668   11.192
 6037.00    3.98355   3.89676   11.178
 6038.00    3.97496   3.88521   11.160
 6039.00    3.95356   3.87698   11.109
 6040.00    3.94879   3.87544   11.024
 6041.00    3.95396   3.88145   11.015
 6042.00    3.96640   3.89329   11.021
 6043.00    3.98659   3.90782   11.005
 6044.00    4.02296   3.92182   11.012
 6045.00    4.03632   3.93310   11.047
 6046.00    4.04079   3.94080   11.075
 6047.00    4.04800   3.94464   11.086
 6048.00    4.06183   3.94443   11.106
 6049.00    4.06379   3.93932   11.148
 6050.00    4.03927   3.92831   11.184
 6051.00    4.02413   3.91130   11.242
 6052.00    4.00836   3.88983   11.281
 6053.00    3.99030   3.86717   11.269
 6054.00    3.96666   3.84765   11.213
 6055.00    3.95527   3.83530   11.155
 6056.00    3.94157   3.83200   11.158
 6057.00    3.93957   3.83622   11.184
 6058.00    3.94827   3.84335   11.325
 6059.00    4.00958   3.84743   11.543
 6060.00    4.05293   3.84362   11.243
 6061.00    3.99486   3.83089   -1.000
 6062.00    3.95144   3.81329    4.223
 6063.00    3.27276   3.79876   -1.000
 6064.00    2.31361   3.79577   -1.000
 6065.00    3.20355   3.80928   -1.000
 6066.00    3.87028   3.83822   10.930
 6067.00    3.97781   3.87626   10.757
 6068.00    3.97539   3.91491   10.941
 6069.00    3.90197   3.94709   11.048
 6070.00    4.04395   3.96897   11.063
 6071.00    4.13539   3.97981   11.096
 6072.00    4.13139   3.98046   11.152
 6073.00    4.10651   3.97185   11.216
 6074.00    4.09931   3.95477   11.300
 6075.00    4.08806   3.93071   11.372
 6076.00    4.02657   3.90226   11.387
 6077.00    3.96303   3.87282   11.395
 6078.00    3.96909   3.84563   11.425
 6079.00    3.95280   3.82324   11.429
 6080.00    3.94448   3.80713   11.421
 6081.00    3.94184   3.79792   11.410
 6082.00    3.93694   3.79544   11.379
 6083.00    3.92517   3.79859   11.334
 6084.00    3.93322   3.80538   11.347
 6085.00    3.95292   3.81289   11.412
 6086.00    3.95341   3.81784   11.464
 6087.00    3.96650   3.81787   11.465
 6088.00    3.99752   3.81321   11.398
 6089.00    3.98022   3.80682   11.338
 6090.00    3.93826   3.80324   11.275
 6091.00    3.91671   3.80650   11.224
 6092.00    3.94804   3.81796   11.222
 6093.00    3.98841   3.83573   11.248
 6094.00    4.00152   3.85541   11.258
 6095.00    4.01223   3.87193   11.260
 6096.00    3.98279   3.88075   11.378
 6097.00    4.00128   3.87810   11.643
 6098.00    4.03738   3.86150   11.845
 6099.00    3.99803   3.83161   11.791
 6100.00    3.94741   3.79428   11.577
 6101.00    3.86820   3.76020   11.395
 6102.00    3.77243   3.74081   11.341
 6103.00    3.77658   3.74307   11.377
 6104.00    3.85342   3.76583   11.408
 6105.00    3.92703   3.80095   11.406
 6106.00    3.96945   3.83830   11.383
 6107.00    3.97642   3.87002   11.336
 6108.00    3.99067   3.89322   11.328
 6109.00    4.03244   3.90913   11.275
 6110.00    4.01179   3.92067   11.243
 6111.00    3.95437   3.93000   11.279
 6112.00    3.96178   3.93731   11.352
 6113.00    3.96646   3.94095   11.375
 6114.00    3.94863   3.93847   11.424
 6115.00    3.97778   3.92739   11.579
 6116.00    4.01466   3.90599   11.733
 6117.00    3.98701   3.87415   11.849
 6118.00    3.94735   3.83436   11.870
 6119.00    3.92205   3.79269   11.697
 6120.00    3.86685   3.75791   11.539
 6121.00    3.79943   3.73847   11.521
 6122.00    3.79716   3.73843   11.583
 6123.00    3.86350   3.75521   11.578
 6124.00    3.92429   3.78126   11.552
 6125.00    3.96111   3.80868   11.465
 6126.00    3.89548   3.83340   11.357
 6127.00    3.84844   3.85554   11.324
 6128.00    3.86260   3.87641   11.343
 6129.00    3.86069   3.89470   11.442
 6130.00    3.90110   3.90422   11.688
 6131.00    3.94559   3.89623   12.029
 6132.00    3.93373   3.86456   12.339
 6133.00    3.87994   3.81077   12.402
 6134.00    3.76589   3.74644   12.121
 6135.00    3.63876   3.69004   11.776
 6136.00    3.54332   3.65904   11.626
 6137.00    3.54541   3.66193   11.635
 6138.00    3.58743   3.69475   11.656
 6139.00    3.71360   3.74504   11.551
 6140.00    3.81319   3.79911   11.412
 6141.00    3.80883   3.84739   11.383
 6142.00    3.82267   3.88565   11.431
 6143.00    3.88578   3.91245   11.503
 6144.00    3.91086   3.92692   11.586
 6145.00    3.92067   3.92863   11.655
 6146.00    3.89924   3.91869   11.662
 6147.00    3.88053   3.90117   11.622
 6148.00    3.83753   3.88208   11.543
 6149.00    3.82978   3.86667   11.523
 6150.00    3.83082   3.85690   11.612
 6151.00    3.81779   3.85098   11.677
 6152.00    3.78455   3.84504   11.689
 6153.00    3.74395   3.83513   11.734
 6154.00    3.76739   3.81842   11.853
 6155.00    3.74518   3.79234   12.073
 6156.00    3.66703   3.75377   12.430
 6157.00    3.65271   3.69980   12.795
 6158.00    3.59385   3.63058   12.938
 6159.00    3.46509   3.55278   12.768
 6160.00    3.34815   3.47981   12.423
 6161.00    3.25917   3.42774   12.220
 6162.00    3.21032   3.40769   12.159
 6163.00    3.28004   3.41997   12.186
 6164.00    3.37525   3.45360   12.337
 6165.00    3.44372   3.49232   12.466
 6166.00    3.48736   3.52299   12.389
 6167.00    3.46131   3.54118   12.156
 6168.00    3.41262   3.55217   11.980
 6169.00    3.38136   3.56514   11.980
 6170.00    3.39493   3.58676   11.992
 6171.00    3.45562   3.61693   11.964
 6172.00    3.53214   3.65063   11.941
 6173.00    3.55304   3.68177   11.909
 6174.00    3.59034   3.70700   11.851
 6175.00    3.56513   3.72671   11.807
 6176.00    3.53402   3.74359   11.770
 6177.00    3.55768   3.76032   11.716
 6178.00    3.58209   3.77759   11.684
 6179.00    3.60773   3.79404   11.705
 6180.00    3.64909   3.80703   11.746
 6181.00    3.66220   3.81326   11.837
 6182.00    3.66039   3.80977   11.966
 6183.00    3.65044   3.79506   12.090
 6184.00    3.60158   3.76966   12.206
 6185.00    3.53684   3.73594   12.295
 6186.00    3.57674   3.69752   12.454
 6187.00    3.61129   3.65870   12.538
 6188.00    3.48696   3.62440   12.408
 6189.00    3.37648   3.60032   12.104
 6190.00    3.34785   3.59209   11.901
 6191.00    3.35332   3.60294   -1.000
 6192.00    3.43007   3.63108   11.804
 6193.00    3.54059   3.66922   11.878
 6194.00    3.60383   3.70713   12.015
 6195.00    3.64299   3.73580   12.115
 6196.00    3.62261   3.75117   12.107
 6197.00    3.56108   3.75558   11.988
 6198.00    3.49547   3.75605   -1.000
 6199.00    3.45879   3.76034   -1.000
 6200.00    3.45608   3.77283   -1.000
 6201.00    3.50126   3.79312   -1.000
 6202.00    3.57422   3.81715   11.780
 6203.00    3.62770   3.83997   11.825
 6204.00    3.64016   3.85760   11.825
 6205.00    3.63158   3.86784   11.876
 6206.00    3.63060   3.86949   11.984
 6207.00    3.62667   3.86133   12.078
 6208.00    3.59195   3.84198   -1.000
 6209.00    3.56569   3.81061   12.381
 6210.00    3.54319   3.76825   12.508
 6211.00    3.50224   3.71886   12.543
 6212.00    3.46908   3.66903   12.383
 6213.00    3.42084   3.62639   12.320
 6214.00    3.39203   3.59661   12.411
 6215.00    3.44850   3.58117   12.368
 6216.00    3.52293   3.57736   12.277
 6217.00    3.54430   3.58048   12.350
 6218.00    3.53789   3.58676   13.255
 6219.00    3.47709   3.59477   12.855
 6220.00    3.40453   3.60472   12.253
 6221.00    3.42511   3.61669   12.210
 6222.00    3.50406   3.62938   12.219
 6223.00    3.57538   3.64002   12.287
 6224.00    3.59885   3.64488   12.453
 6225.00    3.61283   3.64023   12.660
 6226.00    3.58695   3.62390   12.823
 6227.00    3.52893   3.59715   12.773
 6228.00    3.49806   3.56598   12.591
 6229.00    3.43658   3.54041   12.352
 6230.00    3.34865   3.53070   12.151
 6231.00    3.31824   3.54259   12.092
 6232.00    3.35334   3.57373   12.171
 6233.00    3.39132   3.61418   12.295
 6234.00    3.47523   3.65055   12.420
 6235.00    3.57842   3.67173   12.552
 6236.00    3.61421   3.67296   12.606
 6237.00    3.53959   3.65658   12.602
 6238.00    3.50440   3.62942   12.693
 6239.00    3.43990   3.59918   12.777
 6240.00    3.37625   3.57192   12.770
 6241.00    3.38103   3.55153   12.689
 6242.00    3.38916   3.54060   12.564
 6243.00    3.35545   3.54107   12.404
 6244.00    3.34104   3.55382   12.274
 6245.00    3.36802   3.57723   12.260
 6246.00    3.40411   3.60614   12.373
 6247.00    3.47074   3.63253   12.601
 6248.00    3.52684   3.64804   12.758
 6249.00    3.52022   3.64719   12.846
 6250.00    3.48830   3.62984   12.882
 6251.00    3.42402   3.60075   12.877
 6252.00    3.35636   3.56698   12.994
 6253.00    3.33737   3.53497   13.110
 6254.00    3.34349   3.50912   13.056
 6255.00    3.32799   3.49245   12.860
 6256.00    3.29679   3.48805   12.666
 6257.00    3.28329   3.49899   12.494
 6258.00    3.30318   3.52654   12.300
 6259.00    3.33373   3.56804   12.238
 6260.00    3.41930   3.61676   12.334
 6261.00    3.51214   3.66386   12.417
 6262.00    3.55103   3.70185   12.362
 6263.00    3.57209   3.72731   12.272
 6264.00    3.54814   3.74136   12.314
 6265.00    3.50013   3.74789   -1.000
 6266.00    3.50573   3.75119   -1.000
 6267.00    3.52654   3.75423   12.319
 6268.00    3.51822   3.75850   12.289
 6269.00    3.51107   3.76407   -1.000
 6270.00    3.50269   3.76972   -1.000
 6271.00    3.49375   3.77288   -1.000
 6272.00    3.43421   3.77039   -1.000
 6273.00    3.36388   3.75993   -1.000
 6274.00    3.32052   3.74114   -1.000
 6275.00    3.27387   3.71617   -1.000
 6276.00    3.24367   3.68912   -1.000
 6277.00    3.21363   3.66520   -1.000
 6278.00    3.16877   3.64964   -1.000
 6279.00    3.13156   3.64664   -1.000
 6280.00    3.14642   3.65826   -1.000
 6281.00    3.21818   3.68361   -1.000
 6282.00    3.35447   3.71900   -1.000
 6283.00    3.48793   3.75893   -1.000
 6284.00    3.54837   3.79779   12.191
 6285.00    3.56495   3.83084   -1.000
 6286.00    3.61952   3.85460   12.361
 6287.00    3.66206   3.86684   12.453
 6288.00    3.72558   3.86701   12.477
 6289.00    3.72453   3.85662   12.491
 6290.00    3.68335   3.83906   12.513
 6291.00    3.67058   3.81813   12.611
 6292.00    3.66223   3.79662   12.694
 6293.00    3.63579   3.77559   12.713
 6294.00    3.64471   3.75528   12.693
 6295.00    3.63086   3.73628   12.640
 6296.00    3.58245   3.71997   12.583
 6297.00    3.55042   3.70779   12.692
 6298.00    3.54990   3.70043   12.837
 6299.00    3.57732   3.69807   12.728
 6300.00    3.58467   3.70122   12.525
 6301.00    3.57882   3.71119   12.372
 6302.00    3.58580   3.72930   12.267
 6303.00    3.62149   3.75544   12.155
 6304.00    3.65595   3.78737   12.136
 6305.00    3.67602   3.82071   12.190
 6306.00    3.71454   3.85015   12.274
 6307.00    3.77727   3.87071   12.321
 6308.00    3.82610   3.87941   12.372
 6309.00    3.83443   3.87594   12.382
 6310.00    3.81102   3.86245   12.499
 6311.00    3.73783   3.84216   12.543
 6312.00    3.69264   3.81823   12.534
 6313.00    3.68574   3.79330   12.521
 6314.00    3.67559   3.77006   12.540
 6315.00    3.66086   3.75170   12.493
 6316.00    3.66538   3.74191   12.339
 6317.00    3.66782   3.74383   12.219
 6318.00    3.67462   3.75861   12.173
 6319.00    3.69455   3.78464   12.132
 6320.00    3.74702   3.81786   12.066
 6321.00    3.81133   3.85338   12.029
 6322.00    3.84999   3.88691   12.023
 6323.00    3.89337   3.91569   11.961
 6324.00    3.91837   3.93848   11.974
 6325.00    3.90272   3.95532   11.982
 6326.00    3.92662   3.96717   11.991
 6327.00    3.94401   3.97536   11.946
 6328.00    3.89494   3.98083   11.927
 6329.00    3.93380   3.98336   11.960
 6330.00    3.95301   3.98123   11.990
 6331.00    3.94850   3.97197   12.277
 6332.00    3.98069   3.95420   12.300
 6333.00    3.93630   3.92972   12.194
 6334.00    3.86570   3.90416   12.069
 6335.00    3.82759   3.88505   11.935
 6336.00    3.81965   3.87810   11.879
 6337.00    3.83539   3.88410   11.820
 6338.00    3.88322   3.89840   11.831
 6339.00    3.93694   3.91364   11.941
 6340.00    3.98522   3.92358   11.956
 6341.00    3.96559   3.92648   11.922
 6342.00    3.92656   3.92560   11.856
 6343.00    3.91261   3.92710   11.772
 6344.00    3.90121   3.93641   11.729
 6345.00    3.88896   3.95523   11.733
 6346.00    3.92684   3.98091   11.706
 6347.00    3.97396   4.00790   11.718
 6348.00    3.98408   4.03010   11.770
 6349.00    3.99940   4.04275   11.824
 6350.00    3.97889   4.04327   11.963
 6351.00    3.98135   4.03152   12.065
 6352.00    3.96826   4.00936   12.068
 6353.00    3.92005   3.97990   12.104
 6354.00    3.88324   3.94621   12.246
 6355.00    3.84784   3.91049   12.296
 6356.00    3.85120   3.87407   12.243
 6357.00    3.81782   3.83843   12.204
 6358.00    3.74648   3.80605   12.194
 6359.00    3.74492   3.78071   12.151
 6360.00    3.74763   3.76660   12.069
 6361.00    3.75572   3.76707   11.992
 6362.00    3.77051   3.78339   11.928
 6363.00    3.79479   3.81420   11.851
 6364.00    3.84849   3.85557   11.772
 6365.00    3.90426   3.90202   11.744
 6366.00    3.98158   3.94794   11.753
 6367.00    4.03085   3.98909   11.712
 6368.00    4.07048   4.02347   11.665
 6369.00    4.09691   4.05120   11.699
 6370.00    4.09091   4.07341   11.707
 6371.00    4.09457   4.09097   11.733
 6372.00    4.10539   4.10371   11.777
 6373.00    4.10541   4.11060   11.838
 6374.00    4.10654   4.11065   11.920
 6375.00    4.10730   4.10388   11.964
 6376.00    4.09366   4.09182   11.970
 6377.00    4.06572   4.07738   11.994
 6378.00    4.04299   4.06409   11.990
 6379.00    4.00419   4.05500   11.957
 6380.00    3.98986   4.05169   12.017
 6381.00    4.00390   4.05405   12.042
 6382.00    4.01826   4.06081   12.031
 6383.00    4.03118   4.07025   12.070
 6384.00    4.01118   4.08066   12.108
 6385.00    4.00661   4.09015   12.212
 6386.00    4.01277   4.09635   12.307
 6387.00    4.00789   4.09648   12.451
 6388.00    4.01236   4.08815   12.643
 6389.00    3.98966   4.07089   12.747
 6390.00    3.95546   4.04741   12.702
 6391.00    3.91474   4.02365   12.505
 6392.00    3.83706   4.00667   12.491
 6393.00    3.77353   4.00079   12.573
 6394.00    3.77142   4.00479   12.769
 6395.00    3.82182   4.01235   13.068
 6396.00    3.87799   4.01633   13.156
 6397.00    3.89567   4.01405   13.010
 6398.00    3.84804   4.00949   12.798
 6399.00    3.76551   4.01060   12.741
 6400.00    3.71430   4.02333   -1.000
 6401.00    3.73997   4.04703   -1.000
 6402.00    3.80133   4.07445   -1.000
 6403.00    3.85011   4.09608   13.248
 6404.00    3.83510   4.10548   -1.000
 6405.00    3.77960   4.10216   -1.000
 6406.00    3.72443   4.09048   -1.000
 6407.00    3.64890   4.07631   -1.000
 6408.00    3.61474   4.06401   -1.000
 6409.00    3.61128   4.05555   -1.000
 6410.00    3.58477   4.05143   -1.000
 6411.00    3.54888   4.05178   -1.000
 6412.00    3.51633   4.05634   -1.000
 6413.00    3.47905   4.06362   -1.000
 6414.00    3.46000   4.07039   -1.000
 6415.00    3.45268   4.07258   -1.000
 6416.00    3.44643   4.06748   -1.000
 6417.00    3.40033   4.05592   -1.000
 6418.00    3.36733   4.04285   -1.000
 6419.00    3.32158   4.03552   -1.000
 6420.00    3.23981   4.04014   -1.000
 6421.00    3.22379   4.05843   -1.000
 6422.00    3.27234   4.08687   -1.000
 6423.00    3.31029   4.11801   -1.000
 6424.00    3.29020   4.14361   -1.000
 6425.00    3.25878   4.15705   -1.000
 6426.00    3.24540   4.15529   -1.000
 6427.00    0.11408   4.13966   -1.000
 6428.00    0.00000   4.11612   -2.000
