###################################################################
## OUTPUT of StarlightChains_v04.for    [Cid@UFSC - 01/Apr/2007] ##
###################################################################

## Some input info
NGC6528_b_2.cxt                          [arq_obs]
Base.BC03.N                              [arq_base]
NGC6528_b_2.msk                          [arq_masks]
StCv04.C11.config                        [arq_config]
   45                                    [N_base]
    0                                    [N_YAV_components = # of components with extra extinction!]
    0                                    [i_FitPowerLaw (1/0 = Yes/No)]
-9.99                                    [alpha_PowerLaw]
CCM                                      [red_law_option]
 1.458241                                [q_norm = A(l_norm)/A(V)]

## (Re)Sampling Parameters
 3359.00                                 [l_ini (A)]
 6428.00                                 [l_fin (A)]
    1.00                                 [dl    (A)]     (OBS: dl_cushion =    50.00 A)

## Normalization info
 4020.00                                 [l_norm (A) - for base]
 4010.00                                 [llow_norm (A) - window for f_obs]
 4060.00                                 [lupp_norm (A) - window for f_obs]
4.330667E-15                             [fobs_norm (in input units)]

## S/N
 4730.00                                 [llow_SN (A) - window for S/N]
 4780.00                                 [lupp_SN (A) - window for S/N]
  27.791                                 [S/N in S/N window]
  14.946                                 [S/N in norm. window]
 304.113                                 [S/N_err in S/N window]
 163.548                                 [S/N_err in norm. window]
  1.0000                                 [fscale_chi2]

## etc...
  2147483603                             [idum_orig]
  3069                                   [NOl_eff]
   872                                   [Nl_eff]
  2197    NSIGMA                         [Ntot_cliped & clip_method]
  1208620                                [Nglobal_steps]
   7                                     [N_chains]
  16                                     [NEX0s_base = N_base in EX0s-fits]
 0   0   1      139   2.0   3.771E+02    [Clip-Bug, RC-Crash & Burn-In warning-flags, n_censored_weights, wei_nsig_threshold & wei_limit]
    12     11.892     11.884      0.008  [idt_all, wdt_TotTime, wdt_UsrTime & wdt_SysTime (sec)]

## Synthesis Results - Best model ##

 3.22995E+00                             [chi2/Nl_eff]
     2.51688                             [adev (%)]

    97.26844                             [sum-of-x (%)]
 3.50379E-14                             [Flux_tot (units of input spectrum!)]
 2.33409E-09                             [Mini_tot (???)]
 1.18454E-09                             [Mcor_tot (???)]

  -5.75                                  [v0_min  (km/s)]
  66.54                                  [vd_min  (km/s)]
 1.5773                                  [AV_min  (mag)]
 0.0000                                  [YAV_min (mag)]

# j     x_j(%)      Mini_j(%)     Mcor_j(%)     age_j(yr)     Z_j      (L/M)_j    YAV?  Mstars   component_j        a/Fe...       SSP_chi2r SSP_adev(%)   SSP_AV   SSP_x(%)
  1      1.0239     1.4185E-03    2.7950E-03    1.000000E+06  0.00400  1.114E-02    0   1.0000   age020_m42            0.0000     4.2787E+03    46.6520   4.0000    98.4768
  2      6.0852     2.3057E-03    4.5429E-03    3.160000E+06  0.00400  4.073E-02    0   0.9999   age045_m42            0.0000     1.0874E+03    23.5020   4.0000   105.7586
  3      1.1001     6.7000E-04    1.2526E-03    5.010000E+06  0.00400  2.534E-02    0   0.9488   age055_m42            0.0000     2.1665E+03    33.9713   4.0000   103.9931
  4      4.4508     5.4043E-03    9.4372E-03    1.000000E+07  0.00400  1.271E-02    0   0.8862   age070_m42            0.0000     7.9147E+02    17.9212   4.0000    99.2365
  5      0.9494     2.8901E-03    4.6549E-03    2.512000E+07  0.00400  5.070E-03    0   0.8174   age090_m42            0.0000     6.0494E+02    15.6365   4.0000    98.7611
  6      0.0000     0.0000E+00    0.0000E+00    4.000000E+07  0.00400  3.505E-03    0   0.7851   age104_m42            0.0000     3.3722E+02    12.0196   4.0000    95.6679
  7      0.8646     5.8830E-03    8.3545E-03    1.015200E+08  0.00400  2.268E-03    0   0.7207   age116_m42            0.0000     6.2613E+02    12.2696   3.9749   102.0482
  8      0.0000     0.0000E+00    0.0000E+00    2.861200E+08  0.00400  1.079E-03    0   0.6613   age125_m42            0.0000     6.5511E+02    12.1992   3.4701   103.8486
  9      0.0000     0.0000E+00    0.0000E+00    6.405400E+08  0.00400  5.077E-04    0   0.6197   age132_m42            0.0000     6.6337E+02    12.4525   3.1025   107.9529
 10      0.0000     0.0000E+00    0.0000E+00    9.047900E+08  0.00400  3.535E-04    0   0.6024   age135_m42            0.0000     4.9243E+02    10.7570   2.8699   107.0278
 11      0.0000     0.0000E+00    0.0000E+00    1.434000E+09  0.00400  1.910E-04    0   0.5716   age139_m42            0.0000     2.6041E+02     8.2909   2.3355   105.0474
 12      0.0000     0.0000E+00    0.0000E+00    2.500000E+09  0.00400  9.818E-05    0   0.5463   age150_m42            0.0000     1.0410E+02     5.6630   2.0605   100.2610
 13      2.9458     9.6358E-01    9.9263E-01    5.000000E+09  0.00400  4.718E-05    0   0.5228   age161_m42            0.0000     5.0023E+01     4.2491   1.9098    96.9010
 14      6.6314     4.6413E+00    4.5545E+00    1.100000E+10  0.00400  2.205E-05    0   0.4980   age185_m42            0.0000     3.1261E+01     4.2237   1.6297    94.5934
 15      3.6780     3.0145E+00    2.9266E+00    1.300000E+10  0.00400  1.883E-05    0   0.4927   age193_m42            0.0000     3.0965E+01     4.2668   1.6142    94.4184
 16      0.0000     0.0000E+00    0.0000E+00    1.000000E+06  0.02000  1.989E-02    0   1.0000   age020_m62            0.0000     4.1605E+03    45.7632   4.0000    99.1998
 17      0.0000     0.0000E+00    0.0000E+00    3.160000E+06  0.02000  3.772E-02    0   0.9858   age045_m62            0.0000     3.6195E+03    43.1128   4.0000   101.2834
 18      4.7272     2.2607E-03    4.1616E-03    5.010000E+06  0.02000  3.227E-02    0   0.9342   age055_m62            0.0000     1.6880E+03    30.1895   4.0000   105.7980
 19      0.0000     0.0000E+00    0.0000E+00    1.000000E+07  0.02000  1.011E-02    0   0.8751   age070_m62            0.0000     1.1633E+03    21.5174   4.0000    97.6727
 20      0.0000     0.0000E+00    0.0000E+00    2.512000E+07  0.02000  4.206E-03    0   0.8099   age090_m62            0.0000     8.7065E+02    18.9625   4.0000    96.6165
 21      0.0000     0.0000E+00    0.0000E+00    4.000000E+07  0.02000  3.373E-03    0   0.7799   age104_m62            0.0000     4.8897E+02    13.0144   4.0000   100.6857
 22      0.0000     0.0000E+00    0.0000E+00    1.015200E+08  0.02000  1.878E-03    0   0.7221   age116_m62            0.0000     6.0524E+02    11.8784   4.0000   103.1724
 23      0.0000     0.0000E+00    0.0000E+00    2.861200E+08  0.02000  8.869E-04    0   0.6700   age125_m62            0.0000     8.9567E+02    14.4481   3.4560   108.8017
 24      0.0000     0.0000E+00    0.0000E+00    6.405400E+08  0.02000  3.657E-04    0   0.6322   age132_m62            0.0000     6.1148E+02    12.7027   2.7310   111.4032
 25      0.0000     0.0000E+00    0.0000E+00    9.047900E+08  0.02000  2.312E-04    0   0.6152   age135_m62            0.0000     3.7609E+02    10.4521   2.3615   110.0547
 26      0.0000     0.0000E+00    0.0000E+00    1.434000E+09  0.02000  1.168E-04    0   0.5865   age139_m62            0.0000     1.3239E+02     6.8835   1.9623   104.0838
 27      0.0000     0.0000E+00    0.0000E+00    2.500000E+09  0.02000  5.505E-05    0   0.5610   age150_m62            0.0000     5.1086E+01     5.8754   1.5707   101.1460
 28      0.0000     0.0000E+00    0.0000E+00    5.000000E+09  0.02000  2.596E-05    0   0.5353   age161_m62            0.0000     5.0836E+01     7.3579   1.2040   100.7704
 29     43.9517     5.8024E+01    5.8345E+01    1.100000E+10  0.02000  1.169E-05    0   0.5103   age185_m62            0.0000     1.0236E+02     9.7341   0.8003   101.9951
 30     16.7541     2.6681E+01    2.6534E+01    1.300000E+10  0.02000  9.691E-06    0   0.5047   age193_m62            0.0000     1.1673E+02    10.1340   0.7517   102.1608
 31      0.9197     5.3543E-04    1.0548E-03    1.000000E+06  0.05000  2.651E-02    0   0.9998   age020_m72            0.0000     4.0353E+03    45.3928   4.0000   100.3258
 32      0.6496     2.0811E-04    3.9272E-04    3.160000E+06  0.05000  4.817E-02    0   0.9577   age045_m72            0.0000     2.8448E+03    39.1217   4.0000   104.3988
 33      0.0000     0.0000E+00    0.0000E+00    5.010000E+06  0.05000  3.101E-02    0   0.9147   age055_m72            0.0000     1.9431E+03    31.8342   4.0000   104.4880
 34      0.0000     0.0000E+00    0.0000E+00    1.000000E+07  0.05000  8.954E-03    0   0.8524   age070_m72            0.0000     2.4510E+03    36.2643   4.0000   104.9688
 35      0.0000     0.0000E+00    0.0000E+00    2.512000E+07  0.05000  4.207E-03    0   0.7902   age090_m72            0.0000     1.2295E+03    25.6313   4.0000   106.3287
 36      0.0000     0.0000E+00    0.0000E+00    4.000000E+07  0.05000  3.198E-03    0   0.7618   age104_m72            0.0000     6.0135E+02    13.8767   4.0000   106.0262
 37      0.0000     0.0000E+00    0.0000E+00    1.015200E+08  0.05000  1.716E-03    0   0.7092   age116_m72            0.0000     6.8291E+02    12.5692   4.0000   104.8572
 38      0.0000     0.0000E+00    0.0000E+00    2.861200E+08  0.05000  7.047E-04    0   0.6618   age125_m72            0.0000     8.3049E+02    14.4015   3.2231   109.0568
 39      0.0000     0.0000E+00    0.0000E+00    6.405400E+08  0.05000  2.633E-04    0   0.6253   age132_m72            0.0000     4.5254E+02    11.5432   2.3519   110.2782
 40      0.0000     0.0000E+00    0.0000E+00    9.047900E+08  0.05000  1.484E-04    0   0.6088   age135_m72            0.0000     1.8390E+02     8.6129   1.8677   104.8725
 41      0.0000     0.0000E+00    0.0000E+00    1.434000E+09  0.05000  7.827E-05    0   0.5847   age139_m72            0.0000     7.6757E+01     7.4991   1.4485   101.4084
 42      0.0000     0.0000E+00    0.0000E+00    2.500000E+09  0.05000  3.759E-05    0   0.5583   age150_m72            0.0000     6.3038E+01     8.0335   1.1086   100.5341
 43      0.0000     0.0000E+00    0.0000E+00    5.000000E+09  0.05000  1.548E-05    0   0.5320   age161_m72            0.0000     1.2285E+02     9.8159   0.7088    99.5100
 44      1.3163     3.1099E+00    3.1069E+00    1.100000E+10  0.05000  6.532E-06    0   0.5070   age185_m72            0.0000     2.4766E+02    12.8260   0.2690    99.2544
 45      1.2208     3.5440E+00    3.5042E+00    1.300000E+10  0.05000  5.316E-06    0   0.5018   age193_m72            0.0000     3.0785E+02    14.0444   0.1228    99.4008


## Synthesis Results - Average & Chains ##

# j      x_j: min, <> & last-chain-values for 1 ...  7 chains
  1      1.0239      0.9214      0.9929      0.9279      1.0561      0.8603      0.9159      0.6037      0.9268
  2      6.0852      5.2357      5.0623      5.6047      5.2951      5.3684      5.4881      5.3371      5.2102
  3      1.1001      1.0000      0.9121      1.0971      1.0585      1.0022      0.9572      0.8495      0.9881
  4      4.4508      4.1697      4.1296      4.3278      4.0989      4.2624      4.3522      4.3592      3.9875
  5      0.9494      0.5778      0.6532      0.4326      0.6259      0.7120      0.5897      0.5932      0.9477
  6      0.0000      0.0392      0.0170      0.1133      0.0000      0.0000      0.0000      0.0000      0.0289
  7      0.8646      0.1561      0.2439      0.1535      0.0829      0.0904      0.1768      0.1340      0.4786
  8      0.0000      0.0812      0.1456      0.0000      0.0548      0.1928      0.0000      0.1994      0.1057
  9      0.0000      0.1962      0.4207      0.2383      0.1706      0.0875      0.2108      0.1745      0.1872
 10      0.0000      0.1100      0.2414      0.0814      0.3073      0.1770      0.1502      0.1075      0.0000
 11      0.0000      0.1865      0.4207      0.6433      0.3833      0.0000      0.6859      0.5449      0.2727
 12      0.0000      0.8114      0.7153      0.0000      0.3589      0.9484      0.4705      0.4494      0.0000
 13      2.9458      2.5193      1.4513      2.9414      2.5758      2.5442      2.0882      1.8908      2.7988
 14      6.6314      6.0901      6.0458      6.0747      6.7109      5.8874      6.1082      5.9762      5.9002
 15      3.6780      2.4221      3.6748      2.6767      2.3476      2.8474      2.9879      3.6462      4.2668
 16      0.0000      0.0374      0.0117      0.0328      0.0000      0.3554      0.0475      0.0071      0.0198
 17      0.0000      0.0396      0.0000      0.0000      0.0000      0.0000      0.0000      0.0000      0.1207
 18      4.7272      4.8364      4.8367      4.8723      4.9508      4.5344      4.7665      5.0136      4.6700
 19      0.0000      0.1395      0.4331      0.1215      0.2555      0.2294      0.0405      0.3865      0.1621
 20      0.0000      0.0219      0.0000      0.0000      0.0000      0.0000      0.0000      0.0000      0.0319
 21      0.0000      0.0427      0.0000      0.0000      0.0000      0.0731      0.0000      0.0000      0.0000
 22      0.0000      0.0889      0.1194      0.0000      0.0000      0.1386      0.0449      0.0000      0.0000
 23      0.0000      0.0286      0.0074      0.0271      0.0000      0.0894      0.0000      0.0000      0.0000
 24      0.0000      0.0449      0.0000      0.0052      0.0000      0.1903      0.0000      0.0000      0.0000
 25      0.0000      0.0546      0.0000      0.0000      0.0000      0.0000      0.0000      0.0000      0.0311
 26      0.0000      0.0863      0.0000      0.0000      0.0879      0.0000      0.0000      0.0000      0.0585
 27      0.0000      0.0569      0.0000      0.0000      0.0170      0.0000      0.0000      0.0000      0.0000
 28      0.0000      0.0741      0.0000      0.0000      0.0044      0.0703      0.0141      0.0000      0.0052
 29     43.9517     45.7081     44.6504     45.5398     45.8134     45.9454     44.8084     45.3619     44.8291
 30     16.7541     16.7802     16.9412     16.6753     16.9474     16.1773     16.9633     16.9776     16.6878
 31      0.9197      1.0746      1.0747      1.0098      0.9837      1.0507      1.0863      1.2114      0.9675
 32      0.6496      1.2578      1.3438      1.1431      1.1846      1.1416      1.2510      1.3579      1.2410
 33      0.0000      0.0417      0.0000      0.0000      0.0165      0.0000      0.1082      0.0000      0.0468
 34      0.0000      0.0133      0.0000      0.0000      0.0000      0.0000      0.0000      0.0000      0.0000
 35      0.0000      0.0386      0.0048      0.0210      0.0000      0.0000      0.0000      0.0000      0.0000
 36      0.0000      0.0506      0.0000      0.0383      0.2270      0.0000      0.2755      0.0339      0.0000
 37      0.0000      0.0502      0.0000      0.1314      0.2379      0.0770      0.1176      0.0000      0.2564
 38      0.0000      0.0267      0.0000      0.0000      0.0000      0.0000      0.0105      0.1009      0.0000
 39      0.0000      0.0487      0.0000      0.0359      0.0000      0.0000      0.0000      0.0000      0.0000
 40      0.0000      0.0748      0.2530      0.0000      0.0000      0.0000      0.0000      0.0000      0.0000
 41      0.0000      0.0374      0.0000      0.0000      0.0000      0.0000      0.0953      0.0000      0.0000
 42      0.0000      0.0303      0.0000      0.0000      0.0000      0.0000      0.0000      0.0000      0.0000
 43      0.0000      0.6411      0.8636      0.6582      0.1602      0.6263      0.5010      0.6720      0.4692
 44      1.3163      0.7432      1.2413      1.1162      0.6131      0.7802      1.2324      0.6912      0.5854
 45      1.2208      0.7992      0.4930      0.7235      0.8165      0.9463      0.8916      0.7553      1.0793

# j      m_j: min, <> & last-chain-values for 1 ...  7 chains
  1  2.7950E-03  2.5342E-03  2.7330E-03  2.5415E-03  2.9081E-03  2.3661E-03  2.5044E-03  1.6575E-03  2.5458E-03
  2  4.5429E-03  3.9383E-03  3.8110E-03  4.1985E-03  3.9877E-03  4.0379E-03  4.1039E-03  4.0076E-03  3.9138E-03
  3  1.2526E-03  1.1473E-03  1.0472E-03  1.2535E-03  1.2158E-03  1.1497E-03  1.0917E-03  9.7293E-04  1.1321E-03
  4  9.4372E-03  8.9080E-03  8.8295E-03  9.2077E-03  8.7671E-03  9.1056E-03  9.2432E-03  9.2968E-03  8.5073E-03
  5  4.6549E-03  2.8541E-03  3.2291E-03  2.1283E-03  3.0953E-03  3.5171E-03  2.8959E-03  2.9253E-03  4.6754E-03
  6  0.0000E+00  2.6892E-04  1.1644E-04  7.7448E-04  0.0000E+00  0.0000E+00  0.0000E+00  0.0000E+00  1.9838E-04
  7  8.3545E-03  1.5202E-03  2.3763E-03  1.4886E-03  8.0844E-04  8.8006E-04  1.7114E-03  1.3028E-03  4.6532E-03
  8  0.0000E+00  1.5250E-03  2.7362E-03  0.0000E+00  1.0298E-03  3.6206E-03  0.0000E+00  3.7370E-03  1.9823E-03
  9  0.0000E+00  7.3375E-03  1.5747E-02  8.8755E-03  6.3884E-03  3.2715E-03  7.8390E-03  6.5142E-03  6.9907E-03
 10  0.0000E+00  5.7436E-03  1.2613E-02  4.2311E-03  1.6066E-02  9.2412E-03  7.7966E-03  5.6055E-03  0.0000E+00
 11  0.0000E+00  1.7102E-02  3.8611E-02  5.8744E-02  3.5191E-02  0.0000E+00  6.2523E-02  4.9881E-02  2.4971E-02
 12  0.0000E+00  1.3834E-01  1.2206E-01  0.0000E+00  6.1259E-02  1.6169E-01  7.9745E-02  7.6490E-02  0.0000E+00
 13  9.9263E-01  8.5535E-01  4.9314E-01  9.9456E-01  8.7558E-01  8.6377E-01  7.0483E-01  6.4085E-01  9.4898E-01
 14  4.5545E+00  4.2144E+00  4.1871E+00  4.1864E+00  4.6494E+00  4.0739E+00  4.2021E+00  4.1284E+00  4.0775E+00
 15  2.9266E+00  1.9418E+00  2.9486E+00  2.1371E+00  1.8843E+00  2.2827E+00  2.3814E+00  2.9181E+00  3.4161E+00
 16  0.0000E+00  5.7617E-05  1.8097E-05  5.0321E-05  0.0000E+00  5.4739E-04  7.2761E-05  1.0986E-05  3.0531E-05
 17  0.0000E+00  3.1728E-05  0.0000E+00  0.0000E+00  0.0000E+00  0.0000E+00  0.0000E+00  0.0000E+00  9.6498E-05
 18  4.1616E-03  4.2900E-03  4.2937E-03  4.3040E-03  4.3966E-03  4.0219E-03  4.2031E-03  4.4394E-03  4.1368E-03
 19  0.0000E+00  3.7010E-04  1.1496E-03  3.2090E-04  6.7838E-04  6.0849E-04  1.0672E-04  1.0234E-03  4.2934E-04
 20  0.0000E+00  1.2916E-04  0.0000E+00  0.0000E+00  0.0000E+00  0.0000E+00  0.0000E+00  0.0000E+00  1.8790E-04
 21  0.0000E+00  3.0273E-04  0.0000E+00  0.0000E+00  0.0000E+00  5.1788E-04  0.0000E+00  0.0000E+00  0.0000E+00
 22  0.0000E+00  1.0472E-03  1.4081E-03  0.0000E+00  0.0000E+00  1.6331E-03  5.2609E-04  0.0000E+00  0.0000E+00
 23  0.0000E+00  6.6132E-04  1.7087E-04  6.2412E-04  0.0000E+00  2.0694E-03  0.0000E+00  0.0000E+00  0.0000E+00
 24  0.0000E+00  2.3765E-03  0.0000E+00  2.7572E-04  0.0000E+00  1.0079E-02  0.0000E+00  0.0000E+00  0.0000E+00
 25  0.0000E+00  4.4484E-03  0.0000E+00  0.0000E+00  0.0000E+00  0.0000E+00  0.0000E+00  0.0000E+00  2.5288E-03
 26  0.0000E+00  1.3284E-02  0.0000E+00  0.0000E+00  1.3537E-02  0.0000E+00  0.0000E+00  0.0000E+00  8.9899E-03
 27  0.0000E+00  1.7769E-02  0.0000E+00  0.0000E+00  5.3021E-03  0.0000E+00  0.0000E+00  0.0000E+00  0.0000E+00
 28  0.0000E+00  4.6815E-02  0.0000E+00  0.0000E+00  2.7920E-03  4.4426E-02  8.8788E-03  0.0000E+00  3.2637E-03
 29  5.8345E+01  6.1136E+01  5.9769E+01  6.0659E+01  6.1349E+01  6.1450E+01  5.9580E+01  6.0567E+01  5.9879E+01
 30  2.6534E+01  2.6776E+01  2.7055E+01  2.6499E+01  2.7075E+01  2.5813E+01  2.6909E+01  2.7044E+01  2.6593E+01
 31  1.0548E-03  1.2418E-03  1.2429E-03  1.1620E-03  1.1381E-03  1.2141E-03  1.2479E-03  1.3974E-03  1.1165E-03
 32  3.9272E-04  7.6623E-04  8.1926E-04  6.9351E-04  7.2251E-04  6.9539E-04  7.5760E-04  8.2578E-04  7.5495E-04
 33  0.0000E+00  3.7680E-05  0.0000E+00  0.0000E+00  1.4972E-05  0.0000E+00  9.7204E-05  0.0000E+00  4.2282E-05
 34  0.0000E+00  3.8733E-05  0.0000E+00  0.0000E+00  0.0000E+00  0.0000E+00  0.0000E+00  0.0000E+00  0.0000E+00
 35  0.0000E+00  2.2238E-04  2.7665E-05  1.2024E-04  0.0000E+00  0.0000E+00  0.0000E+00  0.0000E+00  0.0000E+00
 36  0.0000E+00  3.6959E-04  0.0000E+00  2.7821E-04  1.6590E-03  0.0000E+00  1.9986E-03  2.4678E-04  0.0000E+00
 37  0.0000E+00  6.3611E-04  0.0000E+00  1.6565E-03  3.0164E-03  9.7513E-04  1.4807E-03  0.0000E+00  3.2424E-03
 38  0.0000E+00  7.6718E-04  0.0000E+00  0.0000E+00  0.0000E+00  0.0000E+00  3.0113E-04  2.8980E-03  0.0000E+00
 39  0.0000E+00  3.5416E-03  0.0000E+00  2.5984E-03  0.0000E+00  0.0000E+00  0.0000E+00  0.0000E+00  0.0000E+00
 40  0.0000E+00  9.3965E-03  3.1824E-02  0.0000E+00  0.0000E+00  0.0000E+00  0.0000E+00  0.0000E+00  0.0000E+00
 41  0.0000E+00  8.5573E-03  0.0000E+00  0.0000E+00  0.0000E+00  0.0000E+00  2.1678E-02  0.0000E+00  0.0000E+00
 42  0.0000E+00  1.3767E-02  0.0000E+00  0.0000E+00  0.0000E+00  0.0000E+00  0.0000E+00  0.0000E+00  0.0000E+00
 43  0.0000E+00  6.7508E-01  9.1015E-01  6.9025E-01  1.6894E-01  6.5942E-01  5.2450E-01  7.0634E-01  4.9342E-01
 44  3.1069E+00  1.7675E+00  2.9545E+00  2.6436E+00  1.4597E+00  1.8554E+00  2.9138E+00  1.6409E+00  1.3904E+00
 45  3.5042E+00  2.3115E+00  1.4271E+00  2.0838E+00  2.3643E+00  2.7368E+00  2.5637E+00  2.1808E+00  3.1175E+00

# AV, chi2 & Mass for <> & i_chain = 1 ...  7 solutions
AV       1.5773      1.5657      1.5720      1.5657      1.5744      1.5703      1.5696      1.5691      1.5723
chi2 3.2299E+00  3.2885E+00  3.2645E+00  3.2708E+00  3.2727E+00  3.2719E+00  3.2641E+00  3.2700E+00  3.2587E+00
Mass 1.1845E-09  1.1576E-09  1.1664E-09  1.1624E-09  1.1698E-09  1.1647E-09  1.1706E-09  1.1648E-09  1.1694E-09
  -5.75                                  [v0_min (km/s) before EX0s...]
  66.54                                  [vd_min (km/s) before EX0s...]


## Synthetic spectrum (Best Model) ##l_obs f_obs f_syn wei
 3070    [Nl_obs]
 3359.00    0.23214   0.37566   -1.000
 3360.00    0.22166   0.35601   -1.000
 3361.00    0.25036   0.36038   -1.000
 3362.00    0.25547   0.38555   -1.000
 3363.00    0.24920   0.41702   -1.000
 3364.00    0.26283   0.43770   -1.000
 3365.00    0.28177   0.43757   -1.000
 3366.00    0.30534   0.41974   -1.000
 3367.00    0.28968   0.39686   -1.000
 3368.00    0.31082   0.37796   -1.000
 3369.00    0.31727   0.36757   -1.000
 3370.00    0.27558   0.36366   -1.000
 3371.00    0.26882   0.36374   -1.000
 3372.00    0.26772   0.37073   -1.000
 3373.00    0.26515   0.38823   -1.000
 3374.00    0.28518   0.41406   -1.000
 3375.00    0.30189   0.44050   -1.000
 3376.00    0.32154   0.45547   -1.000
 3377.00    0.32365   0.45026   -1.000
 3378.00    0.30544   0.42994   -1.000
 3379.00    0.29965   0.40930   -1.000
 3380.00    0.29311   0.40080   -1.000
 3381.00    0.30870   0.40821   -1.000
 3382.00    0.31024   0.42347   -1.000
 3383.00    0.30634   0.43827   -1.000
 3384.00    0.31709   0.44954   -1.000
 3385.00    0.31183   0.45785   -1.000
 3386.00    0.32668   0.46135   -1.000
 3387.00    0.33769   0.46050   -1.000
 3388.00    0.32517   0.45822   -1.000
 3389.00    0.35513   0.45544   -1.000
 3390.00    0.34803   0.44839   -1.000
 3391.00    0.34521   0.43503   -1.000
 3392.00    0.34708   0.42286   -1.000
 3393.00    0.33287   0.42155   -1.000
 3394.00    0.34903   0.43365   -1.000
 3395.00    0.35904   0.45348   -1.000
 3396.00    0.36295   0.47195   -1.000
 3397.00    0.36829   0.48721   -1.000
 3398.00    0.39072   0.49789   -1.000
 3399.00    0.39058   0.50125   -1.000
 3400.00    0.37579   0.49758   -1.000
 3401.00    0.38656   0.48804   -1.000
 3402.00    0.37923   0.47483   -1.000
 3403.00    0.39542   0.46302   -1.000
 3404.00    0.37978   0.45431   -1.000
 3405.00    0.39295   0.44695   50.981
 3406.00    0.40366   0.43969   51.798
 3407.00    0.41447   0.43472   52.084
 3408.00    0.40103   0.43549   51.763
 3409.00    0.38954   0.44179   50.194
 3410.00    0.39670   0.44825   49.797
 3411.00    0.40477   0.44550   51.956
 3412.00    0.40777   0.43209   52.917
 3413.00    0.40564   0.41614   52.800
 3414.00    0.39128   0.40823   51.485
 3415.00    0.40589   0.41496   49.269
 3416.00    0.38312   0.43297   46.936
 3417.00    0.38054   0.45575   -1.000
 3418.00    0.40194   0.47678   -1.000
 3419.00    0.44485   0.49226   44.069
 3420.00    0.44553   0.49683   44.340
 3421.00    0.42332   0.48824   45.648
 3422.00    0.43914   0.47241   46.681
 3423.00    0.45207   0.46154   45.339
 3424.00    0.44384   0.45889   44.143
 3425.00    0.41589   0.46131   43.907
 3426.00    0.40483   0.46675   -1.000
 3427.00    0.43956   0.47672   -1.000
 3428.00    0.45552   0.49297   -1.000
 3429.00    0.44777   0.50752   -1.000
 3430.00    0.47203   0.50684   -1.000
 3431.00    0.44603   0.49129   44.596
 3432.00    0.44118   0.47212   43.783
 3433.00    0.43796   0.46328   -1.000
 3434.00    0.42961   0.46719   -1.000
 3435.00    0.40632   0.47277   44.176
 3436.00    0.41697   0.47037   45.825
 3437.00    0.41880   0.45650   48.591
 3438.00    0.42671   0.43198   52.477
 3439.00    0.41322   0.40131   54.586
 3440.00    0.37383   0.37345   54.668
 3441.00    0.35777   0.35641   54.433
 3442.00    0.33597   0.35570   52.257
 3443.00    0.34866   0.36713   49.388
 3444.00    0.38041   0.38265   46.651
 3445.00    0.39621   0.39849   45.035
 3446.00    0.38669   0.41597   -1.000
 3447.00    0.40599   0.43599   -1.000
 3448.00    0.45813   0.45783  377.136
 3449.00    0.47428   0.47428  377.136
 3450.00    0.45771   0.47633   -1.000
 3451.00    0.45516   0.46558   -1.000
 3452.00    0.43772   0.45436   -1.000
 3453.00    0.44847   0.45230  377.136
 3454.00    0.47215   0.45949   -1.000
 3455.00    0.46681   0.46509  377.136
 3456.00    0.42495   0.46005   -1.000
 3457.00    0.44163   0.44440   43.902
 3458.00    0.43778   0.42466   44.499
 3459.00    0.41502   0.40970   44.358
 3460.00    0.43478   0.40306   -1.000
 3461.00    0.44050   0.40809   -1.000
 3462.00    0.42279   0.42482  377.136
 3463.00    0.42314   0.44322   -1.000
 3464.00    0.45434   0.45009  377.136
 3465.00    0.47852   0.44841   -1.000
 3466.00    0.45420   0.44821  377.136
 3467.00    0.42907   0.45578   -1.000
 3468.00    0.46239   0.46933  371.043
 3469.00    0.49396   0.48068   -1.000
 3470.00    0.49062   0.48329  377.136
 3471.00    0.48645   0.47352   -1.000
 3472.00    0.48117   0.45307   -1.000
 3473.00    0.44392   0.42736   44.285
 3474.00    0.44934   0.40420   45.935
 3475.00    0.43598   0.39137   45.442
 3476.00    0.43855   0.39561   -1.000
 3477.00    0.44643   0.41349   -1.000
 3478.00    0.42781   0.43522  376.375
 3479.00    0.46933   0.45150   -1.000
 3480.00    0.48107   0.45836   -1.000
 3481.00    0.47174   0.45573   -1.000
 3482.00    0.45680   0.44687   -1.000
 3483.00    0.45208   0.43909   -1.000
 3484.00    0.47269   0.44115   -1.000
 3485.00    0.47823   0.45484   -1.000
 3486.00    0.49505   0.47026   -1.000
 3487.00    0.48288   0.47434   -1.000
 3488.00    0.47660   0.46054   -1.000
 3489.00    0.47286   0.43669   -1.000
 3490.00    0.44425   0.41755   -1.000
 3491.00    0.43635   0.41317   -1.000
 3492.00    0.45608   0.42175   -1.000
 3493.00    0.45553   0.43335   -1.000
 3494.00    0.44095   0.43857  377.136
 3495.00    0.43041   0.43436  377.136
 3496.00    0.42752   0.42958  377.136
 3497.00    0.42935   0.43643  368.143
 3498.00    0.42401   0.45777   -1.000
 3499.00    0.44948   0.48123   -1.000
 3500.00    0.47823   0.49463   -1.000
 3501.00    0.49041   0.50243   -1.000
 3502.00    0.51406   0.50988  350.048
 3503.00    0.54367   0.51330   -1.000
 3504.00    0.53300   0.50838   -1.000
 3505.00    0.51239   0.49792   -1.000
 3506.00    0.52084   0.48950   -1.000
 3507.00    0.51170   0.48589   -1.000
 3508.00    0.50492   0.48123   -1.000
 3509.00    0.49036   0.47136   -1.000
 3510.00    0.47203   0.45905   -1.000
 3511.00    0.46860   0.44634   -1.000
 3512.00    0.48682   0.43393   -1.000
 3513.00    0.47678   0.42442   -1.000
 3514.00    0.45363   0.42585   -1.000
 3515.00    0.43885   0.44526  352.315
 3516.00    0.44173   0.47611   -1.000
 3517.00    0.47092   0.50189   -1.000
 3518.00    0.50191   0.50999  372.076
 3519.00    0.50230   0.49812  377.136
 3520.00    0.48831   0.47433   -1.000
 3521.00    0.46468   0.44813   -1.000
 3522.00    0.44456   0.42597   43.944
 3523.00    0.43174   0.40676   45.463
 3524.00    0.41478   0.39252   46.906
 3525.00    0.39412   0.39109  377.136
 3526.00    0.38708   0.40668   -1.000
 3527.00    0.40183   0.43514   -1.000
 3528.00    0.44392   0.46580   -1.000
 3529.00    0.47502   0.48576   -1.000
 3530.00    0.49956   0.49031   -1.000
 3531.00    0.49166   0.48571  370.117
 3532.00    0.47098   0.48461   -1.000
 3533.00    0.47899   0.49176   -1.000
 3534.00    0.51004   0.50292  351.020
 3535.00    0.52134   0.51084   -1.000
 3536.00    0.51746   0.51364  348.885
 3537.00    0.50565   0.51751   -1.000
 3538.00    0.51705   0.52414  348.046
 3539.00    0.53181   0.52693  354.569
 3540.00    0.51865   0.52205  357.290
 3541.00    0.52846   0.51447   -1.000
 3542.00    0.51248   0.51419  349.551
 3543.00    0.49989   0.52239   -1.000
 3544.00    0.50568   0.53052   -1.000
 3545.00    0.50110   0.53177   -1.000
 3546.00    0.47497   0.52637   -1.000
 3547.00    0.47590   0.52111   -1.000
 3548.00    0.50241   0.52007   -1.000
 3549.00    0.49639   0.52089   -1.000
 3550.00    0.48528   0.51852   -1.000
 3551.00    0.48493   0.50962   -1.000
 3552.00    0.48338   0.49594   -1.000
 3553.00    0.46193   0.48410   -1.000
 3554.00    0.46258   0.48105   -1.000
 3555.00    0.44952   0.48539   -1.000
 3556.00    0.45632   0.48938   -1.000
 3557.00    0.46502   0.48855   -1.000
 3558.00    0.45643   0.48472   -1.000
 3559.00    0.44524   0.48529   -1.000
 3560.00    0.43134   0.49388   -1.000
 3561.00    0.46143   0.50526   -1.000
 3562.00    0.46713   0.50774   -1.000
 3563.00    0.47244   0.49028   44.443
 3564.00    0.43904   0.45620   46.119
 3565.00    0.43017   0.42355   45.579
 3566.00    0.38751   0.40944   45.446
 3567.00    0.38501   0.40834   46.978
 3568.00    0.41197   0.40471   47.671
 3569.00    0.40519   0.39512   46.103
 3570.00    0.39296   0.38842   47.053
 3571.00    0.39225   0.39428  377.136
 3572.00    0.38712   0.41081   -1.000
 3573.00    0.42312   0.42716  377.136
 3574.00    0.45186   0.43836   -1.000
 3575.00    0.44495   0.44339  377.136
 3576.00    0.42939   0.44070  269.275
 3577.00    0.42571   0.42833   46.064
 3578.00    0.43388   0.40624   49.681
 3579.00    0.40956   0.37876   52.217
 3580.00    0.37112   0.35637   52.519
 3581.00    0.35414   0.34681   52.817
 3582.00    0.35405   0.34944   54.200
 3583.00    0.34094   0.35425   55.921
 3584.00    0.34685   0.35350   56.405
 3585.00    0.34173   0.34893   53.496
 3586.00    0.34309   0.34883   50.661
 3587.00    0.35811   0.35904   48.034
 3588.00    0.38140   0.37993   47.364
 3589.00    0.38049   0.40884   -1.000
 3590.00    0.39293   0.43809   -1.000
 3591.00    0.42066   0.45910   -1.000
 3592.00    0.45610   0.46750   -1.000
 3593.00    0.45763   0.47080   -1.000
 3594.00    0.45971   0.47945   -1.000
 3595.00    0.46876   0.49652   -1.000
 3596.00    0.49569   0.51584   -1.000
 3597.00    0.48713   0.53052   -1.000
 3598.00    0.50614   0.54173   -1.000
 3599.00    0.52866   0.54867   -1.000
 3600.00    0.52849   0.54395   -1.000
 3601.00    0.52759   0.52447  377.136
 3602.00    0.51948   0.49679   -1.000
 3603.00    0.48513   0.47089   -1.000
 3604.00    0.46424   0.45502   -1.000
 3605.00    0.44815   0.44856  377.136
 3606.00    0.46324   0.44331   -1.000
 3607.00    0.44376   0.43251   -1.000
 3608.00    0.41570   0.41987  377.136
 3609.00    0.41909   0.41698  377.136
 3610.00    0.43020   0.42978  377.136
 3611.00    0.46054   0.45119   -1.000
 3612.00    0.49783   0.46923   -1.000
 3613.00    0.48937   0.48361  357.540
 3614.00    0.48662   0.49671   -1.000
 3615.00    0.50153   0.50191  377.136
 3616.00    0.49862   0.48825  233.222
 3617.00    0.47079   0.45524   47.744
 3618.00    0.43805   0.42249   -1.000
 3619.00    0.42303   0.41607   -1.000
 3620.00    0.43024   0.43813  351.764
 3621.00    0.45049   0.47387   -1.000
 3622.00    0.48952   0.50572   -1.000
 3623.00    0.51851   0.52864   -1.000
 3624.00    0.53533   0.55012   -1.000
 3625.00    0.55737   0.57643   -1.000
 3626.00    0.55342   0.60129   -1.000
 3627.00    0.57736   0.61093   -1.000
 3628.00    0.57753   0.59407   -1.000
 3629.00    0.57048   0.55015   -1.000
 3630.00    0.52806   0.49596   -1.000
 3631.00    0.47807   0.45871   -1.000
 3632.00    0.44053   0.44950  377.136
 3633.00    0.45198   0.46290   -1.000
 3634.00    0.45778   0.48392   -1.000
 3635.00    0.47162   0.50240   -1.000
 3636.00    0.51174   0.51794  326.868
 3637.00    0.53143   0.53723  317.103
 3638.00    0.56838   0.56041  317.785
 3639.00    0.57133   0.57925   -1.000
 3640.00    0.58423   0.58548  338.063
 3641.00    0.58224   0.57564  355.715
 3642.00    0.54796   0.55502   -1.000
 3643.00    0.51457   0.53242   -1.000
 3644.00    0.49628   0.51199   -1.000
 3645.00    0.49578   0.49360  377.136
 3646.00    0.48986   0.47584   -1.000
 3647.00    0.46823   0.46224  371.393
 3648.00    0.48340   0.46134   -1.000
 3649.00    0.48492   0.47704  338.852
 3650.00    0.51623   0.50648   -1.000
 3651.00    0.53793   0.54084  317.844
 3652.00    0.54458   0.57079   -1.000
 3653.00    0.56286   0.58885   -1.000
 3654.00    0.56881   0.59862   -1.000
 3655.00    0.57825   0.60742   -1.000
 3656.00    0.59793   0.62004   -1.000
 3657.00    0.61107   0.63462   -1.000
 3658.00    0.61611   0.64481   -1.000
 3659.00    0.63553   0.64814   -1.000
 3660.00    0.63501   0.64397   -1.000
 3661.00    0.61016   0.63243   -1.000
 3662.00    0.60387   0.61719   -1.000
 3663.00    0.59814   0.60543   -1.000
 3664.00    0.58808   0.60046   -1.000
 3665.00    0.58882   0.60038   -1.000
 3666.00    0.59196   0.59850  323.075
 3667.00    0.60126   0.58967   -1.000
 3668.00    0.61164   0.57693   -1.000
 3669.00    0.59481   0.57075   -1.000
 3670.00    0.57678   0.57958  308.950
 3671.00    0.58141   0.59795   -1.000
 3672.00    0.59875   0.61345   -1.000
 3673.00    0.61725   0.61962  309.987
 3674.00    0.62056   0.61610  319.823
 3675.00    0.60675   0.60350  329.763
 3676.00    0.59365   0.58267  339.560
 3677.00    0.56940   0.55693   -1.000
 3678.00    0.55539   0.53276   -1.000
 3679.00    0.52901   0.51892   -1.000
 3680.00    0.53374   0.52142   -1.000
 3681.00    0.53370   0.53677  325.046
 3682.00    0.54700   0.55364  333.928
 3683.00    0.56467   0.56109  347.813
 3684.00    0.54652   0.55195  361.055
 3685.00    0.53548   0.52779  365.044
 3686.00    0.51499   0.50210   -1.000
 3687.00    0.49681   0.49416  328.779
 3688.00    0.50961   0.51171  308.660
 3689.00    0.53164   0.54851   -1.000
 3690.00    0.58013   0.58769  304.481
 3691.00    0.62994   0.61151   -1.000
 3692.00    0.62296   0.61194  315.887
 3693.00    0.61594   0.59888   -1.000
 3694.00    0.59771   0.58710  311.203
 3695.00    0.57593   0.58312  306.417
 3696.00    0.57292   0.58931   -1.000
 3697.00    0.60457   0.60628  289.578
 3698.00    0.62641   0.62949  287.121
 3699.00    0.64710   0.64788  293.910
 3700.00    0.66548   0.65184   -1.000
 3701.00    0.65586   0.63486   -1.000
 3702.00    0.63207   0.59511   -1.000
 3703.00    0.59073   0.54105   -1.000
 3704.00    0.54674   0.49154   -1.000
 3705.00    0.51179   0.46069   -1.000
 3706.00    0.48636   0.45346   -1.000
 3707.00    0.49577   0.46098   -1.000
 3708.00    0.49874   0.47502   -1.000
 3709.00    0.52201   0.49603   -1.000
 3710.00    0.55181   0.52600   -1.000
 3711.00    0.59565   0.56178   -1.000
 3712.00    0.63338   0.59862   -1.000
 3713.00    0.64713   0.62767   -1.000
 3714.00    0.65738   0.64017   -1.000
 3715.00    0.66060   0.63399   -1.000
 3716.00    0.63581   0.60993   -1.000
 3717.00    0.61697   0.56752   -1.000
 3718.00    0.55879   0.51069   -1.000
 3719.00    0.49185   0.45040   51.677
 3720.00    0.43790   0.40541   -1.000
 3721.00    0.42046   0.39479   -1.000
 3722.00    0.43478   0.41947   -1.000
 3723.00    0.47540   0.46638   -1.000
 3724.00    0.53445   0.51530   -1.000
 3725.00    0.56472   0.54522   -1.000
 3726.00    0.56405   0.54974   -1.000
 3727.00    0.54298   0.54424  327.461
 3728.00    0.52775   0.54399   -1.000
 3729.00    0.53656   0.54465  351.531
 3730.00    0.56158   0.53223   -1.000
 3731.00    0.54422   0.49701   44.512
 3732.00    0.48546   0.44398   49.338
 3733.00    0.44385   0.39131   50.416
 3734.00    0.41047   0.35376   47.456
 3735.00    0.38055   0.34270   51.121
 3736.00    0.38460   0.36144   -1.000
 3737.00    0.41540   0.40415   -1.000
 3738.00    0.44400   0.45941   -1.000
 3739.00    0.49591   0.51302   -1.000
 3740.00    0.53922   0.54630  342.390
 3741.00    0.55274   0.55007  364.166
 3742.00    0.53127   0.52840  377.136
 3743.00    0.50867   0.49442   -1.000
 3744.00    0.49039   0.46085   -1.000
 3745.00    0.46354   0.43551   44.819
 3746.00    0.43080   0.41363   47.331
 3747.00    0.41202   0.39048   56.288
 3748.00    0.40337   0.37219   -1.000
 3749.00    0.38950   0.37248   -1.000
 3750.00    0.41290   0.40156   -1.000
 3751.00    0.46698   0.45293   -1.000
 3752.00    0.50776   0.50919  295.684
 3753.00    0.54820   0.55942   -1.000
 3754.00    0.59431   0.59344  314.602
 3755.00    0.60568   0.59636   -1.000
 3756.00    0.58094   0.56632   -1.000
 3757.00    0.54882   0.52071   -1.000
 3758.00    0.50817   0.48669   -1.000
 3759.00    0.48560   0.48035  343.941
 3760.00    0.48947   0.49316  337.732
 3761.00    0.51738   0.50766   -1.000
 3762.00    0.53686   0.51356   -1.000
 3763.00    0.52755   0.51298   -1.000
 3764.00    0.52572   0.51011   -1.000
 3765.00    0.52741   0.50432   -1.000
 3766.00    0.52364   0.49740   -1.000
 3767.00    0.52675   0.49495   -1.000
 3768.00    0.52746   0.49809   -1.000
 3769.00    0.54465   0.50450   -1.000
 3770.00    0.56927   0.51587   -1.000
 3771.00    0.57830   0.53521   -1.000
 3772.00    0.60538   0.55953   -1.000
 3773.00    0.63764   0.58080   -1.000
 3774.00    0.63587   0.59307   -1.000
 3775.00    0.62500   0.59987   -1.000
 3776.00    0.60962   0.60712  295.042
 3777.00    0.61909   0.61763  285.575
 3778.00    0.61531   0.63165   -1.000
 3779.00    0.62252   0.64674   -1.000
 3780.00    0.62434   0.66008   -1.000
 3781.00    0.64728   0.66927   -1.000
 3782.00    0.66576   0.67341  286.344
 3783.00    0.66931   0.66952  303.044
 3784.00    0.65909   0.65128   -1.000
 3785.00    0.62516   0.61803   -1.000
 3786.00    0.59405   0.57947   -1.000
 3787.00    0.54362   0.54716  341.996
 3788.00    0.53356   0.52925  336.281
 3789.00    0.54011   0.52814   -1.000
 3790.00    0.52104   0.53698   -1.000
 3791.00    0.53377   0.54359  354.285
 3792.00    0.54426   0.53803   -1.000
 3793.00    0.52587   0.51931   -1.000
 3794.00    0.50414   0.49566   -1.000
 3795.00    0.49475   0.47215   -1.000
 3796.00    0.47930   0.44845   -1.000
 3797.00    0.45987   0.42696   -1.000
 3798.00    0.44703   0.42022   -1.000
 3799.00    0.45399   0.44086   -1.000
 3800.00    0.48478   0.48477  315.062
 3801.00    0.50710   0.53439   -1.000
 3802.00    0.53310   0.57620   -1.000
 3803.00    0.56641   0.60143   -1.000
 3804.00    0.57708   0.60742   -1.000
 3805.00    0.56415   0.59757   -1.000
 3806.00    0.53937   0.58383   -1.000
 3807.00    0.52889   0.58046   -1.000
 3808.00    0.54595   0.59259   -1.000
 3809.00    0.56245   0.61036   -1.000
 3810.00    0.56620   0.61797   -1.000
 3811.00    0.56386   0.60520   -1.000
 3812.00    0.54579   0.57381   -1.000
 3813.00    0.51904   0.53572   -1.000
 3814.00    0.48339   0.50367   -1.000
 3815.00    0.44708   0.48814   -1.000
 3816.00    0.44603   0.48791   -1.000
 3817.00    0.45958   0.48931   -1.000
 3818.00    0.47457   0.47812  377.136
 3819.00    0.45036   0.45690  377.136
 3820.00    0.42184   0.44307   -1.000
 3821.00    0.42323   0.44627   -1.000
 3822.00    0.42557   0.45636   -1.000
 3823.00    0.42253   0.45360   46.062
 3824.00    0.40709   0.43483   46.735
 3825.00    0.39026   0.41489   46.227
 3826.00    0.38983   0.40489   45.469
 3827.00    0.38836   0.40620   45.010
 3828.00    0.38955   0.41355   45.922
 3829.00    0.40723   0.41898   48.397
 3830.00    0.41704   0.41522   51.808
 3831.00    0.40725   0.40029   52.750
 3832.00    0.38522   0.37886   51.403
 3833.00    0.36901   0.35993   49.514
 3834.00    0.36158   0.35109   48.926
 3835.00    0.37928   0.35291   50.049
 3836.00    0.37512   0.35977   50.781
 3837.00    0.37738   0.36539   49.355
 3838.00    0.38103   0.37065   58.824
 3839.00    0.36963   0.38259   -1.000
 3840.00    0.37633   0.40795   -1.000
 3841.00    0.41165   0.44620   -1.000
 3842.00    0.44403   0.48744   -1.000
 3843.00    0.46624   0.52140   -1.000
 3844.00    0.48920   0.54163   -1.000
 3845.00    0.49776   0.55114   -1.000
 3846.00    0.49088   0.55530   -1.000
 3847.00    0.47963   0.55374   -1.000
 3848.00    0.46465   0.54502   -1.000
 3849.00    0.45621   0.53481   -1.000
 3850.00    0.45909   0.53258   -1.000
 3851.00    0.47446   0.53993   -1.000
 3852.00    0.47430   0.54688   -1.000
 3853.00    0.46535   0.54414   -1.000
 3854.00    0.46450   0.53123   -1.000
 3855.00    0.44412   0.51438   -1.000
 3856.00    0.43613   0.49753   44.041
 3857.00    0.44122   0.47948   45.934
 3858.00    0.43339   0.46257   56.985
 3859.00    0.41290   0.45730   -1.000
 3860.00    0.40139   0.47188   -1.000
 3861.00    0.41847   0.50256   -1.000
 3862.00    0.46642   0.53298   -1.000
 3863.00    0.50812   0.54875   -1.000
 3864.00    0.51839   0.54876   -1.000
 3865.00    0.51141   0.54243   -1.000
 3866.00    0.50294   0.53788   -1.000
 3867.00    0.48315   0.53489   -1.000
 3868.00    0.47303   0.52830   -1.000
 3869.00    0.45444   0.51411   56.139
 3870.00    0.43505   0.49525   -1.000
 3871.00    0.42810   0.48345   -1.000
 3872.00    0.43033   0.48923   -1.000
 3873.00    0.46333   0.51336   -1.000
 3874.00    0.50839   0.54267   -1.000
 3875.00    0.52957   0.55797   -1.000
 3876.00    0.52577   0.54828   -1.000
 3877.00    0.50187   0.52483   -1.000
 3878.00    0.46939   0.50752   -1.000
 3879.00    0.46994   0.50277   -1.000
 3880.00    0.47326   0.50506   -1.000
 3881.00    0.46644   0.50839   -1.000
 3882.00    0.47034   0.51357   -1.000
 3883.00    0.49230   0.51971   -1.000
 3884.00    0.51336   0.51482  375.871
 3885.00    0.51728   0.49125   -1.000
 3886.00    0.49388   0.45941   -1.000
 3887.00    0.49683   0.43733   -1.000
 3888.00    0.51293   0.43894   -1.000
 3889.00    0.52724   0.46725   -1.000
 3890.00    0.56875   0.51361   -1.000
 3891.00    0.61743   0.56223   -1.000
 3892.00    0.63197   0.59706   -1.000
 3893.00    0.62489   0.61019   -1.000
 3894.00    0.61680   0.61002  290.520
 3895.00    0.62568   0.61026   -1.000
 3896.00    0.63194   0.61528   -1.000
 3897.00    0.63446   0.62008   -1.000
 3898.00    0.64999   0.61959   -1.000
 3899.00    0.64453   0.61750   -1.000
 3900.00    0.63722   0.61968   -1.000
 3901.00    0.64945   0.62271   -1.000
 3902.00    0.66173   0.61931   -1.000
 3903.00    0.63947   0.60790   -1.000
 3904.00    0.61012   0.59472   -1.000
 3905.00    0.59091   0.59086  292.114
 3906.00    0.60479   0.60352  275.813
 3907.00    0.64720   0.63154   -1.000
 3908.00    0.68532   0.66427   -1.000
 3909.00    0.70676   0.69007   -1.000
 3910.00    0.72083   0.70510   -1.000
 3911.00    0.72760   0.71268   -1.000
 3912.00    0.73674   0.71459   -1.000
 3913.00    0.72151   0.71068   -1.000
 3914.00    0.70641   0.70201  284.635
 3915.00    0.71536   0.69077   -1.000
 3916.00    0.70111   0.67782   -1.000
 3917.00    0.67333   0.66141   -1.000
 3918.00    0.65193   0.63848   -1.000
 3919.00    0.62944   0.61106   -1.000
 3920.00    0.61383   0.58748   -1.000
 3921.00    0.58841   0.57522   -1.000
 3922.00    0.58155   0.57628  328.344
 3923.00    0.59340   0.58268   -1.000
 3924.00    0.59712   0.58232   -1.000
 3925.00    0.59076   0.56708   -1.000
 3926.00    0.56321   0.53645   50.592
 3927.00    0.51867   0.49729   59.299
 3928.00    0.46021   0.45648   69.579
 3929.00    0.37793   0.41893   82.136
 3930.00    0.32171   0.38431   -1.000
 3931.00    0.28911   0.35113   -1.000
 3932.00    0.28041   0.32245   92.267
 3933.00    0.28483   0.30626   78.757
 3934.00    0.28973   0.31163   64.934
 3935.00    0.31353   0.33884   53.709
 3936.00    0.34834   0.37936   63.282
 3937.00    0.39234   0.42488   -1.000
 3938.00    0.43281   0.47002   -1.000
 3939.00    0.48227   0.50803   -1.000
 3940.00    0.53947   0.53449   -1.000
 3941.00    0.56495   0.54699   -1.000
 3942.00    0.54679   0.54898  343.094
 3943.00    0.52000   0.55117   -1.000
 3944.00    0.53309   0.56480   -1.000
 3945.00    0.57445   0.58980   -1.000
 3946.00    0.61675   0.61560  293.580
 3947.00    0.64331   0.63527  282.971
 3948.00    0.66436   0.65135   -1.000
 3949.00    0.69388   0.66836   -1.000
 3950.00    0.72685   0.68275   -1.000
 3951.00    0.73704   0.68837   -1.000
 3952.00    0.72024   0.69039   -1.000
 3953.00    0.71909   0.69523   -1.000
 3954.00    0.74157   0.69884   -1.000
 3955.00    0.74567   0.69481   -1.000
 3956.00    0.72433   0.68496   -1.000
 3957.00    0.70519   0.67664   -1.000
 3958.00    0.70910   0.66795   -1.000
 3959.00    0.70467   0.64396   -1.000
 3960.00    0.63971   0.59903   -1.000
 3961.00    0.56379   0.54770  123.032
 3962.00    0.50830   0.50538   47.771
 3963.00    0.46801   0.47616   56.856
 3964.00    0.43915   0.44844   70.065
 3965.00    0.40069   0.40980   83.378
 3966.00    0.35005   0.36117   87.334
 3967.00    0.32077   0.31436   77.805
 3968.00    0.30264   0.28587   63.980
 3969.00    0.30271   0.28551   52.882
 3970.00    0.33160   0.31276   63.724
 3971.00    0.37785   0.36004   -1.000
 3972.00    0.43063   0.41752   -1.000
 3973.00    0.48933   0.47681   -1.000
 3974.00    0.54273   0.53443  291.142
 3975.00    0.59567   0.58750  274.670
 3976.00    0.64359   0.63579  260.143
 3977.00    0.68934   0.68066  249.522
 3978.00    0.74355   0.72106   -1.000
 3979.00    0.78761   0.75276   -1.000
 3980.00    0.79637   0.76866   -1.000
 3981.00    0.79401   0.76941   -1.000
 3982.00    0.79454   0.76413   -1.000
 3983.00    0.80425   0.76405   -1.000
 3984.00    0.81474   0.77363   -1.000
 3985.00    0.82155   0.78979   -1.000
 3986.00    0.83214   0.80882   -1.000
 3987.00    0.84728   0.82622   -1.000
 3988.00    0.87723   0.83659   -1.000
 3989.00    0.88451   0.84016   -1.000
 3990.00    0.86980   0.84357   -1.000
 3991.00    0.86895   0.85176   -1.000
 3992.00    0.89527   0.86198   -1.000
 3993.00    0.90386   0.86584   -1.000
 3994.00    0.90328   0.85827   -1.000
 3995.00    0.89183   0.84276   -1.000
 3996.00    0.86053   0.82921   -1.000
 3997.00    0.84102   0.82908  220.906
 3998.00    0.85028   0.84599  214.769
 3999.00    0.89002   0.87272  211.532
 4000.00    0.93675   0.89786   -1.000
 4001.00    0.95270   0.91332   -1.000
 4002.00    0.97036   0.91178   -1.000
 4003.00    0.97593   0.88771   -1.000
 4004.00    0.93254   0.84840   -1.000
 4005.00    0.87097   0.81824   -1.000
 4006.00    0.85863   0.81829   -1.000
 4007.00    0.87460   0.84671   -1.000
 4008.00    0.91498   0.88300   -1.000
 4009.00    0.94156   0.90856   -1.000
 4010.00    0.95053   0.92163   -1.000
 4011.00    0.97239   0.92852   -1.000
 4012.00    1.01051   0.93392   -1.000
 4013.00    1.00311   0.94023   -1.000
 4014.00    1.00549   0.94643   -1.000
 4015.00    1.00864   0.94892   -1.000
 4016.00    1.00139   0.94775   -1.000
 4017.00    1.00355   0.94874   -1.000
 4018.00    1.00934   0.95541   -1.000
 4019.00    1.01428   0.96358   -1.000
 4020.00    1.02369   0.96667   -1.000
 4021.00    1.01919   0.96189   -1.000
 4022.00    1.00741   0.95183   -1.000
 4023.00    1.00228   0.94052   -1.000
 4024.00    0.99175   0.93346   -1.000
 4025.00    0.99837   0.93809   -1.000
 4026.00    1.02847   0.95567   -1.000
 4027.00    1.05152   0.97246   -1.000
 4028.00    1.04833   0.96694   -1.000
 4029.00    1.01096   0.92956   -1.000
 4030.00    0.94254   0.87422   -1.000
 4031.00    0.87524   0.82690   -1.000
 4032.00    0.82790   0.80274   -1.000
 4033.00    0.82323   0.80573   -1.000
 4034.00    0.84367   0.83604  200.500
 4035.00    0.89156   0.88759  195.691
 4036.00    0.97322   0.94549   -1.000
 4037.00    1.04336   0.99104   -1.000
 4038.00    1.07792   1.00906   -1.000
 4039.00    1.06098   1.00207   -1.000
 4040.00    1.03074   0.98669   -1.000
 4041.00    1.01539   0.97043   -1.000
 4042.00    1.00455   0.94033   -1.000
 4043.00    0.97342   0.88299   -1.000
 4044.00    0.88770   0.81105   -1.000
 4045.00    0.78121   0.76415   -1.000
 4046.00    0.76546   0.77628  207.005
 4047.00    0.84363   0.83826  202.473
 4048.00    0.92930   0.91074  201.526
 4049.00    1.00000   0.96482   -1.000
 4050.00    1.04743   0.99035   -1.000
 4051.00    1.03820   0.99067   -1.000
 4052.00    1.00828   0.97473   -1.000
 4053.00    0.97542   0.95232   -1.000
 4054.00    0.94801   0.93093   -1.000
 4055.00    0.93074   0.91252   -1.000
 4056.00    0.91970   0.89677   -1.000
 4057.00    0.91259   0.88921   -1.000
 4058.00    0.90397   0.89784  208.669
 4059.00    0.93254   0.91625   -1.000
 4060.00    0.95622   0.92125   -1.000
 4061.00    0.96250   0.89438   -1.000
 4062.00    0.91669   0.84562   -1.000
 4063.00    0.83160   0.80752   -1.000
 4064.00    0.81497   0.80040   -1.000
 4065.00    0.86084   0.82087   -1.000
 4066.00    0.90852   0.85479   -1.000
 4067.00    0.93887   0.88820   -1.000
 4068.00    0.96127   0.90999   -1.000
 4069.00    0.97396   0.90943   -1.000
 4070.00    0.95121   0.88550   -1.000
 4071.00    0.91412   0.86003   -1.000
 4072.00    0.90926   0.85861   -1.000
 4073.00    0.93756   0.87731   -1.000
 4074.00    0.95242   0.88733   -1.000
 4075.00    0.93138   0.86847   -1.000
 4076.00    0.88158   0.83490   -1.000
 4077.00    0.84764   0.82051   -1.000
 4078.00    0.85737   0.84429  206.545
 4079.00    0.90268   0.89757  204.055
 4080.00    0.97791   0.95206   -1.000
 4081.00    1.03468   0.98221   -1.000
 4082.00    1.03181   0.98029   -1.000
 4083.00    0.99571   0.96107   -1.000
 4084.00    0.97341   0.94900   -1.000
 4085.00    0.98591   0.95954   -1.000
 4086.00    1.01564   0.99024   -1.000
 4087.00    1.06653   1.02524   -1.000
 4088.00    1.10872   1.04828   -1.000
 4089.00    1.11154   1.05015   -1.000
 4090.00    1.08389   1.03504   -1.000
 4091.00    1.05857   1.01633   -1.000
 4092.00    1.04719   1.00211   -1.000
 4093.00    1.03801   0.98695   -1.000
 4094.00    1.01922   0.96241   -1.000
 4095.00    0.97743   0.92861   -1.000
 4096.00    0.93426   0.89487   -1.000
 4097.00    0.91052   0.86748   -1.000
 4098.00    0.91260   0.83910   -1.000
 4099.00    0.89379   0.79957   -1.000
 4100.00    0.84011   0.75436   -1.000
 4101.00    0.79203   0.72657   -1.000
 4102.00    0.78294   0.73702   -1.000
 4103.00    0.82589   0.78435   -1.000
 4104.00    0.89555   0.84679   -1.000
 4105.00    0.94731   0.90241   -1.000
 4106.00    0.97624   0.93910   -1.000
 4107.00    0.97981   0.95556   -1.000
 4108.00    0.97537   0.95578   -1.000
 4109.00    0.96452   0.94699   -1.000
 4110.00    0.94468   0.93978  213.378
 4111.00    0.93851   0.94257  209.886
 4112.00    0.96055   0.95674  207.133
 4113.00    0.98716   0.97795  206.339
 4114.00    1.00953   0.99854  208.763
 4115.00    1.02987   1.00952   -1.000
 4116.00    1.02968   1.00460   -1.000
 4117.00    1.01360   0.98628   -1.000
 4118.00    0.98840   0.96561   -1.000
 4119.00    0.96971   0.95425   -1.000
 4120.00    0.96864   0.95534  215.455
 4121.00    0.97986   0.96259   -1.000
 4122.00    0.97821   0.97052  209.870
 4123.00    0.98378   0.97956  210.648
 4124.00    1.00842   0.98945   -1.000
 4125.00    1.01789   0.99413   -1.000
 4126.00    1.00550   0.98799   -1.000
 4127.00    0.97953   0.97398  221.025
 4128.00    0.95734   0.95904  225.544
 4129.00    0.94995   0.94288  232.800
 4130.00    0.94586   0.92029   -1.000
 4131.00    0.92128   0.89321   -1.000
 4132.00    0.87812   0.87466  224.741
 4133.00    0.87372   0.88092  214.940
 4134.00    0.90383   0.91342  209.478
 4135.00    0.94624   0.95709  206.210
 4136.00    0.98948   0.99593  203.974
 4137.00    1.02055   1.02196  205.253
 4138.00    1.02929   1.03469  212.259
 4139.00    1.03651   1.03303  226.352
 4140.00    1.02609   1.00869   -1.000
 4141.00    0.98292   0.95811   -1.000
 4142.00    0.90155   0.89884  234.419
 4143.00    0.82384   0.86304   -1.000
 4144.00    0.81846   0.86921   -1.000
 4145.00    0.87253   0.90722   -1.000
 4146.00    0.92804   0.94811   -1.000
 4147.00    0.95612   0.96829  227.202
 4148.00    0.95091   0.96685   -1.000
 4149.00    0.93609   0.95723   -1.000
 4150.00    0.91847   0.95034   -1.000
 4151.00    0.91694   0.94658   -1.000
 4152.00    0.91302   0.94144   -1.000
 4153.00    0.89820   0.93344   -1.000
 4154.00    0.91531   0.92642  225.089
 4155.00    1.04384   0.92730   -1.000
 4156.00    1.12589   0.94007   -1.000
 4157.00    0.89775   0.96292   -1.000
 4158.00    0.74944   0.99092   -1.000
 4159.00    0.91856   1.01690   -1.000
 4160.00    1.01683   1.03624   -1.000
 4161.00    1.01975   1.05038   -1.000
 4162.00    1.03295   1.05944   -1.000
 4163.00    1.03874   1.05983   -1.000
 4164.00    1.02040   1.04810   -1.000
 4165.00    0.98919   1.02613   -1.000
 4166.00    0.95596   1.00373   -1.000
 4167.00    0.93370   0.99285   -1.000
 4168.00    0.94214   0.99396   -1.000
 4169.00    0.96738   0.99415   -1.000
 4170.00    0.97437   0.97764  249.877
 4171.00    0.94108   0.94380  245.986
 4172.00    0.88777   0.91145   -1.000
 4173.00    0.86104   0.89929   -1.000
 4174.00    0.87823   0.90992   -1.000
 4175.00    0.89880   0.92956   -1.000
 4176.00    0.90844   0.94444   -1.000
 4177.00    0.90837   0.95475   -1.000
 4178.00    0.90591   0.96561   -1.000
 4179.00    0.91850   0.97451   -1.000
 4180.00    0.93268   0.97623   -1.000
 4181.00    0.93842   0.97383   -1.000
 4182.00    0.93440   0.97941   -1.000
 4183.00    0.94804   0.99705   -1.000
 4184.00    0.98211   1.01218   -1.000
 4185.00    0.98971   1.00941   -1.000
 4186.00    0.96357   0.99051   -1.000
 4187.00    0.94028   0.97408   -1.000
 4188.00    0.95080   0.97522   -1.000
 4189.00    0.96526   0.99028   -1.000
 4190.00    0.96964   1.00794   -1.000
 4191.00    0.97498   1.02326   -1.000
 4192.00    0.99938   1.03525   -1.000
 4193.00    1.02464   1.03659  232.129
 4194.00    1.01917   1.01702  238.110
 4195.00    0.97387   0.97878  240.572
 4196.00    0.91996   0.93867   -1.000
 4197.00    0.88986   0.91049   -1.000
 4198.00    0.88183   0.89793   -1.000
 4199.00    0.89533   0.89719  232.943
 4200.00    0.91202   0.90313  230.416
 4201.00    0.91288   0.91320  227.624
 4202.00    0.91880   0.93036  224.751
 4203.00    0.94398   0.95827   -1.000
 4204.00    0.98272   0.99413  214.733
 4205.00    1.01082   1.02966   -1.000
 4206.00    1.02831   1.05770   -1.000
 4207.00    1.03805   1.07440   -1.000
 4208.00    1.05507   1.07812   -1.000
 4209.00    1.05654   1.07392   -1.000
 4210.00    1.04134   1.07095   -1.000
 4211.00    1.04234   1.07137   -1.000
 4212.00    1.04060   1.06459   -1.000
 4213.00    1.02094   1.03925   -1.000
 4214.00    0.97317   1.00425   -1.000
 4215.00    0.92573   0.98719   -1.000
 4216.00    0.94549   1.00791   -1.000
 4217.00    1.02728   1.05850   -1.000
 4218.00    1.11344   1.11046  196.150
 4219.00    1.16327   1.14263   -1.000
 4220.00    1.18781   1.14605   -1.000
 4221.00    1.18080   1.11918   -1.000
 4222.00    1.12788   1.06235   -1.000
 4223.00    1.04204   0.97735   -1.000
 4224.00    0.93866   0.87661   -1.000
 4225.00    0.81895   0.79124   -1.000
 4226.00    0.72427   0.75607   -1.000
 4227.00    0.73011   0.79168   -1.000
 4228.00    0.83937   0.88375   -1.000
 4229.00    0.97241   0.98628   -1.000
 4230.00    1.06575   1.05359  210.416
 4231.00    1.10284   1.07461   -1.000
 4232.00    1.09607   1.06238   -1.000
 4233.00    1.07182   1.03610   -1.000
 4234.00    1.04770   1.01227   -1.000
 4235.00    1.03183   0.99963   -1.000
 4236.00    1.00907   0.99902  215.897
 4237.00    1.00865   1.01020  212.355
 4238.00    1.03603   1.03169  208.812
 4239.00    1.05562   1.05837  206.945
 4240.00    1.08144   1.08569  204.802
 4241.00    1.11682   1.11239  200.801
 4242.00    1.13457   1.13879  199.566
 4243.00    1.15103   1.16504   -1.000
 4244.00    1.18801   1.18269  214.178
 4245.00    1.21328   1.17690   -1.000
 4246.00    1.17981   1.14282   -1.000
 4247.00    1.11630   1.09172   -1.000
 4248.00    1.06427   1.04236   -1.000
 4249.00    1.01738   1.01222  215.750
 4250.00    0.99052   1.00722   -1.000
 4251.00    0.99692   1.01858   -1.000
 4252.00    1.03579   1.02704  218.665
 4253.00    1.05372   1.02275   -1.000
 4254.00    1.02894   1.01906  207.445
 4255.00    1.02674   1.03525  210.586
 4256.00    1.07439   1.06425  220.726
 4257.00    1.11133   1.07351   -1.000
 4258.00    1.08524   1.04651   -1.000
 4259.00    1.01723   1.00562  216.651
 4260.00    0.96771   0.99047   -1.000
 4261.00    0.98602   1.02343   -1.000
 4262.00    1.06586   1.09156   -1.000
 4263.00    1.15744   1.16073  196.402
 4264.00    1.20973   1.20227  201.355
 4265.00    1.21579   1.21094  207.890
 4266.00    1.20146   1.19291  215.027
 4267.00    1.16893   1.15228   -1.000
 4268.00    1.12367   1.09245   -1.000
 4269.00    1.06209   1.02024   -1.000
 4270.00    0.97376   0.94823   -1.000
 4271.00    0.89135   0.89688  241.768
 4272.00    0.85789   0.87886   -1.000
 4273.00    0.86871   0.89380   -1.000
 4274.00    0.89887   0.93456   -1.000
 4275.00    0.94135   0.99433   -1.000
 4276.00    1.01525   1.06214   -1.000
 4277.00    1.10749   1.11753  216.288
 4278.00    1.15620   1.13896   -1.000
 4279.00    1.14470   1.12740   -1.000
 4280.00    1.10169   1.10562  216.130
 4281.00    1.07982   1.09523   -1.000
 4282.00    1.08987   1.09708  221.345
 4283.00    1.09917   1.09769  227.533
 4284.00    1.09450   1.08901  231.978
 4285.00    1.07470   1.07341  238.038
 4286.00    1.05225   1.05397  248.801
 4287.00    1.02814   1.02615  255.302
 4288.00    0.98969   0.98721  248.497
 4289.00    0.93942   0.95052  233.873
 4290.00    0.91161   0.94114   -1.000
 4291.00    0.94180   0.96810   -1.000
 4292.00    1.00113   1.01006  226.552
 4293.00    1.04900   1.03701  231.084
 4294.00    1.06139   1.03908   -1.000
 4295.00    1.03587   1.02221   -1.000
 4296.00    1.00090   0.98979   -1.000
 4297.00    0.96607   0.94063   -1.000
 4298.00    0.90837   0.88217   -1.000
 4299.00    0.82928   0.83302  279.342
 4300.00    0.78453   0.81091   -1.000
 4301.00    0.79810   0.81521   -1.000
 4302.00    0.82156   0.83101  270.507
 4303.00    0.83932   0.84464  276.028
 4304.00    0.85936   0.84832   -1.000
 4305.00    0.85396   0.83484   -1.000
 4306.00    0.81429   0.80372   -1.000
 4307.00    0.76377   0.77085  288.442
 4308.00    0.73080   0.75925   -1.000
 4309.00    0.74231   0.78132   -1.000
 4310.00    0.79918   0.83178   -1.000
 4311.00    0.87014   0.89653   -1.000
 4312.00    0.93982   0.96551   -1.000
 4313.00    1.00118   1.04130   -1.000
 4314.00    1.07204   1.12853   -1.000
 4315.00    1.17923   1.22139   -1.000
 4316.00    1.29350   1.30310  185.080
 4317.00    1.36333   1.35017  188.756
 4318.00    1.38072   1.35593   -1.000
 4319.00    1.36031   1.33310   -1.000
 4320.00    1.32001   1.29352   -1.000
 4321.00    1.27622   1.23575   -1.000
 4322.00    1.21434   1.15502   -1.000
 4323.00    1.11128   1.05860   -1.000
 4324.00    0.98379   0.97938  221.503
 4325.00    0.90330   0.95877   -1.000
 4326.00    0.92520   1.01301   -1.000
 4327.00    1.05012   1.11692   -1.000
 4328.00    1.19972   1.22000   -1.000
 4329.00    1.27870   1.28170  189.876
 4330.00    1.29382   1.30284  187.226
 4331.00    1.29616   1.30962   -1.000
 4332.00    1.30506   1.32119   -1.000
 4333.00    1.32668   1.33471  195.789
 4334.00    1.34571   1.33225  212.134
 4335.00    1.34301   1.29479   -1.000
 4336.00    1.28622   1.21487   -1.000
 4337.00    1.17531   1.10613   -1.000
 4338.00    1.06239   1.00298   -1.000
 4339.00    0.98730   0.94447   -1.000
 4340.00    0.97289   0.94677   -1.000
 4341.00    1.01094   1.00160  206.053
 4342.00    1.08560   1.08284  200.205
 4343.00    1.16953   1.15968  195.910
 4344.00    1.22821   1.21629  193.341
 4345.00    1.27182   1.25790  190.698
 4346.00    1.29780   1.29272  189.536
 4347.00    1.30998   1.32248   -1.000
 4348.00    1.33845   1.33649  208.909
 4349.00    1.35475   1.31530   -1.000
 4350.00    1.31033   1.25659   -1.000
 4351.00    1.20088   1.19154  204.057
 4352.00    1.11832   1.16067   -1.000
 4353.00    1.13875   1.17887   -1.000
 4354.00    1.19991   1.22676   -1.000
 4355.00    1.25406   1.27420   -1.000
 4356.00    1.30139   1.30207  195.685
 4357.00    1.31419   1.30832  194.545
 4358.00    1.29428   1.30307  189.357
 4359.00    1.27535   1.30365   -1.000
 4360.00    1.29244   1.32155   -1.000
 4361.00    1.34369   1.35173  182.894
 4362.00    1.37437   1.38155  181.857
 4363.00    1.38825   1.40365   -1.000
 4364.00    1.41235   1.41498  191.526
 4365.00    1.42419   1.40738  195.835
 4366.00    1.38909   1.37617  195.523
 4367.00    1.33137   1.33527  193.885
 4368.00    1.29812   1.30611  193.296
 4369.00    1.28151   1.29431   -1.000
 4370.00    1.27636   1.28908   -1.000
 4371.00    1.28550   1.27526  208.016
 4372.00    1.29034   1.24514   -1.000
 4373.00    1.25161   1.20459   -1.000
 4374.00    1.18594   1.17272  196.521
 4375.00    1.16582   1.17270  190.266
 4376.00    1.20192   1.20913  189.649
 4377.00    1.26525   1.25796  192.200
 4378.00    1.32122   1.28561   -1.000
 4379.00    1.33424   1.27327   -1.000
 4380.00    1.29715   1.21553   -1.000
 4381.00    1.22467   1.11784   -1.000
 4382.00    1.10164   1.00775   -1.000
 4383.00    0.95201   0.93263   -1.000
 4384.00    0.88376   0.92946   -1.000
 4385.00    0.95690   0.99538   -1.000
 4386.00    1.10120   1.08500   -1.000
 4387.00    1.20272   1.14842   -1.000
 4388.00    1.22542   1.17241   -1.000
 4389.00    1.20039   1.17642   -1.000
 4390.00    1.18929   1.18265  196.919
 4391.00    1.21361   1.19821  200.212
 4392.00    1.23930   1.21611   -1.000
 4393.00    1.25610   1.22865   -1.000
 4394.00    1.25389   1.24131  188.468
 4395.00    1.26823   1.26763  187.810
 4396.00    1.33110   1.30610   -1.000
 4397.00    1.39159   1.33264   -1.000
 4398.00    1.39385   1.32748   -1.000
 4399.00    1.34035   1.29876   -1.000
 4400.00    1.27892   1.26931  199.860
 4401.00    1.25958   1.24541  209.995
 4402.00    1.26337   1.21207   -1.000
 4403.00    1.21290   1.15861   -1.000
 4404.00    1.11391   1.10529  207.299
 4405.00    1.06902   1.08594   -1.000
 4406.00    1.10954   1.10893  199.661
 4407.00    1.16031   1.15601  191.278
 4408.00    1.19873   1.21293  184.072
 4409.00    1.25591   1.27800   -1.000
 4410.00    1.33538   1.34516  182.419
 4411.00    1.39850   1.38879  190.885
 4412.00    1.42056   1.38341   -1.000
 4413.00    1.38713   1.33350   -1.000
 4414.00    1.29020   1.27102   -1.000
 4415.00    1.20842   1.23449   -1.000
 4416.00    1.20641   1.24888   -1.000
 4417.00    1.26856   1.30649   -1.000
 4418.00    1.34709   1.37286   -1.000
 4419.00    1.39658   1.41253   -1.000
 4420.00    1.39759   1.41159   -1.000
 4421.00    1.34878   1.38105   -1.000
 4422.00    1.29319   1.34733   -1.000
 4423.00    1.27123   1.33182   -1.000
 4424.00    1.27222   1.33582   -1.000
 4425.00    1.28286   1.34632   -1.000
 4426.00    1.29219   1.35502   -1.000
 4427.00    1.29706   1.36211   -1.000
 4428.00    1.32234   1.36541   -1.000
 4429.00    1.34380   1.36184   -1.000
 4430.00    1.32513   1.35468   -1.000
 4431.00    1.31687   1.34845   -1.000
 4432.00    1.32966   1.33701  203.719
 4433.00    1.30455   1.30979  199.314
 4434.00    1.24580   1.27782   -1.000
 4435.00    1.21978   1.27304   -1.000
 4436.00    1.26166   1.31454   -1.000
 4437.00    1.34379   1.38512   -1.000
 4438.00    1.43718   1.44196  186.831
 4439.00    1.48552   1.45413   -1.000
 4440.00    1.45410   1.42063   -1.000
 4441.00    1.38979   1.36854   -1.000
 4442.00    1.32252   1.33540  186.115
 4443.00    1.31107   1.34655   -1.000
 4444.00    1.36663   1.39597   -1.000
 4445.00    1.43008   1.45207   -1.000
 4446.00    1.47768   1.48835  181.430
 4447.00    1.50101   1.50052  183.366
 4448.00    1.50644   1.49962  183.179
 4449.00    1.51393   1.49410   -1.000
 4450.00    1.50541   1.48312   -1.000
 4451.00    1.47920   1.46203  196.268
 4452.00    1.45498   1.42529   -1.000
 4453.00    1.40879   1.37177   -1.000
 4454.00    1.33984   1.31529   -1.000
 4455.00    1.28866   1.27970  196.623
 4456.00    1.28440   1.27236  197.409
 4457.00    1.30613   1.27957   -1.000
 4458.00    1.30378   1.28348   -1.000
 4459.00    1.28953   1.27924  199.189
 4460.00    1.27803   1.27680  192.589
 4461.00    1.26256   1.28958   -1.000
 4462.00    1.27562   1.32314   -1.000
 4463.00    1.33076   1.36827   -1.000
 4464.00    1.40030   1.40621  186.560
 4465.00    1.43044   1.42404  189.687
 4466.00    1.43549   1.42294  191.817
 4467.00    1.44283   1.41265   -1.000
 4468.00    1.42875   1.40293   -1.000
 4469.00    1.39925   1.40314  179.261
 4470.00    1.40537   1.42269   -1.000
 4471.00    1.44488   1.46140   -1.000
 4472.00    1.50981   1.50609  171.011
 4473.00    1.56684   1.54364   -1.000
 4474.00    1.58128   1.56935  168.987
 4475.00    1.59587   1.58859  169.606
 4476.00    1.62669   1.60444   -1.000
 4477.00    1.64988   1.60507   -1.000
 4478.00    1.63821   1.57425   -1.000
 4479.00    1.57075   1.51395   -1.000
 4480.00    1.47621   1.45211   -1.000
 4481.00    1.40869   1.42515   -1.000
 4482.00    1.40903   1.44964   -1.000
 4483.00    1.48124   1.51123   -1.000
 4484.00    1.56485   1.57724  171.967
 4485.00    1.63046   1.61871  177.714
 4486.00    1.65911   1.61899   -1.000
 4487.00    1.62822   1.58054   -1.000
 4488.00    1.55129   1.52713   -1.000
 4489.00    1.48540   1.49230  175.379
 4490.00    1.46383   1.49157   -1.000
 4491.00    1.49134   1.51137   -1.000
 4492.00    1.52330   1.52196  185.268
 4493.00    1.50492   1.50666  185.322
 4494.00    1.45538   1.47910   -1.000
 4495.00    1.42623   1.46726   -1.000
 4496.00    1.43391   1.48696   -1.000
 4497.00    1.48048   1.52799   -1.000
 4498.00    1.53028   1.56651   -1.000
 4499.00    1.55931   1.58679   -1.000
 4500.00    1.57505   1.59213   -1.000
 4501.00    1.58089   1.60020   -1.000
 4502.00    1.61642   1.62459  161.691
 4503.00    1.68833   1.66295   -1.000
 4504.00    1.74310   1.69975   -1.000
 4505.00    1.75576   1.71682   -1.000
 4506.00    1.73525   1.70999   -1.000
 4507.00    1.69930   1.69314  165.166
 4508.00    1.68355   1.68249  165.688
 4509.00    1.69927   1.68207  168.396
 4510.00    1.72181   1.68304   -1.000
 4511.00    1.70807   1.67322   -1.000
 4512.00    1.65344   1.64925  173.079
 4513.00    1.60585   1.62003  172.655
 4514.00    1.57679   1.59787   -1.000
 4515.00    1.57436   1.58852  175.479
 4516.00    1.59481   1.58858  173.817
 4517.00    1.60141   1.59191  170.443
 4518.00    1.59788   1.59931  169.623
 4519.00    1.62002   1.61522  172.550
 4520.00    1.66705   1.63514   -1.000
 4521.00    1.68623   1.64531   -1.000
 4522.00    1.66009   1.63503   -1.000
 4523.00    1.61718   1.60591  185.744
 4524.00    1.57980   1.56646  191.225
 4525.00    1.52868   1.52013  194.560
 4526.00    1.46777   1.46707  194.322
 4527.00    1.41188   1.41520  191.477
 4528.00    1.37211   1.37972  187.971
 4529.00    1.36410   1.37216  186.208
 4530.00    1.38941   1.39087  189.417
 4531.00    1.43420   1.42027  195.656
 4532.00    1.48088   1.44107   -1.000
 4533.00    1.47955   1.44463   -1.000
 4534.00    1.43349   1.44157  176.372
 4535.00    1.40855   1.45501   -1.000
 4536.00    1.48006   1.49875   -1.000
 4537.00    1.60419   1.56022   -1.000
 4538.00    1.66582   1.60860   -1.000
 4539.00    1.64164   1.62286   -1.000
 4540.00    1.59213   1.61002   -1.000
 4541.00    1.57554   1.59434   -1.000
 4542.00    1.61503   1.59115  104.353
 4543.00    1.47421   1.59522   -1.000
 4544.00    0.66133   1.59414   -1.000
 4545.00    0.08155   1.58445   -1.000
 4546.00    0.15198   1.57206   -1.000
 4547.00    0.78771   1.56053   -1.000
 4548.00    0.69856   1.54869   -1.000
 4549.00    0.97705   1.54005   -1.000
 4550.00    1.47529   1.54209   -1.000
 4551.00    1.59297   1.55294   -1.000
 4552.00    1.57791   1.55885   -1.000
 4553.00    1.54651   1.55225  177.563
 4554.00    1.52892   1.54397  170.530
 4555.00    1.54924   1.55320  166.285
 4556.00    1.61404   1.58912   -1.000
 4557.00    1.68254   1.64156   -1.000
 4558.00    1.72014   1.68915   -1.000
 4559.00    1.74990   1.71782   -1.000
 4560.00    1.76090   1.72724   -1.000
 4561.00    1.74022   1.72086   -1.000
 4562.00    1.70551   1.69895  176.229
 4563.00    1.66660   1.66385  172.432
 4564.00    1.62142   1.62928  167.872
 4565.00    1.59671   1.61544  165.315
 4566.00    1.63784   1.63288  166.091
 4567.00    1.70981   1.67078   -1.000
 4568.00    1.75050   1.70313   -1.000
 4569.00    1.75073   1.70934   -1.000
 4570.00    1.70356   1.69073  170.493
 4571.00    1.64460   1.66683   -1.000
 4572.00    1.64173   1.66013   -1.000
 4573.00    1.69295   1.67739  167.126
 4574.00    1.73945   1.70365   -1.000
 4575.00    1.75553   1.71943   -1.000
 4576.00    1.75025   1.71752   -1.000
 4577.00    1.71184   1.69942  178.996
 4578.00    1.66261   1.66657  179.756
 4579.00    1.61494   1.62487  177.752
 4580.00    1.56610   1.58947   -1.000
 4581.00    1.56561   1.57486  176.022
 4582.00    1.60337   1.58074   -1.000
 4583.00    1.62845   1.59320   -1.000
 4584.00    1.62244   1.59954   -1.000
 4585.00    1.60266   1.60158  167.641
 4586.00    1.61072   1.61313  166.402
 4587.00    1.65498   1.64181  168.087
 4588.00    1.71316   1.67793   -1.000
 4589.00    1.75569   1.70251   -1.000
 4590.00    1.74475   1.70290   -1.000
 4591.00    1.69023   1.68147  174.140
 4592.00    1.64984   1.65239  172.703
 4593.00    1.63466   1.62956  171.977
 4594.00    1.61794   1.61749  171.604
 4595.00    1.60825   1.61403  171.226
 4596.00    1.61278   1.61704  172.170
 4597.00    1.62486   1.62554  173.750
 4598.00    1.65654   1.63598   -1.000
 4599.00    1.67524   1.64299   -1.000
 4600.00    1.65220   1.64452  171.406
 4601.00    1.64174   1.64371  171.038
 4602.00    1.65585   1.64412  170.962
 4603.00    1.67212   1.64561   -1.000
 4604.00    1.67597   1.64807   -1.000
 4605.00    1.66966   1.65708  163.067
 4606.00    1.68554   1.68101  160.685
 4607.00    1.75587   1.72145   -1.000
 4608.00    1.82955   1.76759   -1.000
 4609.00    1.86056   1.80030   -1.000
 4610.00    1.85092   1.80589   -1.000
 4611.00    1.81659   1.78902   -1.000
 4612.00    1.78712   1.76699   -1.000
 4613.00    1.78778   1.75525   -1.000
 4614.00    1.78954   1.75844   -1.000
 4615.00    1.79693   1.77111   -1.000
 4616.00    1.80862   1.78407   -1.000
 4617.00    1.82021   1.79147   -1.000
 4618.00    1.82094   1.79307   -1.000
 4619.00    1.80743   1.79275  160.954
 4620.00    1.83625   1.79547   -1.000
 4621.00    1.85208   1.80213   -1.000
 4622.00    1.83845   1.80747   -1.000
 4623.00    1.83358   1.80630   -1.000
 4624.00    1.84009   1.79953   -1.000
 4625.00    1.82854   1.79131   -1.000
 4626.00    1.80475   1.78447   -1.000
 4627.00    1.81053   1.78091   -1.000
 4628.00    1.82554   1.78145   -1.000
 4629.00    1.82974   1.78582   -1.000
 4630.00    1.82145   1.79282   -1.000
 4631.00    1.82802   1.79792   -1.000
 4632.00    1.82471   1.79341   -1.000
 4633.00    1.79153   1.77663  167.974
 4634.00    1.76518   1.75521  170.003
 4635.00    1.75992   1.73711   -1.000
 4636.00    1.74062   1.72090   -1.000
 4637.00    1.70728   1.70238  168.916
 4638.00    1.68113   1.68422  165.059
 4639.00    1.66312   1.67488  162.292
 4640.00    1.67476   1.68052  162.205
 4641.00    1.72408   1.69828   -1.000
 4642.00    1.77072   1.71503   -1.000
 4643.00    1.77170   1.71463   -1.000
 4644.00    1.73640   1.69005   -1.000
 4645.00    1.67623   1.64834   -1.000
 4646.00    1.61214   1.60568  169.449
 4647.00    1.57806   1.58211  166.677
 4648.00    1.59385   1.59106  165.888
 4649.00    1.65746   1.62899   -1.000
 4650.00    1.73008   1.67817   -1.000
 4651.00    1.77720   1.71938   -1.000
 4652.00    1.78920   1.74088   -1.000
 4653.00    1.77764   1.73963   -1.000
 4654.00    1.74697   1.72246   -1.000
 4655.00    1.70461   1.70692  161.518
 4656.00    1.69936   1.71244  157.212
 4657.00    1.74089   1.74713  156.224
 4658.00    1.82519   1.80127   -1.000
 4659.00    1.89558   1.85084   -1.000
 4660.00    1.91802   1.87226   -1.000
 4661.00    1.87864   1.85792   -1.000
 4662.00    1.82094   1.81789  167.705
 4663.00    1.77473   1.76810  173.823
 4664.00    1.73474   1.71711   -1.000
 4665.00    1.69785   1.66310   -1.000
 4666.00    1.61650   1.60699   -1.000
 4667.00    1.52461   1.56409   -1.000
 4668.00    1.50638   1.55627   -1.000
 4669.00    1.57512   1.59087  164.705
 4670.00    1.68088   1.65039   -1.000
 4671.00    1.74961   1.70570   -1.000
 4672.00    1.78309   1.73830   -1.000
 4673.00    1.77790   1.75064   -1.000
 4674.00    1.76908   1.75788  160.457
 4675.00    1.78708   1.76918   -1.000
 4676.00    1.81909   1.77892   -1.000
 4677.00    1.82637   1.77410   -1.000
 4678.00    1.78282   1.75049   -1.000
 4679.00    1.73426   1.71752   -1.000
 4680.00    1.69925   1.68981  166.421
 4681.00    1.68427   1.67803  163.713
 4682.00    1.69731   1.68532  163.651
 4683.00    1.75268   1.70633   -1.000
 4684.00    1.78884   1.72874   -1.000
 4685.00    1.79676   1.74175   -1.000
 4686.00    1.78762   1.74320   -1.000
 4687.00    1.77899   1.73789   -1.000
 4688.00    1.76614   1.73209   -1.000
 4689.00    1.75531   1.72883   -1.000
 4690.00    1.76064   1.72753   -1.000
 4691.00    1.76195   1.72773   -1.000
 4692.00    1.76283   1.73250   -1.000
 4693.00    1.78460   1.74524   -1.000
 4694.00    1.81731   1.76403   -1.000
 4695.00    1.85305   1.78041   -1.000
 4696.00    1.85384   1.78292   -1.000
 4697.00    1.80752   1.76445   -1.000
 4698.00    1.75241   1.73007   -1.000
 4699.00    1.71820   1.69451   -1.000
 4700.00    1.70802   1.66890   -1.000
 4701.00    1.70597   1.65444   -1.000
 4702.00    1.69021   1.64974   -1.000
 4703.00    1.67137   1.65666   -1.000
 4704.00    1.69148   1.67423   -1.000
 4705.00    1.74100   1.69135   -1.000
 4706.00    1.75143   1.69515   -1.000
 4707.00    1.71730   1.68572   -1.000
 4708.00    1.69576   1.67719   -1.000
 4709.00    1.71695   1.68341   -1.000
 4710.00    1.76409   1.70479   -1.000
 4711.00    1.80789   1.72915   -1.000
 4712.00    1.80344   1.74256   -1.000
 4713.00    1.77502   1.74134   -1.000
 4714.00    1.75278   1.73717   -1.000
 4715.00    1.75044   1.74749  159.050
 4716.00    1.80908   1.77869   -1.000
 4717.00    1.88627   1.82133   -1.000
 4718.00    1.91495   1.86059   -1.000
 4719.00    1.92814   1.88762   -1.000
 4720.00    1.95089   1.90026   -1.000
 4721.00    1.93793   1.90019   -1.000
 4722.00    1.90638   1.89436  157.747
 4723.00    1.87987   1.89179  160.828
 4724.00    1.90304   1.89143  166.540
 4725.00    1.92865   1.87911   -1.000
 4726.00    1.88626   1.84182   -1.000
 4727.00    1.80225   1.78310   -1.000
 4728.00    1.72431   1.72506  168.161
 4729.00    1.69669   1.69184  166.285
 4730.00    1.71319   1.69190   -1.000
 4731.00    1.74507   1.71681   -1.000
 4732.00    1.77409   1.75082   -1.000
 4733.00    1.80807   1.78044   -1.000
 4734.00    1.83580   1.79778   -1.000
 4735.00    1.84803   1.80351   -1.000
 4736.00    1.84059   1.80539   -1.000
 4737.00    1.84698   1.81175   -1.000
 4738.00    1.86998   1.82536   -1.000
 4739.00    1.89848   1.84040   -1.000
 4740.00    1.89767   1.84890   -1.000
 4741.00    1.87082   1.85119   -1.000
 4742.00    1.85924   1.85406  161.009
 4743.00    1.88598   1.86054   -1.000
 4744.00    1.90661   1.86979   -1.000
 4745.00    1.91205   1.88195   -1.000
 4746.00    1.91668   1.89746   -1.000
 4747.00    1.92029   1.91454  158.201
 4748.00    1.93161   1.92946  159.141
 4749.00    1.94413   1.93921  160.839
 4750.00    1.94341   1.94106  162.296
 4751.00    1.92313   1.93189  163.452
 4752.00    1.89436   1.91160  163.440
 4753.00    1.86645   1.88565  163.875
 4754.00    1.84468   1.86316  164.995
 4755.00    1.83574   1.85154  165.391
 4756.00    1.84200   1.85221  164.303
 4757.00    1.84426   1.86256  163.774
 4758.00    1.83264   1.87840   -1.000
 4759.00    1.83818   1.89245   -1.000
 4760.00    1.86322   1.89425   -1.000
 4761.00    1.84775   1.87618   -1.000
 4762.00    1.80419   1.84090   -1.000
 4763.00    1.76478   1.80091   -1.000
 4764.00    1.73481   1.76842   -1.000
 4765.00    1.71033   1.74761   -1.000
 4766.00    1.70828   1.74182   -1.000
 4767.00    1.75477   1.75959  163.039
 4768.00    1.82017   1.80232   -1.000
 4769.00    1.87632   1.85241   -1.000
 4770.00    1.88560   1.88580  164.425
 4771.00    1.86325   1.89462   -1.000
 4772.00    1.84348   1.89438   -1.000
 4773.00    1.87283   1.90539   -1.000
 4774.00    1.92850   1.93194  159.937
 4775.00    1.95228   1.96243  160.880
 4776.00    1.95079   1.98403   -1.000
 4777.00    1.94600   1.99351   -1.000
 4778.00    1.94987   1.99280   -1.000
 4779.00    1.94364   1.98266   -1.000
 4780.00    1.92204   1.96462   -1.000
 4781.00    1.91925   1.94174   -1.000
 4782.00    1.90207   1.91565  166.792
 4783.00    1.85889   1.89028   -1.000
 4784.00    1.85475   1.87302   -1.000
 4785.00    1.84959   1.86576  169.410
 4786.00    1.83926   1.86337   -1.000
 4787.00    1.83428   1.86228   -1.000
 4788.00    1.83299   1.86317   -1.000
 4789.00    1.83463   1.86744   -1.000
 4790.00    1.84216   1.87779   -1.000
 4791.00    1.86678   1.90017   -1.000
 4792.00    1.89774   1.93874   -1.000
 4793.00    1.95611   1.98889   -1.000
 4794.00    1.99934   2.03752   -1.000
 4795.00    2.02963   2.06814   -1.000
 4796.00    2.03002   2.06880   -1.000
 4797.00    1.98414   2.04058   -1.000
 4798.00    1.91871   1.99871   -1.000
 4799.00    1.87724   1.96403   -1.000
 4800.00    1.87962   1.95333   -1.000
 4801.00    1.93525   1.97118   -1.000
 4802.00    1.99674   2.00467  162.800
 4803.00    2.01138   2.02909  164.386
 4804.00    1.97947   2.02700   -1.000
 4805.00    1.94498   2.00181   -1.000
 4806.00    1.92367   1.97040   -1.000
 4807.00    1.90443   1.94804   -1.000
 4808.00    1.90744   1.94184   -1.000
 4809.00    1.91470   1.95178   -1.000
 4810.00    1.93316   1.97127   -1.000
 4811.00    1.95717   1.98979   -1.000
 4812.00    1.96253   2.00050   -1.000
 4813.00    1.96610   2.00581   -1.000
 4814.00    1.97024   2.01287   -1.000
 4815.00    1.98189   2.02615   -1.000
 4816.00    2.00921   2.04541   -1.000
 4817.00    2.02893   2.06722   -1.000
 4818.00    2.04669   2.08707   -1.000
 4819.00    2.06334   2.09939   -1.000
 4820.00    2.04692   2.09710   -1.000
 4821.00    2.00830   2.07464   -1.000
 4822.00    1.96595   2.03371   -1.000
 4823.00    1.90850   1.98765   -1.000
 4824.00    1.87860   1.95824   -1.000
 4825.00    1.92401   1.95990   -1.000
 4826.00    1.98997   1.98267  162.513
 4827.00    1.98838   2.00166  162.625
 4828.00    1.95019   2.00380   -1.000
 4829.00    1.94786   1.99427   -1.000
 4830.00    1.95155   1.98048   -1.000
 4831.00    1.91930   1.96457   -1.000
 4832.00    1.89861   1.95255   -1.000
 4833.00    1.91283   1.95497   -1.000
 4834.00    1.95833   1.97464  159.931
 4835.00    2.00015   2.00082  161.910
 4836.00    1.99958   2.01795  164.729
 4837.00    1.98046   2.01769   -1.000
 4838.00    1.95027   2.00075   -1.000
 4839.00    1.91594   1.97484   -1.000
 4840.00    1.89635   1.95184   -1.000
 4841.00    1.90049   1.94010   -1.000
 4842.00    1.90294   1.93954   -1.000
 4843.00    1.89862   1.94783   -1.000
 4844.00    1.93599   1.96664   -1.000
 4845.00    1.98768   1.99428  163.161
 4846.00    2.00669   2.01752  163.502
 4847.00    1.97598   2.02108   -1.000
 4848.00    1.95209   2.00638   -1.000
 4849.00    1.94493   1.99202   -1.000
 4850.00    1.96742   1.99208   -1.000
 4851.00    1.98079   2.00099  167.273
 4852.00    1.96689   2.00076   -1.000
 4853.00    1.94947   1.97709   -1.000
 4854.00    1.91074   1.93065  170.880
 4855.00    1.82821   1.87903   -1.000
 4856.00    1.80195   1.84324   -1.000
 4857.00    1.83859   1.82327   -1.000
 4858.00    1.83513   1.79133   -1.000
 4859.00    1.73864   1.71717   -1.000
 4860.00    1.57680   1.60957   -1.000
 4861.00    1.47281   1.52218   -1.000
 4862.00    1.49537   1.50713  174.205
 4863.00    1.60745   1.56935   -1.000
 4864.00    1.71711   1.66962   -1.000
 4865.00    1.80033   1.76557   -1.000
 4866.00    1.84894   1.83747  168.705
 4867.00    1.85326   1.88240   -1.000
 4868.00    1.85216   1.89973   -1.000
 4869.00    1.84870   1.88602   -1.000
 4870.00    1.77519   1.84282   -1.000
 4871.00    1.68853   1.78890   -1.000
 4872.00    1.68518   1.75982   -1.000
 4873.00    1.75222   1.77981   -1.000
 4874.00    1.80320   1.83499   -1.000
 4875.00    1.82881   1.89192   -1.000
 4876.00    1.84658   1.93353   -1.000
 4877.00    1.87218   1.96524   -1.000
 4878.00    1.90917   1.99578   -1.000
 4879.00    1.94744   2.02261   -1.000
 4880.00    1.95783   2.03465   -1.000
 4881.00    1.91909   2.02572   -1.000
 4882.00    1.88937   2.00439   -1.000
 4883.00    1.91099   1.98282   -1.000
 4884.00    1.90111   1.95991   -1.000
 4885.00    1.84188   1.92975   -1.000
 4886.00    1.80417   1.89934   -1.000
 4887.00    1.81649   1.88054   -1.000
 4888.00    1.82632   1.86964   -1.000
 4889.00    1.80913   1.85096   -1.000
 4890.00    1.75555   1.82216   -1.000
 4891.00    1.74697   1.80884   -1.000
 4892.00    1.81621   1.84398   -1.000
 4893.00    1.96044   1.93459   -1.000
 4894.00    2.07267   2.04939   -1.000
 4895.00    2.11654   2.14297   -1.000
 4896.00    2.14824   2.19216   -1.000
 4897.00    2.15168   2.20136   -1.000
 4898.00    2.13569   2.18460   -1.000
 4899.00    2.08648   2.15490   -1.000
 4900.00    2.03827   2.12401   -1.000
 4901.00    2.03141   2.09923   -1.000
 4902.00    2.00859   2.08101   -1.000
 4903.00    1.99518   2.07035   -1.000
 4904.00    2.02056   2.07539   -1.000
 4905.00    2.07123   2.10120   -1.000
 4906.00    2.11357   2.13143  164.731
 4907.00    2.10957   2.13633   -1.000
 4908.00    2.05283   2.10265   -1.000
 4909.00    1.97608   2.04584   -1.000
 4910.00    1.92786   1.99670   -1.000
 4911.00    1.92594   1.98030   -1.000
 4912.00    1.98403   2.00211  156.647
 4913.00    2.03811   2.04776  157.137
 4914.00    2.08549   2.09564  162.079
 4915.00    2.12768   2.12618  170.636
 4916.00    2.11121   2.11921  178.989
 4917.00    2.04322   2.05680  181.843
 4918.00    1.89492   1.94435   -1.000
 4919.00    1.76188   1.82122   -1.000
 4920.00    1.69887   1.74102   -1.000
 4921.00    1.75061   1.73531   -1.000
 4922.00    1.85198   1.79153   -1.000
 4923.00    1.92234   1.86685   -1.000
 4924.00    1.94029   1.92801   -1.000
 4925.00    1.97102   1.97599  156.362
 4926.00    2.02124   2.02745  155.250
 4927.00    2.08725   2.08657  154.299
 4928.00    2.15029   2.14383  155.541
 4929.00    2.18749   2.18813  159.500
 4930.00    2.19411   2.20946  165.182
 4931.00    2.16281   2.19947   -1.000
 4932.00    2.12542   2.15917   -1.000
 4933.00    2.05134   2.10595   -1.000
 4934.00    2.01243   2.06502   -1.000
 4935.00    2.02004   2.04578   -1.000
 4936.00    2.04116   2.03014   -1.000
 4937.00    1.97958   1.99529  165.910
 4938.00    1.89624   1.94850   -1.000
 4939.00    1.87515   1.92744   -1.000
 4940.00    1.97024   1.95997  155.726
 4941.00    2.08206   2.03493   -1.000
 4942.00    2.14490   2.11536   -1.000
 4943.00    2.17743   2.17088  157.125
 4944.00    2.20176   2.19410  155.885
 4945.00    2.18214   2.19499  154.068
 4946.00    2.16661   2.19049  153.459
 4947.00    2.18493   2.19526  152.834
 4948.00    2.21374   2.21266  153.484
 4949.00    2.24000   2.23383  154.522
 4950.00    2.24973   2.24841  156.243
 4951.00    2.25003   2.25154  158.185
 4952.00    2.22417   2.24231  162.191
 4953.00    2.17865   2.22009   -1.000
 4954.00    2.13662   2.17901   -1.000
 4955.00    2.08143   2.10783   -1.000
 4956.00    1.96773   2.00583   -1.000
 4957.00    1.83634   1.90810   -1.000
 4958.00    1.81959   1.87346   -1.000
 4959.00    1.95765   1.92565   -1.000
 4960.00    2.09484   2.02709   -1.000
 4961.00    2.14959   2.11653   -1.000
 4962.00    2.15627   2.15975  164.500
 4963.00    2.14992   2.15845  166.782
 4964.00    2.11286   2.12712  167.021
 4965.00    2.03960   2.08145   -1.000
 4966.00    1.98957   2.03994   -1.000
 4967.00    1.99616   2.01720  163.683
 4968.00    2.01032   2.01622  161.923
 4969.00    2.01976   2.03241  160.002
 4970.00    2.04255   2.06067  158.452
 4971.00    2.08121   2.09713  157.729
 4972.00    2.11231   2.13591  158.674
 4973.00    2.15408   2.16778  160.306
 4974.00    2.17441   2.18482  162.446
 4975.00    2.16374   2.18408  165.067
 4976.00    2.13497   2.16586   -1.000
 4977.00    2.08759   2.13338   -1.000
 4978.00    2.04444   2.09357   -1.000
 4979.00    2.00492   2.05271   -1.000
 4980.00    1.98236   2.00820   -1.000
 4981.00    1.93200   1.95128  177.924
 4982.00    1.83515   1.88478   -1.000
 4983.00    1.79324   1.83321   -1.000
 4984.00    1.83209   1.82465  163.324
 4985.00    1.90400   1.86667   -1.000
 4986.00    1.97294   1.94115   -1.000
 4987.00    2.04703   2.01803   -1.000
 4988.00    2.10023   2.07010   -1.000
 4989.00    2.07986   2.08637  165.960
 4990.00    2.05024   2.07848   -1.000
 4991.00    2.05419   2.06844  165.065
 4992.00    2.08482   2.06892   -1.000
 4993.00    2.07683   2.07757  163.450
 4994.00    2.05972   2.08768   -1.000
 4995.00    2.07165   2.09826   -1.000
 4996.00    2.10209   2.10790  169.710
 4997.00    2.09484   2.10551  171.950
 4998.00    2.05061   2.07961   -1.000
 4999.00    2.01624   2.03255  170.715
 5000.00    1.98495   1.98174  169.542
 5001.00    1.96467   1.94687   -1.000
 5002.00    1.96111   1.93369   -1.000
 5003.00    1.96200   1.92894   -1.000
 5004.00    1.95341   1.91321   -1.000
 5005.00    1.91570   1.88293   -1.000
 5006.00    1.88829   1.85940   -1.000
 5007.00    1.91070   1.87124   -1.000
 5008.00    1.98221   1.92101   -1.000
 5009.00    2.04394   1.97771   -1.000
 5010.00    2.04551   2.00356   -1.000
 5011.00    1.99786   1.98212   -1.000
 5012.00    1.92043   1.92529  179.159
 5013.00    1.83834   1.86374   -1.000
 5014.00    1.80091   1.82845   -1.000
 5015.00    1.84229   1.82957   -1.000
 5016.00    1.90594   1.85270   -1.000
 5017.00    1.93678   1.87729   -1.000
 5018.00    1.93039   1.89609   -1.000
 5019.00    1.95048   1.91373   -1.000
 5020.00    1.98101   1.93014   -1.000
 5021.00    1.97673   1.93950   -1.000
 5022.00    1.93428   1.94495  168.304
 5023.00    1.96691   1.95951  168.993
 5024.00    2.02997   1.98836   -1.000
 5025.00    2.04647   2.01764   -1.000
 5026.00    2.02485   2.02828  165.303
 5027.00    1.98766   2.02080   -1.000
 5028.00    1.98762   2.01644   -1.000
 5029.00    2.04263   2.03487  158.369
 5030.00    2.08625   2.07703  158.512
 5031.00    2.12753   2.12959  163.344
 5032.00    2.17814   2.17527  169.811
 5033.00    2.21906   2.19596   -1.000
 5034.00    2.20233   2.17823   -1.000
 5035.00    2.09872   2.12726   -1.000
 5036.00    2.01053   2.06778   -1.000
 5037.00    1.99457   2.01938   -1.000
 5038.00    1.99566   1.97546   -1.000
 5039.00    1.90739   1.91717  181.473
 5040.00    1.77585   1.84897   -1.000
 5041.00    1.74661   1.80971   -1.000
 5042.00    1.83919   1.83855  159.606
 5043.00    1.98715   1.93673   -1.000
 5044.00    2.14046   2.06348   -1.000
 5045.00    1.28147   2.16690   -1.000
 5046.00    0.19357   2.21434   -1.000
 5047.00    0.05352   2.20063   -1.000
 5048.00    0.61180   2.14234   -1.000
 5049.00    1.63299   2.07104   -1.000
 5050.00    1.95801   2.01923   -1.000
 5051.00    2.00677   2.00311  159.959
 5052.00    2.06237   2.02155   -1.000
 5053.00    2.11835   2.06555   -1.000
 5054.00    2.16629   2.11954   -1.000
 5055.00    2.19594   2.16616   -1.000
 5056.00    2.21569   2.19759   -1.000
 5057.00    2.22757   2.21774  157.294
 5058.00    2.23948   2.23544  157.340
 5059.00    2.25751   2.25652  159.400
 5060.00    2.27447   2.27917  163.980
 5061.00    2.29955   2.29278  169.823
 5062.00    2.30264   2.28045   -1.000
 5063.00    2.22292   2.23190  169.951
 5064.00    2.11633   2.15937   -1.000
 5065.00    2.03485   2.09355   -1.000
 5066.00    2.04714   2.05832  166.000
 5067.00    2.08425   2.05451   -1.000
 5068.00    2.07132   2.06876  166.182
 5069.00    2.10368   2.08922   -1.000
 5070.00    2.14396   2.10683   -1.000
 5071.00    2.13988   2.11293   -1.000
 5072.00    2.11017   2.10690  163.960
 5073.00    2.12137   2.10074   -1.000
 5074.00    2.16589   2.10503   -1.000
 5075.00    2.16850   2.11641   -1.000
 5076.00    2.14501   2.12186   -1.000
 5077.00    2.14567   2.10683   -1.000
 5078.00    2.10208   2.06181   -1.000
 5079.00    1.98212   1.99511  173.927
 5080.00    1.91218   1.93805   -1.000
 5081.00    1.94593   1.91950   -1.000
 5082.00    2.00587   1.94044   -1.000
 5083.00    2.04038   1.98169   -1.000
 5084.00    2.06583   2.02763   -1.000
 5085.00    2.11247   2.07240   -1.000
 5086.00    2.15640   2.11232   -1.000
 5087.00    2.16919   2.14297   -1.000
 5088.00    2.17418   2.16385  160.261
 5089.00    2.18245   2.17918  158.417
 5090.00    2.20855   2.19485   -1.000
 5091.00    2.24792   2.21587   -1.000
 5092.00    2.27111   2.24239   -1.000
 5093.00    2.30185   2.26428   -1.000
 5094.00    2.29267   2.26405   -1.000
 5095.00    2.24149   2.23096   -1.000
 5096.00    2.17050   2.17025  173.348
 5097.00    2.09300   2.09911  169.107
 5098.00    2.00997   2.03967   -1.000
 5099.00    1.99508   2.01493  162.732
 5100.00    2.04060   2.03559  163.686
 5101.00    2.12936   2.08777   -1.000
 5102.00    2.18317   2.13846   -1.000
 5103.00    2.15976   2.16146  170.014
 5104.00    2.12569   2.15465   -1.000
 5105.00    2.12117   2.13090  171.890
 5106.00    2.10478   2.10118  170.781
 5107.00    2.05112   2.07137  169.553
 5108.00    2.03033   2.04715  167.104
 5109.00    2.03153   2.03694  165.057
 5110.00    2.05286   2.04772  163.043
 5111.00    2.11630   2.07946   -1.000
 5112.00    2.17099   2.12202   -1.000
 5113.00    2.19037   2.16249   -1.000
 5114.00    2.23073   2.19632   -1.000
 5115.00    2.26590   2.22684   -1.000
 5116.00    2.26758   2.25593  160.250
 5117.00    2.29584   2.27900   -1.000
 5118.00    2.31408   2.28777   -1.000
 5119.00    2.30705   2.27599   -1.000
 5120.00    2.24885   2.24306  174.801
 5121.00    2.18915   2.19280  175.970
 5122.00    2.12911   2.13189  174.363
 5123.00    2.03705   2.07110   -1.000
 5124.00    2.00068   2.02551   -1.000
 5125.00    2.01863   2.00601   -1.000
 5126.00    2.03663   2.00909   -1.000
 5127.00    2.04410   2.02046   -1.000
 5128.00    2.04262   2.03089   -1.000
 5129.00    2.05726   2.04338   -1.000
 5130.00    2.08552   2.06521   -1.000
 5131.00    2.13458   2.09660   -1.000
 5132.00    2.19307   2.12986   -1.000
 5133.00    2.21511   2.15836   -1.000
 5134.00    2.23327   2.18017   -1.000
 5135.00    2.24795   2.19147   -1.000
 5136.00    2.23271   2.18167   -1.000
 5137.00    2.16204   2.14551   -1.000
 5138.00    2.09322   2.09879  172.290
 5139.00    2.07672   2.06686   -1.000
 5140.00    2.10146   2.05844   -1.000
 5141.00    2.11757   2.06136   -1.000
 5142.00    2.07481   2.06331   -1.000
 5143.00    2.06283   2.06600  172.171
 5144.00    2.10923   2.07297   -1.000
 5145.00    2.10336   2.07513   -1.000
 5146.00    2.06463   2.06458  169.435
 5147.00    2.06297   2.05096   -1.000
 5148.00    2.09204   2.04964   -1.000
 5149.00    2.09204   2.06009   -1.000
 5150.00    2.08970   2.06704   -1.000
 5151.00    2.07883   2.06082   -1.000
 5152.00    2.03892   2.04745  167.102
 5153.00    2.02168   2.04089  162.849
 5154.00    2.05177   2.05350  159.839
 5155.00    2.12129   2.09075   -1.000
 5156.00    2.19152   2.14626   -1.000
 5157.00    2.27588   2.20320   -1.000
 5158.00    2.31091   2.24526   -1.000
 5159.00    2.30949   2.26560   -1.000
 5160.00    2.32426   2.26480   -1.000
 5161.00    2.29767   2.24379   -1.000
 5162.00    2.24141   2.20107   -1.000
 5163.00    2.18857   2.13556   -1.000
 5164.00    2.09755   2.04481   -1.000
 5165.00    1.93891   1.92150   -1.000
 5166.00    1.72293   1.77213   -1.000
 5167.00    1.54342   1.64106   -1.000
 5168.00    1.54488   1.58283   -1.000
 5169.00    1.66868   1.60060   -1.000
 5170.00    1.73975   1.63182   -1.000
 5171.00    1.64682   1.61580   -1.000
 5172.00    1.47816   1.56816   -1.000
 5173.00    1.48871   1.56386   -1.000
 5174.00    1.69816   1.65374   -1.000
 5175.00    1.95230   1.80932   -1.000
 5176.00    2.10478   1.95720   -1.000
 5177.00    2.15129   2.05053   -1.000
 5178.00    2.17346   2.08762   -1.000
 5179.00    2.14699   2.07819   -1.000
 5180.00    2.06915   2.01754   -1.000
 5181.00    1.90652   1.89583   -1.000
 5182.00    1.67311   1.73394   -1.000
 5183.00    1.46016   1.59873   -1.000
 5184.00    1.46167   1.56783   -1.000
 5185.00    1.71675   1.66434   -1.000
 5186.00    1.99097   1.83446   -1.000
 5187.00    2.14295   1.99573   -1.000
 5188.00    2.20708   2.09969   -1.000
 5189.00    2.24247   2.14137   -1.000
 5190.00    2.25758   2.13095   -1.000
 5191.00    2.16369   2.08185   -1.000
 5192.00    2.02842   2.02330  172.925
 5193.00    2.01524   1.99224   -1.000
 5194.00    2.09275   2.00094   -1.000
 5195.00    2.13357   2.03462   -1.000
 5196.00    2.18563   2.07878   -1.000
 5197.00    2.23147   2.12936   -1.000
 5198.00    2.28327   2.18198   -1.000
 5199.00    2.32465   2.22598   -1.000
 5200.00    2.33930   2.24942   -1.000
 5201.00    2.31269   2.24496   -1.000
 5202.00    2.26686   2.21005   -1.000
 5203.00    2.22520   2.14455   -1.000
 5204.00    2.12653   2.05589   -1.000
 5205.00    2.01758   1.96441   -1.000
 5206.00    1.97004   1.89493   -1.000
 5207.00    1.95578   1.86067   -1.000
 5208.00    1.93712   1.86143   -1.000
 5209.00    1.96348   1.89673   -1.000
 5210.00    2.06260   1.96903   -1.000
 5211.00    2.19189   2.06922   -1.000
 5212.00    2.33051   2.16945   -1.000
 5213.00    2.38998   2.23544   -1.000
 5214.00    2.36498   2.24927   -1.000
 5215.00    2.31417   2.22379   -1.000
 5216.00    2.26389   2.19591   -1.000
 5217.00    2.28496   2.19959   -1.000
 5218.00    2.36328   2.24090   15.714
 5219.00    2.43657   2.29884   15.941
 5220.00    2.46924   2.34616   16.452
 5221.00    2.46501   2.36412   17.147
 5222.00    2.43736   2.34319   17.950
 5223.00    2.35682   2.28076   18.401
 5224.00    2.24445   2.18331   17.936
 5225.00    2.10782   2.07213   16.906
 5226.00    2.01536   1.98637   16.243
 5227.00    2.02177   1.96741   15.984
 5228.00    2.15459   2.02792   15.986
 5229.00    2.32082   2.13512   -1.000
 5230.00    2.40666   2.22850   -1.000
 5231.00    2.42498   2.26413   16.540
 5232.00    2.34828   2.24417   16.138
 5233.00    2.29100   2.20833   15.759
 5234.00    2.29217   2.20022   15.601
 5235.00    2.32932   2.23668   15.599
 5236.00    2.42138   2.30240   15.650
 5237.00    2.50529   2.36786   15.614
 5238.00    2.52321   2.41049   15.522
 5239.00    2.51392   2.42571   15.551
 5240.00    2.51121   2.42311   15.515
 5241.00    2.51007   2.41564   15.504
 5242.00    2.51594   2.41326   15.846
 5243.00    2.52234   2.41868   16.351
 5244.00    2.53314   2.42170   16.709
 5245.00    2.51688   2.40361   16.728
 5246.00    2.42416   2.35668   16.763
 5247.00    2.33836   2.29668   16.868
 5248.00    2.31973   2.24853   16.769
 5249.00    2.31809   2.22374   16.528
 5250.00    2.31284   2.21945   16.377
 5251.00    2.31299   2.23083   16.385
 5252.00    2.34795   2.25137   16.246
 5253.00    2.38504   2.26993   15.846
 5254.00    2.37934   2.28237   15.427
 5255.00    2.37506   2.30243   15.323
 5256.00    2.43433   2.34795   15.498
 5257.00    2.54718   2.41324   15.955
 5258.00    2.61333   2.46666   16.653
 5259.00    2.59115   2.47665   17.443
 5260.00    2.54542   2.43107   18.019
 5261.00    2.44469   2.33737   18.358
 5262.00    2.28917   2.21605   18.367
 5263.00    2.15695   2.09343   18.023
 5264.00    2.06547   1.99463   17.739
 5265.00    2.01334   1.93713   18.193
 5266.00    2.02577   1.92139   18.894
 5267.00    2.09425   1.92306   -1.000
 5268.00    2.07172   1.90884   -1.000
 5269.00    1.93151   1.87641   16.632
 5270.00    1.91146   1.86822   16.508
 5271.00    2.09255   1.92719   16.524
 5272.00    2.27845   2.03917   -1.000
 5273.00    2.35388   2.14326   -1.000
 5274.00    2.36014   2.20404   15.562
 5275.00    2.35087   2.24225   15.312
 5276.00    2.40308   2.29425   15.447
 5277.00    2.52331   2.36644   15.841
 5278.00    2.62435   2.43042   -1.000
 5279.00    2.62145   2.45297   -1.000
 5280.00    2.54708   2.42517   16.563
 5281.00    2.48810   2.36503   16.188
 5282.00    2.40776   2.30381   15.681
 5283.00    2.35202   2.27465   15.211
 5284.00    2.31640   2.30065   15.134
 5285.00    2.49236   2.37845   15.221
 5286.00    2.67114   2.47309   -1.000
 5287.00    2.71654   2.54374   15.115
 5288.00    2.71673   2.57736   15.096
 5289.00    2.70619   2.58946   15.197
 5290.00    2.73621   2.59688   15.348
 5291.00    2.74758   2.60076   15.571
 5292.00    2.70319   2.59380   16.022
 5293.00    2.66932   2.57297   16.640
 5294.00    2.66524   2.53585   17.032
 5295.00    2.59340   2.47396   16.864
 5296.00    2.46633   2.38658   16.423
 5297.00    2.32475   2.29848   16.141
 5298.00    2.28517   2.24916   16.044
 5299.00    2.37817   2.25742   15.820
 5300.00    2.46667   2.30483   15.388
 5301.00    2.50753   2.36161   15.134
 5302.00    2.55266   2.41805   15.125
 5303.00    2.63714   2.48074   15.284
 5304.00    2.73238   2.54676   -1.000
 5305.00    2.79040   2.59607   -1.000
 5306.00    2.76647   2.61428   15.116
 5307.00    2.72682   2.61145   15.033
 5308.00    2.74505   2.61063   15.061
 5309.00    2.78789   2.62333   15.149
 5310.00    2.80623   2.64038   15.216
 5311.00    2.78601   2.64583   15.334
 5312.00    2.75762   2.63426   15.487
 5313.00    2.75723   2.61120   15.613
 5314.00    2.73617   2.58382   15.598
 5315.00    2.72499   2.55659   15.478
 5316.00    2.69197   2.53418   15.427
 5317.00    2.67588   2.52313   15.497
 5318.00    2.67622   2.52544   15.616
 5319.00    2.68780   2.53362   15.813
 5320.00    2.69998   2.53622   16.086
 5321.00    2.67245   2.52393   16.211
 5322.00    2.63227   2.49135   16.233
 5323.00    2.58861   2.44075   16.767
 5324.00    2.52381   2.38153   17.850
 5325.00    2.49733   2.31623   -1.000
 5326.00    2.46134   2.23459   -1.000
 5327.00    2.28830   2.13864   16.407
 5328.00    2.12122   2.06835   15.946
 5329.00    2.17016   2.07724   15.801
 5330.00    2.37109   2.17311   -1.000
 5331.00    2.53884   2.30281   -1.000
 5332.00    2.59425   2.40817   -1.000
 5333.00    2.62982   2.47527   15.541
 5334.00    2.69710   2.52201   -1.000
 5335.00    2.75660   2.55946   -1.000
 5336.00    2.77017   2.57880   -1.000
 5337.00    2.73292   2.56690   -1.000
 5338.00    2.68769   2.52055   -1.000
 5339.00    2.59650   2.45107   15.843
 5340.00    2.50142   2.38747   15.599
 5341.00    2.48968   2.36482   15.628
 5342.00    2.56326   2.39327   15.736
 5343.00    2.66493   2.44542   -1.000
 5344.00    2.70080   2.48373   -1.000
 5345.00    2.66484   2.49208   -1.000
 5346.00    2.63223   2.47793   16.055
 5347.00    2.62495   2.45558   15.773
 5348.00    2.60430   2.43717   15.416
 5349.00    2.58994   2.43581   15.252
 5350.00    2.64818   2.46259   -1.000
 5351.00    2.71962   2.51479   -1.000
 5352.00    2.77191   2.57534   -1.000
 5353.00    2.81797   2.62842   -1.000
 5354.00    2.84931   2.67099   14.813
 5355.00    2.89721   2.70647   -1.000
 5356.00    2.92464   2.73308   -1.000
 5357.00    2.90947   2.74584   15.102
 5358.00    2.88767   2.74393   15.358
 5359.00    2.87185   2.72877   15.567
 5360.00    2.84537   2.70096   15.666
 5361.00    2.77645   2.66362   15.756
 5362.00    2.74353   2.62353   15.835
 5363.00    2.72456   2.58640   15.781
 5364.00    2.71149   2.55428   15.803
 5365.00    2.67160   2.52833   16.003
 5366.00    2.67482   2.50965   -1.000
 5367.00    2.67494   2.49225   -1.000
 5368.00    2.62675   2.45902   -1.000
 5369.00    2.54030   2.39813   16.136
 5370.00    2.43836   2.32635   15.425
 5371.00    2.39095   2.28654   15.105
 5372.00    2.48777   2.31459   15.029
 5373.00    2.64866   2.40544   -1.000
 5374.00    2.78918   2.51484   -1.000
 5375.00    2.84841   2.59611   -1.000
 5376.00    2.84625   2.63312   -1.000
 5377.00    2.81235   2.64114   15.380
 5378.00    2.80689   2.64163   15.522
 5379.00    2.82021   2.64087   -1.000
 5380.00    2.81173   2.63202   -1.000
 5381.00    2.78416   2.61129   -1.000
 5382.00    2.77402   2.58714   -1.000
 5383.00    2.75565   2.57380   -1.000
 5384.00    2.76117   2.57928   -1.000
 5385.00    2.80859   2.59883   -1.000
 5386.00    2.83424   2.61693   -1.000
 5387.00    2.81078   2.61668   -1.000
 5388.00    2.74558   2.59125   16.006
 5389.00    2.69180   2.54803   16.015
 5390.00    2.65276   2.50265   16.077
 5391.00    2.62505   2.46899   16.215
 5392.00    2.61491   2.45178   -1.000
 5393.00    2.62870   2.44489   -1.000
 5394.00    2.62591   2.43496   -1.000
 5395.00    2.59393   2.41038   -1.000
 5396.00    2.52327   2.37457   15.724
 5397.00    2.48333   2.35052   15.676
 5398.00    2.55297   2.36287   -1.000
 5399.00    2.63832   2.41163   -1.000
 5400.00    2.68368   2.46984   -1.000
 5401.00    2.69362   2.50596   -1.000
 5402.00    2.69384   2.50079   -1.000
 5403.00    2.62301   2.44896   -1.000
 5404.00    2.49220   2.36398   16.508
 5405.00    2.41209   2.28444   16.425
 5406.00    2.40378   2.25336   16.559
 5407.00    2.46842   2.27717   -1.000
 5408.00    2.53144   2.32165   -1.000
 5409.00    2.52413   2.35506   15.616
 5410.00    2.52872   2.38154   15.495
 5411.00    2.59880   2.42479   -1.000
 5412.00    2.69570   2.48733   -1.000
 5413.00    2.77138   2.54602   -1.000
 5414.00    2.76469   2.58503   -1.000
 5415.00    2.76790   2.61180   15.398
 5416.00    2.79781   2.63918   15.549
 5417.00    2.85333   2.66410   -1.000
 5418.00    2.86440   2.67221   -1.000
 5419.00    2.82097   2.65943   15.519
 5420.00    2.77433   2.63724   15.749
 5421.00    2.77869   2.61803   15.836
 5422.00    2.79903   2.60301   -1.000
 5423.00    2.76706   2.58905   -1.000
 5424.00    2.72365   2.58417   15.537
 5425.00    2.75684   2.60157   16.010
 5426.00    2.82388   2.63334   -1.000
 5427.00    2.84060   2.64420   -1.000
 5428.00    2.75521   2.60545   16.114
 5429.00    2.63031   2.53267   16.171
 5430.00    2.59169   2.47376   16.414
 5431.00    2.64333   2.45574   -1.000
 5432.00    2.67589   2.46024   -1.000
 5433.00    2.63749   2.45448   -1.000
 5434.00    2.59281   2.43482   15.628
 5435.00    2.58068   2.42933   15.328
 5436.00    2.63111   2.46375   15.136
 5437.00    2.72295   2.53744   -1.000
 5438.00    2.81408   2.62749   -1.000
 5439.00    2.89903   2.70677   -1.000
 5440.00    2.93933   2.75974   -1.000
 5441.00    2.95258   2.78545   -1.000
 5442.00    2.93654   2.78707   16.374
 5443.00    2.91501   2.76010   -1.000
 5444.00    2.82776   2.69566   16.540
 5445.00    2.68532   2.59874   15.988
 5446.00    2.55334   2.50204   15.600
 5447.00    2.53542   2.45177   15.500
 5448.00    2.61873   2.47126   15.536
 5449.00    2.74297   2.53952   -1.000
 5450.00    2.81248   2.60822   -1.000
 5451.00    2.84451   2.64028   -1.000
 5452.00    2.81298   2.62721   -1.000
 5453.00    2.73935   2.57657   -1.000
 5454.00    2.66140   2.50576   15.887
 5455.00    2.58212   2.44787   15.526
 5456.00    2.60122   2.44115   15.513
 5457.00    2.70958   2.49724   -1.000
 5458.00    2.82527   2.58214   -1.000
 5459.00    2.88513   2.64207   -1.000
 5460.00    2.83983   2.64850   -1.000
 5461.00    2.76453   2.61207   16.015
 5462.00    2.69802   2.56458   15.852
 5463.00    2.68101   2.53665   15.767
 5464.00    2.72208   2.54156   -1.000
 5465.00    2.78981   2.57102   -1.000
 5466.00    2.81066   2.60620   -1.000
 5467.00    2.81237   2.63257   -1.000
 5468.00    2.82706   2.64415   -1.000
 5469.00    2.81637   2.64043   -1.000
 5470.00    2.78174   2.62494   16.233
 5471.00    2.75562   2.60416   16.491
 5472.00    2.74348   2.58251   -1.000
 5473.00    2.72224   2.55689   -1.000
 5474.00    2.69770   2.51926   -1.000
 5475.00    2.64621   2.46941   -1.000
 5476.00    2.56784   2.42562   16.038
 5477.00    2.54520   2.41620   16.211
 5478.00    2.62785   2.44967   -1.000
 5479.00    2.71431   2.49752   -1.000
 5480.00    2.72141   2.52238   -1.000
 5481.00    2.66254   2.51962   15.662
 5482.00    2.62568   2.52019   15.598
 5483.00    2.66777   2.55213   15.788
 5484.00    2.75242   2.60677   15.994
 5485.00    2.82258   2.64926   -1.000
 5486.00    2.83196   2.65480   -1.000
 5487.00    2.77726   2.62966   15.906
 5488.00    2.75319   2.60202   15.802
 5489.00    2.76712   2.59555   -1.000
 5490.00    2.79137   2.61138   -1.000
 5491.00    2.82740   2.63276   -1.000
 5492.00    2.84145   2.64481   -1.000
 5493.00    2.82934   2.64605   -1.000
 5494.00    2.81737   2.64285   -1.000
 5495.00    2.83100   2.63867   -1.000
 5496.00    2.82808   2.63282   -1.000
 5497.00    2.80382   2.62909   -1.000
 5498.00    2.82282   2.63432   -1.000
 5499.00    2.86188   2.64432   -1.000
 5500.00    2.86766   2.64299   -1.000
 5501.00    2.81424   2.62175   -1.000
 5502.00    2.77137   2.59242   -1.000
 5503.00    2.74557   2.57298   -1.000
 5504.00    2.75913   2.56448   -1.000
 5505.00    2.74126   2.55565   -1.000
 5506.00    2.71159   2.54637   15.924
 5507.00    2.72168   2.55073   -1.000
 5508.00    2.77807   2.57495   -1.000
 5509.00    2.81420   2.60160   -1.000
 5510.00    2.81370   2.60366   -1.000
 5511.00    2.76956   2.57318   -1.000
 5512.00    2.69725   2.52866   -1.000
 5513.00    2.65756   2.49741   15.924
 5514.00    2.67316   2.49516   -1.000
 5515.00    2.72766   2.52057   -1.000
 5516.00    2.79324   2.56426   -1.000
 5517.00    2.85007   2.61756   -1.000
 5518.00    2.90163   2.67200   -1.000
 5519.00    2.94585   2.71620   -1.000
 5520.00    2.95032   2.74038   -1.000
 5521.00    2.93831   2.74569   -1.000
 5522.00    2.93887   2.74246   -1.000
 5523.00    2.94539   2.73677   -1.000
 5524.00    2.92710   2.72285   -1.000
 5525.00    2.88358   2.68920   -1.000
 5526.00    2.81874   2.63261   -1.000
 5527.00    2.72811   2.56864   15.855
 5528.00    2.66875   2.52845   15.721
 5529.00    2.69236   2.53676   15.799
 5530.00    2.78759   2.58693   -1.000
 5531.00    2.85723   2.64472   -1.000
 5532.00    2.86866   2.67881   -1.000
 5533.00    2.85690   2.68326   -1.000
 5534.00    2.85013   2.67199   -1.000
 5535.00    2.84441   2.66075   -1.000
 5536.00    2.84022   2.65842   -1.000
 5537.00    2.86067   2.66772   -1.000
 5538.00    2.88602   2.68735   -1.000
 5539.00    2.93155   2.71372   -1.000
 5540.00    2.97531   2.73994   -1.000
 5541.00    2.99955   2.75525   -1.000
 5542.00    2.97264   2.75236   -1.000
 5543.00    2.91281   2.73601   -1.000
 5544.00    2.89960   2.71967   -1.000
 5545.00    2.92223   2.71381   -1.000
 5546.00    2.93374   2.72165   -1.000
 5547.00    2.94199   2.74288   -1.000
 5548.00    2.99258   2.77375   -1.000
 5549.00    3.03629   2.80423   -1.000
 5550.00    3.04544   2.82220   -1.000
 5551.00    3.05482   2.82099   -1.000
 5552.00    3.04012   2.80202   -1.000
 5553.00    3.00240   2.77405   -1.000
 5554.00    2.96343   2.74992   -1.000
 5555.00    2.95601   2.73848   -1.000
 5556.00    2.97520   2.73855   -1.000
 5557.00    2.98826   2.74254   -1.000
 5558.00    2.99322   2.74541   -1.000
 5559.00    2.99841   2.74634   -1.000
 5560.00    2.99004   2.74266   -1.000
 5561.00    2.96532   2.73006   -1.000
 5562.00    2.93549   2.71046   -1.000
 5563.00    2.90713   2.69199   -1.000
 5564.00    2.88704   2.67946   -1.000
 5565.00    2.88448   2.67021   -1.000
 5566.00    2.88239   2.66058   -1.000
 5567.00    2.86946   2.65223   -1.000
 5568.00    2.87920   2.64959   -1.000
 5569.00    2.91394   2.65385   -1.000
 5570.00    2.98588   2.66113   -1.000
 5571.00    3.20144   2.66553   -1.000
 5572.00    3.55479   2.66474   -1.000
 5573.00    3.69812   2.66473   -1.000
 5574.00    3.35262   2.67589   -1.000
 5575.00    2.71711   2.69924   15.674
 5576.00    2.37320   2.72298   -1.000
 5577.00    2.68471   2.73884   16.193
 5578.00    2.98301   2.75048   -1.000
 5579.00    3.01612   2.76130   -1.000
 5580.00    3.01840   2.76751   -1.000
 5581.00    3.00448   2.76460   -1.000
 5582.00    2.97830   2.75277   -1.000
 5583.00    2.96401   2.73329   -1.000
 5584.00    2.94540   2.70066   -1.000
 5585.00    2.87772   2.64550   -1.000
 5586.00    2.77345   2.57042   -1.000
 5587.00    2.69200   2.49773   -1.000
 5588.00    2.66040   2.45629   -1.000
 5589.00    2.69586   2.45934   -1.000
 5590.00    2.75407   2.49610   -1.000
 5591.00    2.80143   2.54293   -1.000
 5592.00    2.82162   2.58102   -1.000
 5593.00    2.82169   2.60838   -1.000
 5594.00    2.84523   2.63597   -1.000
 5595.00    2.89588   2.67008   -1.000
 5596.00    2.94176   2.69920   -1.000
 5597.00    2.93229   2.70306   -1.000
 5598.00    2.87045   2.67486   -1.000
 5599.00    2.82162   2.62862   -1.000
 5600.00    2.79528   2.58513   -1.000
 5601.00    2.77048   2.55837   -1.000
 5602.00    2.75515   2.55825   -1.000
 5603.00    2.80263   2.59424   -1.000
 5604.00    2.90406   2.66419   -1.000
 5605.00    2.99996   2.74651   -1.000
 5606.00    3.06139   2.81393   -1.000
 5607.00    3.07862   2.85243   -1.000
 5608.00    3.08271   2.86580   -1.000
 5609.00    3.09043   2.86789   -1.000
 5610.00    3.10041   2.87058   -1.000
 5611.00    3.11440   2.87292   -1.000
 5612.00    3.10518   2.85783   -1.000
 5613.00    3.03999   2.80497   -1.000
 5614.00    2.90715   2.71558   -1.000
 5615.00    2.78947   2.62453   -1.000
 5616.00    2.77782   2.57743   -1.000
 5617.00    2.84666   2.59060   -1.000
 5618.00    2.91019   2.63878   -1.000
 5619.00    2.94399   2.68606   -1.000
 5620.00    2.95039   2.71870   -1.000
 5621.00    2.97184   2.73731   -1.000
 5622.00    2.97438   2.73456   -1.000
 5623.00    2.92439   2.70324   -1.000
 5624.00    2.83824   2.65727   -1.000
 5625.00    2.80184   2.62862   -1.000
 5626.00    2.85901   2.63990   -1.000
 5627.00    2.93666   2.68501   -1.000
 5628.00    3.00676   2.74115   -1.000
 5629.00    3.04220   2.79033   -1.000
 5630.00    3.07122   2.82360   -1.000
 5631.00    3.08889   2.83710   -1.000
 5632.00    3.08427   2.83171   -1.000
 5633.00    3.04203   2.81239   -1.000
 5634.00    2.99663   2.78492   -1.000
 5635.00    2.98434   2.75458   -1.000
 5636.00    2.95587   2.72763   -1.000
 5637.00    2.93406   2.71050   -1.000
 5638.00    2.93271   2.70520   -1.000
 5639.00    2.93364   2.70619   -1.000
 5640.00    2.92670   2.70462   -1.000
 5641.00    2.92303   2.69828   -1.000
 5642.00    2.93099   2.69514   -1.000
 5643.00    2.94770   2.70320   -1.000
 5644.00    2.96281   2.72053   -1.000
 5645.00    2.98667   2.73975   -1.000
 5646.00    2.99659   2.75534   -1.000
 5647.00    3.00213   2.76393   -1.000
 5648.00    3.00074   2.76486   -1.000
 5649.00    2.99327   2.76302   -1.000
 5650.00    3.00114   2.76693   -1.000
 5651.00    3.04810   2.77949   -1.000
 5652.00    3.08894   2.79145   -1.000
 5653.00    3.06444   2.78979   -1.000
 5654.00    3.01315   2.77210   -1.000
 5655.00    2.98589   2.74452   -1.000
 5656.00    2.95792   2.70864   -1.000
 5657.00    2.88053   2.66294   -1.000
 5658.00    2.80256   2.61768   -1.000
 5659.00    2.80431   2.59578   -1.000
 5660.00    2.87127   2.60810   -1.000
 5661.00    2.90936   2.63802   -1.000
 5662.00    2.90940   2.66579   -1.000
 5663.00    2.93484   2.69236   -1.000
 5664.00    2.99482   2.72398   -1.000
 5665.00    3.02171   2.75250   -1.000
 5666.00    3.00441   2.76437   -1.000
 5667.00    2.97522   2.75866   -1.000
 5668.00    2.95837   2.74875   -1.000
 5669.00    2.96383   2.74850   -1.000
 5670.00    3.00069   2.76270   -1.000
 5671.00    3.04272   2.79004   -1.000
 5672.00    3.08979   2.82536   -1.000
 5673.00    3.12504   2.85832   -1.000
 5674.00    3.13817   2.87896   -1.000
 5675.00    3.15059   2.88618   -1.000
 5676.00    3.16036   2.88647   -1.000
 5677.00    3.15489   2.88440   -1.000
 5678.00    3.15805   2.87714   -1.000
 5679.00    3.11782   2.86010   -1.000
 5680.00    3.07914   2.83323   -1.000
 5681.00    3.05733   2.80010   -1.000
 5682.00    3.02289   2.76818   -1.000
 5683.00    2.99637   2.74922   -1.000
 5684.00    3.02711   2.74850   -1.000
 5685.00    3.04859   2.75524   -1.000
 5686.00    3.00651   2.75455   -1.000
 5687.00    2.95582   2.74630   -1.000
 5688.00    2.95055   2.74470   -1.000
 5689.00    2.99718   2.76236   -1.000
 5690.00    3.06850   2.79829   -1.000
 5691.00    3.13253   2.83989   -1.000
 5692.00    3.15957   2.87313   -1.000
 5693.00    3.15690   2.89047   -1.000
 5694.00    3.14479   2.89273   -1.000
 5695.00    3.13282   2.88498   -1.000
 5696.00    3.10625   2.87028   -1.000
 5697.00    3.07248   2.84795   -1.000
 5698.00    3.03239   2.81830   -1.000
 5699.00    2.97797   2.78540   -1.000
 5700.00    2.93540   2.75512   -1.000
 5701.00    2.90518   2.73469   -1.000
 5702.00    2.89854   2.73163   -1.000
 5703.00    2.95153   2.74461   -1.000
 5704.00    3.00997   2.75782   -1.000
 5705.00    2.99939   2.75218   -1.000
 5706.00    2.93913   2.72153   -1.000
 5707.00    2.87546   2.67690   -1.000
 5708.00    2.82617   2.63574   -1.000
 5709.00    2.80807   2.61022   -1.000
 5710.00    2.82664   2.60652   -1.000
 5711.00    2.86270   2.62777   -1.000
 5712.00    2.92485   2.67301   -1.000
 5713.00    3.00666   2.73389   -1.000
 5714.00    3.06694   2.79453   -1.000
 5715.00    3.09101   2.84119   -1.000
 5716.00    3.13045   2.87139   -1.000
 5717.00    3.16439   2.89111   -1.000
 5718.00    3.17363   2.90752   -1.000
 5719.00    3.20163   2.92591   -1.000
 5720.00    3.21310   2.94783   -1.000
 5721.00    3.22091   2.97059   -1.000
 5722.00    3.25270   2.98931   -1.000
 5723.00    3.27082   2.99842   -1.000
 5724.00    3.25773   2.99241   -1.000
 5725.00    3.22406   2.96982   -1.000
 5726.00    3.17907   2.93896   -1.000
 5727.00    3.14141   2.91625   -1.000
 5728.00    3.14732   2.91229   -1.000
 5729.00    3.17744   2.91981   -1.000
 5730.00    3.18444   2.92295   -1.000
 5731.00    3.16689   2.91841   -1.000
 5732.00    3.16351   2.91922   -1.000
 5733.00    3.19061   2.93604   -1.000
 5734.00    3.22793   2.96141   -1.000
 5735.00    3.25094   2.97782   -1.000
 5736.00    3.23241   2.97743   -1.000
 5737.00    3.20339   2.96730   -1.000
 5738.00    3.18900   2.95882   -1.000
 5739.00    3.18258   2.95636   -1.000
 5740.00    3.18337   2.95617   -1.000
 5741.00    3.17229   2.95429   -1.000
 5742.00    3.16792   2.95320   -1.000
 5743.00    3.17615   2.95958   -1.000
 5744.00    3.20684   2.97452   -1.000
 5745.00    3.24576   2.98753   -1.000
 5746.00    3.23978   2.98510   -1.000
 5747.00    3.19664   2.96728   -1.000
 5748.00    3.16106   2.95086   -1.000
 5749.00    3.19025   2.94947   -1.000
 5750.00    3.23596   2.95445   -1.000
 5751.00    3.19860   2.94362   -1.000
 5752.00    3.12078   2.90867   -1.000
 5753.00    3.06571   2.86955   -1.000
 5754.00    3.06653   2.85802   -1.000
 5755.00    3.14225   2.88801   -1.000
 5756.00    3.23057   2.94302   -1.000
 5757.00    3.27098   2.99009   -1.000
 5758.00    3.26650   3.00454   -1.000
 5759.00    3.23262   2.98162   -1.000
 5760.00    3.16081   2.93365   -1.000
 5761.00    3.09176   2.88374   -1.000
 5762.00    3.06239   2.85786   -1.000
 5763.00    3.09582   2.87257   -1.000
 5764.00    3.17351   2.92300   -1.000
 5765.00    3.25598   2.98404   -1.000
 5766.00    3.28364   3.02985   -1.000
 5767.00    3.26874   3.05159   -1.000
 5768.00    3.26734   3.05444   -1.000
 5769.00    3.24789   3.04626   -1.000
 5770.00    3.22498   3.03259   -1.000
 5771.00    3.19755   3.01643   -1.000
 5772.00    3.15556   2.99953   15.550
 5773.00    3.10200   2.98485   15.493
 5774.00    3.04837   2.97707   15.510
 5775.00    2.97955   2.97932   15.633
 5776.00    2.92892   2.98795   15.927
 5777.00    2.95261   2.99004   16.238
 5778.00    3.01973   2.96962   16.339
 5779.00    3.04139   2.91983   16.277
 5780.00    3.01438   2.85082   -1.000
 5781.00    2.97620   2.78557   -1.000
 5782.00    2.94878   2.74466   -1.000
 5783.00    2.93917   2.73147   -1.000
 5784.00    2.93669   2.73595   -1.000
 5785.00    2.95336   2.75359   -1.000
 5786.00    3.01760   2.78908   -1.000
 5787.00    3.10934   2.83964   -1.000
 5788.00    3.17832   2.88834   -1.000
 5789.00    3.18984   2.91834   -1.000
 5790.00    3.16125   2.92828   -1.000
 5791.00    3.12621   2.93288   -1.000
 5792.00    3.13277   2.94955   -1.000
 5793.00    3.17463   2.98246   -1.000
 5794.00    3.22592   3.01801   -1.000
 5795.00    3.27532   3.03670   -1.000
 5796.00    3.27949   3.03070   -1.000
 5797.00    3.25426   3.01279   -1.000
 5798.00    3.25493   3.00769   -1.000
 5799.00    3.30000   3.03037   -1.000
 5800.00    3.36890   3.07151   -1.000
 5801.00    3.39517   3.10528   -1.000
 5802.00    3.36375   3.11157   -1.000
 5803.00    3.31126   3.08968   -1.000
 5804.00    3.25481   3.05515   -1.000
 5805.00    3.21968   3.02744   -1.000
 5806.00    3.22017   3.01754   -1.000
 5807.00    3.24245   3.02382   -1.000
 5808.00    3.27545   3.03839   -1.000
 5809.00    3.30895   3.05477   -1.000
 5810.00    3.33680   3.06905   -1.000
 5811.00    3.35745   3.07699   -1.000
 5812.00    3.36188   3.07376   -1.000
 5813.00    3.32866   3.05685   -1.000
 5814.00    3.27927   3.02925   -1.000
 5815.00    3.25499   3.00215   -1.000
 5816.00    3.25203   2.99245   -1.000
 5817.00    3.28552   3.01081   -1.000
 5818.00    3.34221   3.05026   -1.000
 5819.00    3.37762   3.09015   -1.000
 5820.00    3.39524   3.11256   -1.000
 5821.00    3.39545   3.11436   -1.000
 5822.00    3.37969   3.10522   -1.000
 5823.00    3.38189   3.09722   -1.000
 5824.00    3.39339   3.09634   -1.000
 5825.00    3.39091   3.10124   -1.000
 5826.00    3.39006   3.10802   -1.000
 5827.00    3.39723   3.11463   -1.000
 5828.00    3.40748   3.12115   -1.000
 5829.00    3.41501   3.12710   -1.000
 5830.00    3.41000   3.13005   -1.000
 5831.00    3.41016   3.12748   -1.000
 5832.00    3.39480   3.11876   -1.000
 5833.00    3.36975   3.10552   -1.000
 5834.00    3.34924   3.09199   -1.000
 5835.00    3.34803   3.08341   -1.000
 5836.00    3.35699   3.08150   -1.000
 5837.00    3.35958   3.08360   -1.000
 5838.00    3.33945   3.08883   -1.000
 5839.00    3.33495   3.10072   -1.000
 5840.00    3.36648   3.12042   -1.000
 5841.00    3.39921   3.14141   -1.000
 5842.00    3.41264   3.15331   -1.000
 5843.00    3.41848   3.14954   -1.000
 5844.00    3.41217   3.13078   -1.000
 5845.00    3.38909   3.10281   -1.000
 5846.00    3.34441   3.07363   -1.000
 5847.00    3.31005   3.05134   -1.000
 5848.00    3.31412   3.04031   -1.000
 5849.00    3.32894   3.03682   -1.000
 5850.00    3.32659   3.03034   -1.000
 5851.00    3.29663   3.01289   -1.000
 5852.00    3.24751   2.98747   -1.000
 5853.00    3.20885   2.96433   -1.000
 5854.00    3.20841   2.94786   -1.000
 5855.00    3.21372   2.92991   -1.000
 5856.00    3.18206   2.90135   -1.000
 5857.00    3.13926   2.86965   -1.000
 5858.00    3.13604   2.85689   -1.000
 5859.00    3.18895   2.87667   -1.000
 5860.00    3.24635   2.91819   -1.000
 5861.00    3.25770   2.95756   -1.000
 5862.00    3.25193   2.98077   -1.000
 5863.00    3.24520   2.98965   -1.000
 5864.00    3.23232   2.99040   -1.000
 5865.00    3.22862   2.98523   -1.000
 5866.00    3.23344   2.97771   -1.000
 5867.00    3.25290   2.97869   -1.000
 5868.00    3.29307   2.99700   -1.000
 5869.00    3.33301   3.02686   -1.000
 5870.00    3.34735   3.05249   -1.000
 5871.00    3.34937   3.06308   -1.000
 5872.00    3.34500   3.05998   -1.000
 5873.00    3.34965   3.05216   -1.000
 5874.00    3.36017   3.04651   -1.000
 5875.00    3.34537   3.04156   -1.000
 5876.00    3.31088   3.03052   -1.000
 5877.00    3.27109   3.00955   -1.000
 5878.00    3.22813   2.98212   -1.000
 5879.00    3.20038   2.95652   -1.000
 5880.00    3.17258   2.94078   -1.000
 5881.00    3.12723   2.93711   -1.000
 5882.00    3.02295   2.93919   15.850
 5883.00    2.80829   2.93755   16.227
 5884.00    2.52337   2.92684   -1.000
 5885.00    2.25680   2.89945   -1.000
 5886.00    2.10631   2.83331   -1.000
 5887.00    2.13179   2.70083   -1.000
 5888.00    2.14641   2.50294   -1.000
 5889.00    2.02814   2.29423   -1.000
 5890.00    1.92176   2.16152   -1.000
 5891.00    1.89979   2.15687   -1.000
 5892.00    1.97867   2.24677   -1.000
 5893.00    2.16341   2.33824   17.865
 5894.00    2.35084   2.36326   17.259
 5895.00    2.42002   2.33482   16.693
 5896.00    2.46934   2.32534   16.281
 5897.00    2.62585   2.39117   -1.000
 5898.00    2.85108   2.52165   -1.000
 5899.00    3.02831   2.66466   -1.000
 5900.00    3.13358   2.78097   -1.000
 5901.00    3.19249   2.86093   -1.000
 5902.00    3.21184   2.90977   -1.000
 5903.00    3.20854   2.93545   -1.000
 5904.00    3.20134   2.94585   -1.000
 5905.00    3.19317   2.94917   -1.000
 5906.00    3.19945   2.95366   -1.000
 5907.00    3.22554   2.96427   -1.000
 5908.00    3.24657   2.97991   -1.000
 5909.00    3.25665   2.99588   -1.000
 5910.00    3.26839   3.00692   -1.000
 5911.00    3.27475   3.00646   -1.000
 5912.00    3.25085   2.98828   -1.000
 5913.00    3.20233   2.95375   -1.000
 5914.00    3.17309   2.91665   -1.000
 5915.00    3.16384   2.89595   -1.000
 5916.00    3.16907   2.90126   -1.000
 5917.00    3.20427   2.92732   -1.000
 5918.00    3.24901   2.96088   -1.000
 5919.00    3.27062   2.98890   -1.000
 5920.00    3.26554   3.00383   -1.000
 5921.00    3.25396   3.00606   -1.000
 5922.00    3.25406   3.00302   -1.000
 5923.00    3.27068   3.00455   -1.000
 5924.00    3.30058   3.01535   -1.000
 5925.00    3.32454   3.03024   -1.000
 5926.00    3.32379   3.03758   -1.000
 5927.00    3.30257   3.02859   -1.000
 5928.00    3.25870   3.00563   -1.000
 5929.00    3.21676   2.98271   -1.000
 5930.00    3.22376   2.97504   -1.000
 5931.00    3.26321   2.98513   -1.000
 5932.00    3.29012   2.99979   -1.000
 5933.00    3.28638   3.00465   -1.000
 5934.00    3.26070   3.00066   -1.000
 5935.00    3.24900   3.00207   -1.000
 5936.00    3.27361   3.01779   -1.000
 5937.00    3.29919   3.03984   -1.000
 5938.00    3.32463   3.05271   -1.000
 5939.00    3.32062   3.04803   -1.000
 5940.00    3.29250   3.02879   -1.000
 5941.00    3.27216   3.00684   -1.000
 5942.00    3.26034   2.99678   -1.000
 5943.00    3.28262   3.00575   -1.000
 5944.00    3.32943   3.02721   -1.000
 5945.00    3.34710   3.04600   -1.000
 5946.00    3.34106   3.04932   -1.000
 5947.00    3.31311   3.03534   -1.000
 5948.00    3.27618   3.01488   -1.000
 5949.00    3.25298   3.00252   -1.000
 5950.00    3.25568   3.00223   -1.000
 5951.00    3.26707   3.00500   -1.000
 5952.00    3.26382   3.00287   -1.000
 5953.00    3.24485   2.99873   -1.000
 5954.00    3.23899   2.99852   -1.000
 5955.00    3.25912   2.99984   -1.000
 5956.00    3.26610   2.99694   -1.000
 5957.00    3.25411   2.99385   -1.000
 5958.00    3.27722   3.00242   -1.000
 5959.00    3.32167   3.02742   -1.000
 5960.00    3.34089   3.06050   -1.000
 5961.00    3.36055   3.08798   -1.000
 5962.00    3.37527   3.10082   -1.000
 5963.00    3.37305   3.09814   -1.000
 5964.00    3.34492   3.08548   -1.000
 5965.00    3.30276   3.07234   -1.000
 5966.00    3.30705   3.06841   -1.000
 5967.00    3.35073   3.07764   -1.000
 5968.00    3.38452   3.09560   -1.000
 5969.00    3.40205   3.11487   -1.000
 5970.00    3.41831   3.13051   -1.000
 5971.00    3.41762   3.13963   -1.000
 5972.00    3.40208   3.13923   -1.000
 5973.00    3.38847   3.12638   -1.000
 5974.00    3.36004   3.10018   -1.000
 5975.00    3.31455   3.06491   -1.000
 5976.00    3.27909   3.03162   -1.000
 5977.00    3.26810   3.01324   -1.000
 5978.00    3.28324   3.01632   -1.000
 5979.00    3.31758   3.03612   -1.000
 5980.00    3.34208   3.05748   -1.000
 5981.00    3.34313   3.06224   -1.000
 5982.00    3.32046   3.04175   -1.000
 5983.00    3.26000   3.00615   -1.000
 5984.00    3.20916   2.97904   -1.000
 5985.00    3.22009   2.97862   -1.000
 5986.00    3.26314   3.00297   -1.000
 5987.00    3.30859   3.03566   -1.000
 5988.00    3.34332   3.06292   -1.000
 5989.00    3.36540   3.08065   -1.000
 5990.00    3.37193   3.09079   -1.000
 5991.00    3.35870   3.09926   -1.000
 5992.00    3.36034   3.11303   -1.000
 5993.00    3.39423   3.13180   -1.000
 5994.00    3.41630   3.14423   -1.000
 5995.00    3.40146   3.13758   -1.000
 5996.00    3.36281   3.11168   -1.000
 5997.00    3.31385   3.08129   -1.000
 5998.00    3.29700   3.06362   -1.000
 5999.00    3.31301   3.06414   -1.000
 6000.00    3.32572   3.07376   -1.000
 6001.00    3.32067   3.07970   -1.000
 6002.00    3.29422   3.07791   -1.000
 6003.00    3.27311   3.07360   -1.000
 6004.00    3.26927   3.06978   -1.000
 6005.00    3.25694   3.05988   -1.000
 6006.00    3.22624   3.03769   -1.000
 6007.00    3.20273   3.01240   -1.000
 6008.00    3.21346   3.00445   -1.000
 6009.00    3.26782   3.02320   -1.000
 6010.00    3.33289   3.05347   -1.000
 6011.00    3.35718   3.06998   -1.000
 6012.00    3.33182   3.06381   -1.000
 6013.00    3.29543   3.04776   -1.000
 6014.00    3.28947   3.03752   -1.000
 6015.00    3.30383   3.03579   -1.000
 6016.00    3.30132   3.03619   -1.000
 6017.00    3.28537   3.03472   -1.000
 6018.00    3.28240   3.03054   -1.000
 6019.00    3.27740   3.02267   -1.000
 6020.00    3.26323   3.01422   -1.000
 6021.00    3.26420   3.01344   -1.000
 6022.00    3.28634   3.02536   -1.000
 6023.00    3.31023   3.04741   -1.000
 6024.00    3.32660   3.07396   -1.000
 6025.00    3.36212   3.10045   -1.000
 6026.00    3.41249   3.12454   -1.000
 6027.00    3.43699   3.14622   -1.000
 6028.00    3.44241   3.16638   -1.000
 6029.00    3.45432   3.18429   -1.000
 6030.00    3.45140   3.19849   -1.000
 6031.00    3.43657   3.21047   -1.000
 6032.00    3.43936   3.22476   -1.000
 6033.00    3.45169   3.24395   -1.000
 6034.00    3.45916   3.26438   -1.000
 6035.00    3.47086   3.27735   -1.000
 6036.00    3.48555   3.27621   -1.000
 6037.00    3.47608   3.26220   -1.000
 6038.00    3.45251   3.24220   -1.000
 6039.00    3.43806   3.22397   -1.000
 6040.00    3.42482   3.21421   -1.000
 6041.00    3.42346   3.21681   -1.000
 6042.00    3.44732   3.23051   -1.000
 6043.00    3.46944   3.24885   -1.000
 6044.00    3.48775   3.26454   -1.000
 6045.00    3.51948   3.27447   -1.000
 6046.00    3.53416   3.28022   -1.000
 6047.00    3.52073   3.28419   -1.000
 6048.00    3.51680   3.28696   -1.000
 6049.00    3.53602   3.28793   -1.000
 6050.00    3.55074   3.28483   -1.000
 6051.00    3.54286   3.27415   -1.000
 6052.00    3.51658   3.25427   -1.000
 6053.00    3.48838   3.22803   -1.000
 6054.00    3.46560   3.20137   -1.000
 6055.00    3.44494   3.18074   -1.000
 6056.00    3.43215   3.17208   -1.000
 6057.00    3.43481   3.17849   -1.000
 6058.00    3.45852   3.19625   -1.000
 6059.00    3.48250   3.21510   -1.000
 6060.00    3.50053   3.22383   -1.000
 6061.00    3.53235   3.21563   -1.000
 6062.00    3.24032   3.19079    7.826
 6063.00    2.51245   3.15741   -1.000
 6064.00    2.37154   3.13062   -1.000
 6065.00    2.90213   3.12731   15.709
 6066.00    3.25501   3.15485   15.471
 6067.00    3.38156   3.20320   -1.000
 6068.00    3.00478   3.25177   -1.000
 6069.00    1.85104   3.28624   -1.000
 6070.00    2.24329   3.30592   -1.000
 6071.00    3.43919   3.31630   15.583
 6072.00    3.58622   3.32028   -1.000
 6073.00    3.58752   3.31759   -1.000
 6074.00    3.58270   3.30722   -1.000
 6075.00    3.55716   3.28828   -1.000
 6076.00    3.52060   3.26127   -1.000
 6077.00    3.47584   3.23014   -1.000
 6078.00    3.43482   3.20145   -1.000
 6079.00    3.41557   3.17978   -1.000
 6080.00    3.41842   3.16474   -1.000
 6081.00    3.41734   3.15393   -1.000
 6082.00    3.40424   3.14787   -1.000
 6083.00    3.41387   3.14872   -1.000
 6084.00    3.42741   3.15612   -1.000
 6085.00    3.42810   3.16733   -1.000
 6086.00    3.41968   3.17923   -1.000
 6087.00    3.42009   3.18693   -1.000
 6088.00    3.43178   3.18448   -1.000
 6089.00    3.41747   3.17088   -1.000
 6090.00    3.38827   3.15390   -1.000
 6091.00    3.36801   3.14541   -1.000
 6092.00    3.37641   3.15264   -1.000
 6093.00    3.41493   3.17362   -1.000
 6094.00    3.45111   3.19977   -1.000
 6095.00    3.47687   3.22154   -1.000
 6096.00    3.48247   3.23476   -1.000
 6097.00    3.48492   3.24168   -1.000
 6098.00    3.48836   3.24266   -1.000
 6099.00    3.47122   3.22852   -1.000
 6100.00    3.43579   3.18815   -1.000
 6101.00    3.37070   3.12697   -1.000
 6102.00    3.28630   3.07297   -1.000
 6103.00    3.25802   3.05763   -1.000
 6104.00    3.31112   3.08822   -1.000
 6105.00    3.39303   3.14175   -1.000
 6106.00    3.45111   3.18995   -1.000
 6107.00    3.45408   3.22147   -1.000
 6108.00    3.43639   3.24028   -1.000
 6109.00    3.44502   3.25122   -1.000
 6110.00    3.46059   3.25619   -1.000
 6111.00    3.44815   3.25939   -1.000
 6112.00    3.45313   3.26677   -1.000
 6113.00    3.50484   3.27795   -1.000
 6114.00    3.53120   3.28504   -1.000
 6115.00    3.50553   3.28178   -1.000
 6116.00    3.47305   3.26927   -1.000
 6117.00    3.46143   3.25049   -1.000
 6118.00    3.44071   3.22219   -1.000
 6119.00    3.39369   3.17877   -1.000
 6120.00    3.34554   3.12474   -1.000
 6121.00    3.29830   3.07939   -1.000
 6122.00    3.28143   3.06545   -1.000
 6123.00    3.32551   3.08938   -1.000
 6124.00    3.39081   3.13318   -1.000
 6125.00    3.42378   3.16983   -1.000
 6126.00    3.41917   3.18631   -1.000
 6127.00    3.40616   3.19060   -1.000
 6128.00    3.41047   3.19880   -1.000
 6129.00    3.44438   3.22051   -1.000
 6130.00    3.48559   3.25180   -1.000
 6131.00    3.50362   3.27703   -1.000
 6132.00    3.49207   3.27728   -1.000
 6133.00    3.44599   3.23824   -1.000
 6134.00    3.36480   3.15903   -1.000
 6135.00    3.26015   3.06040   -1.000
 6136.00    3.15002   2.98301   -1.000
 6137.00    3.10486   2.96419   -1.000
 6138.00    3.18588   3.00878   -1.000
 6139.00    3.33268   3.08336   -1.000
 6140.00    3.41454   3.14744   -1.000
 6141.00    3.40330   3.18664   -1.000
 6142.00    3.40741   3.21439   -1.000
 6143.00    3.44816   3.24412   -1.000
 6144.00    3.47451   3.27164   -1.000
 6145.00    3.48191   3.28442   -1.000
 6146.00    3.46970   3.27658   -1.000
 6147.00    3.43997   3.25277   -1.000
 6148.00    3.39891   3.22361   -1.000
 6149.00    3.35948   3.20057   -1.000
 6150.00    3.35604   3.19143   -1.000
 6151.00    3.38284   3.19544   -1.000
 6152.00    3.41823   3.20287   -1.000
 6153.00    3.41012   3.20192   -1.000
 6154.00    3.36660   3.18962   -1.000
 6155.00    3.33414   3.17247   -1.000
 6156.00    3.31986   3.15601   -1.000
 6157.00    3.29897   3.13455   -1.000
 6158.00    3.25572   3.09288   -1.000
 6159.00    3.18012   3.01970   -1.000
 6160.00    3.06565   2.92184   -1.000
 6161.00    2.93356   2.82918   17.228
 6162.00    2.86340   2.77964   17.101
 6163.00    2.89900   2.79202   17.113
 6164.00    3.00623   2.85181   -1.000
 6165.00    3.09036   2.92280   -1.000
 6166.00    3.11786   2.97133   -1.000
 6167.00    3.11997   2.98188   -1.000
 6168.00    3.09322   2.96365   16.889
 6169.00    3.05290   2.94418   16.826
 6170.00    3.05025   2.95075   16.853
 6171.00    3.10234   2.98794   16.827
 6172.00    3.17666   3.03679   -1.000
 6173.00    3.21192   3.07513   16.750
 6174.00    3.21116   3.09571   16.678
 6175.00    3.21621   3.10472   16.608
 6176.00    3.22369   3.11126   16.554
 6177.00    3.23734   3.12160   16.485
 6178.00    3.26798   3.13681   16.431
 6179.00    3.29204   3.15403   16.442
 6180.00    3.30859   3.17070   16.495
 6181.00    3.31260   3.18532   16.604
 6182.00    3.31017   3.19393   16.774
 6183.00    3.31296   3.19038   16.953
 6184.00    3.30675   3.17185   -1.000
 6185.00    3.28173   3.14156   -1.000
 6186.00    3.23856   3.10599   -1.000
 6187.00    3.18669   3.07082   17.602
 6188.00    3.14718   3.03690   17.496
 6189.00    3.12374   3.00289   17.120
 6190.00    3.08639   2.97379   16.785
 6191.00    3.05374   2.96455   16.637
 6192.00    3.08731   2.98784   16.595
 6193.00    3.17172   3.03853   16.664
 6194.00    3.24260   3.09554   -1.000
 6195.00    3.27449   3.13804   16.998
 6196.00    3.26266   3.15586   17.026
 6197.00    3.22235   3.14991   16.894
 6198.00    3.16144   3.12993   16.687
 6199.00    3.11261   3.11342   16.589
 6200.00    3.11193   3.11602   16.585
 6201.00    3.16969   3.13987   16.566
 6202.00    3.25447   3.17254   16.556
 6203.00    3.31861   3.20041   16.602
 6204.00    3.34026   3.21844   16.624
 6205.00    3.34741   3.22874   16.671
 6206.00    3.35721   3.23447   16.804
 6207.00    3.35592   3.23538   16.946
 6208.00    3.33962   3.22883   17.101
 6209.00    3.31842   3.21162   17.336
 6210.00    3.28984   3.18115   17.543
 6211.00    3.25138   3.13638   17.623
 6212.00    3.19439   3.08053   17.468
 6213.00    3.13456   3.02460   17.328
 6214.00    3.09721   2.98457   17.405
 6215.00    3.08786   2.97054   17.408
 6216.00    3.10133   2.97833   17.287
 6217.00    3.14336   2.99214   -1.000
 6218.00    3.17394   2.99833   -1.000
 6219.00    3.15182   2.99671   -1.000
 6220.00    3.15234   2.99768   -1.000
 6221.00    3.18370   3.00907   -1.000
 6222.00    3.19375   3.02745   -1.000
 6223.00    3.20914   3.04497   -1.000
 6224.00    3.22344   3.05767   -1.000
 6225.00    3.22644   3.06497   -1.000
 6226.00    3.22722   3.06333   -1.000
 6227.00    3.22580   3.04485   -1.000
 6228.00    3.19484   3.00514   -1.000
 6229.00    3.11347   2.95294   -1.000
 6230.00    3.02034   2.91044   17.141
 6231.00    2.99055   2.90119   17.007
 6232.00    3.04143   2.93352   17.074
 6233.00    3.12280   2.99462   17.238
 6234.00    3.21901   3.05863   -1.000
 6235.00    3.28556   3.10054   -1.000
 6236.00    3.27463   3.10802   -1.000
 6237.00    3.22876   3.08555   -1.000
 6238.00    3.17713   3.04869   17.804
 6239.00    3.13457   3.01249   17.932
 6240.00    3.11038   2.98474   17.956
 6241.00    3.09645   2.96449   -1.000
 6242.00    3.07767   2.94815   17.702
 6243.00    3.05936   2.93626   17.488
 6244.00    3.06284   2.93486   17.292
 6245.00    3.10458   2.95013   -1.000
 6246.00    3.16032   2.98274   -1.000
 6247.00    3.21451   3.02520   -1.000
 6248.00    3.24099   3.06271   -1.000
 6249.00    3.23200   3.07865   -1.000
 6250.00    3.20398   3.06489   -1.000
 6251.00    3.15256   3.02769   -1.000
 6252.00    3.09574   2.98340   18.217
 6253.00    3.05253   2.94767   18.389
 6254.00    3.02499   2.92453   18.377
 6255.00    3.01600   2.90724   18.145
 6256.00    3.00672   2.89082   17.865
 6257.00    2.98781   2.88139   17.616
 6258.00    2.99558   2.89203   17.353
 6259.00    3.03581   2.92946   17.214
 6260.00    3.10550   2.98636   17.297
 6261.00    3.18736   3.04654   -1.000
 6262.00    3.22248   3.09325   17.400
 6263.00    3.23008   3.11779   17.279
 6264.00    3.21484   3.12246   17.287
 6265.00    3.18723   3.11877   17.375
 6266.00    3.19015   3.11740   17.383
 6267.00    3.21165   3.12023   17.329
 6268.00    3.22274   3.12289   17.282
 6269.00    3.21029   3.12433   17.305
 6270.00    3.18540   3.12912   17.412
 6271.00    3.16505   3.13906   17.552
 6272.00    3.11652   3.14856   17.796
 6273.00    3.06123   3.14869   18.208
 6274.00    3.03766   3.13462   18.581
 6275.00    3.01500   3.10861   18.751
 6276.00    2.97924   3.07722   18.723
 6277.00    2.93212   3.04661   18.482
 6278.00    2.88484   3.02082   18.162
 6279.00    2.82345   3.00436   17.873
 6280.00    2.80547   3.00314   17.642
 6281.00    2.87131   3.02173   17.481
 6282.00    2.97919   3.05787   17.328
 6283.00    3.07686   3.10181   17.196
 6284.00    3.14861   3.14269   17.140
 6285.00    3.21656   3.17595   17.201
 6286.00    3.26835   3.20218   17.337
 6287.00    3.30015   3.22127   17.473
 6288.00    3.34170   3.22854   17.532
 6289.00    3.35339   3.21954   -1.000
 6290.00    3.33328   3.19718   -1.000
 6291.00    3.29831   3.17173   -1.000
 6292.00    3.27576   3.15273   -1.000
 6293.00    3.28600   3.14122   -1.000
 6294.00    3.29945   3.12980   -1.000
 6295.00    3.26728   3.11189   -1.000
 6296.00    3.24303   3.08933   -1.000
 6297.00    3.22686   3.07169   -1.000
 6298.00    3.21159   3.06482   -1.000
 6299.00    3.21119   3.06387   -1.000
 6300.00    3.20757   3.06108   -1.000
 6301.00    3.18004   3.05774   17.437
 6302.00    3.15690   3.06311   17.274
 6303.00    3.17106   3.08327   17.121
 6304.00    3.21291   3.11493   17.060
 6305.00    3.26008   3.15165   17.113
 6306.00    3.30204   3.18771   17.222
 6307.00    3.36189   3.21749   -1.000
 6308.00    3.39052   3.23361   -1.000
 6309.00    3.37070   3.23191   -1.000
 6310.00    3.33649   3.21600   -1.000
 6311.00    3.30522   3.19472   17.618
 6312.00    3.29351   3.17347   -1.000
 6313.00    3.27613   3.15192   -1.000
 6314.00    3.24532   3.12825   17.617
 6315.00    3.22248   3.10334   -1.000
 6316.00    3.22484   3.08186   -1.000
 6317.00    3.21941   3.06985   -1.000
 6318.00    3.22699   3.07398   -1.000
 6319.00    3.25377   3.09752   -1.000
 6320.00    3.30600   3.13469   -1.000
 6321.00    3.34968   3.17327   -1.000
 6322.00    3.38014   3.20626   -1.000
 6323.00    3.39568   3.23402   -1.000
 6324.00    3.40547   3.25691   -1.000
 6325.00    3.43243   3.27301   -1.000
 6326.00    3.44274   3.28158   -1.000
 6327.00    3.43683   3.28540   -1.000
 6328.00    3.43745   3.28788   -1.000
 6329.00    3.45124   3.29078   -1.000
 6330.00    3.46068   3.29496   -1.000
 6331.00    3.46492   3.29871   -1.000
 6332.00    3.48935   3.29455   -1.000
 6333.00    3.47973   3.27261   -1.000
 6334.00    3.42362   3.23301   -1.000
 6335.00    3.35362   3.19134   -1.000
 6336.00    3.33044   3.16808   -1.000
 6337.00    3.37472   3.17336   -1.000
 6338.00    3.42228   3.20029   -1.000
 6339.00    3.44258   3.23297   -1.000
 6340.00    3.44649   3.25587   -1.000
 6341.00    3.44287   3.25938   -1.000
 6342.00    3.41931   3.24462   -1.000
 6343.00    3.40474   3.22520   -1.000
 6344.00    3.40039   3.21815   -1.000
 6345.00    3.40590   3.23196   -1.000
 6346.00    3.42931   3.26192   -1.000
 6347.00    3.46979   3.29635   -1.000
 6348.00    3.51154   3.32639   -1.000
 6349.00    3.52614   3.34725   -1.000
 6350.00    3.53372   3.35646   -1.000
 6351.00    3.53570   3.35224   -1.000
 6352.00    3.51365   3.33407   -1.000
 6353.00    3.46843   3.30527   -1.000
 6354.00    3.42137   3.27335   -1.000
 6355.00    3.39239   3.24471   -1.000
 6356.00    3.38867   3.21872   -1.000
 6357.00    3.36534   3.18977   -1.000
 6358.00    3.31494   3.15616   -1.000
 6359.00    3.28123   3.12328   -1.000
 6360.00    3.28025   3.09815   -1.000
 6361.00    3.28397   3.08560   -1.000
 6362.00    3.28391   3.08927   -1.000
 6363.00    3.31503   3.11138   -1.000
 6364.00    3.36440   3.14945   -1.000
 6365.00    3.41576   3.19626   -1.000
 6366.00    3.45464   3.24344   -1.000
 6367.00    3.48224   3.28425   -1.000
 6368.00    3.52112   3.31422   -1.000
 6369.00    3.54197   3.33317   -1.000
 6370.00    3.54352   3.34663   -1.000
 6371.00    3.55196   3.36126   -1.000
 6372.00    3.56628   3.37776   -1.000
 6373.00    3.56638   3.39131   -1.000
 6374.00    3.55385   3.39701   -1.000
 6375.00    3.55313   3.39402   -1.000
 6376.00    3.55904   3.38343   -1.000
 6377.00    3.54880   3.36667   -1.000
 6378.00    3.52057   3.34778   -1.000
 6379.00    3.51297   3.33340   -1.000
 6380.00    3.51147   3.32786   -1.000
 6381.00    3.49628   3.33064   -1.000
 6382.00    3.48893   3.33800   -1.000
 6383.00    3.49617   3.34630   -1.000
 6384.00    3.49477   3.35493   -1.000
 6385.00    3.49979   3.36522   -1.000
 6386.00    3.51848   3.37687   -1.000
 6387.00    3.52985   3.38653   -1.000
 6388.00    3.52150   3.38977   -1.000
 6389.00    3.50515   3.38235   -1.000
 6390.00    3.47686   3.36002   -1.000
 6391.00    3.42692   3.32320   17.645
 6392.00    3.36343   3.28379   17.557
 6393.00    3.30087   3.26203   17.642
 6394.00    3.29064   3.27097   17.878
 6395.00    3.33563   3.30276   18.263
 6396.00    3.38130   3.33108   18.466
 6397.00    3.38631   3.33227   18.339
 6398.00    3.33372   3.30425   18.060
 6399.00    3.25630   3.27000   17.925
 6400.00    3.22385   3.26046   17.949
 6401.00    3.25569   3.28916   18.040
 6402.00    3.29893   3.34127   18.267
 6403.00    3.32686   3.38718   18.551
 6404.00    3.33818   3.40676   18.761
 6405.00    3.32089   3.39761   18.864
 6406.00    3.27092   3.37189   18.956
 6407.00    3.20149   3.34695   19.099
 6408.00    3.15720   3.33378   19.217
 6409.00    3.15144   3.33034   19.260
 6410.00    3.14152   3.32801   19.278
 6411.00    3.09918   3.32362   -1.000
 6412.00    3.08664   3.32246   -1.000
 6413.00    3.09659   3.33024   -1.000
 6414.00    3.06896   3.34565   -1.000
 6415.00    3.06129   3.36087   -1.000
 6416.00    3.07385   3.36701   -1.000
 6417.00    3.04786   3.35694   -1.000
 6418.00    2.99778   3.33092   -1.000
 6419.00    2.92954   3.30041   -1.000
 6420.00    2.85725   3.28373   -1.000
 6421.00    2.84386   3.29421   -1.000
 6422.00    2.88078   3.32974   -1.000
 6423.00    2.90349   3.37438   -1.000
 6424.00    2.89114   3.41206   -1.000
 6425.00    2.87749   3.43653   -1.000
 6426.00    2.86029   3.44608   -1.000
 6427.00    0.79176   3.43695   -1.000
 6428.00    0.00000   3.40637   -2.000
