###################################################################
## OUTPUT of StarlightChains_v04.for    [Cid@UFSC - 01/Apr/2007] ##
###################################################################

## Some input info
NGC6528_b_1.cxt                          [arq_obs]
Base.BC03.N                              [arq_base]
NGC6528_b_1.msk                          [arq_masks]
StCv04.C11.config                        [arq_config]
   45                                    [N_base]
    0                                    [N_YAV_components = # of components with extra extinction!]
    0                                    [i_FitPowerLaw (1/0 = Yes/No)]
-9.99                                    [alpha_PowerLaw]
CCM                                      [red_law_option]
 1.458241                                [q_norm = A(l_norm)/A(V)]

## (Re)Sampling Parameters
 3359.00                                 [l_ini (A)]
 6428.00                                 [l_fin (A)]
    1.00                                 [dl    (A)]     (OBS: dl_cushion =    50.00 A)

## Normalization info
 4020.00                                 [l_norm (A) - for base]
 4010.00                                 [llow_norm (A) - window for f_obs]
 4060.00                                 [lupp_norm (A) - window for f_obs]
2.920007E-15                             [fobs_norm (in input units)]

## S/N
 4730.00                                 [llow_SN (A) - window for S/N]
 4780.00                                 [lupp_SN (A) - window for S/N]
  27.543                                 [S/N in S/N window]
  15.038                                 [S/N in norm. window]
 201.971                                 [S/N_err in S/N window]
 110.275                                 [S/N_err in norm. window]
  1.0000                                 [fscale_chi2]

## etc...
  2147483604                             [idum_orig]
  3069                                   [NOl_eff]
   798                                   [Nl_eff]
  2271    NSIGMA                         [Ntot_cliped & clip_method]
  1294440                                [Nglobal_steps]
   7                                     [N_chains]
  15                                     [NEX0s_base = N_base in EX0s-fits]
 0   0   1      129   2.0   2.622E+02    [Clip-Bug, RC-Crash & Burn-In warning-flags, n_censored_weights, wei_nsig_threshold & wei_limit]
    12     12.013     12.009      0.004  [idt_all, wdt_TotTime, wdt_UsrTime & wdt_SysTime (sec)]

## Synthesis Results - Best model ##

 2.43931E+00                             [chi2/Nl_eff]
     1.72362                             [adev (%)]

    96.33741                             [sum-of-x (%)]
 2.31961E-14                             [Flux_tot (units of input spectrum!)]
 1.66277E-09                             [Mini_tot (???)]
 8.40679E-10                             [Mcor_tot (???)]

 -32.06                                  [v0_min  (km/s)]
  83.00                                  [vd_min  (km/s)]
 1.5708                                  [AV_min  (mag)]
 0.0000                                  [YAV_min (mag)]

# j     x_j(%)      Mini_j(%)     Mcor_j(%)     age_j(yr)     Z_j      (L/M)_j    YAV?  Mstars   component_j        a/Fe...       SSP_chi2r SSP_adev(%)   SSP_AV   SSP_x(%)
  1      0.0000     0.0000E+00    0.0000E+00    1.000000E+06  0.00400  1.114E-02    0   1.0000   age020_m42            0.0000     6.8482E+03    60.9655   4.0000   119.1828
  2      5.4557     1.9397E-03    3.8361E-03    3.160000E+06  0.00400  4.073E-02    0   0.9999   age045_m42            0.0000     1.6518E+03    30.3907   4.0000   116.1715
  3      0.9312     5.3213E-04    9.9860E-04    5.010000E+06  0.00400  2.534E-02    0   0.9488   age055_m42            0.0000     3.2640E+03    44.0687   4.0000   119.3702
  4      4.0782     4.6463E-03    8.1441E-03    1.000000E+07  0.00400  1.271E-02    0   0.8862   age070_m42            0.0000     6.6860E+02    22.0665   4.0000    99.5720
  5      2.4153     6.8985E-03    1.1153E-02    2.512000E+07  0.00400  5.070E-03    0   0.8174   age090_m42            0.0000     5.1486E+02    18.6884   4.0000    96.9198
  6      0.0000     0.0000E+00    0.0000E+00    4.000000E+07  0.00400  3.505E-03    0   0.7851   age104_m42            0.0000     3.7560E+02    14.3236   3.8652    93.9849
  7      0.0000     0.0000E+00    0.0000E+00    1.015200E+08  0.00400  2.268E-03    0   0.7207   age116_m42            0.0000     4.8631E+02    15.0412   4.0000    99.9460
  8      0.0000     0.0000E+00    0.0000E+00    2.861200E+08  0.00400  1.079E-03    0   0.6613   age125_m42            0.0000     4.6519E+02    14.8063   3.5551   100.1043
  9      0.0000     0.0000E+00    0.0000E+00    6.405400E+08  0.00400  5.077E-04    0   0.6197   age132_m42            0.0000     4.7753E+02    15.2016   3.1829   104.4268
 10      0.0000     0.0000E+00    0.0000E+00    9.047900E+08  0.00400  3.535E-04    0   0.6024   age135_m42            0.0000     3.7200E+02    13.0586   2.9394   103.8634
 11      0.0000     0.0000E+00    0.0000E+00    1.434000E+09  0.00400  1.910E-04    0   0.5716   age139_m42            0.0000     1.9839E+02     9.3924   2.4419   101.9615
 12      1.2155     1.7927E-01    1.9370E-01    2.500000E+09  0.00400  9.818E-05    0   0.5463   age150_m42            0.0000     9.2407E+01     5.8257   2.1664    97.6258
 13      4.7709     1.4643E+00    1.5142E+00    5.000000E+09  0.00400  4.718E-05    0   0.5228   age161_m42            0.0000     5.0472E+01     4.1556   1.9860    94.8651
 14      7.0279     4.6154E+00    4.5461E+00    1.100000E+10  0.00400  2.205E-05    0   0.4980   age185_m42            0.0000     2.4121E+01     3.5304   1.7517    92.2001
 15      5.4997     4.2294E+00    4.1215E+00    1.300000E+10  0.00400  1.883E-05    0   0.4927   age193_m42            0.0000     2.2705E+01     3.5419   1.7348    92.0473
 16      0.0000     0.0000E+00    0.0000E+00    1.000000E+06  0.02000  1.989E-02    0   1.0000   age020_m62            0.0000     6.5342E+03    59.6896   4.0000   119.7426
 17      0.0000     0.0000E+00    0.0000E+00    3.160000E+06  0.02000  3.772E-02    0   0.9858   age045_m62            0.0000     5.5404E+03    56.2705   4.0000   120.8359
 18      1.6686     7.4878E-04    1.3835E-03    5.010000E+06  0.02000  3.227E-02    0   0.9342   age055_m62            0.0000     2.6028E+03    39.2767   4.0000   119.7104
 19      1.2347     1.7685E-03    3.0611E-03    1.000000E+07  0.02000  1.011E-02    0   0.8751   age070_m62            0.0000     8.5133E+02    25.2703   4.0000    95.2016
 20      0.0000     0.0000E+00    0.0000E+00    2.512000E+07  0.02000  4.206E-03    0   0.8099   age090_m62            0.0000     6.6622E+02    22.6142   4.0000    94.6161
 21      0.0000     0.0000E+00    0.0000E+00    4.000000E+07  0.02000  3.373E-03    0   0.7799   age104_m62            0.0000     4.2778E+02    15.3980   4.0000    98.4786
 22      0.0000     0.0000E+00    0.0000E+00    1.015200E+08  0.02000  1.878E-03    0   0.7221   age116_m62            0.0000     4.7089E+02    14.2852   4.0000   100.9570
 23      0.0000     0.0000E+00    0.0000E+00    2.861200E+08  0.02000  8.869E-04    0   0.6700   age125_m62            0.0000     5.9025E+02    17.2525   3.5825   104.6844
 24      0.0000     0.0000E+00    0.0000E+00    6.405400E+08  0.02000  3.657E-04    0   0.6322   age132_m62            0.0000     4.0295E+02    13.7984   2.9549   106.2985
 25      0.0000     0.0000E+00    0.0000E+00    9.047900E+08  0.02000  2.312E-04    0   0.6152   age135_m62            0.0000     2.6254E+02    10.8571   2.5808   105.4694
 26      0.0000     0.0000E+00    0.0000E+00    1.434000E+09  0.02000  1.168E-04    0   0.5865   age139_m62            0.0000     9.8326E+01     6.3598   2.1523   100.5722
 27      0.0000     0.0000E+00    0.0000E+00    2.500000E+09  0.02000  5.505E-05    0   0.5610   age150_m62            0.0000     3.7780E+01     4.5651   1.7969    97.7034
 28      0.0000     0.0000E+00    0.0000E+00    5.000000E+09  0.02000  2.596E-05    0   0.5353   age161_m62            0.0000     3.8256E+01     5.6770   1.5086    96.6714
 29     21.0122     2.6028E+01    2.6271E+01    1.100000E+10  0.02000  1.169E-05    0   0.5103   age185_m62            0.0000     8.8525E+01     8.3243   1.1958    96.6815
 30     36.0420     5.3855E+01    5.3760E+01    1.300000E+10  0.02000  9.691E-06    0   0.5047   age193_m62            0.0000     1.0106E+02     8.7768   1.1569    96.6877
 31      0.0000     0.0000E+00    0.0000E+00    1.000000E+06  0.05000  2.651E-02    0   0.9998   age020_m72            0.0000     6.5567E+03    59.4826   4.0000   121.2594
 32      0.9611     2.8893E-04    5.4730E-04    3.160000E+06  0.05000  4.817E-02    0   0.9577   age045_m72            0.0000     4.6155E+03    51.2965   4.0000   123.0356
 33      0.0000     0.0000E+00    0.0000E+00    5.010000E+06  0.05000  3.101E-02    0   0.9147   age055_m72            0.0000     2.5960E+03    41.0228   4.0000   117.7563
 34      0.0000     0.0000E+00    0.0000E+00    1.000000E+07  0.05000  8.954E-03    0   0.8524   age070_m72            0.0000     3.7646E+03    47.2918   4.0000   122.1281
 35      0.0000     0.0000E+00    0.0000E+00    2.512000E+07  0.05000  4.207E-03    0   0.7902   age090_m72            0.0000     1.7898E+03    33.1781   4.0000   117.8168
 36      0.0000     0.0000E+00    0.0000E+00    4.000000E+07  0.05000  3.198E-03    0   0.7618   age104_m72            0.0000     6.8681E+02    16.9564   4.0000   110.8414
 37      0.0000     0.0000E+00    0.0000E+00    1.015200E+08  0.05000  1.716E-03    0   0.7092   age116_m72            0.0000     5.3013E+02    15.0461   4.0000   104.9695
 38      0.0000     0.0000E+00    0.0000E+00    2.861200E+08  0.05000  7.047E-04    0   0.6618   age125_m72            0.0000     5.3595E+02    16.3701   3.4190   104.1302
 39      0.0000     0.0000E+00    0.0000E+00    6.405400E+08  0.05000  2.633E-04    0   0.6253   age132_m72            0.0000     2.9413E+02    11.7110   2.6127   104.9300
 40      0.0000     0.0000E+00    0.0000E+00    9.047900E+08  0.05000  1.484E-04    0   0.6088   age135_m72            0.0000     1.2489E+02     7.7216   2.1368   100.1368
 41      0.0000     0.0000E+00    0.0000E+00    1.434000E+09  0.05000  7.827E-05    0   0.5847   age139_m72            0.0000     5.5362E+01     5.9348   1.7681    96.6077
 42      0.5776     2.2250E-01    2.4570E-01    2.500000E+09  0.05000  3.759E-05    0   0.5583   age150_m72            0.0000     4.9153E+01     6.4139   1.4566    95.8152
 43      0.0000     0.0000E+00    0.0000E+00    5.000000E+09  0.05000  1.548E-05    0   0.5320   age161_m72            0.0000     1.1814E+02     8.8419   1.0948    94.1463
 44      0.0000     0.0000E+00    0.0000E+00    1.100000E+10  0.05000  6.532E-06    0   0.5070   age185_m72            0.0000     2.5088E+02    12.3925   0.8076    91.5192
 45      3.4468     9.3889E+00    9.3186E+00    1.300000E+10  0.05000  5.316E-06    0   0.5018   age193_m72            0.0000     3.1359E+02    13.7999   0.7275    90.5708


## Synthesis Results - Average & Chains ##

# j      x_j: min, <> & last-chain-values for 1 ...  7 chains
  1      0.0000      0.1085      0.1156      0.0673      0.1565      0.0000      0.1500      0.0504      0.0872
  2      5.4557      4.8296      4.9883      4.9187      4.9730      4.9179      4.9437      5.0587      4.8200
  3      0.9312      0.8371      0.8197      0.9416      0.8715      0.8462      0.8232      0.7955      0.8877
  4      4.0782      3.6890      3.7456      3.7826      3.7394      3.6655      3.7207      3.6457      3.7723
  5      2.4153      2.1415      2.2973      2.1604      2.0916      2.0862      2.2067      2.0720      2.0723
  6      0.0000      0.0341      0.0000      0.0000      0.0000      0.0000      0.0000      0.0000      0.0231
  7      0.0000      0.0150      0.0496      0.0000      0.0000      0.0000      0.0563      0.0000      0.0000
  8      0.0000      0.0158      0.0000      0.0000      0.0000      0.0000      0.0000      0.0070      0.0000
  9      0.0000      0.4981      0.5995      0.6530      0.6045      0.5179      0.5087      0.4726      0.6500
 10      0.0000      0.0452      0.0408      0.0000      0.0000      0.0000      0.0000      0.0052      0.0146
 11      0.0000      0.0469      0.0000      0.0000      0.0000      0.1400      0.0191      0.0000      0.0000
 12      1.2155      0.7590      0.8175      0.9440      0.8926      0.6653      0.8948      0.8346      0.6956
 13      4.7709      4.3315      4.3895      4.5522      3.6884      4.2106      4.4313      4.3625      4.0782
 14      7.0279      5.8844      6.1297      5.9343      5.9038      6.3017      5.8492      5.9385      5.9991
 15      5.4997      6.7869      6.6283      6.6677      6.8561      6.7217      6.8524      6.7740      6.7421
 16      0.0000      0.4345      0.3682      0.3334      0.3990      0.4237      0.4953      0.4876      0.4169
 17      0.0000      0.0081      0.0000      0.0000      0.0030      0.0000      0.0000      0.0000      0.0061
 18      1.6686      1.4165      1.4818      1.3748      1.5490      1.4467      1.4114      1.4156      1.6160
 19      1.2347      1.3353      1.2298      1.3170      1.2270      1.3750      1.2145      1.3880      1.3563
 20      0.0000      0.0136      0.0000      0.0000      0.0000      0.0000      0.0000      0.0000      0.0000
 21      0.0000      0.0174      0.0000      0.0000      0.0060      0.0000      0.0758      0.0966      0.0000
 22      0.0000      0.0200      0.0000      0.0000      0.1088      0.0000      0.2228      0.0000      0.0000
 23      0.0000      0.0156      0.0000      0.0178      0.0090      0.0000      0.0000      0.0000      0.0331
 24      0.0000      0.0136      0.0000      0.0000      0.0113      0.0915      0.0000      0.0011      0.0000
 25      0.0000      0.0330      0.0000      0.0000      0.2461      0.0000      0.0000      0.0288      0.0005
 26      0.0000      0.0359      0.0000      0.0000      0.0000      0.0000      0.0000      0.0000      0.0791
 27      0.0000      0.1964      0.0000      0.0000      0.2153      0.1907      0.0000      0.4079      0.2237
 28      0.0000      0.5090      0.4803      0.1713      0.8918      0.4305      0.3109      0.3492      1.5636
 29     21.0122     20.9509     20.9185     21.0009     21.0368     20.6959     21.0944     21.0748     21.0358
 30     36.0420     35.5966     35.8932     35.5043     35.7265     35.5247     36.0086     35.4829     34.9031
 31      0.0000      0.0123      0.0000      0.0000      0.0000      0.2076      0.0000      0.0000      0.0000
 32      0.9611      1.2314      1.2579      1.2502      1.2730      1.1434      1.1827      1.1824      1.1567
 33      0.0000      0.0203      0.0043      0.1446      0.0000      0.0000      0.0000      0.0000      0.0188
 34      0.0000      0.0172      0.0000      0.0000      0.0000      0.0000      0.0000      0.0000      0.0000
 35      0.0000      0.0124      0.0000      0.0011      0.0000      0.0000      0.0000      0.0000      0.0000
 36      0.0000      0.0139      0.0000      0.0000      0.0000      0.0256      0.0000      0.0363      0.0000
 37      0.0000      0.0146      0.0000      0.0000      0.0000      0.0000      0.0000      0.0001      0.0000
 38      0.0000      0.0095      0.0000      0.0000      0.0000      0.0518      0.0000      0.0000      0.0000
 39      0.0000      0.0258      0.0509      0.0000      0.0124      0.0000      0.0000      0.0000      0.0000
 40      0.0000      0.0518      0.0000      0.0000      0.0000      0.0193      0.0012      0.0000      0.0000
 41      0.0000      0.1159      0.0380      0.0000      0.0000      0.4908      0.0000      0.3542      0.0000
 42      0.5776      0.2860      0.3591      0.8260      0.0116      0.4016      0.0000      0.2558      0.1268
 43      0.0000      0.2001      0.0000      0.1603      0.1705      0.1760      0.0759      0.1743      0.3019
 44      0.0000      0.0515      0.0000      0.0430      0.0000      0.0000      0.1653      0.0037      0.0000
 45      3.4468      3.6761      3.6751      3.5856      3.7106      3.5692      3.6282      3.5735      3.6410

# j      m_j: min, <> & last-chain-values for 1 ...  7 chains
  1  0.0000E+00  2.7748E-04  2.9552E-04  1.7280E-04  3.9936E-04  0.0000E+00  3.8157E-04  1.2954E-04  2.2422E-04
  2  3.8361E-03  3.3788E-03  3.4870E-03  3.4551E-03  3.4714E-03  3.4615E-03  3.4403E-03  3.5530E-03  3.3908E-03
  3  9.9860E-04  8.9323E-04  8.7399E-04  1.0088E-03  9.2786E-04  9.0842E-04  8.7373E-04  8.5219E-04  9.5246E-04
  4  8.1441E-03  7.3300E-03  7.4365E-03  7.5465E-03  7.4138E-03  7.3276E-03  7.3538E-03  7.2724E-03  7.5373E-03
  5  1.1153E-02  9.8390E-03  1.0546E-02  9.9662E-03  9.5887E-03  9.6434E-03  1.0085E-02  9.5573E-03  9.5740E-03
  6  0.0000E+00  2.1791E-04  0.0000E+00  0.0000E+00  0.0000E+00  0.0000E+00  0.0000E+00  0.0000E+00  1.4857E-04
  7  0.0000E+00  1.3613E-04  4.4873E-04  0.0000E+00  0.0000E+00  0.0000E+00  5.0714E-04  0.0000E+00  0.0000E+00
  8  0.0000E+00  2.7654E-04  0.0000E+00  0.0000E+00  0.0000E+00  0.0000E+00  0.0000E+00  1.2277E-04  0.0000E+00
  9  0.0000E+00  1.7327E-02  2.0835E-02  2.2807E-02  2.0982E-02  1.8125E-02  1.7602E-02  1.6505E-02  2.2736E-02
 10  0.0000E+00  2.1965E-03  1.9818E-03  0.0000E+00  0.0000E+00  0.0000E+00  0.0000E+00  2.5175E-04  7.1325E-04
 11  0.0000E+00  3.9998E-03  0.0000E+00  0.0000E+00  0.0000E+00  1.2015E-02  1.6236E-03  0.0000E+00  0.0000E+00
 12  1.9370E-01  1.2035E-01  1.2953E-01  1.5030E-01  1.4123E-01  1.0614E-01  1.4113E-01  1.3286E-01  1.1091E-01
 13  1.5142E+00  1.3678E+00  1.3850E+00  1.4433E+00  1.1622E+00  1.3377E+00  1.3919E+00  1.3830E+00  1.2950E+00
 14  4.5461E+00  3.7874E+00  3.9421E+00  3.8350E+00  3.7914E+00  4.0806E+00  3.7448E+00  3.8372E+00  3.8826E+00
 15  4.1215E+00  5.0608E+00  4.9385E+00  4.9921E+00  5.1011E+00  5.0426E+00  5.0825E+00  5.0710E+00  5.0553E+00
 16  0.0000E+00  6.2254E-04  5.2711E-04  4.7960E-04  5.7041E-04  6.1078E-04  7.0592E-04  7.0135E-04  6.0064E-04
 17  0.0000E+00  6.0551E-06  0.0000E+00  0.0000E+00  2.2088E-06  0.0000E+00  0.0000E+00  0.0000E+00  4.5361E-06
 18  1.3835E-03  1.1687E-03  1.2215E-03  1.1388E-03  1.2751E-03  1.2008E-03  1.1582E-03  1.1724E-03  1.3406E-03
 19  3.0611E-03  3.2939E-03  3.0311E-03  3.2619E-03  3.0200E-03  3.4125E-03  2.9798E-03  3.4373E-03  3.3642E-03
 20  0.0000E+00  7.4634E-05  0.0000E+00  0.0000E+00  0.0000E+00  0.0000E+00  0.0000E+00  0.0000E+00  0.0000E+00
 21  0.0000E+00  1.1440E-04  0.0000E+00  0.0000E+00  3.9766E-05  0.0000E+00  4.9702E-04  6.3893E-04  0.0000E+00
 22  0.0000E+00  2.1954E-04  0.0000E+00  0.0000E+00  1.1890E-03  0.0000E+00  2.4282E-03  0.0000E+00  0.0000E+00
 23  0.0000E+00  3.3542E-04  0.0000E+00  3.8559E-04  1.9320E-04  0.0000E+00  0.0000E+00  0.0000E+00  7.1728E-04
 24  0.0000E+00  6.7074E-04  0.0000E+00  0.0000E+00  5.5412E-04  4.5367E-03  0.0000E+00  5.3386E-05  0.0000E+00
 25  0.0000E+00  2.5038E-03  0.0000E+00  0.0000E+00  1.8620E-02  0.0000E+00  0.0000E+00  2.1920E-03  3.9029E-05
 26  0.0000E+00  5.1338E-03  0.0000E+00  0.0000E+00  0.0000E+00  0.0000E+00  0.0000E+00  0.0000E+00  1.1375E-02
 27  0.0000E+00  5.7026E-02  0.0000E+00  0.0000E+00  6.2398E-02  5.5706E-02  0.0000E+00  1.1892E-01  6.5322E-02
 28  0.0000E+00  2.9909E-01  2.8202E-01  1.0109E-01  5.2287E-01  2.5453E-01  1.8172E-01  2.0604E-01  9.2393E-01
 29  2.6271E+01  2.6063E+01  2.6002E+01  2.6231E+01  2.6112E+01  2.5903E+01  2.6103E+01  2.6320E+01  2.6314E+01
 30  5.3760E+01  5.2831E+01  5.3228E+01  5.2907E+01  5.2906E+01  5.3045E+01  5.3159E+01  5.2869E+01  5.2089E+01
 31  0.0000E+00  1.3273E-05  0.0000E+00  0.0000E+00  0.0000E+00  2.2453E-04  0.0000E+00  0.0000E+00  0.0000E+00
 32  5.4730E-04  6.9767E-04  7.1215E-04  7.1121E-04  7.1964E-04  6.5179E-04  6.6654E-04  6.7258E-04  6.5899E-04
 33  0.0000E+00  1.7103E-05  3.5856E-06  1.2201E-04  0.0000E+00  0.0000E+00  0.0000E+00  0.0000E+00  1.5884E-05
 34  0.0000E+00  4.6667E-05  0.0000E+00  0.0000E+00  0.0000E+00  0.0000E+00  0.0000E+00  0.0000E+00  0.0000E+00
 35  0.0000E+00  6.6108E-05  0.0000E+00  6.0862E-06  0.0000E+00  0.0000E+00  0.0000E+00  0.0000E+00  0.0000E+00
 36  0.0000E+00  9.4234E-05  0.0000E+00  0.0000E+00  0.0000E+00  1.7468E-04  0.0000E+00  2.4759E-04  0.0000E+00
 37  0.0000E+00  1.7226E-04  0.0000E+00  0.0000E+00  0.0000E+00  0.0000E+00  0.0000E+00  1.4984E-06  0.0000E+00
 38  0.0000E+00  2.5554E-04  0.0000E+00  0.0000E+00  0.0000E+00  1.3946E-03  0.0000E+00  0.0000E+00  0.0000E+00
 39  0.0000E+00  1.7438E-03  3.4398E-03  0.0000E+00  8.4002E-04  0.0000E+00  0.0000E+00  0.0000E+00  0.0000E+00
 40  0.0000E+00  6.0542E-03  0.0000E+00  0.0000E+00  0.0000E+00  2.2659E-03  1.3487E-04  0.0000E+00  0.0000E+00
 41  0.0000E+00  2.4672E-02  8.0783E-03  0.0000E+00  0.0000E+00  1.0512E-01  0.0000E+00  7.5697E-02  0.0000E+00
 42  2.4570E-01  1.2105E-01  1.5185E-01  3.5103E-01  4.8821E-03  1.7101E-01  0.0000E+00  1.0868E-01  5.3976E-02
 43  0.0000E+00  1.9594E-01  0.0000E+00  1.5761E-01  1.6663E-01  1.7340E-01  7.3920E-02  1.7135E-01  2.9727E-01
 44  0.0000E+00  1.1395E-01  0.0000E+00  9.5499E-02  0.0000E+00  0.0000E+00  3.6379E-01  8.1592E-03  0.0000E+00
 45  9.3186E+00  9.8890E+00  9.8783E+00  9.6844E+00  9.9597E+00  9.6597E+00  9.7082E+00  9.6507E+00  9.8488E+00

# AV, chi2 & Mass for <> & i_chain = 1 ...  7 solutions
AV       1.5708      1.5658      1.5675      1.5691      1.5673      1.5693      1.5670      1.5677      1.5688
chi2 2.4393E+00  2.4724E+00  2.4613E+00  2.4609E+00  2.4659E+00  2.4677E+00  2.4685E+00  2.4651E+00  2.4606E+00
Mass 8.4068E-10  8.3931E-10  8.4181E-10  8.3959E-10  8.4280E-10  8.3811E-10  8.4506E-10  8.3812E-10  8.3800E-10
 -32.06                                  [v0_min (km/s) before EX0s...]
  83.00                                  [vd_min (km/s) before EX0s...]


## Synthetic spectrum (Best Model) ##l_obs f_obs f_syn wei
 3070    [Nl_obs]
 3359.00    0.23337   0.34342   -1.000
 3360.00    0.21837   0.33043   -1.000
 3361.00    0.24356   0.34042   -1.000
 3362.00    0.23956   0.36726   -1.000
 3363.00    0.23084   0.39570   -1.000
 3364.00    0.25042   0.41075   -1.000
 3365.00    0.27942   0.40611   -1.000
 3366.00    0.28410   0.38722   -1.000
 3367.00    0.27359   0.36534   -1.000
 3368.00    0.28991   0.34843   -1.000
 3369.00    0.28567   0.33943   -1.000
 3370.00    0.25771   0.33635   -1.000
 3371.00    0.25819   0.33851   -1.000
 3372.00    0.23897   0.34890   -1.000
 3373.00    0.24753   0.36922   -1.000
 3374.00    0.29404   0.39565   -1.000
 3375.00    0.29805   0.41909   -1.000
 3376.00    0.32900   0.42831   -1.000
 3377.00    0.31456   0.41883   -1.000
 3378.00    0.30032   0.39845   -1.000
 3379.00    0.29737   0.38098   -1.000
 3380.00    0.29424   0.37645   -1.000
 3381.00    0.30490   0.38564   -1.000
 3382.00    0.28439   0.40074   -1.000
 3383.00    0.27996   0.41485   -1.000
 3384.00    0.30399   0.42552   -1.000
 3385.00    0.31186   0.43254   -1.000
 3386.00    0.31179   0.43486   -1.000
 3387.00    0.30967   0.43372   -1.000
 3388.00    0.32856   0.43126   -1.000
 3389.00    0.35873   0.42703   -1.000
 3390.00    0.35335   0.41802   -1.000
 3391.00    0.34900   0.40513   -1.000
 3392.00    0.33566   0.39614   -1.000
 3393.00    0.31376   0.39851   -1.000
 3394.00    0.33522   0.41271   -1.000
 3395.00    0.33797   0.43249   -1.000
 3396.00    0.36227   0.45092   32.113
 3397.00    0.38269   0.46584   30.910
 3398.00    0.39716   0.47507   30.522
 3399.00    0.41046   0.47684   30.823
 3400.00    0.39901   0.47158   32.194
 3401.00    0.38993   0.46082   32.508
 3402.00    0.37780   0.44778   33.086
 3403.00    0.38746   0.43653   33.690
 3404.00    0.38664   0.42778   34.232
 3405.00    0.39997   0.42010   34.386
 3406.00    0.38835   0.41332   34.944
 3407.00    0.41083   0.40994   35.120
 3408.00    0.39318   0.41229   34.878
 3409.00    0.39011   0.41855   33.813
 3410.00    0.39481   0.42211   33.594
 3411.00    0.39772   0.41609   35.081
 3412.00    0.40469   0.40195   35.693
 3413.00    0.39231   0.38845   35.582
 3414.00    0.38724   0.38496   34.664
 3415.00    0.41341   0.39513   33.156
 3416.00    0.38986   0.41463   31.580
 3417.00    0.37944   0.43715   30.012
 3418.00    0.39227   0.45692   29.915
 3419.00    0.43447   0.46961   29.714
 3420.00    0.43502   0.47063   29.921
 3421.00    0.41261   0.46028   30.812
 3422.00    0.42448   0.44611   31.465
 3423.00    0.43906   0.43747   30.534
 3424.00    0.43753   0.43594   29.747
 3425.00    0.42272   0.43920   30.307
 3426.00    0.40628   0.44619   -1.000
 3427.00    0.43439   0.45828   -1.000
 3428.00    0.46855   0.47404  262.234
 3429.00    0.45652   0.48398   -1.000
 3430.00    0.46242   0.47906   -1.000
 3431.00    0.42555   0.46286   29.721
 3432.00    0.43743   0.44689   30.337
 3433.00    0.43546   0.44137  262.234
 3434.00    0.41541   0.44490   -1.000
 3435.00    0.39752   0.44753   29.554
 3436.00    0.41353   0.44162   30.969
 3437.00    0.42415   0.42462   32.863
 3438.00    0.41542   0.39831   35.454
 3439.00    0.39753   0.36832   36.818
 3440.00    0.36676   0.34336   36.855
 3441.00    0.35230   0.33075   36.647
 3442.00    0.33824   0.33321   35.152
 3443.00    0.33681   0.34547   33.218
 3444.00    0.37316   0.36130   31.404
 3445.00    0.39330   0.37839   31.417
 3446.00    0.37939   0.39768   -1.000
 3447.00    0.40564   0.41911   -1.000
 3448.00    0.45490   0.43971   -1.000
 3449.00    0.47329   0.45196   -1.000
 3450.00    0.46086   0.45058   -1.000
 3451.00    0.45353   0.44013   -1.000
 3452.00    0.43094   0.43171  262.234
 3453.00    0.44459   0.43210   -1.000
 3454.00    0.46330   0.43850   -1.000
 3455.00    0.46176   0.44089   -1.000
 3456.00    0.42525   0.43284  205.321
 3457.00    0.43568   0.41617   29.618
 3458.00    0.43166   0.39790   29.995
 3459.00    0.42753   0.38530   31.076
 3460.00    0.43251   0.38187   -1.000
 3461.00    0.42596   0.39021   -1.000
 3462.00    0.41029   0.40697  262.234
 3463.00    0.42658   0.42165  262.234
 3464.00    0.45103   0.42628   -1.000
 3465.00    0.46883   0.42562   -1.000
 3466.00    0.45024   0.42808   -1.000
 3467.00    0.43358   0.43763  251.780
 3468.00    0.46198   0.45062   -1.000
 3469.00    0.47961   0.45935   -1.000
 3470.00    0.48296   0.45829   -1.000
 3471.00    0.46732   0.44524   -1.000
 3472.00    0.47113   0.42304   -1.000
 3473.00    0.43081   0.39770   29.906
 3474.00    0.42313   0.37731   30.942
 3475.00    0.41919   0.36939   31.862
 3476.00    0.42322   0.37780   -1.000
 3477.00    0.42374   0.39712   -1.000
 3478.00    0.41528   0.41781  253.713
 3479.00    0.45796   0.43186   -1.000
 3480.00    0.46999   0.43626   -1.000
 3481.00    0.46026   0.43195   -1.000
 3482.00    0.42696   0.42364  259.029
 3483.00    0.42789   0.41899  253.022
 3484.00    0.46979   0.42429   -1.000
 3485.00    0.47486   0.43805   -1.000
 3486.00    0.47944   0.44965   -1.000
 3487.00    0.46927   0.44807   -1.000
 3488.00    0.47499   0.43106   -1.000
 3489.00    0.47059   0.40868   -1.000
 3490.00    0.42385   0.39401   -1.000
 3491.00    0.41867   0.39327   -1.000
 3492.00    0.44282   0.40232   -1.000
 3493.00    0.45146   0.41163   -1.000
 3494.00    0.44149   0.41403   -1.000
 3495.00    0.42504   0.41011   -1.000
 3496.00    0.40460   0.40945  262.234
 3497.00    0.39744   0.42092   -1.000
 3498.00    0.40779   0.44273   -1.000
 3499.00    0.44503   0.46324   -1.000
 3500.00    0.48110   0.47562  230.794
 3501.00    0.48513   0.48400  229.708
 3502.00    0.50481   0.49039   -1.000
 3503.00    0.53826   0.49144   -1.000
 3504.00    0.52135   0.48522   -1.000
 3505.00    0.51833   0.47564   -1.000
 3506.00    0.52133   0.46853   -1.000
 3507.00    0.50649   0.46410   -1.000
 3508.00    0.49388   0.45752   -1.000
 3509.00    0.47540   0.44679   -1.000
 3510.00    0.46918   0.43427   -1.000
 3511.00    0.46737   0.42154   -1.000
 3512.00    0.48167   0.41004   -1.000
 3513.00    0.46451   0.40399   -1.000
 3514.00    0.44693   0.41107   -1.000
 3515.00    0.45019   0.43393   -1.000
 3516.00    0.44400   0.46313   -1.000
 3517.00    0.46759   0.48346   -1.000
 3518.00    0.49488   0.48549  251.325
 3519.00    0.49414   0.46976   -1.000
 3520.00    0.48424   0.44498   -1.000
 3521.00    0.45440   0.41951   -1.000
 3522.00    0.44244   0.39771   29.674
 3523.00    0.45054   0.37962   30.644
 3524.00    0.42311   0.36939   32.932
 3525.00    0.39017   0.37339   -1.000
 3526.00    0.38795   0.39317  262.234
 3527.00    0.40223   0.42250   -1.000
 3528.00    0.43608   0.45018   -1.000
 3529.00    0.46903   0.46577  251.189
 3530.00    0.49082   0.46826   -1.000
 3531.00    0.47284   0.46536  249.374
 3532.00    0.46897   0.46709  245.069
 3533.00    0.47055   0.47541  239.965
 3534.00    0.50124   0.48545   -1.000
 3535.00    0.51216   0.49189   -1.000
 3536.00    0.50876   0.49541   -1.000
 3537.00    0.49708   0.50037  232.546
 3538.00    0.52070   0.50577   -1.000
 3539.00    0.51607   0.50611  239.158
 3540.00    0.51336   0.50061   -1.000
 3541.00    0.51640   0.49562   -1.000
 3542.00    0.51629   0.49803   -1.000
 3543.00    0.51261   0.50591  235.472
 3544.00    0.50199   0.51168  240.030
 3545.00    0.49293   0.51098   -1.000
 3546.00    0.47369   0.50579   -1.000
 3547.00    0.47618   0.50177   -1.000
 3548.00    0.49770   0.50100  243.958
 3549.00    0.49344   0.50065  247.819
 3550.00    0.48490   0.49638  255.592
 3551.00    0.47224   0.48626   -1.000
 3552.00    0.46453   0.47336  262.234
 3553.00    0.44822   0.46418   -1.000
 3554.00    0.45960   0.46299  257.906
 3555.00    0.46028   0.46676  259.460
 3556.00    0.45718   0.46898  262.234
 3557.00    0.45625   0.46727  262.234
 3558.00    0.45128   0.46502   -1.000
 3559.00    0.44491   0.46826   -1.000
 3560.00    0.43029   0.47771   -1.000
 3561.00    0.45968   0.48603   -1.000
 3562.00    0.46843   0.48204  146.361
 3563.00    0.47374   0.45920   30.017
 3564.00    0.43438   0.42560   31.080
 3565.00    0.42616   0.39838   30.725
 3566.00    0.38522   0.38747   30.688
 3567.00    0.38723   0.38459   31.700
 3568.00    0.40525   0.37873   32.097
 3569.00    0.39629   0.37026   31.022
 3570.00    0.38459   0.36809   33.099
 3571.00    0.38110   0.37774  262.234
 3572.00    0.37819   0.39443   -1.000
 3573.00    0.42849   0.40927   -1.000
 3574.00    0.45195   0.41866   -1.000
 3575.00    0.43220   0.42123   -1.000
 3576.00    0.42690   0.41562  147.811
 3577.00    0.42522   0.40032   31.160
 3578.00    0.41214   0.37679   33.574
 3579.00    0.39704   0.35090   35.217
 3580.00    0.36424   0.33224   35.418
 3581.00    0.35172   0.32572   35.651
 3582.00    0.34751   0.32840   36.596
 3583.00    0.33608   0.33127   37.728
 3584.00    0.34914   0.32956   37.943
 3585.00    0.34654   0.32668   35.982
 3586.00    0.34473   0.32996   34.084
 3587.00    0.35854   0.34382   32.250
 3588.00    0.38055   0.36756   33.333
 3589.00    0.38544   0.39701  262.234
 3590.00    0.39268   0.42393   -1.000
 3591.00    0.41540   0.44153   -1.000
 3592.00    0.45554   0.44901  258.100
 3593.00    0.48016   0.45462   -1.000
 3594.00    0.46869   0.46624  237.651
 3595.00    0.45463   0.48422   -1.000
 3596.00    0.48504   0.50254   -1.000
 3597.00    0.48836   0.51676   -1.000
 3598.00    0.50329   0.52695   -1.000
 3599.00    0.52441   0.52988  237.311
 3600.00    0.52625   0.52010  250.445
 3601.00    0.52931   0.49768   -1.000
 3602.00    0.51302   0.47025   -1.000
 3603.00    0.49115   0.44708   -1.000
 3604.00    0.45710   0.43368   -1.000
 3605.00    0.43998   0.42707   -1.000
 3606.00    0.46152   0.41979   -1.000
 3607.00    0.44362   0.40858   -1.000
 3608.00    0.41608   0.39933   -1.000
 3609.00    0.41810   0.40157   -1.000
 3610.00    0.42550   0.41682  260.139
 3611.00    0.45633   0.43715   -1.000
 3612.00    0.49548   0.45446   -1.000
 3613.00    0.48514   0.46902   -1.000
 3614.00    0.47843   0.47947  244.436
 3615.00    0.48798   0.47816  262.234
 3616.00    0.49047   0.45782   -1.000
 3617.00    0.46930   0.42524   33.628
 3618.00    0.44062   0.40129   -1.000
 3619.00    0.42504   0.40415   -1.000
 3620.00    0.43374   0.43003  236.932
 3621.00    0.45381   0.46427  231.753
 3622.00    0.47684   0.49347   -1.000
 3623.00    0.50729   0.51680  219.346
 3624.00    0.52470   0.54050   -1.000
 3625.00    0.55448   0.56655  208.965
 3626.00    0.56106   0.58635   -1.000
 3627.00    0.58331   0.58749  229.239
 3628.00    0.57626   0.56184   -1.000
 3629.00    0.56207   0.51488   -1.000
 3630.00    0.51995   0.46606   -1.000
 3631.00    0.47042   0.43761   -1.000
 3632.00    0.44034   0.43492  257.730
 3633.00    0.44907   0.45035  251.248
 3634.00    0.44900   0.47036   -1.000
 3635.00    0.47224   0.48854   -1.000
 3636.00    0.51635   0.50614  220.061
 3637.00    0.53627   0.52725  213.805
 3638.00    0.56281   0.54918  214.509
 3639.00    0.56193   0.56400  220.298
 3640.00    0.58702   0.56512   -1.000
 3641.00    0.58043   0.55184   -1.000
 3642.00    0.54461   0.53040   -1.000
 3643.00    0.50458   0.50806  250.739
 3644.00    0.48808   0.48776  254.687
 3645.00    0.48634   0.46917   -1.000
 3646.00    0.47434   0.45284   -1.000
 3647.00    0.45979   0.44361   -1.000
 3648.00    0.46844   0.44836   -1.000
 3649.00    0.46627   0.46831  228.037
 3650.00    0.49480   0.49933  219.129
 3651.00    0.52636   0.53225  214.178
 3652.00    0.54084   0.55895   -1.000
 3653.00    0.56519   0.57523  210.635
 3654.00    0.57128   0.58573   -1.000
 3655.00    0.57662   0.59638   -1.000
 3656.00    0.60000   0.60971  202.884
 3657.00    0.61000   0.62271  203.131
 3658.00    0.60702   0.63052   -1.000
 3659.00    0.62398   0.63152  205.777
 3660.00    0.62336   0.62513  208.205
 3661.00    0.60522   0.61279  211.484
 3662.00    0.58906   0.59886  212.345
 3663.00    0.58264   0.58916  210.143
 3664.00    0.58612   0.58532  211.054
 3665.00    0.58433   0.58426  215.248
 3666.00    0.58919   0.58001  218.077
 3667.00    0.58705   0.57013   -1.000
 3668.00    0.58720   0.55996   -1.000
 3669.00    0.57577   0.55881   -1.000
 3670.00    0.56339   0.57048  208.284
 3671.00    0.57335   0.58758   -1.000
 3672.00    0.59478   0.60007  207.783
 3673.00    0.61276   0.60323  209.300
 3674.00    0.61190   0.59666   -1.000
 3675.00    0.61563   0.58108   -1.000
 3676.00    0.59656   0.55837   -1.000
 3677.00    0.56998   0.53314   -1.000
 3678.00    0.54536   0.51243   -1.000
 3679.00    0.51758   0.50376   -1.000
 3680.00    0.52802   0.50972   -1.000
 3681.00    0.54242   0.52480   -1.000
 3682.00    0.54676   0.53819  225.558
 3683.00    0.55291   0.54032   -1.000
 3684.00    0.53049   0.52651  243.634
 3685.00    0.51506   0.50255   -1.000
 3686.00    0.50939   0.48318   -1.000
 3687.00    0.50427   0.48373   -1.000
 3688.00    0.51349   0.50705  207.836
 3689.00    0.53636   0.54419  203.119
 3690.00    0.57889   0.57812  205.556
 3691.00    0.62280   0.59473   -1.000
 3692.00    0.61383   0.59155   -1.000
 3693.00    0.61172   0.57959   -1.000
 3694.00    0.60368   0.57068   -1.000
 3695.00    0.58363   0.57020  206.287
 3696.00    0.57839   0.58020  199.718
 3697.00    0.60522   0.59901  195.135
 3698.00    0.62411   0.62014  193.765
 3699.00    0.63253   0.63314  198.574
 3700.00    0.64894   0.62990   -1.000
 3701.00    0.64155   0.60535   -1.000
 3702.00    0.62781   0.56163   -1.000
 3703.00    0.58555   0.50978   -1.000
 3704.00    0.54212   0.46664   -1.000
 3705.00    0.50932   0.44244   -1.000
 3706.00    0.48015   0.43847   -1.000
 3707.00    0.49047   0.44682   -1.000
 3708.00    0.49292   0.46319   -1.000
 3709.00    0.51418   0.48799   -1.000
 3710.00    0.54706   0.52120   -1.000
 3711.00    0.59267   0.55850   -1.000
 3712.00    0.63607   0.59343   -1.000
 3713.00    0.64961   0.61685   -1.000
 3714.00    0.66132   0.62243   -1.000
 3715.00    0.65914   0.60906   -1.000
 3716.00    0.63189   0.57768   -1.000
 3717.00    0.60990   0.52985   -1.000
 3718.00    0.54925   0.47205   -1.000
 3719.00    0.48749   0.41793   36.554
 3720.00    0.42964   0.38537   -1.000
 3721.00    0.41561   0.38681   -1.000
 3722.00    0.43929   0.41829   -1.000
 3723.00    0.47061   0.46475  213.810
 3724.00    0.53016   0.50606   -1.000
 3725.00    0.56076   0.52696   -1.000
 3726.00    0.56836   0.52847   -1.000
 3727.00    0.53741   0.52483   -1.000
 3728.00    0.51678   0.52431  224.891
 3729.00    0.52932   0.51992  238.113
 3730.00    0.55109   0.49994   -1.000
 3731.00    0.52984   0.46011   30.163
 3732.00    0.47457   0.40875   33.321
 3733.00    0.42955   0.36229   33.912
 3734.00    0.39572   0.33353   31.850
 3735.00    0.37641   0.33155   36.174
 3736.00    0.39470   0.35656   -1.000
 3737.00    0.43291   0.40198   -1.000
 3738.00    0.46440   0.45529  220.480
 3739.00    0.50418   0.50122  221.474
 3740.00    0.53256   0.52424  231.502
 3741.00    0.54354   0.52005   -1.000
 3742.00    0.53220   0.49475   -1.000
 3743.00    0.51175   0.46131   -1.000
 3744.00    0.48555   0.43036   -1.000
 3745.00    0.45026   0.40615   30.305
 3746.00    0.42001   0.38445   31.929
 3747.00    0.40932   0.36461   39.851
 3748.00    0.39976   0.35464   -1.000
 3749.00    0.38595   0.36605   -1.000
 3750.00    0.41578   0.40272  224.221
 3751.00    0.47038   0.45509  208.564
 3752.00    0.51446   0.50866  199.194
 3753.00    0.55826   0.55244  198.650
 3754.00    0.59985   0.57486   -1.000
 3755.00    0.60001   0.56621   -1.000
 3756.00    0.57344   0.53137   -1.000
 3757.00    0.54148   0.49025   -1.000
 3758.00    0.50689   0.46519   -1.000
 3759.00    0.48749   0.46434   -1.000
 3760.00    0.49511   0.47682   -1.000
 3761.00    0.51755   0.48833   -1.000
 3762.00    0.52909   0.49238   -1.000
 3763.00    0.52212   0.49148   -1.000
 3764.00    0.52518   0.48814   -1.000
 3765.00    0.53523   0.48298   -1.000
 3766.00    0.52804   0.47900   -1.000
 3767.00    0.52740   0.47997   -1.000
 3768.00    0.53217   0.48583   -1.000
 3769.00    0.56327   0.49551   -1.000
 3770.00    0.57867   0.51038   -1.000
 3771.00    0.58379   0.53105   -1.000
 3772.00    0.60928   0.55304   -1.000
 3773.00    0.63306   0.56994   -1.000
 3774.00    0.62980   0.57936   -1.000
 3775.00    0.62257   0.58560   -1.000
 3776.00    0.61374   0.59335   -1.000
 3777.00    0.62551   0.60455   -1.000
 3778.00    0.62246   0.61862  188.662
 3779.00    0.62515   0.63294  187.472
 3780.00    0.62258   0.64489   -1.000
 3781.00    0.65050   0.65244  187.767
 3782.00    0.67723   0.65378   -1.000
 3783.00    0.67100   0.64467   -1.000
 3784.00    0.64708   0.62106   -1.000
 3785.00    0.61291   0.58589   -1.000
 3786.00    0.58238   0.54937   -1.000
 3787.00    0.53896   0.52186   -1.000
 3788.00    0.53887   0.50946   -1.000
 3789.00    0.54399   0.51136   -1.000
 3790.00    0.52712   0.51908  230.587
 3791.00    0.53257   0.52148   -1.000
 3792.00    0.54261   0.51215   -1.000
 3793.00    0.52212   0.49296   -1.000
 3794.00    0.50284   0.47081   -1.000
 3795.00    0.49588   0.44864   -1.000
 3796.00    0.47914   0.42730   -1.000
 3797.00    0.45474   0.41223   -1.000
 3798.00    0.44708   0.41522   -1.000
 3799.00    0.46544   0.44253   -1.000
 3800.00    0.49746   0.48659  212.220
 3801.00    0.50950   0.53206   -1.000
 3802.00    0.54054   0.56739   -1.000
 3803.00    0.57739   0.58538  212.955
 3804.00    0.58384   0.58578  220.204
 3805.00    0.56948   0.57468  221.796
 3806.00    0.54522   0.56465   -1.000
 3807.00    0.53414   0.56625   -1.000
 3808.00    0.54801   0.57961   -1.000
 3809.00    0.56782   0.59314   -1.000
 3810.00    0.57449   0.59337   -1.000
 3811.00    0.57061   0.57444  239.749
 3812.00    0.54534   0.54113  253.263
 3813.00    0.51147   0.50539  260.518
 3814.00    0.47741   0.47873  254.227
 3815.00    0.44798   0.46784   -1.000
 3816.00    0.45261   0.46745   -1.000
 3817.00    0.46702   0.46454  262.234
 3818.00    0.47683   0.45091   -1.000
 3819.00    0.44957   0.43316   -1.000
 3820.00    0.42006   0.42482  262.234
 3821.00    0.42615   0.42867  262.234
 3822.00    0.43063   0.43287   91.111
 3823.00    0.42893   0.42461   31.088
 3824.00    0.41444   0.40626   31.498
 3825.00    0.39603   0.39011   31.145
 3826.00    0.38491   0.38355   30.634
 3827.00    0.38062   0.38638   30.367
 3828.00    0.38261   0.39282   31.029
 3829.00    0.39987   0.39542   32.749
 3830.00    0.40720   0.38881   34.979
 3831.00    0.39342   0.37319   35.532
 3832.00    0.37316   0.35447   34.590
 3833.00    0.35963   0.34072   33.352
 3834.00    0.36218   0.33673   33.023
 3835.00    0.37893   0.34051   33.784
 3836.00    0.37549   0.34633   34.209
 3837.00    0.37573   0.35056   33.184
 3838.00    0.37650   0.35664   41.817
 3839.00    0.37813   0.37191  262.234
 3840.00    0.38170   0.40057   -1.000
 3841.00    0.41543   0.43914   -1.000
 3842.00    0.45482   0.47763   -1.000
 3843.00    0.47229   0.50730   -1.000
 3844.00    0.48828   0.52445   -1.000
 3845.00    0.50182   0.53265   -1.000
 3846.00    0.49646   0.53510   -1.000
 3847.00    0.48283   0.53157   -1.000
 3848.00    0.47679   0.52313   -1.000
 3849.00    0.46777   0.51618   -1.000
 3850.00    0.47097   0.51685   -1.000
 3851.00    0.48451   0.52333   -1.000
 3852.00    0.48041   0.52675   -1.000
 3853.00    0.47169   0.52098   -1.000
 3854.00    0.47309   0.50704   -1.000
 3855.00    0.45250   0.48994   82.046
 3856.00    0.44562   0.47196   29.780
 3857.00    0.45045   0.45378   30.936
 3858.00    0.44969   0.44066   40.546
 3859.00    0.43021   0.44201  262.234
 3860.00    0.40886   0.46158   -1.000
 3861.00    0.42562   0.49200   -1.000
 3862.00    0.48187   0.51813   -1.000
 3863.00    0.51349   0.52991   -1.000
 3864.00    0.51662   0.52894  245.281
 3865.00    0.51561   0.52373  251.557
 3866.00    0.50795   0.51956  262.234
 3867.00    0.48689   0.51502   -1.000
 3868.00    0.47229   0.50578   82.260
 3869.00    0.46228   0.49038   39.998
 3870.00    0.44703   0.47423   -1.000
 3871.00    0.43754   0.46815   -1.000
 3872.00    0.43984   0.47893   -1.000
 3873.00    0.46298   0.50334   -1.000
 3874.00    0.51057   0.52686   -1.000
 3875.00    0.53620   0.53392  260.627
 3876.00    0.53022   0.52074   -1.000
 3877.00    0.50449   0.50042  262.234
 3878.00    0.47757   0.48744  262.234
 3879.00    0.48236   0.48471  262.234
 3880.00    0.48990   0.48763  262.234
 3881.00    0.48222   0.49233  244.825
 3882.00    0.48602   0.49793  236.040
 3883.00    0.50032   0.49980  243.253
 3884.00    0.51348   0.48888   -1.000
 3885.00    0.51199   0.46427   -1.000
 3886.00    0.48666   0.43836   -1.000
 3887.00    0.49200   0.42670   -1.000
 3888.00    0.51149   0.43866   -1.000
 3889.00    0.53541   0.47280   -1.000
 3890.00    0.58371   0.51828   -1.000
 3891.00    0.62629   0.55985   -1.000
 3892.00    0.62950   0.58530   -1.000
 3893.00    0.62528   0.59279   -1.000
 3894.00    0.61195   0.59226   -1.000
 3895.00    0.60725   0.59360  193.026
 3896.00    0.62214   0.59789   -1.000
 3897.00    0.63303   0.60058   -1.000
 3898.00    0.64218   0.59974   -1.000
 3899.00    0.63920   0.59925   -1.000
 3900.00    0.63472   0.60146   -1.000
 3901.00    0.64637   0.60193   -1.000
 3902.00    0.65627   0.59577   -1.000
 3903.00    0.63086   0.58419   -1.000
 3904.00    0.60740   0.57473   -1.000
 3905.00    0.59213   0.57690   -1.000
 3906.00    0.60199   0.59463  185.768
 3907.00    0.64880   0.62388   -1.000
 3908.00    0.68717   0.65413   -1.000
 3909.00    0.71004   0.67678   -1.000
 3910.00    0.72477   0.69004   -1.000
 3911.00    0.73289   0.69634   -1.000
 3912.00    0.73741   0.69665   -1.000
 3913.00    0.71901   0.69134   -1.000
 3914.00    0.70309   0.68173   -1.000
 3915.00    0.70979   0.66950   -1.000
 3916.00    0.69412   0.65463   -1.000
 3917.00    0.67409   0.63531   -1.000
 3918.00    0.65696   0.61063   -1.000
 3919.00    0.64206   0.58466   -1.000
 3920.00    0.62150   0.56506   -1.000
 3921.00    0.59338   0.55711   -1.000
 3922.00    0.58808   0.55955   -1.000
 3923.00    0.59560   0.56312   -1.000
 3924.00    0.59154   0.55727   -1.000
 3925.00    0.58228   0.53661   -1.000
 3926.00    0.55964   0.50264   34.364
 3927.00    0.51403   0.46193   40.274
 3928.00    0.44817   0.42050   47.280
 3929.00    0.37292   0.38193   55.782
 3930.00    0.31662   0.34615   63.909
 3931.00    0.28749   0.31415   66.850
 3932.00    0.28312   0.29065   61.776
 3933.00    0.28297   0.28265   52.605
 3934.00    0.28393   0.29517   43.358
 3935.00    0.30688   0.32595   35.907
 3936.00    0.34906   0.36801   45.223
 3937.00    0.39255   0.41417   -1.000
 3938.00    0.43583   0.45807   -1.000
 3939.00    0.48775   0.49318  252.499
 3940.00    0.53353   0.51598   -1.000
 3941.00    0.55454   0.52608   -1.000
 3942.00    0.54190   0.52957   -1.000
 3943.00    0.52012   0.53667   -1.000
 3944.00    0.54162   0.55432  202.937
 3945.00    0.58826   0.57939  201.121
 3946.00    0.62883   0.60334   -1.000
 3947.00    0.64299   0.62248   -1.000
 3948.00    0.65600   0.63938   -1.000
 3949.00    0.68689   0.65550   -1.000
 3950.00    0.72794   0.66713   -1.000
 3951.00    0.74262   0.67227   -1.000
 3952.00    0.72557   0.67585   -1.000
 3953.00    0.72102   0.68008   -1.000
 3954.00    0.73956   0.68072   -1.000
 3955.00    0.74481   0.67474   -1.000
 3956.00    0.71883   0.66542   -1.000
 3957.00    0.68975   0.65614   -1.000
 3958.00    0.69516   0.64089   -1.000
 3959.00    0.69735   0.60937   -1.000
 3960.00    0.62973   0.56285   -1.000
 3961.00    0.54799   0.51526   74.367
 3962.00    0.49462   0.47706   32.452
 3963.00    0.45387   0.44741   38.711
 3964.00    0.41933   0.41524   47.684
 3965.00    0.37773   0.37347   56.481
 3966.00    0.32798   0.32698   58.666
 3967.00    0.29923   0.28877   51.958
 3968.00    0.28977   0.27211   42.720
 3969.00    0.29654   0.28220   35.341
 3970.00    0.33027   0.31617   45.620
 3971.00    0.38326   0.36599   -1.000
 3972.00    0.43702   0.42321   -1.000
 3973.00    0.48963   0.48142  210.685
 3974.00    0.54441   0.53745  195.729
 3975.00    0.60313   0.58910  184.715
 3976.00    0.64993   0.63657  174.932
 3977.00    0.68972   0.68013  168.155
 3978.00    0.74278   0.71742   -1.000
 3979.00    0.78302   0.74354   -1.000
 3980.00    0.79605   0.75443   -1.000
 3981.00    0.79453   0.75400   -1.000
 3982.00    0.79354   0.75138   -1.000
 3983.00    0.80728   0.75504   -1.000
 3984.00    0.81128   0.76685   -1.000
 3985.00    0.81795   0.78383   -1.000
 3986.00    0.83543   0.80214   -1.000
 3987.00    0.85302   0.81707   -1.000
 3988.00    0.88257   0.82552   -1.000
 3989.00    0.88598   0.82981   -1.000
 3990.00    0.87078   0.83535   -1.000
 3991.00    0.87520   0.84412   -1.000
 3992.00    0.89768   0.85178   -1.000
 3993.00    0.90238   0.85156   -1.000
 3994.00    0.90766   0.84140   -1.000
 3995.00    0.89600   0.82691   -1.000
 3996.00    0.86211   0.81817   -1.000
 3997.00    0.84226   0.82360  148.701
 3998.00    0.85116   0.84306  144.701
 3999.00    0.89950   0.86876   -1.000
 4000.00    0.94863   0.89060   -1.000
 4001.00    0.95790   0.90031   -1.000
 4002.00    0.96483   0.89108   -1.000
 4003.00    0.96137   0.86265   -1.000
 4004.00    0.92522   0.82795   -1.000
 4005.00    0.87618   0.80898   -1.000
 4006.00    0.85855   0.81823   -1.000
 4007.00    0.87351   0.84825   -1.000
 4008.00    0.91760   0.88058   -1.000
 4009.00    0.95266   0.90255   -1.000
 4010.00    0.96754   0.91446   -1.000
 4011.00    0.97906   0.92132   -1.000
 4012.00    0.99861   0.92708   -1.000
 4013.00    1.00000   0.93304   -1.000
 4014.00    1.01008   0.93752   -1.000
 4015.00    1.01447   0.93869   -1.000
 4016.00    1.00350   0.93855   -1.000
 4017.00    1.00202   0.94151   -1.000
 4018.00    1.01262   0.94831   -1.000
 4019.00    1.01526   0.95437   -1.000
 4020.00    1.01870   0.95497   -1.000
 4021.00    1.01343   0.94904   -1.000
 4022.00    1.00623   0.93964   -1.000
 4023.00    1.00950   0.93120   -1.000
 4024.00    0.99659   0.92954   -1.000
 4025.00    1.00644   0.93899   -1.000
 4026.00    1.04132   0.95500   -1.000
 4027.00    1.05905   0.96187   -1.000
 4028.00    1.04219   0.94371   -1.000
 4029.00    1.00188   0.89999   -1.000
 4030.00    0.93595   0.84777   -1.000
 4031.00    0.86851   0.80840   -1.000
 4032.00    0.83022   0.79332   -1.000
 4033.00    0.82634   0.80583  141.114
 4034.00    0.85238   0.84342  134.954
 4035.00    0.91309   0.89695  131.929
 4036.00    0.98883   0.95031   -1.000
 4037.00    1.04398   0.98678   -1.000
 4038.00    1.07064   0.99733   -1.000
 4039.00    1.06285   0.98862   -1.000
 4040.00    1.04056   0.97239   -1.000
 4041.00    1.01919   0.94936   -1.000
 4042.00    1.00791   0.90839   -1.000
 4043.00    0.97475   0.84689   -1.000
 4044.00    0.88112   0.78617   -1.000
 4045.00    0.78322   0.76110  146.240
 4046.00    0.78371   0.78886  139.383
 4047.00    0.85675   0.85181  136.446
 4048.00    0.94243   0.91685   -1.000
 4049.00    1.00601   0.96196   -1.000
 4050.00    1.04003   0.98020   -1.000
 4051.00    1.03264   0.97626   -1.000
 4052.00    1.00807   0.95885   -1.000
 4053.00    0.97675   0.93702   -1.000
 4054.00    0.94713   0.91647   -1.000
 4055.00    0.93276   0.89895   -1.000
 4056.00    0.91893   0.88650   -1.000
 4057.00    0.89985   0.88480  141.442
 4058.00    0.89889   0.89577  140.824
 4059.00    0.93826   0.90754   -1.000
 4060.00    0.96243   0.90049   -1.000
 4061.00    0.95757   0.86719   -1.000
 4062.00    0.90746   0.82398   -1.000
 4063.00    0.83811   0.79732   -1.000
 4064.00    0.82455   0.79919   -1.000
 4065.00    0.86532   0.82361   -1.000
 4066.00    0.91879   0.85690   -1.000
 4067.00    0.95008   0.88590   -1.000
 4068.00    0.97327   0.89969   -1.000
 4069.00    0.97414   0.89166   -1.000
 4070.00    0.94029   0.86892   -1.000
 4071.00    0.90665   0.85279   -1.000
 4072.00    0.90872   0.85711   -1.000
 4073.00    0.93529   0.87039   -1.000
 4074.00    0.94884   0.86973   -1.000
 4075.00    0.92971   0.84780   -1.000
 4076.00    0.88691   0.82371   -1.000
 4077.00    0.85923   0.82358   -1.000
 4078.00    0.87166   0.85608  139.061
 4079.00    0.91160   0.90746  137.712
 4080.00    0.97423   0.95200  141.195
 4081.00    1.01918   0.97135   -1.000
 4082.00    1.01356   0.96517   -1.000
 4083.00    0.99329   0.95063   -1.000
 4084.00    0.98012   0.94779   -1.000
 4085.00    0.99759   0.96555   -1.000
 4086.00    1.03439   0.99735   -1.000
 4087.00    1.07575   1.02773   -1.000
 4088.00    1.11050   1.04350   -1.000
 4089.00    1.11423   1.04025   -1.000
 4090.00    1.08276   1.02500   -1.000
 4091.00    1.05531   1.00810   -1.000
 4092.00    1.05227   0.99294   -1.000
 4093.00    1.04446   0.97397   -1.000
 4094.00    1.01900   0.94663   -1.000
 4095.00    0.97574   0.91380   -1.000
 4096.00    0.93344   0.88271   -1.000
 4097.00    0.90932   0.85465   -1.000
 4098.00    0.90009   0.82245   -1.000
 4099.00    0.87497   0.78261   -1.000
 4100.00    0.82530   0.74615   -1.000
 4101.00    0.78479   0.73337   -1.000
 4102.00    0.79056   0.75570   -1.000
 4103.00    0.83950   0.80560   -1.000
 4104.00    0.90354   0.86289   -1.000
 4105.00    0.94806   0.91020   -1.000
 4106.00    0.97595   0.93906   -1.000
 4107.00    0.97986   0.94984   -1.000
 4108.00    0.97435   0.94732   -1.000
 4109.00    0.96401   0.93983   -1.000
 4110.00    0.94699   0.93668  143.750
 4111.00    0.94594   0.94342  141.409
 4112.00    0.97272   0.95951  139.595
 4113.00    0.99756   0.97980  139.164
 4114.00    1.01066   0.99643  140.915
 4115.00    1.02376   1.00168  144.770
 4116.00    1.03040   0.99268   -1.000
 4117.00    1.01735   0.97479   -1.000
 4118.00    0.99595   0.95840   -1.000
 4119.00    0.97949   0.95146   -1.000
 4120.00    0.97293   0.95417  145.192
 4121.00    0.98132   0.96141  143.121
 4122.00    0.98623   0.96994  141.487
 4123.00    1.00008   0.97930  142.131
 4124.00    1.02373   0.98698   -1.000
 4125.00    1.03229   0.98767   -1.000
 4126.00    1.01336   0.97917   -1.000
 4127.00    0.97750   0.96524  149.125
 4128.00    0.96012   0.94958  152.318
 4129.00    0.96184   0.93051   -1.000
 4130.00    0.95785   0.90609   -1.000
 4131.00    0.91778   0.88240   -1.000
 4132.00    0.87485   0.87280  151.131
 4133.00    0.88246   0.88756  144.691
 4134.00    0.91670   0.92273  141.131
 4135.00    0.95141   0.96426  138.930
 4136.00    0.98643   0.99929  137.508
 4137.00    1.01646   1.02163  138.543
 4138.00    1.03126   1.02948  143.494
 4139.00    1.03439   1.01902  153.260
 4140.00    1.02116   0.98495   -1.000
 4141.00    0.98027   0.93255   -1.000
 4142.00    0.90022   0.88354  157.556
 4143.00    0.83113   0.86311   -1.000
 4144.00    0.83480   0.87899   -1.000
 4145.00    0.88312   0.91578   -1.000
 4146.00    0.93236   0.94829  150.123
 4147.00    0.96470   0.96164  153.285
 4148.00    0.96989   0.95911  153.716
 4149.00    0.95064   0.95175  152.644
 4150.00    0.93180   0.94626  152.855
 4151.00    0.93041   0.94162  154.856
 4152.00    0.92079   0.93501  154.349
 4153.00    0.90274   0.92721   -1.000
 4154.00    0.92330   0.92329  151.876
 4155.00    1.05924   0.92882   -1.000
 4156.00    1.11920   0.94535   -1.000
 4157.00    0.89281   0.96985   -1.000
 4158.00    0.77539   0.99687   -1.000
 4159.00    0.92954   1.02068   -1.000
 4160.00    1.01392   1.03881   -1.000
 4161.00    1.01618   1.05164   -1.000
 4162.00    1.03023   1.05768   -1.000
 4163.00    1.02980   1.05373   -1.000
 4164.00    1.01144   1.03856   -1.000
 4165.00    0.98815   1.01705   -1.000
 4166.00    0.96077   0.99908   -1.000
 4167.00    0.94502   0.99174   -1.000
 4168.00    0.95668   0.99073   -1.000
 4169.00    0.97449   0.98348  163.094
 4170.00    0.97067   0.96089  168.489
 4171.00    0.93664   0.92887  165.536
 4172.00    0.88133   0.90459   -1.000
 4173.00    0.85807   0.90012   -1.000
 4174.00    0.87819   0.91293   -1.000
 4175.00    0.89807   0.93059   -1.000
 4176.00    0.91127   0.94483   -1.000
 4177.00    0.91317   0.95657   -1.000
 4178.00    0.91574   0.96728   -1.000
 4179.00    0.93196   0.97380   -1.000
 4180.00    0.93801   0.97455   -1.000
 4181.00    0.94103   0.97538   -1.000
 4182.00    0.94643   0.98434   -1.000
 4183.00    0.96650   0.99894   -1.000
 4184.00    0.99184   1.00616  152.929
 4185.00    0.99203   0.99798  154.449
 4186.00    0.96344   0.98135   -1.000
 4187.00    0.94053   0.97183   -1.000
 4188.00    0.94772   0.97730   -1.000
 4189.00    0.96508   0.99266   -1.000
 4190.00    0.97947   1.00978   -1.000
 4191.00    0.98624   1.02441   -1.000
 4192.00    1.01341   1.03249   -1.000
 4193.00    1.03972   1.02617  156.767
 4194.00    1.01603   1.00076  160.686
 4195.00    0.96107   0.96320  162.221
 4196.00    0.91248   0.92793  161.440
 4197.00    0.88484   0.90469   -1.000
 4198.00    0.88147   0.89517  157.689
 4199.00    0.90365   0.89576  157.012
 4200.00    0.92224   0.90289  155.230
 4201.00    0.92643   0.91592  153.425
 4202.00    0.92586   0.93742  151.385
 4203.00    0.94214   0.96828   -1.000
 4204.00    0.98762   1.00394  144.644
 4205.00    1.02515   1.03694  142.916
 4206.00    1.03771   1.06128   -1.000
 4207.00    1.04408   1.07391   -1.000
 4208.00    1.06499   1.07566  142.396
 4209.00    1.06305   1.07257  142.310
 4210.00    1.04245   1.07051   -1.000
 4211.00    1.03825   1.06725   -1.000
 4212.00    1.03769   1.05343  156.589
 4213.00    1.02232   1.02616  155.812
 4214.00    0.97551   0.99988   -1.000
 4215.00    0.93387   0.99672   -1.000
 4216.00    0.95288   1.02537   -1.000
 4217.00    1.03939   1.07274   -1.000
 4218.00    1.12732   1.11532  132.324
 4219.00    1.16331   1.13651   -1.000
 4220.00    1.17717   1.12884   -1.000
 4221.00    1.16743   1.09067   -1.000
 4222.00    1.11258   1.02292   -1.000
 4223.00    1.02856   0.93264   -1.000
 4224.00    0.92170   0.83936   -1.000
 4225.00    0.80307   0.77423   -1.000
 4226.00    0.72438   0.76498   -1.000
 4227.00    0.74485   0.81859   -1.000
 4228.00    0.85768   0.91020   -1.000
 4229.00    0.98272   0.99732  138.556
 4230.00    1.06155   1.04859  142.068
 4231.00    1.09523   1.06050   -1.000
 4232.00    1.09762   1.04623   -1.000
 4233.00    1.07009   1.02307   -1.000
 4234.00    1.04511   1.00412   -1.000
 4235.00    1.03121   0.99569   -1.000
 4236.00    1.00645   0.99908  145.470
 4237.00    1.00127   1.01392  143.036
 4238.00    1.02386   1.03731  140.698
 4239.00    1.04806   1.06450  139.508
 4240.00    1.07603   1.09208  137.961
 4241.00    1.10738   1.11910  135.243
 4242.00    1.12287   1.14535   -1.000
 4243.00    1.14232   1.16749   -1.000
 4244.00    1.17933   1.17544  144.683
 4245.00    1.19580   1.15920   -1.000
 4246.00    1.15427   1.11976   -1.000
 4247.00    1.09944   1.07046   -1.000
 4248.00    1.06091   1.02899   -1.000
 4249.00    1.02373   1.00800  145.259
 4250.00    0.99272   1.00769  143.812
 4251.00    0.99249   1.01627   -1.000
 4252.00    1.03489   1.01973  147.322
 4253.00    1.04791   1.01715   -1.000
 4254.00    1.01973   1.02184  139.825
 4255.00    1.02393   1.04138  142.286
 4256.00    1.07395   1.06086  149.248
 4257.00    1.10783   1.05700   -1.000
 4258.00    1.07597   1.02808   -1.000
 4259.00    1.00630   1.00005  145.586
 4260.00    0.96382   1.00343   -1.000
 4261.00    0.98924   1.04720   -1.000
 4262.00    1.06853   1.11249   -1.000
 4263.00    1.16011   1.16968  132.545
 4264.00    1.20917   1.19942  136.004
 4265.00    1.21300   1.19928  140.388
 4266.00    1.19609   1.17362   -1.000
 4267.00    1.15799   1.12644   -1.000
 4268.00    1.10704   1.06263   -1.000
 4269.00    1.04265   0.99139   -1.000
 4270.00    0.96208   0.92778   -1.000
 4271.00    0.88985   0.88845  162.799
 4272.00    0.85933   0.88139   -1.000
 4273.00    0.86389   0.90480   -1.000
 4274.00    0.88904   0.95193   -1.000
 4275.00    0.93591   1.01397   -1.000
 4276.00    1.01831   1.07623   -1.000
 4277.00    1.10420   1.11883  146.089
 4278.00    1.14536   1.12963  148.522
 4279.00    1.13541   1.11677  147.391
 4280.00    1.10106   1.10045  145.662
 4281.00    1.08533   1.09389  146.147
 4282.00    1.08899   1.09390  149.478
 4283.00    1.09002   1.09050  153.613
 4284.00    1.07575   1.07940  156.525
 4285.00    1.05595   1.06207  160.827
 4286.00    1.03941   1.03849  168.194
 4287.00    1.01118   1.00614  172.137
 4288.00    0.97443   0.96932  167.081
 4289.00    0.93182   0.94455  157.143
 4290.00    0.91298   0.94850   -1.000
 4291.00    0.94663   0.97868   -1.000
 4292.00    1.00340   1.01318  152.889
 4293.00    1.04831   1.03115  155.997
 4294.00    1.05866   1.02714   -1.000
 4295.00    1.03092   1.00445   -1.000
 4296.00    0.98899   0.96527   -1.000
 4297.00    0.95304   0.91289   -1.000
 4298.00    0.89632   0.85885   -1.000
 4299.00    0.81446   0.82004  188.206
 4300.00    0.77390   0.80643   -1.000
 4301.00    0.79580   0.81301   -1.000
 4302.00    0.81945   0.82673  182.442
 4303.00    0.83269   0.83613  186.465
 4304.00    0.84873   0.83319   -1.000
 4305.00    0.84025   0.81375   -1.000
 4306.00    0.80323   0.78373   -1.000
 4307.00    0.76087   0.76038  193.909
 4308.00    0.73087   0.76143   -1.000
 4309.00    0.74394   0.79296   -1.000
 4310.00    0.80239   0.84780   -1.000
 4311.00    0.86833   0.91466   -1.000
 4312.00    0.93760   0.98839   -1.000
 4313.00    1.00599   1.07077   -1.000
 4314.00    1.07617   1.16113   -1.000
 4315.00    1.17615   1.24937   -1.000
 4316.00    1.28547   1.31744   -1.000
 4317.00    1.35205   1.35004  127.424
 4318.00    1.37151   1.34731  131.178
 4319.00    1.35057   1.31940   -1.000
 4320.00    1.30213   1.27236   -1.000
 4321.00    1.25311   1.20467   -1.000
 4322.00    1.19148   1.11813   -1.000
 4323.00    1.08499   1.03059   -1.000
 4324.00    0.96339   0.97605  148.453
 4325.00    0.89927   0.98332   -1.000
 4326.00    0.92747   1.05259   -1.000
 4327.00    1.05519   1.15179   -1.000
 4328.00    1.19862   1.23780   -1.000
 4329.00    1.26522   1.28695   -1.000
 4330.00    1.27382   1.30693   -1.000
 4331.00    1.27894   1.31801   -1.000
 4332.00    1.29960   1.33018   -1.000
 4333.00    1.32368   1.33602  132.472
 4334.00    1.33975   1.31892  143.756
 4335.00    1.32691   1.26573   -1.000
 4336.00    1.25801   1.17766   -1.000
 4337.00    1.14243   1.07554   -1.000
 4338.00    1.03252   0.99315   -1.000
 4339.00    0.96735   0.95862  156.847
 4340.00    0.95962   0.97904   -1.000
 4341.00    1.00372   1.04051   -1.000
 4342.00    1.08888   1.11677   -1.000
 4343.00    1.17998   1.18440  131.981
 4344.00    1.23798   1.23555  130.293
 4345.00    1.27506   1.27500  128.465
 4346.00    1.29041   1.30748  127.824
 4347.00    1.30061   1.32967   -1.000
 4348.00    1.32441   1.32873  141.412
 4349.00    1.33069   1.29412   -1.000
 4350.00    1.28620   1.23621   -1.000
 4351.00    1.18763   1.18654  137.251
 4352.00    1.11970   1.17342   -1.000
 4353.00    1.14601   1.19965   -1.000
 4354.00    1.19747   1.24447   -1.000
 4355.00    1.24341   1.28357   -1.000
 4356.00    1.28690   1.30436  132.024
 4357.00    1.29976   1.30867  131.025
 4358.00    1.28491   1.30811   -1.000
 4359.00    1.26671   1.31627   -1.000
 4360.00    1.28350   1.33802   -1.000
 4361.00    1.33414   1.36681   -1.000
 4362.00    1.36518   1.39301   -1.000
 4363.00    1.38309   1.41046   -1.000
 4364.00    1.40240   1.41391  129.388
 4365.00    1.41076   1.39781  132.110
 4366.00    1.38287   1.36513  131.756
 4367.00    1.32590   1.33066  130.689
 4368.00    1.28878   1.30780  130.328
 4369.00    1.27143   1.29642   -1.000
 4370.00    1.26751   1.28576  134.977
 4371.00    1.28287   1.26495  140.547
 4372.00    1.28948   1.23187   -1.000
 4373.00    1.24537   1.19680   -1.000
 4374.00    1.17803   1.17862  132.144
 4375.00    1.16167   1.19138   -1.000
 4376.00    1.19753   1.22897   -1.000
 4377.00    1.26083   1.26645  129.723
 4378.00    1.31591   1.27754   -1.000
 4379.00    1.32393   1.24790   -1.000
 4380.00    1.27991   1.17622   -1.000
 4381.00    1.21229   1.07717   -1.000
 4382.00    1.09561   0.98462   -1.000
 4383.00    0.94992   0.93884  145.393
 4384.00    0.89157   0.95979   -1.000
 4385.00    0.97311   1.02989   -1.000
 4386.00    1.10958   1.10630  137.102
 4387.00    1.19448   1.15566   -1.000
 4388.00    1.21020   1.17543   -1.000
 4389.00    1.19332   1.18293  133.366
 4390.00    1.18367   1.19334  132.838
 4391.00    1.19947   1.20929  135.160
 4392.00    1.22571   1.22526  135.980
 4393.00    1.25283   1.23932  131.638
 4394.00    1.24965   1.25839  126.887
 4395.00    1.26419   1.28814   -1.000
 4396.00    1.32151   1.31922  130.542
 4397.00    1.37529   1.33256   -1.000
 4398.00    1.37821   1.32021   -1.000
 4399.00    1.32519   1.29314   -1.000
 4400.00    1.26591   1.26502  135.038
 4401.00    1.24898   1.23498  142.034
 4402.00    1.24641   1.19318   -1.000
 4403.00    1.18269   1.14222   -1.000
 4404.00    1.08527   1.10439   -1.000
 4405.00    1.05639   1.10080   -1.000
 4406.00    1.10764   1.13120   -1.000
 4407.00    1.15358   1.18174   -1.000
 4408.00    1.18989   1.24265   -1.000
 4409.00    1.25086   1.30827   -1.000
 4410.00    1.32701   1.36429   -1.000
 4411.00    1.38301   1.38787  129.107
 4412.00    1.40559   1.36735   -1.000
 4413.00    1.36866   1.31654   -1.000
 4414.00    1.27216   1.26745  132.431
 4415.00    1.20270   1.25148   -1.000
 4416.00    1.20857   1.28036   -1.000
 4417.00    1.26895   1.33787   -1.000
 4418.00    1.34210   1.39188   -1.000
 4419.00    1.39513   1.41667   -1.000
 4420.00    1.39061   1.40725  127.695
 4421.00    1.33055   1.37866   -1.000
 4422.00    1.27742   1.35316   -1.000
 4423.00    1.26108   1.34373   -1.000
 4424.00    1.25741   1.34772   -1.000
 4425.00    1.26734   1.35594   -1.000
 4426.00    1.27996   1.36351   -1.000
 4427.00    1.27829   1.36910   -1.000
 4428.00    1.30106   1.37060   -1.000
 4429.00    1.32491   1.36734   -1.000
 4430.00    1.30811   1.36154   -1.000
 4431.00    1.30514   1.35244   -1.000
 4432.00    1.32102   1.33383  137.421
 4433.00    1.29623   1.30596  134.071
 4434.00    1.23425   1.28683   -1.000
 4435.00    1.21013   1.30008   -1.000
 4436.00    1.25206   1.34971   -1.000
 4437.00    1.32813   1.41101   -1.000
 4438.00    1.41820   1.44935   -1.000
 4439.00    1.45578   1.44605  131.958
 4440.00    1.42059   1.40963  134.085
 4441.00    1.36298   1.36870  130.683
 4442.00    1.30156   1.35390   -1.000
 4443.00    1.30339   1.37760   -1.000
 4444.00    1.36833   1.42594   -1.000
 4445.00    1.43041   1.47247   -1.000
 4446.00    1.47034   1.50004   -1.000
 4447.00    1.47658   1.50876   -1.000
 4448.00    1.47391   1.50692   -1.000
 4449.00    1.48500   1.49907  123.660
 4450.00    1.48187   1.48330  127.061
 4451.00    1.45177   1.45490  132.671
 4452.00    1.42224   1.41086  136.558
 4453.00    1.37568   1.35667  135.791
 4454.00    1.30998   1.30899  133.292
 4455.00    1.26178   1.28329   -1.000
 4456.00    1.26312   1.27948  133.145
 4457.00    1.29280   1.28435  134.333
 4458.00    1.28964   1.28624  135.619
 4459.00    1.27290   1.28528  134.147
 4460.00    1.25935   1.29105   -1.000
 4461.00    1.24166   1.31262   -1.000
 4462.00    1.25916   1.34957   -1.000
 4463.00    1.32001   1.39036   -1.000
 4464.00    1.38362   1.42021   -1.000
 4465.00    1.40867   1.43189   -1.000
 4466.00    1.41952   1.42892  129.370
 4467.00    1.42486   1.42044  128.319
 4468.00    1.41622   1.41627  124.896
 4469.00    1.39233   1.42548   -1.000
 4470.00    1.39838   1.45264   -1.000
 4471.00    1.44070   1.49259   -1.000
 4472.00    1.50627   1.53347   -1.000
 4473.00    1.55082   1.56601  114.711
 4474.00    1.55096   1.58909   -1.000
 4475.00    1.57246   1.60592   -1.000
 4476.00    1.61403   1.61367  117.712
 4477.00    1.63770   1.60108   -1.000
 4478.00    1.61826   1.56107   -1.000
 4479.00    1.54561   1.50481   -1.000
 4480.00    1.45331   1.46010  122.741
 4481.00    1.39531   1.45277   -1.000
 4482.00    1.40681   1.48764   -1.000
 4483.00    1.47947   1.54610   -1.000
 4484.00    1.55605   1.59960   -1.000
 4485.00    1.61381   1.62470  120.082
 4486.00    1.63767   1.61231  123.470
 4487.00    1.60750   1.57250   -1.000
 4488.00    1.53237   1.53034  120.503
 4489.00    1.47468   1.50927   -1.000
 4490.00    1.45877   1.51349   -1.000
 4491.00    1.48974   1.52613   -1.000
 4492.00    1.51374   1.52599  125.059
 4493.00    1.48445   1.50866   -1.000
 4494.00    1.43200   1.49044   -1.000
 4495.00    1.40877   1.49165   -1.000
 4496.00    1.42043   1.51745   -1.000
 4497.00    1.46747   1.55466   -1.000
 4498.00    1.51131   1.58524   -1.000
 4499.00    1.53755   1.60160   -1.000
 4500.00    1.55787   1.61109   -1.000
 4501.00    1.56980   1.62736   -1.000
 4502.00    1.61065   1.65688   -1.000
 4503.00    1.67558   1.69294  110.936
 4504.00    1.72425   1.72064  112.408
 4505.00    1.74091   1.72897  112.763
 4506.00    1.71666   1.72043  112.149
 4507.00    1.68173   1.70774   -1.000
 4508.00    1.66493   1.70101   -1.000
 4509.00    1.67169   1.69961   -1.000
 4510.00    1.69163   1.69484  115.798
 4511.00    1.67771   1.67929  116.901
 4512.00    1.62445   1.65442   -1.000
 4513.00    1.58022   1.62931   -1.000
 4514.00    1.55312   1.61268   -1.000
 4515.00    1.55376   1.60658   -1.000
 4516.00    1.57612   1.60727   -1.000
 4517.00    1.57907   1.61198   -1.000
 4518.00    1.57129   1.62233   -1.000
 4519.00    1.59457   1.63853   -1.000
 4520.00    1.64607   1.65307  119.036
 4521.00    1.66408   1.65458  120.440
 4522.00    1.64002   1.63740  122.157
 4523.00    1.59994   1.60469  125.455
 4524.00    1.56035   1.56213  129.132
 4525.00    1.50655   1.51265  131.262
 4526.00    1.44145   1.46047  130.962
 4527.00    1.38881   1.41599   -1.000
 4528.00    1.36413   1.39185   -1.000
 4529.00    1.35750   1.39359   -1.000
 4530.00    1.37784   1.41420   -1.000
 4531.00    1.41119   1.43796   -1.000
 4532.00    1.45426   1.45129  132.148
 4533.00    1.45944   1.45366  126.009
 4534.00    1.41629   1.45931   -1.000
 4535.00    1.39232   1.48547   -1.000
 4536.00    1.46817   1.53488   -1.000
 4537.00    1.58808   1.58966  116.738
 4538.00    1.64391   1.62552  117.447
 4539.00    1.62095   1.63284  116.727
 4540.00    1.57232   1.62294   -1.000
 4541.00    1.55949   1.61372   -1.000
 4542.00    1.60317   1.61217   66.881
 4543.00    1.44626   1.61231   -1.000
 4544.00    0.59118   1.60689   -1.000
 4545.00    0.05857   1.59588   -1.000
 4546.00    0.14890   1.58339   -1.000
 4547.00    0.81132   1.57142   -1.000
 4548.00    0.64923   1.56143   -1.000
 4549.00    0.99612   1.55778   -1.000
 4550.00    1.46684   1.56286   -1.000
 4551.00    1.56303   1.57047  124.463
 4552.00    1.54402   1.57125   -1.000
 4553.00    1.52578   1.56556   -1.000
 4554.00    1.51961   1.56603   -1.000
 4555.00    1.53998   1.58616   -1.000
 4556.00    1.59716   1.62726   -1.000
 4557.00    1.66389   1.67623  112.163
 4558.00    1.69919   1.71618  112.165
 4559.00    1.73292   1.73826  114.107
 4560.00    1.73878   1.74223  116.962
 4561.00    1.71842   1.72999  119.210
 4562.00    1.68468   1.70374  118.740
 4563.00    1.64019   1.67104   -1.000
 4564.00    1.59885   1.64693   -1.000
 4565.00    1.58150   1.64584   -1.000
 4566.00    1.62188   1.66923   -1.000
 4567.00    1.68606   1.70177  114.544
 4568.00    1.71505   1.72201  117.567
 4569.00    1.71298   1.71917  117.717
 4570.00    1.67051   1.70074   -1.000
 4571.00    1.62053   1.68550   -1.000
 4572.00    1.62829   1.68811   -1.000
 4573.00    1.67455   1.70705   -1.000
 4574.00    1.70919   1.72769  113.345
 4575.00    1.72840   1.73643  114.968
 4576.00    1.73177   1.72857  118.072
 4577.00    1.68658   1.70491  120.824
 4578.00    1.63512   1.66927   -1.000
 4579.00    1.59625   1.63135   -1.000
 4580.00    1.54851   1.60480   -1.000
 4581.00    1.54968   1.59732   -1.000
 4582.00    1.58579   1.60412  119.382
 4583.00    1.60746   1.61347  118.321
 4584.00    1.60405   1.61907  115.523
 4585.00    1.58535   1.62634   -1.000
 4586.00    1.60050   1.64480   -1.000
 4587.00    1.64483   1.67491   -1.000
 4588.00    1.69582   1.70470  115.474
 4589.00    1.73579   1.71915  117.542
 4590.00    1.72365   1.71187  118.126
 4591.00    1.66698   1.68903   -1.000
 4592.00    1.63263   1.66359   -1.000
 4593.00    1.62359   1.64544   -1.000
 4594.00    1.60317   1.63703   -1.000
 4595.00    1.59434   1.63653   -1.000
 4596.00    1.59940   1.64190   -1.000
 4597.00    1.61200   1.65066   -1.000
 4598.00    1.64488   1.65875  117.713
 4599.00    1.66086   1.66273  116.823
 4600.00    1.63633   1.66290   -1.000
 4601.00    1.62665   1.66232   -1.000
 4602.00    1.63832   1.66312   -1.000
 4603.00    1.65305   1.66576  114.244
 4604.00    1.65477   1.67245  112.199
 4605.00    1.64058   1.68869   -1.000
 4606.00    1.66247   1.71874   -1.000
 4607.00    1.73852   1.75925  108.366
 4608.00    1.80553   1.79775  109.656
 4609.00    1.83763   1.81917  110.960
 4610.00    1.82399   1.81761  111.794
 4611.00    1.78590   1.80124  111.524
 4612.00    1.75482   1.78483   -1.000
 4613.00    1.75448   1.77899   -1.000
 4614.00    1.75887   1.78488   -1.000
 4615.00    1.77177   1.79647   -1.000
 4616.00    1.78625   1.80656  111.443
 4617.00    1.79517   1.81175  110.576
 4618.00    1.79689   1.81326  108.953
 4619.00    1.78684   1.81493   -1.000
 4620.00    1.81216   1.81951  108.761
 4621.00    1.82961   1.82531  108.993
 4622.00    1.82258   1.82776  109.822
 4623.00    1.81141   1.82453  110.268
 4624.00    1.81616   1.81749  110.270
 4625.00    1.79452   1.80990  110.812
 4626.00    1.76768   1.80439   -1.000
 4627.00    1.78232   1.80267  110.774
 4628.00    1.79476   1.80498  109.633
 4629.00    1.79897   1.81023  109.730
 4630.00    1.79055   1.81567   -1.000
 4631.00    1.79743   1.81617  112.457
 4632.00    1.79549   1.80708  112.637
 4633.00    1.76520   1.78965   -1.000
 4634.00    1.74514   1.77017   -1.000
 4635.00    1.74565   1.75227  115.419
 4636.00    1.72435   1.73459  115.375
 4637.00    1.69211   1.71663   -1.000
 4638.00    1.66806   1.70302   -1.000
 4639.00    1.65130   1.70031   -1.000
 4640.00    1.66354   1.71039   -1.000
 4641.00    1.70761   1.72644  111.138
 4642.00    1.74827   1.73511  114.079
 4643.00    1.74659   1.72497  117.275
 4644.00    1.71350   1.69478  118.347
 4645.00    1.65684   1.65472  116.738
 4646.00    1.59158   1.62165   -1.000
 4647.00    1.55920   1.61183   -1.000
 4648.00    1.57465   1.63116   -1.000
 4649.00    1.64137   1.67104   -1.000
 4650.00    1.71586   1.71444  112.650
 4651.00    1.76101   1.74600  115.038
 4652.00    1.76818   1.75801  116.657
 4653.00    1.75185   1.75179  116.105
 4654.00    1.72247   1.73805  112.899
 4655.00    1.68683   1.73349   -1.000
 4656.00    1.67810   1.75139   -1.000
 4657.00    1.72440   1.79231   -1.000
 4658.00    1.80899   1.84188   -1.000
 4659.00    1.88049   1.87831  108.784
 4660.00    1.90351   1.88579  111.057
 4661.00    1.84651   1.86330  111.687
 4662.00    1.78333   1.82143   -1.000
 4663.00    1.75710   1.77173  117.497
 4664.00    1.71956   1.71900  122.483
 4665.00    1.67570   1.66439  123.572
 4666.00    1.59229   1.61521   -1.000
 4667.00    1.50264   1.58779   -1.000
 4668.00    1.49218   1.59610   -1.000
 4669.00    1.55888   1.63756   -1.000
 4670.00    1.66519   1.69222   -1.000
 4671.00    1.73255   1.73748  110.931
 4672.00    1.77062   1.76343  109.729
 4673.00    1.75523   1.77581  108.095
 4674.00    1.74892   1.78540   -1.000
 4675.00    1.76798   1.79516   -1.000
 4676.00    1.80291   1.79792  112.530
 4677.00    1.81460   1.78566  114.456
 4678.00    1.76873   1.75962  115.706
 4679.00    1.71937   1.73028  114.719
 4680.00    1.68358   1.70977   -1.000
 4681.00    1.66661   1.70541   -1.000
 4682.00    1.68313   1.71702   -1.000
 4683.00    1.74425   1.73716  110.498
 4684.00    1.77970   1.75519  111.021
 4685.00    1.77994   1.76419  111.148
 4686.00    1.76663   1.76419  111.149
 4687.00    1.76049   1.75971  111.812
 4688.00    1.74331   1.75527  112.158
 4689.00    1.73574   1.75268  111.091
 4690.00    1.74403   1.75203  109.473
 4691.00    1.74168   1.75457  107.161
 4692.00    1.74019   1.76298   -1.000
 4693.00    1.76424   1.77778  105.812
 4694.00    1.80058   1.79423  108.451
 4695.00    1.83388   1.80347  111.745
 4696.00    1.83423   1.79704   -1.000
 4697.00    1.78704   1.77328  112.857
 4698.00    1.73209   1.74005  113.374
 4699.00    1.69578   1.70910  115.214
 4700.00    1.67455   1.68736  116.076
 4701.00    1.67188   1.67601  114.320
 4702.00    1.66401   1.67537  112.517
 4703.00    1.65692   1.68554   -1.000
 4704.00    1.67620   1.70142   -1.000
 4705.00    1.71583   1.71246  117.090
 4706.00    1.71955   1.71200  116.750
 4707.00    1.68469   1.70500  113.740
 4708.00    1.67003   1.70366   -1.000
 4709.00    1.69352   1.71554   -1.000
 4710.00    1.75051   1.73672  109.856
 4711.00    1.79011   1.75595   -1.000
 4712.00    1.77663   1.76461  112.163
 4713.00    1.75077   1.76471  110.262
 4714.00    1.73140   1.76831   -1.000
 4715.00    1.73261   1.78687   -1.000
 4716.00    1.79021   1.82083   -1.000
 4717.00    1.86610   1.86022  106.434
 4718.00    1.88665   1.89358  107.141
 4719.00    1.89883   1.91465  107.944
 4720.00    1.92055   1.92268  107.528
 4721.00    1.89573   1.92142   -1.000
 4722.00    1.87887   1.91762   -1.000
 4723.00    1.85152   1.91506   -1.000
 4724.00    1.87680   1.90794   -1.000
 4725.00    1.90001   1.88472  115.365
 4726.00    1.85068   1.84057  115.383
 4727.00    1.76422   1.78566  114.282
 4728.00    1.69704   1.74044   -1.000
 4729.00    1.67364   1.72109   -1.000
 4730.00    1.68241   1.72941   -1.000
 4731.00    1.71792   1.75544   -1.000
 4732.00    1.74682   1.78556   -1.000
 4733.00    1.78070   1.80924   -1.000
 4734.00    1.81146   1.82227  110.947
 4735.00    1.83106   1.82758  109.725
 4736.00    1.82038   1.83209  109.539
 4737.00    1.82239   1.84116  110.110
 4738.00    1.83613   1.85447  110.333
 4739.00    1.86589   1.86654  109.590
 4740.00    1.85400   1.87331  108.425
 4741.00    1.83211   1.87685   -1.000
 4742.00    1.82946   1.88164   -1.000
 4743.00    1.85762   1.88943   -1.000
 4744.00    1.87200   1.90007   -1.000
 4745.00    1.87534   1.91365   -1.000
 4746.00    1.88991   1.92951   -1.000
 4747.00    1.89297   1.94526   -1.000
 4748.00    1.90543   1.95761   -1.000
 4749.00    1.92121   1.96364   -1.000
 4750.00    1.91353   1.96071   -1.000
 4751.00    1.88705   1.94724   -1.000
 4752.00    1.85933   1.92543   -1.000
 4753.00    1.82744   1.90179   -1.000
 4754.00    1.80877   1.88423   -1.000
 4755.00    1.80569   1.87770   -1.000
 4756.00    1.80793   1.88209   -1.000
 4757.00    1.80937   1.89395   -1.000
 4758.00    1.79987   1.90755   -1.000
 4759.00    1.81060   1.91474   -1.000
 4760.00    1.83898   1.90738   -1.000
 4761.00    1.82373   1.88285   -1.000
 4762.00    1.78182   1.84721   -1.000
 4763.00    1.74172   1.81144   -1.000
 4764.00    1.70260   1.78432   -1.000
 4765.00    1.68186   1.77057   -1.000
 4766.00    1.68491   1.77529   -1.000
 4767.00    1.73178   1.80227   -1.000
 4768.00    1.80137   1.84478   -1.000
 4769.00    1.86316   1.88507  111.788
 4770.00    1.86372   1.90842   -1.000
 4771.00    1.83708   1.91613   -1.000
 4772.00    1.82298   1.92270   -1.000
 4773.00    1.85731   1.93989   -1.000
 4774.00    1.92032   1.96614   -1.000
 4775.00    1.93738   1.99122   -1.000
 4776.00    1.91775   2.00701   -1.000
 4777.00    1.91745   2.01192   -1.000
 4778.00    1.92133   2.00715   -1.000
 4779.00    1.90650   1.99389   -1.000
 4780.00    1.87896   1.97405   -1.000
 4781.00    1.87571   1.95007   -1.000
 4782.00    1.86546   1.92501   -1.000
 4783.00    1.82295   1.90387   -1.000
 4784.00    1.82767   1.89102   -1.000
 4785.00    1.81378   1.88561   -1.000
 4786.00    1.80564   1.88384   -1.000
 4787.00    1.80783   1.88404   -1.000
 4788.00    1.80557   1.88719   -1.000
 4789.00    1.80564   1.89545   -1.000
 4790.00    1.81291   1.91250   -1.000
 4791.00    1.83548   1.94233   -1.000
 4792.00    1.87902   1.98466   -1.000
 4793.00    1.94290   2.03174   -1.000
 4794.00    1.97466   2.07040   -1.000
 4795.00    1.99722   2.08756   -1.000
 4796.00    1.99443   2.07759   -1.000
 4797.00    1.94408   2.04696   -1.000
 4798.00    1.88211   2.01167   -1.000
 4799.00    1.84280   1.98919   -1.000
 4800.00    1.84978   1.99000   -1.000
 4801.00    1.91133   2.01138   -1.000
 4802.00    1.97077   2.03752   -1.000
 4803.00    1.96989   2.04953   -1.000
 4804.00    1.94442   2.03942   -1.000
 4805.00    1.92657   2.01454   -1.000
 4806.00    1.90476   1.98911   -1.000
 4807.00    1.88555   1.97419   -1.000
 4808.00    1.88296   1.97405   -1.000
 4809.00    1.88124   1.98644   -1.000
 4810.00    1.89394   2.00399   -1.000
 4811.00    1.91967   2.01878   -1.000
 4812.00    1.93144   2.02799   -1.000
 4813.00    1.93984   2.03518   -1.000
 4814.00    1.95313   2.04553   -1.000
 4815.00    1.96365   2.06130   -1.000
 4816.00    1.98589   2.08103   -1.000
 4817.00    1.99522   2.10092   -1.000
 4818.00    2.00716   2.11607   -1.000
 4819.00    2.02528   2.12078   -1.000
 4820.00    2.01386   2.10941   -1.000
 4821.00    1.98010   2.08016   -1.000
 4822.00    1.93114   2.03973   -1.000
 4823.00    1.87916   2.00359   -1.000
 4824.00    1.85800   1.98790   -1.000
 4825.00    1.90166   1.99612   -1.000
 4826.00    1.96559   2.01457   -1.000
 4827.00    1.95467   2.02574   -1.000
 4828.00    1.92234   2.02379   -1.000
 4829.00    1.92036   2.01321   -1.000
 4830.00    1.91873   1.99926   -1.000
 4831.00    1.88910   1.98629   -1.000
 4832.00    1.86888   1.98141   -1.000
 4833.00    1.87462   1.99061   -1.000
 4834.00    1.93062   2.01100   -1.000
 4835.00    1.97465   2.03144   -1.000
 4836.00    1.96546   2.04052   -1.000
 4837.00    1.94894   2.03391   -1.000
 4838.00    1.91820   2.01490   -1.000
 4839.00    1.88408   1.99190   -1.000
 4840.00    1.86800   1.97429   -1.000
 4841.00    1.87638   1.96700   -1.000
 4842.00    1.87816   1.97005   -1.000
 4843.00    1.87915   1.98279   -1.000
 4844.00    1.91901   2.00431   -1.000
 4845.00    1.96257   2.02813   -1.000
 4846.00    1.97655   2.04233   -1.000
 4847.00    1.94473   2.04031   -1.000
 4848.00    1.92321   2.02910   -1.000
 4849.00    1.91166   2.02222   -1.000
 4850.00    1.93831   2.02430   -1.000
 4851.00    1.94169   2.02633   -1.000
 4852.00    1.92175   2.01470   -1.000
 4853.00    1.90960   1.98306   -1.000
 4854.00    1.87738   1.93818   -1.000
 4855.00    1.79947   1.89552   -1.000
 4856.00    1.77355   1.86440   -1.000
 4857.00    1.80381   1.83438   -1.000
 4858.00    1.78869   1.78211  150.136
 4859.00    1.69793   1.69815  142.186
 4860.00    1.54499   1.60745   -1.000
 4861.00    1.44343   1.55601   -1.000
 4862.00    1.47459   1.57186   -1.000
 4863.00    1.59517   1.64421   -1.000
 4864.00    1.70590   1.73747   -1.000
 4865.00    1.78254   1.82095   -1.000
 4866.00    1.82804   1.88070   -1.000
 4867.00    1.83082   1.91314   -1.000
 4868.00    1.83025   1.91652   -1.000
 4869.00    1.81851   1.89123   -1.000
 4870.00    1.74670   1.84708   -1.000
 4871.00    1.66552   1.80785   -1.000
 4872.00    1.66577   1.80011   -1.000
 4873.00    1.72927   1.83163   -1.000
 4874.00    1.77454   1.88395   -1.000
 4875.00    1.79782   1.93350   -1.000
 4876.00    1.82962   1.97185   -1.000
 4877.00    1.85481   2.00327   -1.000
 4878.00    1.87985   2.03103   -1.000
 4879.00    1.90667   2.05042   -1.000
 4880.00    1.90636   2.05436   -1.000
 4881.00    1.88123   2.04240   -1.000
 4882.00    1.85927   2.02220   -1.000
 4883.00    1.87947   1.99986   -1.000
 4884.00    1.86943   1.97412   -1.000
 4885.00    1.80826   1.94510   -1.000
 4886.00    1.78091   1.91975   -1.000
 4887.00    1.79505   1.90207   -1.000
 4888.00    1.79852   1.88564   -1.000
 4889.00    1.77768   1.86388   -1.000
 4890.00    1.72579   1.84607   -1.000
 4891.00    1.71711   1.85671   -1.000
 4892.00    1.80320   1.91415   -1.000
 4893.00    1.95093   2.00966   -1.000
 4894.00    2.05173   2.11083   -1.000
 4895.00    2.08056   2.18471   -1.000
 4896.00    2.10705   2.21924   -1.000
 4897.00    2.10648   2.22053   -1.000
 4898.00    2.09052   2.20089   -1.000
 4899.00    2.04661   2.17235   -1.000
 4900.00    1.99717   2.14449   -1.000
 4901.00    1.99621   2.12240   -1.000
 4902.00    1.97582   2.10778   -1.000
 4903.00    1.96355   2.10435   -1.000
 4904.00    1.99670   2.11679   -1.000
 4905.00    2.04541   2.14055   -1.000
 4906.00    2.07154   2.15679   -1.000
 4907.00    2.05506   2.14592   -1.000
 4908.00    2.00447   2.10702   -1.000
 4909.00    1.93739   2.05901   -1.000
 4910.00    1.89786   2.02687   -1.000
 4911.00    1.90614   2.02600   -1.000
 4912.00    1.96643   2.05454   -1.000
 4913.00    2.01143   2.09695   -1.000
 4914.00    2.06059   2.13304   -1.000
 4915.00    2.09240   2.14344   -1.000
 4916.00    2.05918   2.11116   -1.000
 4917.00    1.99889   2.03086   -1.000
 4918.00    1.85638   1.92137   -1.000
 4919.00    1.72708   1.82361   -1.000
 4920.00    1.66943   1.77662   -1.000
 4921.00    1.72456   1.79290   -1.000
 4922.00    1.82383   1.85155   -1.000
 4923.00    1.88889   1.91914   -1.000
 4924.00    1.91615   1.97697   -1.000
 4925.00    1.94620   2.02885   -1.000
 4926.00    1.98817   2.08374   -1.000
 4927.00    2.06195   2.14065   -1.000
 4928.00    2.12061   2.19062   -1.000
 4929.00    2.13977   2.22341   -1.000
 4930.00    2.13757   2.23055   -1.000
 4931.00    2.12659   2.20890   -1.000
 4932.00    2.09037   2.16640   -1.000
 4933.00    2.02340   2.12093   -1.000
 4934.00    1.98049   2.08803   -1.000
 4935.00    1.99535   2.06661   -1.000
 4936.00    2.00023   2.04146   -1.000
 4937.00    1.93239   2.00534   -1.000
 4938.00    1.85611   1.97505   -1.000
 4939.00    1.85065   1.97839   -1.000
 4940.00    1.96298   2.02515   -1.000
 4941.00    2.06806   2.09671   -1.000
 4942.00    2.11198   2.16333   -1.000
 4943.00    2.13187   2.20539   -1.000
 4944.00    2.15322   2.22189   -1.000
 4945.00    2.14772   2.22386   -1.000
 4946.00    2.13452   2.22548   -1.000
 4947.00    2.14630   2.23582   -1.000
 4948.00    2.16723   2.25390   -1.000
 4949.00    2.19224   2.27138   -1.000
 4950.00    2.20692   2.28055   -1.000
 4951.00    2.20328   2.27801   -1.000
 4952.00    2.18098   2.26193   -1.000
 4953.00    2.13923   2.22885   -1.000
 4954.00    2.09744   2.17211   -1.000
 4955.00    2.04440   2.08901   -1.000
 4956.00    1.94221   1.99560   -1.000
 4957.00    1.81322   1.93070   -1.000
 4958.00    1.80450   1.93157   -1.000
 4959.00    1.94642   1.99656   -1.000
 4960.00    2.07360   2.08488  107.512
 4961.00    2.12267   2.15219   -1.000
 4962.00    2.12373   2.17830   -1.000
 4963.00    2.11665   2.16778   -1.000
 4964.00    2.06997   2.13430   -1.000
 4965.00    1.99877   2.09383   -1.000
 4966.00    1.95029   2.06208   -1.000
 4967.00    1.96910   2.04857   -1.000
 4968.00    1.98190   2.05406   -1.000
 4969.00    1.99489   2.07473   -1.000
 4970.00    2.01991   2.10591   -1.000
 4971.00    2.05568   2.14223   -1.000
 4972.00    2.08236   2.17671   -1.000
 4973.00    2.11881   2.20137   -1.000
 4974.00    2.14201   2.21070   -1.000
 4975.00    2.13043   2.20307   -1.000
 4976.00    2.09456   2.17997   -1.000
 4977.00    2.05069   2.14551   -1.000
 4978.00    2.01048   2.10509   -1.000
 4979.00    1.97252   2.06066   -1.000
 4980.00    1.94657   2.00905   -1.000
 4981.00    1.89322   1.94912   -1.000
 4982.00    1.80349   1.89257   -1.000
 4983.00    1.77669   1.86230   -1.000
 4984.00    1.82815   1.87518   -1.000
 4985.00    1.89379   1.92767   -1.000
 4986.00    1.95392   1.99865   -1.000
 4987.00    2.02565   2.06169   -1.000
 4988.00    2.07254   2.09881   -1.000
 4989.00    2.04795   2.10780   -1.000
 4990.00    2.02112   2.10212   -1.000
 4991.00    2.02981   2.09766   -1.000
 4992.00    2.06483   2.10105   -1.000
 4993.00    2.05046   2.10988   -1.000
 4994.00    2.02726   2.12001   -1.000
 4995.00    2.04267   2.12891   -1.000
 4996.00    2.06268   2.13136   -1.000
 4997.00    2.05228   2.11806   -1.000
 4998.00    2.01349   2.08460   -1.000
 4999.00    1.97146   2.03903   -1.000
 5000.00    1.94440   1.99692   -1.000
 5001.00    1.93917   1.97037   -1.000
 5002.00    1.93455   1.95784   -1.000
 5003.00    1.92083   1.94667   -1.000
 5004.00    1.90364   1.92677   -1.000
 5005.00    1.87935   1.90405   -1.000
 5006.00    1.85797   1.89808   -1.000
 5007.00    1.87877   1.92301   -1.000
 5008.00    1.94939   1.96928  116.700
 5009.00    2.01044   2.00757  121.092
 5010.00    2.00696   2.01270  123.938
 5011.00    1.95500   1.98011   -1.000
 5012.00    1.86931   1.92712   -1.000
 5013.00    1.80024   1.88061   -1.000
 5014.00    1.77600   1.86037   -1.000
 5015.00    1.80658   1.86783   -1.000
 5016.00    1.87450   1.88953  116.280
 5017.00    1.90858   1.91238  115.326
 5018.00    1.90511   1.93204   -1.000
 5019.00    1.91903   1.94929   -1.000
 5020.00    1.95380   1.96268  115.430
 5021.00    1.93578   1.97132   -1.000
 5022.00    1.89488   1.98153   -1.000
 5023.00    1.93744   2.00082   -1.000
 5024.00    2.00430   2.02667  114.531
 5025.00    2.01568   2.04657   -1.000
 5026.00    1.97978   2.05180   -1.000
 5027.00    1.94674   2.04973   -1.000
 5028.00    1.95507   2.05755   -1.000
 5029.00    2.01911   2.08548   -1.000
 5030.00    2.05819   2.12957   -1.000
 5031.00    2.09342   2.17562   -1.000
 5032.00    2.15023   2.20703   -1.000
 5033.00    2.18511   2.20988  116.662
 5034.00    2.15847   2.18005  117.058
 5035.00    2.05530   2.12879   -1.000
 5036.00    1.97107   2.07453   -1.000
 5037.00    1.95395   2.02524   -1.000
 5038.00    1.94919   1.97361   -1.000
 5039.00    1.86254   1.91506   -1.000
 5040.00    1.74219   1.86659   -1.000
 5041.00    1.72157   1.86072   -1.000
 5042.00    1.82081   1.91627   -1.000
 5043.00    1.97001   2.01829   -1.000
 5044.00    2.11605   2.12714  106.652
 5045.00    1.23144   2.20293   -1.000
 5046.00    0.13739   2.22579   -1.000
 5047.00    0.03276   2.19835   -1.000
 5048.00    0.61346   2.14094   -1.000
 5049.00    1.64284   2.08231   -1.000
 5050.00    1.92903   2.04715   -1.000
 5051.00    1.96379   2.04531   -1.000
 5052.00    2.03462   2.07286   -1.000
 5053.00    2.08139   2.11845   -1.000
 5054.00    2.12698   2.16723   -1.000
 5055.00    2.14944   2.20688   -1.000
 5056.00    2.18318   2.23484   -1.000
 5057.00    2.18377   2.25580   -1.000
 5058.00    2.19567   2.27547   -1.000
 5059.00    2.21228   2.29562   -1.000
 5060.00    2.22170   2.31064   -1.000
 5061.00    2.25912   2.30927   -1.000
 5062.00    2.24790   2.28090   -1.000
 5063.00    2.16678   2.22587   -1.000
 5064.00    2.05170   2.16146   -1.000
 5065.00    1.98553   2.11150   -1.000
 5066.00    2.01175   2.08917   -1.000
 5067.00    2.04657   2.09097   -1.000
 5068.00    2.03149   2.10555   -1.000
 5069.00    2.06139   2.12250   -1.000
 5070.00    2.10201   2.13419   -1.000
 5071.00    2.10249   2.13637   -1.000
 5072.00    2.07292   2.13260   -1.000
 5073.00    2.07872   2.13183   -1.000
 5074.00    2.11408   2.13798  111.588
 5075.00    2.11885   2.14387   -1.000
 5076.00    2.10155   2.13733   -1.000
 5077.00    2.09537   2.10872  122.420
 5078.00    2.05035   2.05831  119.676
 5079.00    1.93120   2.00183   -1.000
 5080.00    1.87789   1.96434   -1.000
 5081.00    1.92768   1.96141   -1.000
 5082.00    1.98068   1.98758  111.438
 5083.00    2.01147   2.02847  110.692
 5084.00    2.03353   2.07310   -1.000
 5085.00    2.07946   2.11584   -1.000
 5086.00    2.11694   2.15227   -1.000
 5087.00    2.11920   2.17967   -1.000
 5088.00    2.12743   2.19929   -1.000
 5089.00    2.13817   2.21593   -1.000
 5090.00    2.16680   2.23443   -1.000
 5091.00    2.19862   2.25676   -1.000
 5092.00    2.22389   2.27839   -1.000
 5093.00    2.25556   2.28769   -1.000
 5094.00    2.24272   2.27228   -1.000
 5095.00    2.18255   2.22882   -1.000
 5096.00    2.10818   2.16732   -1.000
 5097.00    2.04275   2.10628   -1.000
 5098.00    1.96398   2.06587   -1.000
 5099.00    1.95089   2.06042   -1.000
 5100.00    2.00801   2.08956   -1.000
 5101.00    2.08884   2.13436   -1.000
 5102.00    2.14427   2.16970   -1.000
 5103.00    2.10888   2.18021   -1.000
 5104.00    2.07246   2.16815   -1.000
 5105.00    2.08178   2.14346   -1.000
 5106.00    2.06736   2.11477   -1.000
 5107.00    2.00889   2.08885   -1.000
 5108.00    2.00176   2.07270   -1.000
 5109.00    2.00948   2.07291   -1.000
 5110.00    2.02414   2.09232   -1.000
 5111.00    2.09023   2.12660   -1.000
 5112.00    2.14256   2.16677   -1.000
 5113.00    2.16547   2.20447   -1.000
 5114.00    2.19668   2.23790   -1.000
 5115.00    2.21874   2.26808   -1.000
 5116.00    2.23244   2.29339   -1.000
 5117.00    2.24570   2.30849   -1.000
 5118.00    2.26357   2.30713   -1.000
 5119.00    2.25927   2.28593  114.591
 5120.00    2.19309   2.24609   -1.000
 5121.00    2.12671   2.19295   -1.000
 5122.00    2.07952   2.13498   -1.000
 5123.00    1.99469   2.08358   -1.000
 5124.00    1.96259   2.04967   -1.000
 5125.00    1.98306   2.03758   -1.000
 5126.00    1.99361   2.04148   -1.000
 5127.00    1.99688   2.05156   -1.000
 5128.00    2.00368   2.06383   -1.000
 5129.00    2.02544   2.08125   -1.000
 5130.00    2.05014   2.10669   -1.000
 5131.00    2.09085   2.13795   -1.000
 5132.00    2.14371   2.16880   -1.000
 5133.00    2.16866   2.19393   -1.000
 5134.00    2.17953   2.20953   -1.000
 5135.00    2.19205   2.20987  116.267
 5136.00    2.17841   2.18994  116.297
 5137.00    2.11435   2.15337   -1.000
 5138.00    2.04557   2.11613   -1.000
 5139.00    2.02413   2.09389   -1.000
 5140.00    2.05597   2.08788   -1.000
 5141.00    2.06960   2.08957  115.262
 5142.00    2.03119   2.09255   -1.000
 5143.00    2.02233   2.09640   -1.000
 5144.00    2.06153   2.09974   -1.000
 5145.00    2.06203   2.09695   -1.000
 5146.00    2.02922   2.08756   -1.000
 5147.00    2.03301   2.08093   -1.000
 5148.00    2.05202   2.08325   -1.000
 5149.00    2.04548   2.08948   -1.000
 5150.00    2.04240   2.08957   -1.000
 5151.00    2.02781   2.08124   -1.000
 5152.00    1.99410   2.07316   -1.000
 5153.00    1.97630   2.07702   -1.000
 5154.00    2.01762   2.10086   -1.000
 5155.00    2.08973   2.14463   -1.000
 5156.00    2.15533   2.19864   -1.000
 5157.00    2.23190   2.24782  107.445
 5158.00    2.26131   2.28047  108.109
 5159.00    2.24826   2.29218   -1.000
 5160.00    2.27182   2.28271  111.242
 5161.00    2.24928   2.25190  115.894
 5162.00    2.18561   2.19822  125.916
 5163.00    2.12884   2.11898  139.033
 5164.00    2.04528   2.01191   -1.000
 5165.00    1.89443   1.88080  143.470
 5166.00    1.67448   1.74753   -1.000
 5167.00    1.50429   1.65159   -1.000
 5168.00    1.51024   1.61842   -1.000
 5169.00    1.63105   1.62777  152.546
 5170.00    1.69688   1.63314   -1.000
 5171.00    1.60243   1.61219  128.809
 5172.00    1.44679   1.59674   -1.000
 5173.00    1.47130   1.63744   -1.000
 5174.00    1.68706   1.74684   -1.000
 5175.00    1.92064   1.88853  113.526
 5176.00    2.04401   2.00799   -1.000
 5177.00    2.09018   2.07769  119.365
 5178.00    2.11798   2.09471   -1.000
 5179.00    2.08162   2.05994   -1.000
 5180.00    1.99518   1.97179   -1.000
 5181.00    1.83492   1.84066  144.516
 5182.00    1.61377   1.70550   -1.000
 5183.00    1.43579   1.62787   -1.000
 5184.00    1.46470   1.65093   -1.000
 5185.00    1.70493   1.76767   -1.000
 5186.00    1.96519   1.92165   -1.000
 5187.00    2.11944   2.05323   -1.000
 5188.00    2.17198   2.13093   -1.000
 5189.00    2.19850   2.15318   -1.000
 5190.00    2.20789   2.13158   -1.000
 5191.00    2.10614   2.08616  118.217
 5192.00    1.98730   2.04483   -1.000
 5193.00    1.98571   2.03138   -1.000
 5194.00    2.04599   2.04920  112.414
 5195.00    2.08491   2.08629  110.601
 5196.00    2.14032   2.13346  109.810
 5197.00    2.19738   2.18461  109.823
 5198.00    2.24743   2.23180  110.853
 5199.00    2.27527   2.26467  112.975
 5200.00    2.29290   2.27384  115.672
 5201.00    2.26567   2.25413  119.376
 5202.00    2.21891   2.20442  122.786
 5203.00    2.17078   2.12974   -1.000
 5204.00    2.06933   2.04255   -1.000
 5205.00    1.96788   1.96308  124.282
 5206.00    1.91388   1.90936  122.125
 5207.00    1.90460   1.89020  117.929
 5208.00    1.88864   1.90660  113.143
 5209.00    1.91737   1.95830   -1.000
 5210.00    2.02883   2.04094  107.056
 5211.00    2.15827   2.13751  108.559
 5212.00    2.28165   2.22001   -1.000
 5213.00    2.34188   2.26524   -1.000
 5214.00    2.31561   2.26900   -1.000
 5215.00    2.26012   2.25136  108.556
 5216.00    2.21519   2.24226   -1.000
 5217.00    2.23555   2.26151   -1.000
 5218.00    2.32430   2.30559  106.044
 5219.00    2.39726   2.35431   -1.000
 5220.00    2.41288   2.38581  111.217
 5221.00    2.40644   2.38534  115.947
 5222.00    2.37322   2.34627   -1.000
 5223.00    2.28806   2.27066  123.875
 5224.00    2.17360   2.17297  120.466
 5225.00    2.05580   2.08097   -1.000
 5226.00    1.98400   2.02968   -1.000
 5227.00    2.00126   2.04316   -1.000
 5228.00    2.12398   2.11392  107.933
 5229.00    2.27316   2.20368   -1.000
 5230.00    2.35136   2.26728   -1.000
 5231.00    2.35951   2.28300   -1.000
 5232.00    2.27288   2.26613  108.647
 5233.00    2.22382   2.25033   -1.000
 5234.00    2.24487   2.26342  105.187
 5235.00    2.28685   2.30933  105.199
 5236.00    2.38180   2.36994  105.505
 5237.00    2.46332   2.42286   -1.000
 5238.00    2.46700   2.45398  104.670
 5239.00    2.45295   2.46360  104.841
 5240.00    2.45389   2.46131  104.604
 5241.00    2.45890   2.45737  104.680
 5242.00    2.47281   2.45718  107.059
 5243.00    2.47310   2.45778  110.408
 5244.00    2.46804   2.44834  112.671
 5245.00    2.45115   2.41832   -1.000
 5246.00    2.36530   2.36983  113.075
 5247.00    2.28710   2.31884   -1.000
 5248.00    2.26171   2.28216  112.957
 5249.00    2.26309   2.26598  111.376
 5250.00    2.26336   2.26701  110.430
 5251.00    2.27621   2.27974  110.425
 5252.00    2.30429   2.29771  109.366
 5253.00    2.32725   2.31510  106.648
 5254.00    2.31479   2.33509  103.968
 5255.00    2.32085   2.36799   -1.000
 5256.00    2.39486   2.41803  104.685
 5257.00    2.50001   2.47098  107.863
 5258.00    2.55423   2.49934   -1.000
 5259.00    2.52699   2.48314   -1.000
 5260.00    2.47691   2.41835   -1.000
 5261.00    2.37863   2.31664   -1.000
 5262.00    2.22743   2.19925   -1.000
 5263.00    2.09160   2.09109  121.380
 5264.00    2.01503   2.01178  119.792
 5265.00    1.97890   1.96925  122.983
 5266.00    1.98572   1.95356   -1.000
 5267.00    2.05032   1.94355   -1.000
 5268.00    2.01977   1.92541   -1.000
 5269.00    1.88110   1.91296   -1.000
 5270.00    1.87876   1.93792   -1.000
 5271.00    2.05939   2.01268   -1.000
 5272.00    2.22853   2.11304   -1.000
 5273.00    2.30501   2.19838   -1.000
 5274.00    2.30495   2.25703   -1.000
 5275.00    2.30598   2.30851  103.295
 5276.00    2.36662   2.36815  104.318
 5277.00    2.46929   2.43033   -1.000
 5278.00    2.55296   2.47121   -1.000
 5279.00    2.54445   2.47189   -1.000
 5280.00    2.48731   2.43471   -1.000
 5281.00    2.43382   2.38112   -1.000
 5282.00    2.35281   2.34074  105.512
 5283.00    2.30169   2.33861   -1.000
 5284.00    2.27800   2.38379   -1.000
 5285.00    2.45781   2.46098  102.625
 5286.00    2.61464   2.53995   -1.000
 5287.00    2.63680   2.59474   -1.000
 5288.00    2.64148   2.62273  101.826
 5289.00    2.63885   2.63508  102.527
 5290.00    2.65760   2.64023  103.576
 5291.00    2.66855   2.63814   -1.000
 5292.00    2.62702   2.62400  108.296
 5293.00    2.60890   2.59411  112.378
 5294.00    2.60591   2.54445   -1.000
 5295.00    2.52631   2.47343   -1.000
 5296.00    2.40328   2.39213  110.603
 5297.00    2.27605   2.32718   -1.000
 5298.00    2.24380   2.30297   -1.000
 5299.00    2.32366   2.32371  106.474
 5300.00    2.40783   2.37139   -1.000
 5301.00    2.45551   2.42798  102.030
 5302.00    2.50370   2.48801  102.050
 5303.00    2.58169   2.55010   -1.000
 5304.00    2.67440   2.60554   -1.000
 5305.00    2.72430   2.64105   -1.000
 5306.00    2.69107   2.65353   -1.000
 5307.00    2.66777   2.65574  101.370
 5308.00    2.69950   2.66142   -1.000
 5309.00    2.74230   2.67353   -1.000
 5310.00    2.74382   2.68343   -1.000
 5311.00    2.72006   2.68140   -1.000
 5312.00    2.69599   2.66639   -1.000
 5313.00    2.69350   2.64308   -1.000
 5314.00    2.67462   2.61706   -1.000
 5315.00    2.65853   2.59363   -1.000
 5316.00    2.62511   2.57733   -1.000
 5317.00    2.60360   2.57149   -1.000
 5318.00    2.60554   2.57426   -1.000
 5319.00    2.62407   2.57703   -1.000
 5320.00    2.64121   2.57011   -1.000
 5321.00    2.60502   2.54705   -1.000
 5322.00    2.56230   2.50649   -1.000
 5323.00    2.51935   2.45157   -1.000
 5324.00    2.46180   2.38647   -1.000
 5325.00    2.43614   2.31119   -1.000
 5326.00    2.39476   2.22739   -1.000
 5327.00    2.21998   2.15358   -1.000
 5328.00    2.07826   2.12633   -1.000
 5329.00    2.14527   2.16938   -1.000
 5330.00    2.33163   2.26969   -1.000
 5331.00    2.49134   2.38158   -1.000
 5332.00    2.52843   2.47130   -1.000
 5333.00    2.56797   2.53373   -1.000
 5334.00    2.64569   2.57739   -1.000
 5335.00    2.69728   2.60471   -1.000
 5336.00    2.68657   2.60762   -1.000
 5337.00    2.65150   2.58031   -1.000
 5338.00    2.61264   2.52810   -1.000
 5339.00    2.52713   2.46887   -1.000
 5340.00    2.44341   2.42875  105.187
 5341.00    2.43333   2.42670  105.421
 5342.00    2.50306   2.45882   -1.000
 5343.00    2.59677   2.49865   -1.000
 5344.00    2.63401   2.52233   -1.000
 5345.00    2.60255   2.52283   -1.000
 5346.00    2.56554   2.50804   -1.000
 5347.00    2.55541   2.49082   -1.000
 5348.00    2.53914   2.48360   -1.000
 5349.00    2.52771   2.49633  102.822
 5350.00    2.58184   2.53304   -1.000
 5351.00    2.65440   2.58590   -1.000
 5352.00    2.70959   2.64137   -1.000
 5353.00    2.75182   2.69006   -1.000
 5354.00    2.77418   2.72957   -1.000
 5355.00    2.81885   2.76089   -1.000
 5356.00    2.85439   2.78130   -1.000
 5357.00    2.84619   2.78781   -1.000
 5358.00    2.82156   2.78027   -1.000
 5359.00    2.79660   2.75989   -1.000
 5360.00    2.77929   2.72872   -1.000
 5361.00    2.72033   2.69103   -1.000
 5362.00    2.68888   2.65259   -1.000
 5363.00    2.66130   2.61740   -1.000
 5364.00    2.65413   2.58757   -1.000
 5365.00    2.62372   2.56377   -1.000
 5366.00    2.61028   2.54197   -1.000
 5367.00    2.59722   2.51334   -1.000
 5368.00    2.54579   2.46769   -1.000
 5369.00    2.46751   2.40799   -1.000
 5370.00    2.36868   2.35939  103.848
 5371.00    2.33481   2.35329  101.806
 5372.00    2.44675   2.40406   -1.000
 5373.00    2.61182   2.49381   -1.000
 5374.00    2.73702   2.58456   -1.000
 5375.00    2.78226   2.64777   -1.000
 5376.00    2.77515   2.67755   -1.000
 5377.00    2.74362   2.68668   -1.000
 5378.00    2.73637   2.68715   -1.000
 5379.00    2.75287   2.68148   -1.000
 5380.00    2.74679   2.66753   -1.000
 5381.00    2.72207   2.64737   -1.000
 5382.00    2.71322   2.63035   -1.000
 5383.00    2.69737   2.62564   -1.000
 5384.00    2.69749   2.63506   -1.000
 5385.00    2.74550   2.65037   -1.000
 5386.00    2.76960   2.65795   -1.000
 5387.00    2.74232   2.64690   -1.000
 5388.00    2.68925   2.61640   -1.000
 5389.00    2.63081   2.57595   -1.000
 5390.00    2.58953   2.53786   -1.000
 5391.00    2.56617   2.51099   -1.000
 5392.00    2.55820   2.49509   -1.000
 5393.00    2.57146   2.48237   -1.000
 5394.00    2.56381   2.46352   -1.000
 5395.00    2.52230   2.43624   -1.000
 5396.00    2.45479   2.41114   -1.000
 5397.00    2.42187   2.40645  105.711
 5398.00    2.49783   2.43252   -1.000
 5399.00    2.57884   2.47954   -1.000
 5400.00    2.61411   2.52212   -1.000
 5401.00    2.62256   2.53615   -1.000
 5402.00    2.62434   2.51022   -1.000
 5403.00    2.54852   2.44918   -1.000
 5404.00    2.42682   2.37645   -1.000
 5405.00    2.35352   2.32394  110.823
 5406.00    2.35015   2.31417   -1.000
 5407.00    2.42450   2.33987   -1.000
 5408.00    2.48430   2.37600   -1.000
 5409.00    2.46493   2.41053   -1.000
 5410.00    2.48208   2.44801   -1.000
 5411.00    2.54704   2.49853   -1.000
 5412.00    2.63991   2.55616   -1.000
 5413.00    2.71711   2.60538   -1.000
 5414.00    2.71184   2.64185   -1.000
 5415.00    2.70866   2.67031   -1.000
 5416.00    2.72465   2.69480   -1.000
 5417.00    2.77936   2.71060   -1.000
 5418.00    2.79498   2.71043   -1.000
 5419.00    2.75851   2.69660   -1.000
 5420.00    2.71558   2.67771   -1.000
 5421.00    2.72079   2.65988   -1.000
 5422.00    2.74058   2.64586   -1.000
 5423.00    2.70355   2.63840   -1.000
 5424.00    2.65322   2.64349  104.963
 5425.00    2.68046   2.66159  108.173
 5426.00    2.75397   2.67497   -1.000
 5427.00    2.78043   2.66088   -1.000
 5428.00    2.68967   2.61376   -1.000
 5429.00    2.56781   2.55536  109.143
 5430.00    2.53397   2.51617  110.753
 5431.00    2.58122   2.50211   -1.000
 5432.00    2.61627   2.49770   -1.000
 5433.00    2.57907   2.48872   -1.000
 5434.00    2.53239   2.48216   -1.000
 5435.00    2.52682   2.49927  103.260
 5436.00    2.58651   2.55007   -1.000
 5437.00    2.67343   2.62618   -1.000
 5438.00    2.75847   2.70667   -1.000
 5439.00    2.83946   2.77228   -1.000
 5440.00    2.87122   2.81348   -1.000
 5441.00    2.88831   2.82804   -1.000
 5442.00    2.87251   2.81469   -1.000
 5443.00    2.84003   2.76897   -1.000
 5444.00    2.75001   2.69284   -1.000
 5445.00    2.61192   2.60448  107.602
 5446.00    2.48889   2.53618   -1.000
 5447.00    2.48340   2.51788   -1.000
 5448.00    2.57499   2.55062  104.817
 5449.00    2.69985   2.60890   -1.000
 5450.00    2.77172   2.65568   -1.000
 5451.00    2.78890   2.66670   -1.000
 5452.00    2.74883   2.63984   -1.000
 5453.00    2.68781   2.58650   -1.000
 5454.00    2.60061   2.53041   -1.000
 5455.00    2.52653   2.50222  104.661
 5456.00    2.56636   2.52141   -1.000
 5457.00    2.67623   2.57967   -1.000
 5458.00    2.77360   2.64369   -1.000
 5459.00    2.81502   2.67646   -1.000
 5460.00    2.78008   2.66880   -1.000
 5461.00    2.70615   2.63585   -1.000
 5462.00    2.63896   2.60361   -1.000
 5463.00    2.63345   2.59179   -1.000
 5464.00    2.69026   2.60490   -1.000
 5465.00    2.75790   2.63325   -1.000
 5466.00    2.76434   2.66202   -1.000
 5467.00    2.76901   2.68104   -1.000
 5468.00    2.78991   2.68636   -1.000
 5469.00    2.76315   2.67879   -1.000
 5470.00    2.71775   2.66231   -1.000
 5471.00    2.69709   2.64116   -1.000
 5472.00    2.68884   2.61578   -1.000
 5473.00    2.66831   2.58309   -1.000
 5474.00    2.64193   2.54152   -1.000
 5475.00    2.58958   2.50016   -1.000
 5476.00    2.51891   2.47715   -1.000
 5477.00    2.50811   2.48436  109.398
 5478.00    2.59263   2.51669   -1.000
 5479.00    2.67360   2.54912   -1.000
 5480.00    2.67442   2.56512   -1.000
 5481.00    2.61633   2.57241   -1.000
 5482.00    2.58115   2.59010  105.252
 5483.00    2.62278   2.62759  106.557
 5484.00    2.70578   2.66888   -1.000
 5485.00    2.77487   2.69149   -1.000
 5486.00    2.77280   2.68735   -1.000
 5487.00    2.71539   2.66780   -1.000
 5488.00    2.69732   2.65393   -1.000
 5489.00    2.71458   2.65603   -1.000
 5490.00    2.74222   2.67106   -1.000
 5491.00    2.77391   2.68609   -1.000
 5492.00    2.79019   2.69384   -1.000
 5493.00    2.77116   2.69431   -1.000
 5494.00    2.75643   2.69044   -1.000
 5495.00    2.76427   2.68527   -1.000
 5496.00    2.76078   2.68084   -1.000
 5497.00    2.74997   2.68017   -1.000
 5498.00    2.77475   2.68401   -1.000
 5499.00    2.80637   2.68515   -1.000
 5500.00    2.80925   2.67476   -1.000
 5501.00    2.75987   2.65407   -1.000
 5502.00    2.70995   2.63196   -1.000
 5503.00    2.69221   2.61700   -1.000
 5504.00    2.70649   2.60766   -1.000
 5505.00    2.67724   2.60008   -1.000
 5506.00    2.65407   2.59938   -1.000
 5507.00    2.67789   2.61119   -1.000
 5508.00    2.73132   2.63078   -1.000
 5509.00    2.75651   2.64210   -1.000
 5510.00    2.74732   2.63027   -1.000
 5511.00    2.70591   2.59885   -1.000
 5512.00    2.64322   2.56583   -1.000
 5513.00    2.61377   2.54945   -1.000
 5514.00    2.63814   2.55898   -1.000
 5515.00    2.68853   2.59102   -1.000
 5516.00    2.74653   2.63785   -1.000
 5517.00    2.79863   2.68999   -1.000
 5518.00    2.84452   2.73752   -1.000
 5519.00    2.88404   2.77178   -1.000
 5520.00    2.88985   2.78902   -1.000
 5521.00    2.87931   2.79238   -1.000
 5522.00    2.88310   2.78827   -1.000
 5523.00    2.88569   2.77624   -1.000
 5524.00    2.86768   2.75075   -1.000
 5525.00    2.82681   2.70732   -1.000
 5526.00    2.76062   2.65264   -1.000
 5527.00    2.67500   2.60717   -1.000
 5528.00    2.61667   2.59149  106.028
 5529.00    2.64518   2.61460  106.596
 5530.00    2.74274   2.66016   -1.000
 5531.00    2.80454   2.70246   -1.000
 5532.00    2.81821   2.72384   -1.000
 5533.00    2.80725   2.72501   -1.000
 5534.00    2.79750   2.71764   -1.000
 5535.00    2.78511   2.71264   -1.000
 5536.00    2.78468   2.71618   -1.000
 5537.00    2.80876   2.72981   -1.000
 5538.00    2.83792   2.75124   -1.000
 5539.00    2.87474   2.77479   -1.000
 5540.00    2.92115   2.79339   -1.000
 5541.00    2.95342   2.79974   -1.000
 5542.00    2.91785   2.79293   -1.000
 5543.00    2.84578   2.77968   -1.000
 5544.00    2.83489   2.77043   -1.000
 5545.00    2.86446   2.77184   -1.000
 5546.00    2.87552   2.78578   -1.000
 5547.00    2.89461   2.80948   -1.000
 5548.00    2.93849   2.83721   -1.000
 5549.00    2.97297   2.85926   -1.000
 5550.00    2.98957   2.86726   -1.000
 5551.00    2.99874   2.85905   -1.000
 5552.00    2.97361   2.83905   -1.000
 5553.00    2.92942   2.81595   -1.000
 5554.00    2.89808   2.79892   -1.000
 5555.00    2.90806   2.79173   -1.000
 5556.00    2.92863   2.79191   -1.000
 5557.00    2.93124   2.79470   -1.000
 5558.00    2.93768   2.79607   -1.000
 5559.00    2.93847   2.79394   -1.000
 5560.00    2.92532   2.78575   -1.000
 5561.00    2.90599   2.77094   -1.000
 5562.00    2.87837   2.75295   -1.000
 5563.00    2.84548   2.73720   -1.000
 5564.00    2.82795   2.72502   -1.000
 5565.00    2.82671   2.71512   -1.000
 5566.00    2.81912   2.70664   -1.000
 5567.00    2.81277   2.70146   -1.000
 5568.00    2.82169   2.70147   -1.000
 5569.00    2.84813   2.70538   -1.000
 5570.00    2.91538   2.70972   -1.000
 5571.00    3.09198   2.71188   -1.000
 5572.00    3.33602   2.71363   -1.000
 5573.00    3.52866   2.72059   -1.000
 5574.00    3.48767   2.73583   -1.000
 5575.00    3.25173   2.75754   -1.000
 5576.00    3.16828   2.77785   -1.000
 5577.00    3.06391   2.79320   -1.000
 5578.00    2.97549   2.80546   -1.000
 5579.00    2.95337   2.81380   -1.000
 5580.00    2.95232   2.81485   -1.000
 5581.00    2.94898   2.80775   -1.000
 5582.00    2.92617   2.79116   -1.000
 5583.00    2.90057   2.76281   -1.000
 5584.00    2.88069   2.71839   -1.000
 5585.00    2.81570   2.65632   -1.000
 5586.00    2.71305   2.58847   -1.000
 5587.00    2.63232   2.53527   -1.000
 5588.00    2.60940   2.51452   -1.000
 5589.00    2.64276   2.52925   -1.000
 5590.00    2.70454   2.56525   -1.000
 5591.00    2.74944   2.60640   -1.000
 5592.00    2.75459   2.64128   -1.000
 5593.00    2.75457   2.67142   -1.000
 5594.00    2.78733   2.70089   -1.000
 5595.00    2.84074   2.72748   -1.000
 5596.00    2.88059   2.74039   -1.000
 5597.00    2.86937   2.72933   -1.000
 5598.00    2.80833   2.69718   -1.000
 5599.00    2.76127   2.65723   -1.000
 5600.00    2.73685   2.62592   -1.000
 5601.00    2.70784   2.61538   -1.000
 5602.00    2.69556   2.63376   -1.000
 5603.00    2.75018   2.68267   -1.000
 5604.00    2.86006   2.75246   -1.000
 5605.00    2.95155   2.82265   -1.000
 5606.00    3.00238   2.87547   -1.000
 5607.00    3.02623   2.90526   -1.000
 5608.00    3.03085   2.91742   -1.000
 5609.00    3.03605   2.92175   -1.000
 5610.00    3.05604   2.92145   -1.000
 5611.00    3.06586   2.90985   -1.000
 5612.00    3.04085   2.87328   -1.000
 5613.00    2.97164   2.80729   -1.000
 5614.00    2.84772   2.72754   -1.000
 5615.00    2.74451   2.66513   -1.000
 5616.00    2.74417   2.64586   -1.000
 5617.00    2.81332   2.66737   -1.000
 5618.00    2.85570   2.70956   -1.000
 5619.00    2.88285   2.74804   -1.000
 5620.00    2.89664   2.77319   -1.000
 5621.00    2.91853   2.78032   -1.000
 5622.00    2.91089   2.76573   -1.000
 5623.00    2.85813   2.73381   -1.000
 5624.00    2.78060   2.70452   -1.000
 5625.00    2.75507   2.69713   -1.000
 5626.00    2.81007   2.72115   -1.000
 5627.00    2.88382   2.76567   -1.000
 5628.00    2.95012   2.81364   -1.000
 5629.00    2.99107   2.85247   -1.000
 5630.00    3.01892   2.87559   -1.000
 5631.00    3.04208   2.88104   -1.000
 5632.00    3.04435   2.87124   -1.000
 5633.00    3.00095   2.85038   -1.000
 5634.00    2.95347   2.82404   -1.000
 5635.00    2.93922   2.79747   -1.000
 5636.00    2.90680   2.77659   -1.000
 5637.00    2.88058   2.76453   -1.000
 5638.00    2.87360   2.76017   -1.000
 5639.00    2.87706   2.75837   -1.000
 5640.00    2.87200   2.75546   -1.000
 5641.00    2.86477   2.75301   -1.000
 5642.00    2.86941   2.75587   -1.000
 5643.00    2.88834   2.76737   -1.000
 5644.00    2.91184   2.78376   -1.000
 5645.00    2.93796   2.79978   -1.000
 5646.00    2.94690   2.81154   -1.000
 5647.00    2.95217   2.81728   -1.000
 5648.00    2.94888   2.81889   -1.000
 5649.00    2.93438   2.82161   -1.000
 5650.00    2.93966   2.82895   -1.000
 5651.00    2.97844   2.83815   -1.000
 5652.00    3.01417   2.84174   -1.000
 5653.00    2.99763   2.83279   -1.000
 5654.00    2.94883   2.81092   -1.000
 5655.00    2.91635   2.77916   -1.000
 5656.00    2.88544   2.73939   -1.000
 5657.00    2.81025   2.69800   -1.000
 5658.00    2.74260   2.66854   -1.000
 5659.00    2.75481   2.66163   -1.000
 5660.00    2.81203   2.67776   -1.000
 5661.00    2.84202   2.70441   -1.000
 5662.00    2.85196   2.73182   -1.000
 5663.00    2.88666   2.76046   -1.000
 5664.00    2.94115   2.78849   -1.000
 5665.00    2.95359   2.80759   -1.000
 5666.00    2.93815   2.81352   -1.000
 5667.00    2.92174   2.80999   -1.000
 5668.00    2.90147   2.80741   -1.000
 5669.00    2.90858   2.81464   -1.000
 5670.00    2.94580   2.83371   -1.000
 5671.00    2.98281   2.86187   -1.000
 5672.00    3.03519   2.89266   -1.000
 5673.00    3.07239   2.91807   -1.000
 5674.00    3.08114   2.93286   -1.000
 5675.00    3.08632   2.93874   -1.000
 5676.00    3.08961   2.93840   -1.000
 5677.00    3.10054   2.93321   -1.000
 5678.00    3.10218   2.92086   -1.000
 5679.00    3.05794   2.89932   -1.000
 5680.00    3.01488   2.87078   -1.000
 5681.00    2.99049   2.84090   -1.000
 5682.00    2.95521   2.81751   -1.000
 5683.00    2.93175   2.80622   -1.000
 5684.00    2.96067   2.80577   -1.000
 5685.00    2.97722   2.80715   -1.000
 5686.00    2.93382   2.80447   -1.000
 5687.00    2.88356   2.80289   -1.000
 5688.00    2.88590   2.81182   -1.000
 5689.00    2.93886   2.83626   -1.000
 5690.00    3.00793   2.87143   -1.000
 5691.00    3.06529   2.90631   -1.000
 5692.00    3.08928   2.93138   -1.000
 5693.00    3.08549   2.94267   -1.000
 5694.00    3.07534   2.94148   -1.000
 5695.00    3.05997   2.93081   -1.000
 5696.00    3.02965   2.91239   -1.000
 5697.00    3.00365   2.88701   -1.000
 5698.00    2.97076   2.85707   -1.000
 5699.00    2.91287   2.82727   -1.000
 5700.00    2.86867   2.80416   -1.000
 5701.00    2.84500   2.79309   -1.000
 5702.00    2.84036   2.79488   -1.000
 5703.00    2.88912   2.80318   -1.000
 5704.00    2.94053   2.80337   -1.000
 5705.00    2.92573   2.78632   -1.000
 5706.00    2.86584   2.75314   -1.000
 5707.00    2.79838   2.71407   -1.000
 5708.00    2.74662   2.68318   -1.000
 5709.00    2.73759   2.66920   -1.000
 5710.00    2.75758   2.67747   -1.000
 5711.00    2.79094   2.70931   -1.000
 5712.00    2.85886   2.75880   -1.000
 5713.00    2.94803   2.81580   -1.000
 5714.00    3.00967   2.86811   -1.000
 5715.00    3.02588   2.90719   -1.000
 5716.00    3.05383   2.93443   -1.000
 5717.00    3.08816   2.95452   -1.000
 5718.00    3.11241   2.97300   -1.000
 5719.00    3.13890   2.99304   -1.000
 5720.00    3.14506   3.01452   -1.000
 5721.00    3.15746   3.03391   -1.000
 5722.00    3.18419   3.04651   -1.000
 5723.00    3.19842   3.04724   -1.000
 5724.00    3.18989   3.03430   -1.000
 5725.00    3.15356   3.01110   -1.000
 5726.00    3.10454   2.98792   -1.000
 5727.00    3.07503   2.97447   -1.000
 5728.00    3.08792   2.97260   -1.000
 5729.00    3.11759   2.97572   -1.000
 5730.00    3.11849   2.97670   -1.000
 5731.00    3.09835   2.97861   -1.000
 5732.00    3.10164   2.98803   -1.000
 5733.00    3.13349   3.00554   -1.000
 5734.00    3.16333   3.02339   -1.000
 5735.00    3.17532   3.03124   -1.000
 5736.00    3.15626   3.02885   -1.000
 5737.00    3.12543   3.02203   -1.000
 5738.00    3.10354   3.01660   -1.000
 5739.00    3.09557   3.01459   -1.000
 5740.00    3.09791   3.01329   -1.000
 5741.00    3.09768   3.01327   -1.000
 5742.00    3.09855   3.01692   -1.000
 5743.00    3.10057   3.02591   -1.000
 5744.00    3.13241   3.03671   -1.000
 5745.00    3.16970   3.04031   -1.000
 5746.00    3.16196   3.03326   -1.000
 5747.00    3.12654   3.02086   -1.000
 5748.00    3.10801   3.01227   -1.000
 5749.00    3.14154   3.00993   -1.000
 5750.00    3.17474   3.00218   -1.000
 5751.00    3.13380   2.98135   -1.000
 5752.00    3.06006   2.95188   -1.000
 5753.00    3.00478   2.93299   -1.000
 5754.00    2.99620   2.94217   -1.000
 5755.00    3.06490   2.97672   -1.000
 5756.00    3.16081   3.01973   -1.000
 5757.00    3.20271   3.04587   -1.000
 5758.00    3.18845   3.04328   -1.000
 5759.00    3.15205   3.01363   -1.000
 5760.00    3.08901   2.97239   -1.000
 5761.00    3.02638   2.94044   -1.000
 5762.00    3.00385   2.93583   -1.000
 5763.00    3.04275   2.96289   -1.000
 5764.00    3.12306   3.01029   -1.000
 5765.00    3.19776   3.05868   -1.000
 5766.00    3.21402   3.09150   -1.000
 5767.00    3.19776   3.10619   -1.000
 5768.00    3.18970   3.10595   -1.000
 5769.00    3.17621   3.09688   -1.000
 5770.00    3.16140   3.08297   -1.000
 5771.00    3.12467   3.06737   -1.000
 5772.00    3.07809   3.05277   -1.000
 5773.00    3.03734   3.04227  104.463
 5774.00    2.98820   3.03923   -1.000
 5775.00    2.91598   3.04160   -1.000
 5776.00    2.86975   3.04246   -1.000
 5777.00    2.89887   3.03019   -1.000
 5778.00    2.95950   2.99591   -1.000
 5779.00    2.97049   2.94238   -1.000
 5780.00    2.94270   2.88202   -1.000
 5781.00    2.90400   2.83312   -1.000
 5782.00    2.88061   2.80485   -1.000
 5783.00    2.87398   2.79856   -1.000
 5784.00    2.86659   2.80939   -1.000
 5785.00    2.88504   2.83539   -1.000
 5786.00    2.95221   2.87494   -1.000
 5787.00    3.04558   2.91938   -1.000
 5788.00    3.11863   2.95557   -1.000
 5789.00    3.13408   2.97764   -1.000
 5790.00    3.09487   2.98963   -1.000
 5791.00    3.05583   3.00400   -1.000
 5792.00    3.06828   3.02774   -1.000
 5793.00    3.10911   3.05777   -1.000
 5794.00    3.16735   3.08155   -1.000
 5795.00    3.22250   3.08910   -1.000
 5796.00    3.21081   3.08349   -1.000
 5797.00    3.17123   3.07768   -1.000
 5798.00    3.17186   3.08722   -1.000
 5799.00    3.22830   3.11310   -1.000
 5800.00    3.30206   3.14330   -1.000
 5801.00    3.32612   3.15999   -1.000
 5802.00    3.29634   3.15433   -1.000
 5803.00    3.24288   3.13211   -1.000
 5804.00    3.18415   3.10589   -1.000
 5805.00    3.14979   3.08902   -1.000
 5806.00    3.15046   3.08586   -1.000
 5807.00    3.16831   3.09400   -1.000
 5808.00    3.19540   3.10742   -1.000
 5809.00    3.23241   3.12100   -1.000
 5810.00    3.26824   3.13017   -1.000
 5811.00    3.29000   3.13121   -1.000
 5812.00    3.29190   3.12101   -1.000
 5813.00    3.24926   3.10120   -1.000
 5814.00    3.19838   3.07815   -1.000
 5815.00    3.18058   3.06412   -1.000
 5816.00    3.18295   3.06836   -1.000
 5817.00    3.21876   3.09299   -1.000
 5818.00    3.27259   3.12603   -1.000
 5819.00    3.30762   3.15374   -1.000
 5820.00    3.32915   3.16647   -1.000
 5821.00    3.32586   3.16625   -1.000
 5822.00    3.30713   3.16094   -1.000
 5823.00    3.31536   3.15731   -1.000
 5824.00    3.32557   3.15894   -1.000
 5825.00    3.31465   3.16378   -1.000
 5826.00    3.30700   3.17029   -1.000
 5827.00    3.31154   3.17684   -1.000
 5828.00    3.32736   3.18253   -1.000
 5829.00    3.33570   3.18627   -1.000
 5830.00    3.33145   3.18605   -1.000
 5831.00    3.32681   3.18071   -1.000
 5832.00    3.31258   3.17099   -1.000
 5833.00    3.28702   3.15925   -1.000
 5834.00    3.27245   3.14960   -1.000
 5835.00    3.27630   3.14439   -1.000
 5836.00    3.28461   3.14422   -1.000
 5837.00    3.28258   3.14845   -1.000
 5838.00    3.26240   3.15721   -1.000
 5839.00    3.25708   3.17185   -1.000
 5840.00    3.28255   3.18914   -1.000
 5841.00    3.31973   3.20268   -1.000
 5842.00    3.34236   3.20586   -1.000
 5843.00    3.34450   3.19578   -1.000
 5844.00    3.33049   3.17508   -1.000
 5845.00    3.30074   3.14941   -1.000
 5846.00    3.25726   3.12570   -1.000
 5847.00    3.22988   3.10890   -1.000
 5848.00    3.23808   3.09906   -1.000
 5849.00    3.26402   3.09078   -1.000
 5850.00    3.26697   3.07776   -1.000
 5851.00    3.22632   3.05793   -1.000
 5852.00    3.17298   3.03556   -1.000
 5853.00    3.13894   3.01489   -1.000
 5854.00    3.13943   2.99445   -1.000
 5855.00    3.14035   2.97044   -1.000
 5856.00    3.10744   2.94406   -1.000
 5857.00    3.06992   2.92668   -1.000
 5858.00    3.07259   2.93088   -1.000
 5859.00    3.13011   2.95635   -1.000
 5860.00    3.18682   2.99184   -1.000
 5861.00    3.19505   3.02101   -1.000
 5862.00    3.19177   3.03858   -1.000
 5863.00    3.18915   3.04488   -1.000
 5864.00    3.17824   3.04390   -1.000
 5865.00    3.16869   3.03991   -1.000
 5866.00    3.16842   3.03965   -1.000
 5867.00    3.18924   3.04940   -1.000
 5868.00    3.23014   3.07052   -1.000
 5869.00    3.26921   3.09449   -1.000
 5870.00    3.28373   3.11142   -1.000
 5871.00    3.29297   3.11733   -1.000
 5872.00    3.29473   3.11467   -1.000
 5873.00    3.29247   3.10923   -1.000
 5874.00    3.29892   3.10272   -1.000
 5875.00    3.28261   3.09298   -1.000
 5876.00    3.25221   3.07674   -1.000
 5877.00    3.21812   3.05394   -1.000
 5878.00    3.17772   3.02989   -1.000
 5879.00    3.14339   3.01022   -1.000
 5880.00    3.10606   2.99947   -1.000
 5881.00    3.05932   2.99499   -1.000
 5882.00    2.94547   2.99163   -1.000
 5883.00    2.72192   2.98159   -1.000
 5884.00    2.45131   2.95563   -1.000
 5885.00    2.22651   2.89908   -1.000
 5886.00    2.13535   2.79370   -1.000
 5887.00    2.16458   2.63459   -1.000
 5888.00    2.13276   2.45195   -1.000
 5889.00    1.98459   2.30065   -1.000
 5890.00    1.86449   2.23553   -1.000
 5891.00    1.86016   2.25699   -1.000
 5892.00    1.97967   2.32308   -1.000
 5893.00    2.18112   2.37066   -1.000
 5894.00    2.32633   2.38068   -1.000
 5895.00    2.35989   2.38266   -1.000
 5896.00    2.41830   2.41773  109.605
 5897.00    2.59376   2.50896   -1.000
 5898.00    2.81939   2.63255   -1.000
 5899.00    2.98380   2.75617   -1.000
 5900.00    3.08260   2.85534   -1.000
 5901.00    3.14376   2.92461   -1.000
 5902.00    3.16433   2.96678   -1.000
 5903.00    3.15842   2.98947   -1.000
 5904.00    3.15180   3.00037   -1.000
 5905.00    3.14485   3.00744   -1.000
 5906.00    3.15356   3.01622   -1.000
 5907.00    3.17830   3.02885   -1.000
 5908.00    3.19402   3.04332   -1.000
 5909.00    3.20671   3.05477   -1.000
 5910.00    3.22242   3.05800   -1.000
 5911.00    3.22582   3.04789   -1.000
 5912.00    3.19338   3.02388   -1.000
 5913.00    3.14002   2.99351   -1.000
 5914.00    3.10970   2.96956   -1.000
 5915.00    3.09988   2.96281   -1.000
 5916.00    3.10948   2.97622   -1.000
 5917.00    3.15256   3.00140   -1.000
 5918.00    3.20502   3.02897   -1.000
 5919.00    3.23028   3.04894   -1.000
 5920.00    3.21819   3.05882   -1.000
 5921.00    3.19506   3.06112   -1.000
 5922.00    3.18408   3.06286   -1.000
 5923.00    3.20019   3.06886   -1.000
 5924.00    3.24121   3.07908   -1.000
 5925.00    3.27176   3.08715   -1.000
 5926.00    3.26861   3.08534   -1.000
 5927.00    3.24656   3.07276   -1.000
 5928.00    3.20333   3.05439   -1.000
 5929.00    3.16660   3.04251   -1.000
 5930.00    3.18173   3.04180   -1.000
 5931.00    3.22583   3.04987   -1.000
 5932.00    3.24796   3.05754   -1.000
 5933.00    3.23922   3.06005   -1.000
 5934.00    3.20218   3.06298   -1.000
 5935.00    3.18755   3.07172   -1.000
 5936.00    3.21230   3.08711   -1.000
 5937.00    3.24379   3.10072   -1.000
 5938.00    3.27500   3.10342   -1.000
 5939.00    3.26758   3.09408   -1.000
 5940.00    3.23079   3.07782   -1.000
 5941.00    3.20531   3.06596   -1.000
 5942.00    3.19571   3.06574   -1.000
 5943.00    3.22160   3.07794   -1.000
 5944.00    3.27165   3.09334   -1.000
 5945.00    3.28661   3.10184   -1.000
 5946.00    3.27385   3.09768   -1.000
 5947.00    3.25215   3.08430   -1.000
 5948.00    3.22859   3.07103   -1.000
 5949.00    3.21344   3.06352   -1.000
 5950.00    3.21232   3.06226   -1.000
 5951.00    3.21656   3.06112   -1.000
 5952.00    3.20573   3.05918   -1.000
 5953.00    3.18198   3.05760   -1.000
 5954.00    3.17917   3.05685   -1.000
 5955.00    3.20895   3.05599   -1.000
 5956.00    3.21930   3.05559   -1.000
 5957.00    3.20050   3.06113   -1.000
 5958.00    3.21741   3.07796   -1.000
 5959.00    3.26056   3.10372   -1.000
 5960.00    3.28984   3.13026   -1.000
 5961.00    3.31455   3.14879   -1.000
 5962.00    3.32368   3.15446   -1.000
 5963.00    3.31658   3.14951   -1.000
 5964.00    3.28175   3.13981   -1.000
 5965.00    3.24325   3.13387   -1.000
 5966.00    3.25587   3.13642   -1.000
 5967.00    3.30348   3.14816   -1.000
 5968.00    3.33205   3.16460   -1.000
 5969.00    3.33644   3.18044   -1.000
 5970.00    3.34053   3.19164   -1.000
 5971.00    3.34279   3.19492   -1.000
 5972.00    3.33688   3.18757   -1.000
 5973.00    3.32335   3.16877   -1.000
 5974.00    3.29284   3.14062   -1.000
 5975.00    3.24714   3.11079   -1.000
 5976.00    3.21632   3.08812   -1.000
 5977.00    3.21004   3.08138   -1.000
 5978.00    3.22572   3.08925   -1.000
 5979.00    3.25998   3.10458   -1.000
 5980.00    3.27943   3.11268   -1.000
 5981.00    3.28339   3.10521   -1.000
 5982.00    3.27111   3.08255   -1.000
 5983.00    3.20703   3.05854   -1.000
 5984.00    3.15063   3.04832   -1.000
 5985.00    3.15892   3.05755   -1.000
 5986.00    3.20278   3.08155   -1.000
 5987.00    3.25089   3.10815   -1.000
 5988.00    3.28239   3.13016   -1.000
 5989.00    3.30383   3.14560   -1.000
 5990.00    3.30702   3.15733   -1.000
 5991.00    3.28442   3.17002   -1.000
 5992.00    3.28769   3.18479   -1.000
 5993.00    3.32830   3.19677   -1.000
 5994.00    3.34565   3.19735   -1.000
 5995.00    3.32233   3.18356   -1.000
 5996.00    3.28235   3.16041   -1.000
 5997.00    3.23875   3.14084   -1.000
 5998.00    3.22607   3.13156   -1.000
 5999.00    3.24029   3.13290   -1.000
 6000.00    3.27497   3.13721   -1.000
 6001.00    3.28440   3.13834   -1.000
 6002.00    3.24579   3.13642   -1.000
 6003.00    3.20889   3.13159   -1.000
 6004.00    3.19652   3.12280   -1.000
 6005.00    3.18413   3.10763   -1.000
 6006.00    3.15288   3.08827   -1.000
 6007.00    3.12987   3.07681   -1.000
 6008.00    3.14561   3.08166   -1.000
 6009.00    3.20775   3.09956   -1.000
 6010.00    3.27221   3.11776   -1.000
 6011.00    3.29529   3.12302   -1.000
 6012.00    3.27376   3.11686   -1.000
 6013.00    3.24447   3.10730   -1.000
 6014.00    3.23491   3.10094   -1.000
 6015.00    3.23418   3.09852   -1.000
 6016.00    3.22850   3.09684   -1.000
 6017.00    3.21340   3.09332   -1.000
 6018.00    3.20462   3.08757   -1.000
 6019.00    3.20110   3.08156   -1.000
 6020.00    3.19328   3.07885   -1.000
 6021.00    3.19939   3.08532   -1.000
 6022.00    3.22556   3.10084   -1.000
 6023.00    3.24339   3.12350   -1.000
 6024.00    3.26434   3.14896   -1.000
 6025.00    3.30330   3.17420   -1.000
 6026.00    3.34556   3.19784   -1.000
 6027.00    3.36848   3.21940   -1.000
 6028.00    3.37810   3.23833   -1.000
 6029.00    3.38290   3.25458   -1.000
 6030.00    3.37322   3.26845   -1.000
 6031.00    3.36751   3.28230   -1.000
 6032.00    3.36969   3.29868   -1.000
 6033.00    3.36848   3.31588   -1.000
 6034.00    3.37548   3.32931   -1.000
 6035.00    3.39001   3.33396   -1.000
 6036.00    3.40119   3.32717   -1.000
 6037.00    3.39948   3.31314   -1.000
 6038.00    3.38413   3.29679   -1.000
 6039.00    3.36752   3.28532   -1.000
 6040.00    3.35289   3.28243   -1.000
 6041.00    3.34541   3.28944   -1.000
 6042.00    3.36379   3.30339   -1.000
 6043.00    3.38560   3.31840   -1.000
 6044.00    3.40845   3.33159   -1.000
 6045.00    3.43591   3.34007   -1.000
 6046.00    3.43904   3.34614   -1.000
 6047.00    3.42982   3.34960   -1.000
 6048.00    3.43729   3.35122   -1.000
 6049.00    3.45557   3.34923   -1.000
 6050.00    3.46240   3.34162   -1.000
 6051.00    3.45446   3.32658   -1.000
 6052.00    3.42907   3.30519   -1.000
 6053.00    3.39628   3.28095   -1.000
 6054.00    3.37551   3.25950   -1.000
 6055.00    3.36185   3.24665   -1.000
 6056.00    3.35115   3.24529   -1.000
 6057.00    3.34982   3.25518   -1.000
 6058.00    3.38080   3.26967   -1.000
 6059.00    3.40900   3.28013   -1.000
 6060.00    3.41517   3.27907   -1.000
 6061.00    3.44493   3.26359   -1.000
 6062.00    3.14206   3.23824   -1.000
 6063.00    2.19191   3.21299   -1.000
 6064.00    1.70098   3.20194   -1.000
 6065.00    2.48510   3.21351   -1.000
 6066.00    3.16283   3.24663   -1.000
 6067.00    3.29908   3.28925  102.113
 6068.00    2.88385   3.32840   -1.000
 6069.00    1.71677   3.35638   -1.000
 6070.00    2.34420   3.37327   -1.000
 6071.00    3.38171   3.38136  105.098
 6072.00    3.50786   3.38208   -1.000
 6073.00    3.50038   3.37550   -1.000
 6074.00    3.49140   3.36084   -1.000
 6075.00    3.46624   3.33885   -1.000
 6076.00    3.43556   3.31124   -1.000
 6077.00    3.40194   3.28330   -1.000
 6078.00    3.36646   3.25859   -1.000
 6079.00    3.33935   3.23987   -1.000
 6080.00    3.33857   3.22632   -1.000
 6081.00    3.33610   3.21847   -1.000
 6082.00    3.31368   3.21611   -1.000
 6083.00    3.31888   3.21993   -1.000
 6084.00    3.33095   3.22857   -1.000
 6085.00    3.33489   3.23876   -1.000
 6086.00    3.32800   3.24691   -1.000
 6087.00    3.33303   3.24834   -1.000
 6088.00    3.33666   3.24114   -1.000
 6089.00    3.31065   3.22928   -1.000
 6090.00    3.28896   3.21981   -1.000
 6091.00    3.27715   3.22060   -1.000
 6092.00    3.28671   3.23319   -1.000
 6093.00    3.32949   3.25383   -1.000
 6094.00    3.36920   3.27532   -1.000
 6095.00    3.39652   3.29214   -1.000
 6096.00    3.40458   3.30262   -1.000
 6097.00    3.40418   3.30478   -1.000
 6098.00    3.40011   3.29412   -1.000
 6099.00    3.38358   3.26522   -1.000
 6100.00    3.34543   3.21788   -1.000
 6101.00    3.27363   3.17017   -1.000
 6102.00    3.19356   3.14144   -1.000
 6103.00    3.17281   3.14782  107.737
 6104.00    3.23501   3.18153   -1.000
 6105.00    3.31500   3.22618   -1.000
 6106.00    3.36035   3.26456   -1.000
 6107.00    3.36443   3.29189   -1.000
 6108.00    3.35822   3.30847   -1.000
 6109.00    3.36359   3.31804   -1.000
 6110.00    3.37056   3.32430   -1.000
 6111.00    3.35614   3.33069   -1.000
 6112.00    3.37921   3.33935   -1.000
 6113.00    3.43327   3.34615   -1.000
 6114.00    3.44062   3.34727   -1.000
 6115.00    3.40774   3.33985   -1.000
 6116.00    3.38183   3.32384   -1.000
 6117.00    3.38206   3.29830   -1.000
 6118.00    3.36052   3.26117   -1.000
 6119.00    3.30135   3.21471   -1.000
 6120.00    3.24212   3.17057   -1.000
 6121.00    3.19724   3.14468   -1.000
 6122.00    3.19431   3.14786   -1.000
 6123.00    3.24783   3.17407   -1.000
 6124.00    3.31234   3.20845   -1.000
 6125.00    3.34006   3.23502   -1.000
 6126.00    3.33383   3.25088   -1.000
 6127.00    3.31756   3.26379   -1.000
 6128.00    3.31831   3.28115   -1.000
 6129.00    3.34840   3.30542   -1.000
 6130.00    3.39513   3.32739   -1.000
 6131.00    3.42240   3.33384   -1.000
 6132.00    3.40866   3.31035   -1.000
 6133.00    3.35322   3.25406   -1.000
 6134.00    3.26763   3.17431   -1.000
 6135.00    3.16716   3.10012   -1.000
 6136.00    3.06265   3.05914  110.326
 6137.00    3.03786   3.06846   -1.000
 6138.00    3.13176   3.11521  110.438
 6139.00    3.26648   3.17440   -1.000
 6140.00    3.33820   3.22527   -1.000
 6141.00    3.33091   3.26331   -1.000
 6142.00    3.33144   3.29493   -1.000
 6143.00    3.36302   3.32158   -1.000
 6144.00    3.39508   3.33878   -1.000
 6145.00    3.40426   3.34078   -1.000
 6146.00    3.38185   3.32733   -1.000
 6147.00    3.34083   3.30498   -1.000
 6148.00    3.30348   3.28203  109.522
 6149.00    3.26903   3.26760  109.206
 6150.00    3.26237   3.26294  109.880
 6151.00    3.28806   3.26509   -1.000
 6152.00    3.33175   3.26529   -1.000
 6153.00    3.31782   3.25878   -1.000
 6154.00    3.27238   3.24580   -1.000
 6155.00    3.23894   3.22830  114.050
 6156.00    3.22312   3.20525   -1.000
 6157.00    3.21076   3.16760   -1.000
 6158.00    3.18213   3.10739   -1.000
 6159.00    3.11282   3.02583   -1.000
 6160.00    3.00130   2.93999   -1.000
 6161.00    2.86547   2.87782  116.045
 6162.00    2.80213   2.85903   -1.000
 6163.00    2.84474   2.88698   -1.000
 6164.00    2.95167   2.93945  116.647
 6165.00    3.02835   2.99099   -1.000
 6166.00    3.05076   3.01884   -1.000
 6167.00    3.04193   3.02214  115.579
 6168.00    3.01465   3.01344  113.766
 6169.00    2.98930   3.01420  113.480
 6170.00    2.99201   3.03515   -1.000
 6171.00    3.03853   3.07211   -1.000
 6172.00    3.11221   3.11117  113.192
 6173.00    3.14712   3.14039  112.912
 6174.00    3.14466   3.15842  112.409
 6175.00    3.15428   3.16978  111.956
 6176.00    3.15624   3.18033  111.594
 6177.00    3.17678   3.19338  111.113
 6178.00    3.20572   3.20890  110.769
 6179.00    3.22298   3.22526  110.881
 6180.00    3.24121   3.23980  111.251
 6181.00    3.24241   3.24945  112.027
 6182.00    3.24361   3.25031  113.199
 6183.00    3.24368   3.23863  114.397
 6184.00    3.23432   3.21563  115.503
 6185.00    3.21135   3.18425   -1.000
 6186.00    3.16285   3.14991  117.759
 6187.00    3.11485   3.11493  118.726
 6188.00    3.07219   3.08110  117.844
 6189.00    3.04431   3.05244  115.200
 6190.00    3.01184   3.03777  113.048
 6191.00    2.99530   3.04612   -1.000
 6192.00    3.03364   3.07924   -1.000
 6193.00    3.11399   3.12565  112.426
 6194.00    3.18377   3.16999  113.641
 6195.00    3.21577   3.19786  114.674
 6196.00    3.20492   3.20611  114.782
 6197.00    3.15372   3.19799   -1.000
 6198.00    3.07736   3.18655   -1.000
 6199.00    3.02875   3.18307   -1.000
 6200.00    3.04614   3.19509   -1.000
 6201.00    3.11649   3.21900   -1.000
 6202.00    3.20344   3.24552   -1.000
 6203.00    3.26134   3.26798  111.980
 6204.00    3.27566   3.28305  112.080
 6205.00    3.27760   3.29209  112.448
 6206.00    3.28566   3.29513  113.390
 6207.00    3.28740   3.29118  114.325
 6208.00    3.27419   3.27787  115.391
 6209.00    3.24720   3.25279  117.032
 6210.00    3.21629   3.21477  118.365
 6211.00    3.18104   3.16664  118.837
 6212.00    3.11906   3.11511  117.640
 6213.00    3.06216   3.07196  116.809
 6214.00    3.03308   3.04603  117.440
 6215.00    3.02082   3.03944  117.326
 6216.00    3.02984   3.04472  116.491
 6217.00    3.06888   3.05144  116.878
 6218.00    3.08993   3.05553   -1.000
 6219.00    3.07014   3.05841  122.851
 6220.00    3.06593   3.06611  116.980
 6221.00    3.08614   3.07930  115.629
 6222.00    3.11135   3.09486  115.799
 6223.00    3.13088   3.10849  116.319
 6224.00    3.14004   3.11718   -1.000
 6225.00    3.14801   3.11752   -1.000
 6226.00    3.15279   3.10506   -1.000
 6227.00    3.15053   3.07618   -1.000
 6228.00    3.11174   3.03574   -1.000
 6229.00    3.03745   2.99689   -1.000
 6230.00    2.96444   2.97756  115.440
 6231.00    2.93610   2.98927   -1.000
 6232.00    2.98673   3.02955   -1.000
 6233.00    3.07572   3.08268  116.322
 6234.00    3.17056   3.12793   -1.000
 6235.00    3.22837   3.15068   -1.000
 6236.00    3.21324   3.14620   -1.000
 6237.00    3.16892   3.12260   -1.000
 6238.00    3.11777   3.09077   -1.000
 6239.00    3.06426   3.06088  120.966
 6240.00    3.02692   3.03639  121.055
 6241.00    3.01039   3.01764  120.392
 6242.00    2.99884   3.00471  119.263
 6243.00    2.99852   3.00023  117.795
 6244.00    3.00710   3.00854  116.505
 6245.00    3.04395   3.03170  116.179
 6246.00    3.09026   3.06530   -1.000
 6247.00    3.13413   3.09955   -1.000
 6248.00    3.15673   3.12164   -1.000
 6249.00    3.14747   3.12163   -1.000
 6250.00    3.12898   3.09971   -1.000
 6251.00    3.09068   3.06456   -1.000
 6252.00    3.03142   3.02825  122.930
 6253.00    2.97765   2.99899  124.070
 6254.00    2.94644   2.97720   -1.000
 6255.00    2.94099   2.96084  122.191
 6256.00    2.92338   2.95189   -1.000
 6257.00    2.90370   2.95614   -1.000
 6258.00    2.91884   2.98085   -1.000
 6259.00    2.96534   3.02359   -1.000
 6260.00    3.03527   3.07625   -1.000
 6261.00    3.11495   3.12456  117.555
 6262.00    3.15043   3.15904  117.268
 6263.00    3.15245   3.17619  116.439
 6264.00    3.12966   3.18124   -1.000
 6265.00    3.10800   3.18176   -1.000
 6266.00    3.11377   3.18270   -1.000
 6267.00    3.12434   3.18511   -1.000
 6268.00    3.14260   3.18780   -1.000
 6269.00    3.14217   3.19211   -1.000
 6270.00    3.12414   3.19892   -1.000
 6271.00    3.10365   3.20600   -1.000
 6272.00    3.05149   3.20775   -1.000
 6273.00    2.99553   3.19944   -1.000
 6274.00    2.96506   3.18018   -1.000
 6275.00    2.93636   3.15306   -1.000
 6276.00    2.90983   3.12387   -1.000
 6277.00    2.87112   3.09729   -1.000
 6278.00    2.82106   3.07868   -1.000
 6279.00    2.76249   3.07256   -1.000
 6280.00    2.75246   3.08282   -1.000
 6281.00    2.82012   3.10893   -1.000
 6282.00    2.93238   3.14616   -1.000
 6283.00    3.02367   3.18585   -1.000
 6284.00    3.07993   3.22216   -1.000
 6285.00    3.14032   3.25167   -1.000
 6286.00    3.18843   3.27318   -1.000
 6287.00    3.22249   3.28436   -1.000
 6288.00    3.26585   3.28281  118.222
 6289.00    3.27729   3.26917  118.352
 6290.00    3.25061   3.24898  118.548
 6291.00    3.21543   3.22881  119.346
 6292.00    3.19942   3.21287  120.177
 6293.00    3.21205   3.19867  120.461
 6294.00    3.22224   3.18278   -1.000
 6295.00    3.18410   3.16429  119.873
 6296.00    3.15512   3.14687  119.335
 6297.00    3.14391   3.13515  120.079
 6298.00    3.13877   3.12950  121.432
 6299.00    3.13702   3.12652  120.840
 6300.00    3.12871   3.12561  119.019
 6301.00    3.09689   3.12943   -1.000
 6302.00    3.08109   3.14386   -1.000
 6303.00    3.09568   3.16878   -1.000
 6304.00    3.13647   3.20152   -1.000
 6305.00    3.18178   3.23579   -1.000
 6306.00    3.21238   3.26636   -1.000
 6307.00    3.27282   3.28677  116.697
 6308.00    3.30641   3.29381  117.164
 6309.00    3.29393   3.28699  117.338
 6310.00    3.26379   3.27121  118.252
 6311.00    3.21527   3.25143   -1.000
 6312.00    3.20264   3.22968  118.801
 6313.00    3.18621   3.20722  118.683
 6314.00    3.15534   3.18395  118.803
 6315.00    3.13256   3.16308  118.474
 6316.00    3.15165   3.14924  117.188
 6317.00    3.14224   3.14811  115.974
 6318.00    3.14789   3.16184  115.423
 6319.00    3.18700   3.18939  115.041
 6320.00    3.23704   3.22390  114.455
 6321.00    3.26247   3.25780  114.047
 6322.00    3.28723   3.28793  113.943
 6323.00    3.29954   3.31277  113.457
 6324.00    3.31818   3.33182  113.443
 6325.00    3.34762   3.34445  113.544
 6326.00    3.36337   3.35175  113.621
 6327.00    3.35208   3.35610  113.286
 6328.00    3.33927   3.35944  113.052
 6329.00    3.35140   3.36308  113.286
 6330.00    3.36508   3.36513  113.584
 6331.00    3.36056   3.36150  115.862
 6332.00    3.22984   3.34647   -1.000
 6333.00    3.25126   3.31779   -1.000
 6334.00    3.29825   3.28385  114.567
 6335.00    3.26057   3.25735  113.315
 6336.00    3.23386   3.24995  112.651
 6337.00    3.28562   3.26281   -1.000
 6338.00    3.33354   3.28714   -1.000
 6339.00    3.35364   3.31006   -1.000
 6340.00    3.35653   3.32194   -1.000
 6341.00    3.35892   3.31921   -1.000
 6342.00    3.32922   3.30821   -1.000
 6343.00    3.31279   3.30065  111.697
 6344.00    3.31251   3.30534  111.213
 6345.00    3.33080   3.32518  111.177
 6346.00    3.35451   3.35371  110.981
 6347.00    3.39263   3.38308  111.025
 6348.00    3.42803   3.40672   -1.000
 6349.00    3.44591   3.42028   -1.000
 6350.00    3.44583   3.42165   -1.000
 6351.00    3.44067   3.41025   -1.000
 6352.00    3.42255   3.38821   -1.000
 6353.00    3.38862   3.36008   -1.000
 6354.00    3.34811   3.33064  115.824
 6355.00    3.31041   3.30205  116.463
 6356.00    3.29728   3.27318   -1.000
 6357.00    3.27259   3.24238   -1.000
 6358.00    3.24110   3.21150   -1.000
 6359.00    3.21006   3.18530   -1.000
 6360.00    3.19912   3.16906   -1.000
 6361.00    3.20301   3.16645   -1.000
 6362.00    3.21037   3.17985   -1.000
 6363.00    3.24007   3.20836   -1.000
 6364.00    3.27241   3.24784   -1.000
 6365.00    3.32275   3.29166   -1.000
 6366.00    3.36433   3.33306   -1.000
 6367.00    3.40012   3.36735   -1.000
 6368.00    3.44587   3.39295   -1.000
 6369.00    3.45504   3.41137   -1.000
 6370.00    3.44054   3.42709  110.937
 6371.00    3.45374   3.44185  111.150
 6372.00    3.47566   3.45487   -1.000
 6373.00    3.47383   3.46290  112.092
 6374.00    3.45927   3.46355  112.835
 6375.00    3.45943   3.45665  113.317
 6376.00    3.47414   3.44381   -1.000
 6377.00    3.46698   3.42761   -1.000
 6378.00    3.42690   3.41267  113.639
 6379.00    3.41367   3.40335  113.367
 6380.00    3.41335   3.40095  113.777
 6381.00    3.40796   3.40441  114.090
 6382.00    3.40958   3.41120  114.037
 6383.00    3.40676   3.41972  114.318
 6384.00    3.41076   3.42937  114.691
 6385.00    3.42066   3.43953  115.564
 6386.00    3.43308   3.44856  116.488
 6387.00    3.44374   3.45288  117.765
 6388.00    3.43648   3.44858  119.515
 6389.00    3.41615   3.43275  120.651
 6390.00    3.38490   3.40569  120.456
 6391.00    3.33869   3.37385   -1.000
 6392.00    3.28222   3.35060   -1.000
 6393.00    3.21192   3.34585   -1.000
 6394.00    3.19865   3.36083   -1.000
 6395.00    3.25679   3.38149   -1.000
 6396.00    3.29714   3.39072   -1.000
 6397.00    3.28799   3.38051   -1.000
 6398.00    3.24039   3.35961   -1.000
 6399.00    3.18059   3.34730   -1.000
 6400.00    3.15594   3.35759   -1.000
 6401.00    3.18550   3.39105   -1.000
 6402.00    3.23516   3.43057   -1.000
 6403.00    3.25992   3.45818   -1.000
 6404.00    3.25814   3.46466   -1.000
 6405.00    3.23194   3.45299   -1.000
 6406.00    3.17973   3.43358   -1.000
 6407.00    3.11240   3.41685   -1.000
 6408.00    3.07219   3.40706   -1.000
 6409.00    3.06723   3.40189   -1.000
 6410.00    3.05708   3.39846   -1.000
 6411.00    3.01799   3.39751   -1.000
 6412.00    3.00487   3.40169   -1.000
 6413.00    3.02189   3.41239   -1.000
 6414.00    3.00725   3.42459   -1.000
 6415.00    2.99603   3.43191   -1.000
 6416.00    3.00008   3.42826   -1.000
 6417.00    2.97088   3.41208   -1.000
 6418.00    2.93080   3.38930   -1.000
 6419.00    2.87597   3.37219   -1.000
 6420.00    2.80364   3.37208   -1.000
 6421.00    2.78819   3.39233   -1.000
 6422.00    2.82078   3.42716   -1.000
 6423.00    2.84828   3.46385   -1.000
 6424.00    2.84363   3.49278   -1.000
 6425.00    2.82358   3.50831   -1.000
 6426.00    2.79627   3.50682   -1.000
 6427.00    0.55594   3.48778   -1.000
 6428.00    0.00000   3.45551   -2.000
