###################################################################
## OUTPUT of StarlightChains_v04.for    [Cid@UFSC - 01/Apr/2007] ##
###################################################################

## Some input info
NGC6342_a_2.cxt                          [arq_obs]
Base.BC03.N                              [arq_base]
NGC6342_a_2.msk                          [arq_masks]
StCv04.C11.config                        [arq_config]
   45                                    [N_base]
    0                                    [N_YAV_components = # of components with extra extinction!]
    0                                    [i_FitPowerLaw (1/0 = Yes/No)]
-9.99                                    [alpha_PowerLaw]
CCM                                      [red_law_option]
 1.458241                                [q_norm = A(l_norm)/A(V)]

## (Re)Sampling Parameters
 3359.00                                 [l_ini (A)]
 6428.00                                 [l_fin (A)]
    1.00                                 [dl    (A)]     (OBS: dl_cushion =    50.00 A)

## Normalization info
 4020.00                                 [l_norm (A) - for base]
 4010.00                                 [llow_norm (A) - window for f_obs]
 4060.00                                 [lupp_norm (A) - window for f_obs]
3.704827E-15                             [fobs_norm (in input units)]

## S/N
 4730.00                                 [llow_SN (A) - window for S/N]
 4780.00                                 [lupp_SN (A) - window for S/N]
  43.866                                 [S/N in S/N window]
  28.421                                 [S/N in norm. window]
 215.944                                 [S/N_err in S/N window]
 139.911                                 [S/N_err in norm. window]
  1.0000                                 [fscale_chi2]

## etc...
  2147483614                             [idum_orig]
  3067                                   [NOl_eff]
   677                                   [Nl_eff]
  2390    NSIGMA                         [Ntot_cliped & clip_method]
   871920                                [Nglobal_steps]
   7                                     [N_chains]
   9                                     [NEX0s_base = N_base in EX0s-fits]
 0   0   1      177   2.0   3.168E+02    [Clip-Bug, RC-Crash & Burn-In warning-flags, n_censored_weights, wei_nsig_threshold & wei_limit]
    10     10.179     10.179      0.000  [idt_all, wdt_TotTime, wdt_UsrTime & wdt_SysTime (sec)]

## Synthesis Results - Best model ##

 2.90241E+00                             [chi2/Nl_eff]
     1.69663                             [adev (%)]

    98.37006                             [sum-of-x (%)]
 1.94848E-14                             [Flux_tot (units of input spectrum!)]
 5.71627E-10                             [Mini_tot (???)]
 2.94839E-10                             [Mcor_tot (???)]

 -19.19                                  [v0_min  (km/s)]
  54.40                                  [vd_min  (km/s)]
 1.2482                                  [AV_min  (mag)]
 0.0000                                  [YAV_min (mag)]

# j     x_j(%)      Mini_j(%)     Mcor_j(%)     age_j(yr)     Z_j      (L/M)_j    YAV?  Mstars   component_j        a/Fe...       SSP_chi2r SSP_adev(%)   SSP_AV   SSP_x(%)
  1      0.0000     0.0000E+00    0.0000E+00    1.000000E+06  0.00400  1.114E-02    0   1.0000   age020_m42            0.0000     3.2805E+03    39.2067   4.0000    99.9582
  2      1.7042     1.4499E-03    2.8107E-03    3.160000E+06  0.00400  4.073E-02    0   0.9999   age045_m42            0.0000     2.5823E+02    12.0140   4.0000    94.1068
  3      0.0000     0.0000E+00    0.0000E+00    5.010000E+06  0.00400  2.534E-02    0   0.9488   age055_m42            0.0000     9.0793E+02    22.9463   4.0000    98.0264
  4      5.0973     1.3897E-02    2.3877E-02    1.000000E+07  0.00400  1.271E-02    0   0.8862   age070_m42            0.0000     3.4600E+02    14.3475   3.6890    89.0984
  5      0.0000     0.0000E+00    0.0000E+00    2.512000E+07  0.00400  5.070E-03    0   0.8174   age090_m42            0.0000     3.2255E+02    13.7983   3.5647    90.6020
  6      0.0000     0.0000E+00    0.0000E+00    4.000000E+07  0.00400  3.505E-03    0   0.7851   age104_m42            0.0000     2.4591E+02    11.8141   3.2646    93.4316
  7      0.0000     0.0000E+00    0.0000E+00    1.015200E+08  0.00400  2.268E-03    0   0.7207   age116_m42            0.0000     4.8954E+02    12.4162   3.3326   101.3911
  8      0.0000     0.0000E+00    0.0000E+00    2.861200E+08  0.00400  1.079E-03    0   0.6613   age125_m42            0.0000     5.1475E+02    12.4874   2.8530   102.9214
  9      0.0000     0.0000E+00    0.0000E+00    6.405400E+08  0.00400  5.077E-04    0   0.6197   age132_m42            0.0000     5.2927E+02    12.8328   2.4834   107.1050
 10      0.0000     0.0000E+00    0.0000E+00    9.047900E+08  0.00400  3.535E-04    0   0.6024   age135_m42            0.0000     3.5896E+02    10.4359   2.2373   106.6017
 11      0.0000     0.0000E+00    0.0000E+00    1.434000E+09  0.00400  1.910E-04    0   0.5716   age139_m42            0.0000     1.5551E+02     6.8590   1.7198   105.4137
 12     17.6811     6.2403E+00    6.6094E+00    2.500000E+09  0.00400  9.818E-05    0   0.5463   age150_m42            0.0000     3.2230E+01     3.2519   1.4434   100.7729
 13     54.5467     4.0062E+01    4.0606E+01    5.000000E+09  0.00400  4.718E-05    0   0.5228   age161_m42            0.0000     5.9204E+00     1.9505   1.2703    97.6346
 14      2.9416     4.6227E+00    4.4632E+00    1.100000E+10  0.00400  2.205E-05    0   0.4980   age185_m42            0.0000     2.1796E+01     3.1990   1.0154    95.5676
 15      0.5094     9.3732E-01    8.9536E-01    1.300000E+10  0.00400  1.883E-05    0   0.4927   age193_m42            0.0000     2.6909E+01     3.5189   0.9976    95.4509
 16      0.0000     0.0000E+00    0.0000E+00    1.000000E+06  0.02000  1.989E-02    0   1.0000   age020_m62            0.0000     3.0787E+03    37.9973   4.0000   100.2654
 17      0.0000     0.0000E+00    0.0000E+00    3.160000E+06  0.02000  3.772E-02    0   0.9858   age045_m62            0.0000     2.3574E+03    34.4001   4.0000   100.5817
 18      0.7825     8.4023E-04    1.5218E-03    5.010000E+06  0.02000  3.227E-02    0   0.9342   age055_m62            0.0000     5.7205E+02    18.7911   4.0000    97.7603
 19      0.0000     0.0000E+00    0.0000E+00    1.000000E+07  0.02000  1.011E-02    0   0.8751   age070_m62            0.0000     6.9682E+02    19.5092   3.6784    85.6456
 20      0.0000     0.0000E+00    0.0000E+00    2.512000E+07  0.02000  4.206E-03    0   0.8099   age090_m62            0.0000     5.1582E+02    17.2924   3.6298    86.1847
 21      0.0000     0.0000E+00    0.0000E+00    4.000000E+07  0.02000  3.373E-03    0   0.7799   age104_m62            0.0000     2.8645E+02    11.6057   3.4811    94.6260
 22      0.0000     0.0000E+00    0.0000E+00    1.015200E+08  0.02000  1.878E-03    0   0.7221   age116_m62            0.0000     4.5726E+02    11.6541   3.3436   102.0047
 23      0.0000     0.0000E+00    0.0000E+00    2.861200E+08  0.02000  8.869E-04    0   0.6700   age125_m62            0.0000     7.6744E+02    15.3975   2.8758   107.6759
 24      0.0000     0.0000E+00    0.0000E+00    6.405400E+08  0.02000  3.657E-04    0   0.6322   age132_m62            0.0000     5.0447E+02    12.1616   2.2099   110.6539
 25      0.0000     0.0000E+00    0.0000E+00    9.047900E+08  0.02000  2.312E-04    0   0.6152   age135_m62            0.0000     2.8518E+02     8.9317   1.8307   109.8877
 26      0.0000     0.0000E+00    0.0000E+00    1.434000E+09  0.02000  1.168E-04    0   0.5865   age139_m62            0.0000     7.4537E+01     4.6457   1.4087   104.2517
 27      0.0000     0.0000E+00    0.0000E+00    2.500000E+09  0.02000  5.505E-05    0   0.5610   age150_m62            0.0000     4.4992E+01     4.3455   1.0423   101.3399
 28      0.0000     0.0000E+00    0.0000E+00    5.000000E+09  0.02000  2.596E-05    0   0.5353   age161_m62            0.0000     1.0371E+02     6.6028   0.7280   101.0541
 29      9.6434     2.8585E+01    2.8281E+01    1.100000E+10  0.02000  1.169E-05    0   0.5103   age185_m62            0.0000     2.1182E+02     9.0611   0.3801   102.2416
 30      5.4639     1.9537E+01    1.9117E+01    1.300000E+10  0.02000  9.691E-06    0   0.5047   age193_m62            0.0000     2.3370E+02     9.4403   0.3358   102.4705
 31      0.0000     0.0000E+00    0.0000E+00    1.000000E+06  0.05000  2.651E-02    0   0.9998   age020_m72            0.0000     3.0613E+03    37.6679   4.0000   101.4114
 32      0.0000     0.0000E+00    0.0000E+00    3.160000E+06  0.05000  4.817E-02    0   0.9577   age045_m72            0.0000     1.6616E+03    29.4276   4.0000   101.7686
 33      0.0000     0.0000E+00    0.0000E+00    5.010000E+06  0.05000  3.101E-02    0   0.9147   age055_m72            0.0000     6.7433E+02    20.5828   4.0000    95.8372
 34      0.0000     0.0000E+00    0.0000E+00    1.000000E+07  0.05000  8.954E-03    0   0.8524   age070_m72            0.0000     1.2622E+03    26.1366   4.0000   100.2623
 35      0.0000     0.0000E+00    0.0000E+00    2.512000E+07  0.05000  4.207E-03    0   0.7902   age090_m72            0.0000     3.6174E+02    14.5084   4.0000    95.1601
 36      0.0000     0.0000E+00    0.0000E+00    4.000000E+07  0.05000  3.198E-03    0   0.7618   age104_m72            0.0000     3.4860E+02    10.2039   3.7118    97.6816
 37      0.0000     0.0000E+00    0.0000E+00    1.015200E+08  0.05000  1.716E-03    0   0.7092   age116_m72            0.0000     5.2917E+02    12.4852   3.4391   102.0106
 38      0.0000     0.0000E+00    0.0000E+00    2.861200E+08  0.05000  7.047E-04    0   0.6618   age125_m72            0.0000     7.1931E+02    14.8389   2.6785   108.1359
 39      0.0000     0.0000E+00    0.0000E+00    6.405400E+08  0.05000  2.633E-04    0   0.6253   age132_m72            0.0000     3.6093E+02    10.2006   1.8403   110.1519
 40      0.0000     0.0000E+00    0.0000E+00    9.047900E+08  0.05000  1.484E-04    0   0.6088   age135_m72            0.0000     1.3283E+02     6.2276   1.3598   105.0129
 41      0.0000     0.0000E+00    0.0000E+00    1.434000E+09  0.05000  7.827E-05    0   0.5847   age139_m72            0.0000     8.9135E+01     5.9137   0.9770   101.4137
 42      0.0000     0.0000E+00    0.0000E+00    2.500000E+09  0.05000  3.759E-05    0   0.5583   age150_m72            0.0000     1.2619E+02     7.1852   0.6588   100.5902
 43      0.0000     0.0000E+00    0.0000E+00    5.000000E+09  0.05000  1.548E-05    0   0.5320   age161_m72            0.0000     2.2724E+02     8.9193   0.2517   100.5208
 44      0.0000     0.0000E+00    0.0000E+00    1.100000E+10  0.05000  6.532E-06    0   0.5070   age185_m72            0.0000     3.9723E+02    11.3073  -0.1034   100.2862
 45      0.0000     0.0000E+00    0.0000E+00    1.300000E+10  0.05000  5.316E-06    0   0.5018   age193_m72            0.0000     4.7701E+02    12.3297  -0.2102   100.2524


## Synthesis Results - Average & Chains ##

# j      x_j: min, <> & last-chain-values for 1 ...  7 chains
  1      0.0000      0.0143      0.0000      0.0000      0.0000      0.0126      0.0000      0.0000      0.0000
  2      1.7042      1.3739      1.4199      1.3340      1.3452      1.3553      1.5918      1.5003      1.4288
  3      0.0000      0.3991      0.3738      0.4086      0.3432      0.5024      0.4624      0.3813      0.4893
  4      5.0973      4.5374      4.7632      4.5892      4.6487      4.6907      4.6382      4.5708      4.4807
  5      0.0000      0.0269      0.0000      0.0591      0.0000      0.0000      0.0000      0.0127      0.0000
  6      0.0000      0.0161      0.0000      0.0000      0.0000      0.0000      0.0000      0.0000      0.0000
  7      0.0000      0.1047      0.0280      0.1411      0.0000      0.3075      0.2754      0.0000      0.0499
  8      0.0000      0.0521      0.2346      0.0369      0.0000      0.1493      0.0000      0.0157      0.0438
  9      0.0000      0.0937      0.2299      0.1312      0.0000      0.0923      0.0780      0.2119      0.0000
 10      0.0000      0.1068      0.2245      0.1831      0.3458      0.4812      0.1912      0.1954      0.1576
 11      0.0000      0.1341      0.0171      0.3418      0.0520      0.1211      0.0236      0.0835      0.3606
 12     17.6811     14.9057     15.2297     14.7151     15.0997     14.7454     14.9279     15.3320     15.7619
 13     54.5467     56.2197     56.2435     56.4228     56.4326     55.7826     56.0110     56.3915     56.2169
 14      2.9416      3.6371      3.1576      4.0268      3.4433      4.0492      4.0533      3.2542      3.4872
 15      0.5094      0.4942      0.3032      0.0000      0.0828      0.5280      0.0000      0.5192      0.2976
 16      0.0000      0.0204      0.0824      0.0000      0.0000      0.0000      0.0028      0.0000      0.0000
 17      0.0000      0.0123      0.0000      0.0000      0.0000      0.0000      0.0000      0.0000      0.0000
 18      0.7825      0.6020      0.5115      0.6885      0.8544      0.3995      0.5211      0.6226      0.6113
 19      0.0000      0.0216      0.0000      0.0000      0.0000      0.1070      0.0000      0.0000      0.0608
 20      0.0000      0.0266      0.0000      0.0000      0.0000      0.0000      0.0000      0.0000      0.0000
 21      0.0000      0.0222      0.0000      0.0000      0.0286      0.0000      0.2040      0.0000      0.0000
 22      0.0000      0.0259      0.0000      0.0000      0.0000      0.0000      0.0000      0.0000      0.0000
 23      0.0000      0.0144      0.0000      0.0000      0.0000      0.0000      0.0000      0.0000      0.0000
 24      0.0000      0.0246      0.0000      0.0000      0.0000      0.0000      0.0000      0.1065      0.0000
 25      0.0000      0.0683      0.0518      0.0000      0.0000      0.0000      0.0000      0.0000      0.0000
 26      0.0000      0.1031      0.0000      0.0000      0.0000      0.0000      0.0000      0.0000      0.0000
 27      0.0000      0.1951      0.0000      0.1992      0.1280      0.0002      0.0271      0.0000      0.0000
 28      0.0000      0.1127      0.0607      0.3319      0.0428      0.1360      0.0000      0.0450      0.0000
 29      9.6434      8.6161      8.9722      8.3488      8.5432      9.0159      8.8515      8.8906      8.7472
 30      5.4639      5.6806      6.0033      5.5713      5.7978      5.7159      5.8684      5.7182      5.6437
 31      0.0000      0.0151      0.0000      0.0065      0.0000      0.0000      0.0000      0.0000      0.0000
 32      0.0000      0.0231      0.1228      0.0000      0.0000      0.0000      0.0017      0.0000      0.0000
 33      0.0000      0.0355      0.0082      0.0888      0.0500      0.0810      0.0000      0.1601      0.0000
 34      0.0000      0.0121      0.0000      0.0000      0.0000      0.0000      0.0000      0.0000      0.0000
 35      0.0000      0.0193      0.0000      0.0371      0.0000      0.0000      0.0000      0.0000      0.0741
 36      0.0000      0.0147      0.0000      0.0000      0.0000      0.0000      0.0000      0.0000      0.0120
 37      0.0000      0.0211      0.0690      0.0000      0.1728      0.0348      0.0000      0.0641      0.0000
 38      0.0000      0.0125      0.0000      0.0000      0.0000      0.0000      0.0000      0.0000      0.0000
 39      0.0000      0.0333      0.0000      0.0111      0.1358      0.0000      0.0000      0.0000      0.0000
 40      0.0000      0.0722      0.0425      0.0411      0.0000      0.0367      0.0379      0.0000      0.0000
 41      0.0000      0.1526      0.0273      0.0000      0.2844      0.0000      0.0871      0.0000      0.0000
 42      0.0000      0.1920      0.2040      0.5508      0.5299      0.0000      0.4832      0.2749      0.4347
 43      0.0000      0.0200      0.0000      0.0740      0.0166      0.0000      0.0000      0.0000      0.0000
 44      0.0000      0.0349      0.0000      0.0000      0.0000      0.0000      0.0000      0.0117      0.0000
 45      0.0000      0.0075      0.0000      0.0000      0.0000      0.0000      0.0000      0.0000      0.0000

# j      m_j: min, <> & last-chain-values for 1 ...  7 chains
  1  0.0000E+00  8.6246E-05  0.0000E+00  0.0000E+00  0.0000E+00  7.5581E-05  0.0000E+00  0.0000E+00  0.0000E+00
  2  2.8107E-03  2.2671E-03  2.3275E-03  2.2212E-03  2.2337E-03  2.2159E-03  2.6112E-03  2.4710E-03  2.3682E-03
  3  0.0000E+00  1.0046E-03  9.3466E-04  1.0377E-03  8.6929E-04  1.2528E-03  1.1570E-03  9.5773E-04  1.2368E-03
  4  2.3877E-02  2.1266E-02  2.2176E-02  2.1703E-02  2.1924E-02  2.1781E-02  2.1609E-02  2.1381E-02  2.1092E-02
  5  0.0000E+00  2.9143E-04  0.0000E+00  6.4658E-04  0.0000E+00  0.0000E+00  0.0000E+00  1.3736E-04  0.0000E+00
  6  0.0000E+00  2.4183E-04  0.0000E+00  0.0000E+00  0.0000E+00  0.0000E+00  0.0000E+00  0.0000E+00  0.0000E+00
  7  0.0000E+00  2.2365E-03  5.9479E-04  3.0419E-03  0.0000E+00  6.5082E-03  5.8474E-03  0.0000E+00  1.0705E-03
  8  0.0000E+00  2.1464E-03  9.6019E-03  1.5356E-03  0.0000E+00  6.0935E-03  0.0000E+00  6.4416E-04  1.8135E-03
  9  0.0000E+00  7.6848E-03  1.8741E-02  1.0863E-02  0.0000E+00  7.4999E-03  6.3645E-03  1.7353E-02  0.0000E+00
 10  0.0000E+00  1.2231E-02  2.5547E-02  2.1168E-02  3.9861E-02  5.4610E-02  2.1772E-02  2.2343E-02  1.8127E-02
 11  0.0000E+00  2.6977E-02  3.4197E-03  6.9384E-02  1.0526E-02  2.4129E-02  4.7267E-03  1.6761E-02  7.2855E-02
 12  6.6094E+00  5.5751E+00  5.6585E+00  5.5533E+00  5.6829E+00  5.4642E+00  5.5503E+00  5.7235E+00  5.9211E+00
 13  4.0606E+01  4.1875E+01  4.1615E+01  4.2405E+01  4.2296E+01  4.1166E+01  4.1472E+01  4.1923E+01  4.2056E+01
 14  4.4632E+00  5.5216E+00  4.7618E+00  6.1683E+00  5.2600E+00  6.0905E+00  6.1170E+00  4.9309E+00  5.3173E+00
 15  8.9536E-01  8.6925E-01  5.2982E-01  0.0000E+00  1.4656E-01  9.2004E-01  0.0000E+00  9.1152E-01  5.2564E-01
 16  0.0000E+00  6.9094E-05  2.7673E-04  0.0000E+00  0.0000E+00  0.0000E+00  9.2392E-06  0.0000E+00  0.0000E+00
 17  0.0000E+00  2.1696E-05  0.0000E+00  0.0000E+00  0.0000E+00  0.0000E+00  0.0000E+00  0.0000E+00  0.0000E+00
 18  1.5218E-03  1.1715E-03  9.8871E-04  1.3518E-03  1.6731E-03  7.7014E-04  1.0080E-03  1.2092E-03  1.1948E-03
 19  0.0000E+00  1.2557E-04  0.0000E+00  0.0000E+00  0.0000E+00  6.1707E-04  0.0000E+00  0.0000E+00  3.5514E-04
 20  0.0000E+00  3.4399E-04  0.0000E+00  0.0000E+00  0.0000E+00  0.0000E+00  0.0000E+00  0.0000E+00  0.0000E+00
 21  0.0000E+00  3.4576E-04  0.0000E+00  0.0000E+00  4.4685E-04  0.0000E+00  3.1516E-03  0.0000E+00  0.0000E+00
 22  0.0000E+00  6.6846E-04  0.0000E+00  0.0000E+00  0.0000E+00  0.0000E+00  0.0000E+00  0.0000E+00  0.0000E+00
 23  0.0000E+00  7.3012E-04  0.0000E+00  0.0000E+00  0.0000E+00  0.0000E+00  0.0000E+00  0.0000E+00  0.0000E+00
 24  0.0000E+00  2.8575E-03  0.0000E+00  0.0000E+00  0.0000E+00  0.0000E+00  0.0000E+00  1.2351E-02  0.0000E+00
 25  0.0000E+00  1.2221E-02  9.2067E-03  0.0000E+00  0.0000E+00  0.0000E+00  0.0000E+00  0.0000E+00  0.0000E+00
 26  0.0000E+00  3.4795E-02  0.0000E+00  0.0000E+00  0.0000E+00  0.0000E+00  0.0000E+00  0.0000E+00  0.0000E+00
 27  0.0000E+00  1.3363E-01  0.0000E+00  1.3767E-01  8.8260E-02  1.4146E-04  1.8455E-02  0.0000E+00  0.0000E+00
 28  0.0000E+00  1.5619E-01  8.3519E-02  4.6413E-01  5.9642E-02  1.8681E-01  0.0000E+00  6.2254E-02  0.0000E+00
 29  2.8281E+01  2.5282E+01  2.6152E+01  2.4718E+01  2.5225E+01  2.6211E+01  2.5819E+01  2.6037E+01  2.5779E+01
 30  1.9117E+01  1.9886E+01  2.0876E+01  1.9679E+01  2.0423E+01  1.9825E+01  2.0422E+01  1.9979E+01  1.9843E+01
 31  0.0000E+00  3.8264E-05  0.0000E+00  1.6504E-05  0.0000E+00  0.0000E+00  0.0000E+00  0.0000E+00  0.0000E+00
 32  0.0000E+00  3.0817E-05  1.6307E-04  0.0000E+00  0.0000E+00  0.0000E+00  2.2302E-06  0.0000E+00  0.0000E+00
 33  0.0000E+00  7.0464E-05  1.6055E-05  1.7775E-04  9.9781E-05  1.5913E-04  0.0000E+00  3.1691E-04  0.0000E+00
 34  0.0000E+00  7.7135E-05  0.0000E+00  0.0000E+00  0.0000E+00  0.0000E+00  0.0000E+00  0.0000E+00  0.0000E+00
 35  0.0000E+00  2.4394E-04  0.0000E+00  4.7203E-04  0.0000E+00  0.0000E+00  0.0000E+00  0.0000E+00  9.3968E-04
 36  0.0000E+00  2.3491E-04  0.0000E+00  0.0000E+00  0.0000E+00  0.0000E+00  0.0000E+00  0.0000E+00  1.9317E-04
 37  0.0000E+00  5.8495E-04  1.9037E-03  0.0000E+00  4.8300E-03  9.5761E-04  0.0000E+00  1.7773E-03  0.0000E+00
 38  0.0000E+00  7.8962E-04  0.0000E+00  0.0000E+00  0.0000E+00  0.0000E+00  0.0000E+00  0.0000E+00  0.0000E+00
 39  0.0000E+00  5.3179E-03  0.0000E+00  1.7862E-03  2.1809E-02  0.0000E+00  0.0000E+00  0.0000E+00  0.0000E+00
 40  0.0000E+00  1.9910E-02  1.1640E-02  1.1428E-02  0.0000E+00  1.0017E-02  1.0380E-02  0.0000E+00  0.0000E+00
 41  0.0000E+00  7.6632E-02  1.3624E-02  0.0000E+00  1.4368E-01  0.0000E+00  4.3489E-02  0.0000E+00  0.0000E+00
 42  0.0000E+00  1.9169E-01  2.0228E-01  5.5485E-01  5.3235E-01  0.0000E+00  4.7954E-01  2.7393E-01  4.3586E-01
 43  0.0000E+00  4.6234E-02  0.0000E+00  1.7257E-01  3.8675E-02  0.0000E+00  0.0000E+00  0.0000E+00  0.0000E+00
 44  0.0000E+00  1.8211E-01  0.0000E+00  0.0000E+00  0.0000E+00  0.0000E+00  0.0000E+00  6.0902E-02  0.0000E+00
 45  0.0000E+00  4.7497E-02  0.0000E+00  0.0000E+00  0.0000E+00  0.0000E+00  0.0000E+00  0.0000E+00  0.0000E+00

# AV, chi2 & Mass for <> & i_chain = 1 ...  7 solutions
AV       1.2482      1.2465      1.2470      1.2478      1.2473      1.2477      1.2452      1.2466      1.2459
chi2 2.9024E+00  2.9147E+00  2.9073E+00  2.9081E+00  2.9088E+00  2.9099E+00  2.9096E+00  2.9062E+00  2.9089E+00
Mass 2.9484E-10  2.9401E-10  2.9617E-10  2.9190E-10  2.9251E-10  2.9722E-10  2.9525E-10  2.9461E-10  2.9248E-10
 -19.19                                  [v0_min (km/s) before EX0s...]
  54.40                                  [vd_min (km/s) before EX0s...]


## Synthetic spectrum (Best Model) ##l_obs f_obs f_syn wei
 3070    [Nl_obs]
 3359.00    0.19253   0.36799   -1.000
 3360.00    0.21582   0.34399   -1.000
 3361.00    0.21060   0.34783   -1.000
 3362.00    0.17540   0.37854   -1.000
 3363.00    0.19808   0.41673   -1.000
 3364.00    0.19077   0.44076   -1.000
 3365.00    0.21820   0.44070   -1.000
 3366.00    0.23457   0.42116   -1.000
 3367.00    0.21905   0.39523   -1.000
 3368.00    0.20548   0.37583   -1.000
 3369.00    0.23233   0.36676   -1.000
 3370.00    0.25810   0.36295   -1.000
 3371.00    0.22475   0.36022   -1.000
 3372.00    0.20315   0.36344   -1.000
 3373.00    0.24352   0.38051   -1.000
 3374.00    0.28829   0.41020   -1.000
 3375.00    0.27875   0.44343   -1.000
 3376.00    0.28113   0.46111   -1.000
 3377.00    0.28636   0.45214   -1.000
 3378.00    0.29867   0.42573   -1.000
 3379.00    0.28677   0.39927   -1.000
 3380.00    0.27985   0.38880   -1.000
 3381.00    0.30473   0.39819   -1.000
 3382.00    0.28095   0.41808   -1.000
 3383.00    0.27577   0.43546   -1.000
 3384.00    0.27672   0.44781   -1.000
 3385.00    0.28178   0.45839   -1.000
 3386.00    0.29496   0.46308   -1.000
 3387.00    0.30281   0.46058   -1.000
 3388.00    0.29420   0.45648   -1.000
 3389.00    0.26454   0.45353   -1.000
 3390.00    0.28076   0.44767   -1.000
 3391.00    0.30014   0.43550   -1.000
 3392.00    0.31004   0.42179   -1.000
 3393.00    0.30035   0.41857   -1.000
 3394.00    0.30708   0.43202   -1.000
 3395.00    0.34177   0.45571   -1.000
 3396.00    0.37894   0.47968   -1.000
 3397.00    0.40106   0.49924   -1.000
 3398.00    0.36668   0.50987   -1.000
 3399.00    0.36209   0.50913   -1.000
 3400.00    0.42447   0.49964   39.621
 3401.00    0.42138   0.48479   40.965
 3402.00    0.40237   0.46760   41.464
 3403.00    0.38990   0.45477   42.207
 3404.00    0.34354   0.44894   -1.000
 3405.00    0.32640   0.44487   -1.000
 3406.00    0.32717   0.43775   -1.000
 3407.00    0.33023   0.43012   -1.000
 3408.00    0.32080   0.42883   -1.000
 3409.00    0.33471   0.43692   -1.000
 3410.00    0.36433   0.44723   -1.000
 3411.00    0.37442   0.44806   -1.000
 3412.00    0.37153   0.43736   44.745
 3413.00    0.37775   0.42392   45.250
 3414.00    0.35846   0.41926   44.796
 3415.00    0.35677   0.42715   43.393
 3416.00    0.36371   0.44358   -1.000
 3417.00    0.39697   0.46295   39.440
 3418.00    0.41023   0.48209   38.043
 3419.00    0.42855   0.49714   37.875
 3420.00    0.42241   0.50169   37.772
 3421.00    0.42639   0.49408   38.294
 3422.00    0.44722   0.48133   39.351
 3423.00    0.45063   0.47202   39.562
 3424.00    0.42672   0.46959   38.433
 3425.00    0.42036   0.47237   37.686
 3426.00    0.45190   0.47886   52.881
 3427.00    0.44381   0.49164   -1.000
 3428.00    0.43869   0.51166   -1.000
 3429.00    0.43369   0.52625   -1.000
 3430.00    0.44768   0.52354   -1.000
 3431.00    0.46986   0.50557   -1.000
 3432.00    0.46350   0.48567   37.630
 3433.00    0.42932   0.47688   52.926
 3434.00    0.43456   0.48084   -1.000
 3435.00    0.44460   0.48843   -1.000
 3436.00    0.43853   0.48853   38.006
 3437.00    0.42376   0.47711   39.966
 3438.00    0.41747   0.45381   42.628
 3439.00    0.41528   0.42263   45.496
 3440.00    0.38432   0.39100   46.730
 3441.00    0.35986   0.37131   46.701
 3442.00    0.35715   0.37042   45.932
 3443.00    0.35984   0.38240   43.854
 3444.00    0.38135   0.39899   41.436
 3445.00    0.41475   0.41748   39.432
 3446.00    0.41713   0.44005   54.678
 3447.00    0.43685   0.46589   -1.000
 3448.00    0.45755   0.48961   -1.000
 3449.00    0.46656   0.50271   -1.000
 3450.00    0.45593   0.49913   -1.000
 3451.00    0.44631   0.48266   -1.000
 3452.00    0.44374   0.46498   -1.000
 3453.00    0.43763   0.45924   -1.000
 3454.00    0.46245   0.46630  316.844
 3455.00    0.47249   0.47582  316.844
 3456.00    0.46861   0.47586  316.844
 3457.00    0.46578   0.46261   92.875
 3458.00    0.45547   0.44494   37.726
 3459.00    0.44605   0.42998   37.981
 3460.00    0.43518   0.42066   54.096
 3461.00    0.43015   0.42480  316.844
 3462.00    0.42603   0.44363   -1.000
 3463.00    0.44753   0.46231   -1.000
 3464.00    0.48379   0.46868   -1.000
 3465.00    0.46557   0.46671  316.844
 3466.00    0.46720   0.46648  316.844
 3467.00    0.47338   0.47522  316.844
 3468.00    0.48456   0.48825  316.844
 3469.00    0.49774   0.49785  316.844
 3470.00    0.49348   0.49969  316.844
 3471.00    0.50005   0.49144  316.844
 3472.00    0.48377   0.47376   -1.000
 3473.00    0.45580   0.44958   92.305
 3474.00    0.44011   0.42380   38.348
 3475.00    0.40596   0.40851   38.999
 3476.00    0.39276   0.41345   55.306
 3477.00    0.39684   0.43418   -1.000
 3478.00    0.40913   0.45876   -1.000
 3479.00    0.47048   0.47711  316.844
 3480.00    0.50337   0.48448   -1.000
 3481.00    0.50093   0.48156   -1.000
 3482.00    0.50620   0.47216   -1.000
 3483.00    0.49451   0.46361   -1.000
 3484.00    0.50389   0.46490   -1.000
 3485.00    0.49214   0.47976   -1.000
 3486.00    0.51337   0.49821   -1.000
 3487.00    0.54444   0.50131   -1.000
 3488.00    0.51190   0.48389   -1.000
 3489.00    0.48717   0.45775   -1.000
 3490.00    0.48398   0.44088   -1.000
 3491.00    0.46166   0.44097   -1.000
 3492.00    0.48736   0.44991   -1.000
 3493.00    0.50342   0.45633   -1.000
 3494.00    0.48717   0.45305   -1.000
 3495.00    0.45831   0.44307   -1.000
 3496.00    0.45686   0.43845   -1.000
 3497.00    0.45088   0.45086  316.844
 3498.00    0.45112   0.47667   -1.000
 3499.00    0.47635   0.49616   -1.000
 3500.00    0.51913   0.50281   -1.000
 3501.00    0.51212   0.50638  292.228
 3502.00    0.51322   0.51232  293.797
 3503.00    0.51975   0.51662  300.647
 3504.00    0.52983   0.51152   -1.000
 3505.00    0.52840   0.50097   -1.000
 3506.00    0.50136   0.49477  303.907
 3507.00    0.51226   0.49434   -1.000
 3508.00    0.50761   0.49311   -1.000
 3509.00    0.49846   0.48560   -1.000
 3510.00    0.50544   0.47449   -1.000
 3511.00    0.49676   0.46451   -1.000
 3512.00    0.50606   0.45503   -1.000
 3513.00    0.49053   0.44624   -1.000
 3514.00    0.45652   0.44882  316.844
 3515.00    0.46177   0.46883  313.702
 3516.00    0.49909   0.49859  299.939
 3517.00    0.53402   0.52139   -1.000
 3518.00    0.53725   0.52472   -1.000
 3519.00    0.55420   0.50942   -1.000
 3520.00    0.53199   0.48471   -1.000
 3521.00    0.48424   0.46235   -1.000
 3522.00    0.46029   0.44439   88.108
 3523.00    0.47792   0.42593   38.020
 3524.00    0.46513   0.41122   38.805
 3525.00    0.42083   0.40874   57.022
 3526.00    0.42145   0.42462  316.844
 3527.00    0.44563   0.45514  316.844
 3528.00    0.46330   0.48619   -1.000
 3529.00    0.46030   0.50454   -1.000
 3530.00    0.48864   0.50757   -1.000
 3531.00    0.52041   0.50342   -1.000
 3532.00    0.51985   0.50336   -1.000
 3533.00    0.51211   0.51093  309.086
 3534.00    0.50169   0.52099   -1.000
 3535.00    0.53043   0.52683  300.871
 3536.00    0.53470   0.52938  300.791
 3537.00    0.52486   0.53492  297.236
 3538.00    0.53969   0.54379  295.774
 3539.00    0.54758   0.54820  299.544
 3540.00    0.53199   0.54315   -1.000
 3541.00    0.52819   0.53678  305.014
 3542.00    0.53396   0.53883  302.009
 3543.00    0.53196   0.54688   -1.000
 3544.00    0.53159   0.55367   -1.000
 3545.00    0.53828   0.55309   -1.000
 3546.00    0.53592   0.54715   -1.000
 3547.00    0.54927   0.54285  311.778
 3548.00    0.54565   0.54344  310.508
 3549.00    0.53594   0.54698   -1.000
 3550.00    0.53492   0.54814   -1.000
 3551.00    0.52986   0.54279   -1.000
 3552.00    0.52544   0.53112  316.844
 3553.00    0.52335   0.52070  316.844
 3554.00    0.53089   0.51775   -1.000
 3555.00    0.54254   0.52148   -1.000
 3556.00    0.52449   0.52533  316.844
 3557.00    0.49821   0.52310   -1.000
 3558.00    0.49694   0.51709   -1.000
 3559.00    0.50074   0.51557   -1.000
 3560.00    0.49723   0.52391   -1.000
 3561.00    0.50692   0.53806   -1.000
 3562.00    0.50888   0.54414   -1.000
 3563.00    0.51650   0.52603   85.463
 3564.00    0.51301   0.48523   38.496
 3565.00    0.48426   0.45056   39.304
 3566.00    0.44129   0.43917   38.925
 3567.00    0.43990   0.43999   39.290
 3568.00    0.41469   0.43572   40.414
 3569.00    0.41039   0.42141   40.369
 3570.00    0.42422   0.41259   38.874
 3571.00    0.44181   0.42109   57.216
 3572.00    0.45406   0.43802   -1.000
 3573.00    0.45669   0.45186  316.844
 3574.00    0.46390   0.45900  316.844
 3575.00    0.45713   0.46247  316.844
 3576.00    0.46267   0.46488  316.844
 3577.00    0.47422   0.46183   87.746
 3578.00    0.48053   0.44695   40.338
 3579.00    0.45597   0.42101   43.195
 3580.00    0.41459   0.39638   44.752
 3581.00    0.39400   0.38438   44.986
 3582.00    0.38912   0.38636   45.535
 3583.00    0.40580   0.39092   46.832
 3584.00    0.44004   0.38527   48.042
 3585.00    0.41885   0.37388   47.465
 3586.00    0.38179   0.37005   44.989
 3587.00    0.38405   0.37958   42.677
 3588.00    0.40761   0.40191   39.889
 3589.00    0.43768   0.43210   57.435
 3590.00    0.45975   0.46360  316.844
 3591.00    0.48377   0.48710  316.844
 3592.00    0.50374   0.49681  316.844
 3593.00    0.49800   0.49859  316.844
 3594.00    0.49120   0.50421   -1.000
 3595.00    0.53089   0.51940   -1.000
 3596.00    0.56755   0.53706   -1.000
 3597.00    0.57524   0.55144   -1.000
 3598.00    0.58591   0.56278   -1.000
 3599.00    0.59050   0.56736   -1.000
 3600.00    0.59630   0.55888   -1.000
 3601.00    0.60092   0.53618   -1.000
 3602.00    0.56549   0.50735   -1.000
 3603.00    0.53257   0.48402   -1.000
 3604.00    0.51356   0.47458   -1.000
 3605.00    0.48937   0.47616   -1.000
 3606.00    0.50670   0.47651   -1.000
 3607.00    0.53158   0.46764   -1.000
 3608.00    0.50317   0.45331   -1.000
 3609.00    0.47388   0.44850   -1.000
 3610.00    0.47589   0.46084   -1.000
 3611.00    0.49117   0.47812   -1.000
 3612.00    0.50053   0.49059   -1.000
 3613.00    0.52044   0.50198   -1.000
 3614.00    0.53618   0.51540   -1.000
 3615.00    0.52458   0.52437  316.844
 3616.00    0.51015   0.51114  316.844
 3617.00    0.48851   0.47406   81.555
 3618.00    0.46925   0.44422   57.884
 3619.00    0.45890   0.44532   -1.000
 3620.00    0.46555   0.47146  312.284
 3621.00    0.48525   0.50328   -1.000
 3622.00    0.53055   0.52607  293.118
 3623.00    0.56913   0.54035   -1.000
 3624.00    0.58423   0.55740   -1.000
 3625.00    0.60465   0.58299   -1.000
 3626.00    0.62533   0.60822   -1.000
 3627.00    0.64302   0.62046   -1.000
 3628.00    0.63596   0.60516   -1.000
 3629.00    0.60352   0.55977   -1.000
 3630.00    0.54201   0.50662   -1.000
 3631.00    0.48742   0.47363   -1.000
 3632.00    0.48460   0.47122   -1.000
 3633.00    0.50583   0.48856   -1.000
 3634.00    0.50171   0.50760  315.643
 3635.00    0.50441   0.51980   -1.000
 3636.00    0.53605   0.52986  288.402
 3637.00    0.56000   0.54725   -1.000
 3638.00    0.59738   0.57043   -1.000
 3639.00    0.61457   0.59028   -1.000
 3640.00    0.59352   0.59494  281.866
 3641.00    0.59542   0.58129   -1.000
 3642.00    0.59597   0.55689   -1.000
 3643.00    0.55765   0.53313   -1.000
 3644.00    0.53595   0.51754   -1.000
 3645.00    0.50443   0.50779  316.844
 3646.00    0.49149   0.49815  316.844
 3647.00    0.49473   0.49137  316.844
 3648.00    0.49963   0.49313  313.802
 3649.00    0.50449   0.50506  299.963
 3650.00    0.52566   0.52655  286.208
 3651.00    0.57308   0.55334   -1.000
 3652.00    0.59928   0.57766   -1.000
 3653.00    0.58608   0.59397  268.260
 3654.00    0.59476   0.60284  266.455
 3655.00    0.62006   0.61024  263.479
 3656.00    0.61314   0.62150  259.997
 3657.00    0.60622   0.63240   -1.000
 3658.00    0.63024   0.63816  257.718
 3659.00    0.64761   0.63882  258.899
 3660.00    0.64706   0.63419   -1.000
 3661.00    0.63068   0.62427  265.295
 3662.00    0.60632   0.61167  268.819
 3663.00    0.58306   0.60127   -1.000
 3664.00    0.59898   0.59756  266.685
 3665.00    0.63590   0.59910   -1.000
 3666.00    0.63737   0.59895   -1.000
 3667.00    0.62200   0.59081   -1.000
 3668.00    0.60530   0.57713   -1.000
 3669.00    0.57850   0.57231  275.906
 3670.00    0.58983   0.58358  267.485
 3671.00    0.60464   0.60309  264.057
 3672.00    0.62746   0.61731  263.549
 3673.00    0.65156   0.62008   -1.000
 3674.00    0.65837   0.61341   -1.000
 3675.00    0.65151   0.59876   -1.000
 3676.00    0.63657   0.57910   -1.000
 3677.00    0.62011   0.55876   -1.000
 3678.00    0.59378   0.54201   -1.000
 3679.00    0.56410   0.53423   -1.000
 3680.00    0.56724   0.53685   -1.000
 3681.00    0.56432   0.54803   -1.000
 3682.00    0.54989   0.56111   -1.000
 3683.00    0.56903   0.56694  289.021
 3684.00    0.59687   0.55768   -1.000
 3685.00    0.58015   0.53463   -1.000
 3686.00    0.53697   0.51356   -1.000
 3687.00    0.51548   0.51003  295.421
 3688.00    0.54139   0.52847   -1.000
 3689.00    0.57271   0.56169  261.772
 3690.00    0.58826   0.59469  258.237
 3691.00    0.61639   0.61106  262.569
 3692.00    0.63182   0.60835   -1.000
 3693.00    0.62240   0.59908   -1.000
 3694.00    0.61240   0.59168   -1.000
 3695.00    0.62524   0.58791   -1.000
 3696.00    0.62408   0.59095   -1.000
 3697.00    0.61755   0.60519   -1.000
 3698.00    0.66010   0.62837   -1.000
 3699.00    0.70322   0.64880   -1.000
 3700.00    0.71414   0.65387   -1.000
 3701.00    0.71964   0.63449   -1.000
 3702.00    0.66929   0.59133   -1.000
 3703.00    0.59636   0.54005   -1.000
 3704.00    0.56020   0.49820   -1.000
 3705.00    0.54530   0.47931   -1.000
 3706.00    0.52184   0.48260   -1.000
 3707.00    0.53515   0.49429   -1.000
 3708.00    0.54848   0.50629   -1.000
 3709.00    0.53677   0.51853   -1.000
 3710.00    0.56112   0.53459   -1.000
 3711.00    0.59813   0.55962   -1.000
 3712.00    0.63783   0.59462   -1.000
 3713.00    0.68656   0.62781   -1.000
 3714.00    0.69609   0.64870   -1.000
 3715.00    0.67870   0.65200   -1.000
 3716.00    0.68952   0.63612   -1.000
 3717.00    0.68749   0.60183   -1.000
 3718.00    0.62496   0.54872   -1.000
 3719.00    0.54362   0.48382   -1.000
 3720.00    0.47752   0.43498   62.422
 3721.00    0.44455   0.42346   -1.000
 3722.00    0.46661   0.45050   -1.000
 3723.00    0.52612   0.50279   -1.000
 3724.00    0.58877   0.55505   -1.000
 3725.00    0.60438   0.58117   -1.000
 3726.00    0.60427   0.58140   -1.000
 3727.00    0.59195   0.57847   -1.000
 3728.00    0.58759   0.58270  280.995
 3729.00    0.63618   0.58546   -1.000
 3730.00    0.65031   0.57140   -1.000
 3731.00    0.60664   0.53081   -1.000
 3732.00    0.56399   0.47335   -1.000
 3733.00    0.49504   0.41736   -1.000
 3734.00    0.42712   0.37965   42.500
 3735.00    0.41977   0.37384   39.466
 3736.00    0.44296   0.40074   61.512
 3737.00    0.46476   0.45079   -1.000
 3738.00    0.49145   0.51204   -1.000
 3739.00    0.54882   0.56596   -1.000
 3740.00    0.61417   0.59510   -1.000
 3741.00    0.62700   0.59596   -1.000
 3742.00    0.60178   0.57449   -1.000
 3743.00    0.59438   0.54110   -1.000
 3744.00    0.56655   0.50862   -1.000
 3745.00    0.51155   0.48275   75.320
 3746.00    0.49171   0.45766   39.010
 3747.00    0.45889   0.42712   40.605
 3748.00    0.42201   0.39699   67.803
 3749.00    0.42861   0.39096   -1.000
 3750.00    0.44119   0.42231   -1.000
 3751.00    0.49684   0.48011   -1.000
 3752.00    0.57659   0.54394   -1.000
 3753.00    0.61526   0.60041   -1.000
 3754.00    0.65218   0.63676   -1.000
 3755.00    0.67907   0.64059   -1.000
 3756.00    0.65704   0.61027   -1.000
 3757.00    0.59881   0.56467   -1.000
 3758.00    0.56059   0.53180   -1.000
 3759.00    0.55457   0.52771   -1.000
 3760.00    0.56458   0.54323   -1.000
 3761.00    0.59277   0.55928   -1.000
 3762.00    0.60574   0.56849   -1.000
 3763.00    0.60728   0.57327   -1.000
 3764.00    0.62403   0.57251   -1.000
 3765.00    0.62404   0.56337   -1.000
 3766.00    0.60163   0.54932   -1.000
 3767.00    0.59028   0.53526   -1.000
 3768.00    0.59249   0.52248   -1.000
 3769.00    0.59126   0.51287   -1.000
 3770.00    0.57810   0.51323   -1.000
 3771.00    0.58233   0.53256   -1.000
 3772.00    0.62239   0.56722   -1.000
 3773.00    0.65095   0.59831   -1.000
 3774.00    0.67479   0.61648   -1.000
 3775.00    0.67981   0.62763   -1.000
 3776.00    0.67187   0.63840   -1.000
 3777.00    0.67147   0.65352   -1.000
 3778.00    0.68819   0.67265   -1.000
 3779.00    0.70465   0.69186   -1.000
 3780.00    0.70806   0.70693  237.535
 3781.00    0.73430   0.71597   -1.000
 3782.00    0.75049   0.72041   -1.000
 3783.00    0.73032   0.71682   -1.000
 3784.00    0.71374   0.69764   -1.000
 3785.00    0.69170   0.66349   -1.000
 3786.00    0.64662   0.62709   -1.000
 3787.00    0.62436   0.60027   -1.000
 3788.00    0.61215   0.58814   -1.000
 3789.00    0.59940   0.58841   -1.000
 3790.00    0.59265   0.59417  287.459
 3791.00    0.60297   0.59491  295.017
 3792.00    0.61464   0.58254   -1.000
 3793.00    0.59113   0.55892   -1.000
 3794.00    0.56477   0.53051   -1.000
 3795.00    0.55054   0.50140   -1.000
 3796.00    0.53744   0.47061   -1.000
 3797.00    0.52377   0.44310   -1.000
 3798.00    0.51639   0.44058   -1.000
 3799.00    0.52930   0.47488   -1.000
 3800.00    0.56094   0.53099   -1.000
 3801.00    0.60951   0.58932   -1.000
 3802.00    0.64128   0.63391  264.208
 3803.00    0.65043   0.65749  265.414
 3804.00    0.67263   0.66154   -1.000
 3805.00    0.66283   0.64961   -1.000
 3806.00    0.60975   0.63578   -1.000
 3807.00    0.59150   0.63876   -1.000
 3808.00    0.62289   0.66032   -1.000
 3809.00    0.65496   0.68508   -1.000
 3810.00    0.67661   0.69387   -1.000
 3811.00    0.68502   0.67792  290.217
 3812.00    0.64794   0.64364  308.034
 3813.00    0.60046   0.60366  316.844
 3814.00    0.57151   0.57331  316.844
 3815.00    0.55750   0.56558  316.844
 3816.00    0.56435   0.57688   -1.000
 3817.00    0.57667   0.58573  316.844
 3818.00    0.57688   0.57592  316.844
 3819.00    0.56960   0.55097   -1.000
 3820.00    0.52591   0.53305  316.844
 3821.00    0.49976   0.53658   -1.000
 3822.00    0.53250   0.54531   -1.000
 3823.00    0.54088   0.53750   73.769
 3824.00    0.51226   0.51341   39.622
 3825.00    0.47921   0.48891   39.883
 3826.00    0.46681   0.47585   39.376
 3827.00    0.46834   0.47445   38.730
 3828.00    0.48138   0.47765   38.637
 3829.00    0.50088   0.47652   39.753
 3830.00    0.50350   0.46496   42.247
 3831.00    0.46429   0.44184   44.655
 3832.00    0.42724   0.41174   44.878
 3833.00    0.41859   0.38363   43.494
 3834.00    0.42095   0.37002   42.120
 3835.00    0.43144   0.37353   42.098
 3836.00    0.43732   0.38548   43.083
 3837.00    0.42293   0.39704   43.228
 3838.00    0.40209   0.40827   41.565
 3839.00    0.39935   0.42803   70.594
 3840.00    0.41972   0.46439   -1.000
 3841.00    0.46753   0.51195   -1.000
 3842.00    0.53543   0.55931   -1.000
 3843.00    0.57806   0.59572   -1.000
 3844.00    0.59079   0.61578   -1.000
 3845.00    0.60702   0.62738   -1.000
 3846.00    0.61781   0.63816   -1.000
 3847.00    0.60776   0.64527   -1.000
 3848.00    0.58011   0.64264   -1.000
 3849.00    0.55910   0.63646   -1.000
 3850.00    0.57945   0.63675   -1.000
 3851.00    0.60346   0.64596   -1.000
 3852.00    0.61008   0.65628   -1.000
 3853.00    0.60736   0.65503   -1.000
 3854.00    0.58963   0.64099   -1.000
 3855.00    0.57746   0.62396   -1.000
 3856.00    0.55215   0.60611   -1.000
 3857.00    0.52476   0.58511   38.273
 3858.00    0.51500   0.56491   39.051
 3859.00    0.49144   0.55846   -1.000
 3860.00    0.47937   0.57603   -1.000
 3861.00    0.51551   0.61151   -1.000
 3862.00    0.58681   0.64647   -1.000
 3863.00    0.62834   0.66232   -1.000
 3864.00    0.64098   0.66105   -1.000
 3865.00    0.64165   0.65570   -1.000
 3866.00    0.61639   0.65215   -1.000
 3867.00    0.59917   0.65084   -1.000
 3868.00    0.58846   0.64612   -1.000
 3869.00    0.55765   0.63055   -1.000
 3870.00    0.52467   0.60486   -1.000
 3871.00    0.52666   0.58048   -1.000
 3872.00    0.53374   0.57328   -1.000
 3873.00    0.54773   0.59024   -1.000
 3874.00    0.59125   0.62181   -1.000
 3875.00    0.61930   0.63993   -1.000
 3876.00    0.61518   0.62920   -1.000
 3877.00    0.57981   0.60371   -1.000
 3878.00    0.55011   0.58597   -1.000
 3879.00    0.55897   0.58321   -1.000
 3880.00    0.55928   0.58681   -1.000
 3881.00    0.54264   0.58786   -1.000
 3882.00    0.54328   0.58627   -1.000
 3883.00    0.56163   0.58216   -1.000
 3884.00    0.59063   0.56785   -1.000
 3885.00    0.59477   0.53592   -1.000
 3886.00    0.55814   0.49404   -1.000
 3887.00    0.53471   0.46296   -1.000
 3888.00    0.53900   0.45668   -1.000
 3889.00    0.55168   0.48064   -1.000
 3890.00    0.59177   0.52745   -1.000
 3891.00    0.63944   0.57927   -1.000
 3892.00    0.67068   0.61286   -1.000
 3893.00    0.68768   0.62314   -1.000
 3894.00    0.69135   0.62524   -1.000
 3895.00    0.69876   0.63381   -1.000
 3896.00    0.71279   0.64913   -1.000
 3897.00    0.73583   0.65996   -1.000
 3898.00    0.73784   0.66268   -1.000
 3899.00    0.71448   0.66552   -1.000
 3900.00    0.71946   0.67359   -1.000
 3901.00    0.73422   0.68074   -1.000
 3902.00    0.71609   0.67846   -1.000
 3903.00    0.68180   0.66449   -1.000
 3904.00    0.66143   0.64854   -1.000
 3905.00    0.65784   0.64477   -1.000
 3906.00    0.67462   0.65928   -1.000
 3907.00    0.70942   0.68983   -1.000
 3908.00    0.73191   0.72467  230.994
 3909.00    0.74060   0.74933  228.888
 3910.00    0.77274   0.76273  227.133
 3911.00    0.80319   0.76955   -1.000
 3912.00    0.79426   0.76965   -1.000
 3913.00    0.77646   0.76325   -1.000
 3914.00    0.75361   0.75290  241.181
 3915.00    0.74680   0.74123  244.293
 3916.00    0.76467   0.73028   -1.000
 3917.00    0.77744   0.71703   -1.000
 3918.00    0.75639   0.69817   -1.000
 3919.00    0.73277   0.67674   -1.000
 3920.00    0.70347   0.65977   -1.000
 3921.00    0.65971   0.65529  277.306
 3922.00    0.66164   0.66282  275.990
 3923.00    0.68636   0.67057   -1.000
 3924.00    0.66847   0.66476  305.509
 3925.00    0.63307   0.64033  316.844
 3926.00    0.59932   0.59981   72.630
 3927.00    0.55658   0.54740   44.948
 3928.00    0.50272   0.49039   52.653
 3929.00    0.42429   0.43148   61.952
 3930.00    0.34873   0.36972   72.922
 3931.00    0.29151   0.31112   82.453
 3932.00    0.25298   0.26348   84.086
 3933.00    0.22612   0.24196   76.222
 3934.00    0.23175   0.25673   64.303
 3935.00    0.27675   0.30283   52.936
 3936.00    0.32587   0.36690   44.049
 3937.00    0.37389   0.43830   -1.000
 3938.00    0.43782   0.50432   -1.000
 3939.00    0.51286   0.55783   -1.000
 3940.00    0.56337   0.59508   -1.000
 3941.00    0.58733   0.61330   -1.000
 3942.00    0.60386   0.61918   -1.000
 3943.00    0.60175   0.62348   -1.000
 3944.00    0.60699   0.63726   -1.000
 3945.00    0.64663   0.66106   -1.000
 3946.00    0.68724   0.68239  254.828
 3947.00    0.70457   0.69426  248.870
 3948.00    0.72847   0.70384   -1.000
 3949.00    0.74500   0.71709   -1.000
 3950.00    0.75377   0.72714   -1.000
 3951.00    0.77708   0.72939   -1.000
 3952.00    0.79676   0.73135   -1.000
 3953.00    0.79591   0.73733   -1.000
 3954.00    0.77771   0.74034   -1.000
 3955.00    0.77631   0.73245   -1.000
 3956.00    0.77380   0.72051   -1.000
 3957.00    0.74820   0.71629   -1.000
 3958.00    0.73631   0.71315   -1.000
 3959.00    0.73781   0.69229   -1.000
 3960.00    0.70239   0.64814   -1.000
 3961.00    0.63405   0.59479   -1.000
 3962.00    0.58421   0.55073   67.271
 3963.00    0.54757   0.51628   42.415
 3964.00    0.49731   0.47642   51.057
 3965.00    0.43112   0.41777   62.778
 3966.00    0.34960   0.34325   72.969
 3967.00    0.28611   0.28032   73.375
 3968.00    0.27098   0.25134   63.558
 3969.00    0.28097   0.26257   52.243
 3970.00    0.30424   0.30810   43.374
 3971.00    0.35355   0.37382   75.797
 3972.00    0.44494   0.44376  316.844
 3973.00    0.53719   0.51213   -1.000
 3974.00    0.59489   0.57509   -1.000
 3975.00    0.65815   0.62997   -1.000
 3976.00    0.71649   0.67801   -1.000
 3977.00    0.74002   0.72061   -1.000
 3978.00    0.78727   0.76048   -1.000
 3979.00    0.83670   0.78999   -1.000
 3980.00    0.84698   0.80150   -1.000
 3981.00    0.83671   0.79851   -1.000
 3982.00    0.82723   0.79345   -1.000
 3983.00    0.84009   0.79744   -1.000
 3984.00    0.86156   0.80940   -1.000
 3985.00    0.87785   0.82335   -1.000
 3986.00    0.88720   0.83857   -1.000
 3987.00    0.89371   0.85392   -1.000
 3988.00    0.90355   0.86576   -1.000
 3989.00    0.92026   0.87319   -1.000
 3990.00    0.92570   0.88014   -1.000
 3991.00    0.91849   0.89098   -1.000
 3992.00    0.93014   0.90149   -1.000
 3993.00    0.93019   0.90227   -1.000
 3994.00    0.91031   0.89049   -1.000
 3995.00    0.88090   0.87152  204.512
 3996.00    0.86340   0.85591  202.622
 3997.00    0.86681   0.85488  195.231
 3998.00    0.88104   0.87012  187.514
 3999.00    0.92333   0.89447   -1.000
 4000.00    0.95252   0.91972   -1.000
 4001.00    0.95606   0.93561   -1.000
 4002.00    0.97622   0.93318   -1.000
 4003.00    0.97362   0.90891   -1.000
 4004.00    0.93693   0.87080   -1.000
 4005.00    0.89394   0.84274   -1.000
 4006.00    0.86718   0.84800   -1.000
 4007.00    0.88050   0.88044  182.979
 4008.00    0.93715   0.91628   -1.000
 4009.00    0.98412   0.93902   -1.000
 4010.00    1.00086   0.94837   -1.000
 4011.00    1.00323   0.95134   -1.000
 4012.00    0.99174   0.95354   -1.000
 4013.00    0.97026   0.95745  178.886
 4014.00    1.00000   0.96096   -1.000
 4015.00    1.02135   0.96102   -1.000
 4016.00    1.00388   0.95887   -1.000
 4017.00    0.99594   0.96025   -1.000
 4018.00    0.98775   0.96791   -1.000
 4019.00    0.99938   0.97648   -1.000
 4020.00    1.01449   0.98032   -1.000
 4021.00    1.02372   0.97746   -1.000
 4022.00    0.99795   0.97142   -1.000
 4023.00    0.98745   0.96504   -1.000
 4024.00    1.00732   0.96286   -1.000
 4025.00    1.00707   0.97147   -1.000
 4026.00    1.00358   0.98990  170.909
 4027.00    1.03677   1.00323   -1.000
 4028.00    1.05424   0.99135   -1.000
 4029.00    1.00908   0.95311   -1.000
 4030.00    0.96160   0.90663   -1.000
 4031.00    0.91908   0.87187   -1.000
 4032.00    0.89320   0.85898   -1.000
 4033.00    0.89449   0.86780   -1.000
 4034.00    0.92835   0.89575   -1.000
 4035.00    0.97898   0.93783   -1.000
 4036.00    1.02342   0.98584   -1.000
 4037.00    1.05755   1.02343   -1.000
 4038.00    1.07085   1.03390   -1.000
 4039.00    1.05889   1.02133   -1.000
 4040.00    1.04235   1.00599   -1.000
 4041.00    1.02742   0.99451   -1.000
 4042.00    1.02678   0.97334   -1.000
 4043.00    0.99202   0.92618   -1.000
 4044.00    0.90071   0.86457   -1.000
 4045.00    0.82167   0.83239  198.818
 4046.00    0.84261   0.85188  183.619
 4047.00    0.93630   0.90627   -1.000
 4048.00    1.00038   0.96397   -1.000
 4049.00    1.01748   1.00245  172.685
 4050.00    1.04509   1.01629   -1.000
 4051.00    1.04815   1.01106   -1.000
 4052.00    1.01021   0.99312   -1.000
 4053.00    0.99093   0.97211   -1.000
 4054.00    0.97529   0.95769   -1.000
 4055.00    0.96020   0.94761  189.382
 4056.00    0.95256   0.93797   -1.000
 4057.00    0.95438   0.93544   -1.000
 4058.00    0.96067   0.94762  178.873
 4059.00    0.98406   0.96945  179.221
 4060.00    1.00898   0.97731   -1.000
 4061.00    1.00135   0.95263   -1.000
 4062.00    0.94857   0.90758   -1.000
 4063.00    0.90268   0.87166   -1.000
 4064.00    0.88533   0.86409   -1.000
 4065.00    0.91065   0.87939   -1.000
 4066.00    0.94739   0.90398   -1.000
 4067.00    0.96238   0.93065   -1.000
 4068.00    1.00796   0.95162   -1.000
 4069.00    1.04744   0.95190   -1.000
 4070.00    1.01104   0.92920   -1.000
 4071.00    0.95482   0.90588   -1.000
 4072.00    0.94722   0.90501   -1.000
 4073.00    0.96331   0.92072   -1.000
 4074.00    0.98722   0.92354   -1.000
 4075.00    0.98131   0.89905   -1.000
 4076.00    0.93823   0.86522   -1.000
 4077.00    0.89336   0.85003   -1.000
 4078.00    0.88155   0.86814  184.027
 4079.00    0.92410   0.91213  175.588
 4080.00    0.98709   0.95828   -1.000
 4081.00    1.04344   0.97991   -1.000
 4082.00    1.05072   0.97191   -1.000
 4083.00    1.01147   0.95096   -1.000
 4084.00    0.98795   0.94073   -1.000
 4085.00    0.99876   0.95354   -1.000
 4086.00    1.02590   0.98369   -1.000
 4087.00    1.06471   1.01571   -1.000
 4088.00    1.08459   1.03334   -1.000
 4089.00    1.08305   1.03044   -1.000
 4090.00    1.08060   1.01414   -1.000
 4091.00    1.06765   0.99791   -1.000
 4092.00    1.03994   0.98689   -1.000
 4093.00    1.03888   0.97459   -1.000
 4094.00    1.02804   0.95343   -1.000
 4095.00    0.99261   0.92324   -1.000
 4096.00    0.96363   0.89283   -1.000
 4097.00    0.96700   0.86411   -1.000
 4098.00    0.95962   0.82809   -1.000
 4099.00    0.90275   0.77560   -1.000
 4100.00    0.81332   0.71690   -1.000
 4101.00    0.75608   0.68421   -1.000
 4102.00    0.77679   0.69885   -1.000
 4103.00    0.83324   0.75468   -1.000
 4104.00    0.88853   0.82577   -1.000
 4105.00    0.94413   0.88201   -1.000
 4106.00    0.98455   0.91465   -1.000
 4107.00    1.00953   0.93050   -1.000
 4108.00    1.01303   0.93447   -1.000
 4109.00    1.00643   0.93437   -1.000
 4110.00    0.98442   0.93822   -1.000
 4111.00    0.96420   0.94864  181.898
 4112.00    0.97925   0.96445  178.984
 4113.00    1.01514   0.98418   -1.000
 4114.00    1.03784   1.00443   -1.000
 4115.00    1.05722   1.01591   -1.000
 4116.00    1.04836   1.01289   -1.000
 4117.00    1.02866   0.99874   -1.000
 4118.00    1.00900   0.98332   -1.000
 4119.00    0.98773   0.97517  185.638
 4120.00    0.99166   0.97687  185.016
 4121.00    0.99669   0.98324  183.896
 4122.00    0.99528   0.99016  181.077
 4123.00    1.01608   0.99891   -1.000
 4124.00    1.02679   1.00872   -1.000
 4125.00    1.02333   1.01250  184.121
 4126.00    1.00397   1.00553  186.628
 4127.00    1.00327   0.99406  187.766
 4128.00    0.99319   0.98617  189.578
 4129.00    0.98718   0.97958  194.200
 4130.00    0.98069   0.96429   -1.000
 4131.00    0.94933   0.94027  203.193
 4132.00    0.92884   0.92235  199.119
 4133.00    0.92253   0.92652  190.223
 4134.00    0.93259   0.95449   -1.000
 4135.00    0.97446   0.99339   -1.000
 4136.00    1.00957   1.02920   -1.000
 4137.00    1.03098   1.05392   -1.000
 4138.00    1.05189   1.06905   -1.000
 4139.00    1.05378   1.07084   -1.000
 4140.00    1.04447   1.04860  196.894
 4141.00    1.01748   1.00333   -1.000
 4142.00    0.95809   0.95519  209.099
 4143.00    0.90696   0.92941   -1.000
 4144.00    0.90637   0.94175   -1.000
 4145.00    0.96495   0.97854  185.049
 4146.00    1.01008   1.01036  186.575
 4147.00    1.01979   1.02124  191.273
 4148.00    1.02995   1.01667  194.825
 4149.00    1.01451   1.01209  194.798
 4150.00    0.99830   1.01315  193.506
 4151.00    0.99323   1.01278   -1.000
 4152.00    0.97998   1.00423   -1.000
 4153.00    0.96642   0.98936   -1.000
 4154.00    0.94863   0.97831   -1.000
 4155.00    0.95045   0.98000   -1.000
 4156.00    0.95850   0.99380   -1.000
 4157.00    1.01914   1.01377  186.575
 4158.00    1.25139   1.03554   -1.000
 4159.00    1.27453   1.05371   -1.000
 4160.00    0.88896   1.06628   -1.000
 4161.00    0.81953   1.07649   -1.000
 4162.00    1.04810   1.08573   -1.000
 4163.00    1.10884   1.09094   -1.000
 4164.00    1.07158   1.08643  187.906
 4165.00    1.02680   1.07069   -1.000
 4166.00    0.99107   1.05201   -1.000
 4167.00    0.98296   1.04101   -1.000
 4168.00    0.98825   1.03927   -1.000
 4169.00    1.00921   1.03370   -1.000
 4170.00    1.01978   1.01007  208.719
 4171.00    0.98476   0.97257  213.796
 4172.00    0.92474   0.94134   -1.000
 4173.00    0.89501   0.93731   -1.000
 4174.00    0.91186   0.95844   -1.000
 4175.00    0.94627   0.98338   -1.000
 4176.00    0.95852   0.99743   -1.000
 4177.00    0.95426   1.00651   -1.000
 4178.00    0.94556   1.01928   -1.000
 4179.00    0.95465   1.03124   -1.000
 4180.00    0.96387   1.03204   -1.000
 4181.00    0.99166   1.02354   -1.000
 4182.00    0.99691   1.02059   -1.000
 4183.00    0.99676   1.03076   -1.000
 4184.00    1.01920   1.04157   -1.000
 4185.00    1.00947   1.03760   -1.000
 4186.00    0.97890   1.02124   -1.000
 4187.00    0.97369   1.00829   -1.000
 4188.00    0.95916   1.01001   -1.000
 4189.00    0.98179   1.02291   -1.000
 4190.00    1.00523   1.03786   -1.000
 4191.00    0.99922   1.05316   -1.000
 4192.00    1.01078   1.06754   -1.000
 4193.00    1.02137   1.07117   -1.000
 4194.00    1.01117   1.05590   -1.000
 4195.00    0.98215   1.02507   -1.000
 4196.00    0.95992   0.99138   -1.000
 4197.00    0.95451   0.96657  204.501
 4198.00    0.95994   0.95360  201.522
 4199.00    0.95763   0.95069  200.014
 4200.00    0.94686   0.95575  199.029
 4201.00    0.94561   0.96468   -1.000
 4202.00    0.95744   0.97662   -1.000
 4203.00    0.97239   0.99543   -1.000
 4204.00    0.98476   1.02096   -1.000
 4205.00    1.01151   1.04792   -1.000
 4206.00    1.04691   1.07156   -1.000
 4207.00    1.05563   1.08677   -1.000
 4208.00    1.06780   1.09083   -1.000
 4209.00    1.06759   1.08804   -1.000
 4210.00    1.03380   1.08775   -1.000
 4211.00    1.01990   1.09353   -1.000
 4212.00    1.03750   1.09376   -1.000
 4213.00    1.02924   1.07508   -1.000
 4214.00    0.98693   1.04417   -1.000
 4215.00    0.96412   1.02266   -1.000
 4216.00    0.98119   1.02624   -1.000
 4217.00    1.01416   1.05468   -1.000
 4218.00    1.06451   1.09132   -1.000
 4219.00    1.09334   1.11698   -1.000
 4220.00    1.12426   1.12233  173.225
 4221.00    1.13268   1.10463   -1.000
 4222.00    1.10467   1.06089   -1.000
 4223.00    1.05583   0.99184   -1.000
 4224.00    0.95202   0.91101   -1.000
 4225.00    0.84832   0.84433  243.535
 4226.00    0.77975   0.82217   -1.000
 4227.00    0.80507   0.86209   -1.000
 4228.00    0.90794   0.94510   -1.000
 4229.00    1.00326   1.02148   -1.000
 4230.00    1.04725   1.06153  176.350
 4231.00    1.07913   1.06692  180.877
 4232.00    1.07206   1.05288   -1.000
 4233.00    1.04725   1.03442  187.112
 4234.00    1.04317   1.01916   -1.000
 4235.00    1.03027   1.00919   -1.000
 4236.00    1.00873   1.00560  187.520
 4237.00    0.99493   1.01234  184.236
 4238.00    0.99818   1.02989   -1.000
 4239.00    1.02006   1.05145   -1.000
 4240.00    1.05362   1.07132  176.914
 4241.00    1.06509   1.08702   -1.000
 4242.00    1.06715   1.10047   -1.000
 4243.00    1.10665   1.11387  171.099
 4244.00    1.12560   1.12171  177.075
 4245.00    1.10855   1.11282  184.450
 4246.00    1.08779   1.08453  189.911
 4247.00    1.04805   1.04879  192.631
 4248.00    1.01356   1.02179  193.005
 4249.00    0.99241   1.01387   -1.000
 4250.00    0.98060   1.02408   -1.000
 4251.00    1.01886   1.04073   -1.000
 4252.00    1.05372   1.04860  186.468
 4253.00    1.04000   1.03947  186.560
 4254.00    1.01866   1.02927  180.634
 4255.00    1.00389   1.03939   -1.000
 4256.00    1.05226   1.06119  181.458
 4257.00    1.08836   1.06590   -1.000
 4258.00    1.05284   1.04078  197.612
 4259.00    0.99106   1.00617  194.059
 4260.00    0.94551   0.99649   -1.000
 4261.00    0.96508   1.02576   -1.000
 4262.00    1.03191   1.07769   -1.000
 4263.00    1.08861   1.12331   -1.000
 4264.00    1.12217   1.14683   -1.000
 4265.00    1.12198   1.14849   -1.000
 4266.00    1.12229   1.13520  178.787
 4267.00    1.09714   1.11027  185.199
 4268.00    1.07576   1.07293  195.812
 4269.00    1.04181   1.02432   -1.000
 4270.00    0.98599   0.97400  213.954
 4271.00    0.91811   0.93704   -1.000
 4272.00    0.90556   0.92498   -1.000
 4273.00    0.93168   0.93715  197.900
 4274.00    0.93998   0.96598   -1.000
 4275.00    0.97857   1.00910   -1.000
 4276.00    1.03790   1.06042   -1.000
 4277.00    1.09386   1.09953  179.134
 4278.00    1.09594   1.10803  186.121
 4279.00    1.05539   1.09073   -1.000
 4280.00    1.02715   1.07058   -1.000
 4281.00    1.02790   1.06394   -1.000
 4282.00    1.04581   1.06770   -1.000
 4283.00    1.05425   1.06633  190.349
 4284.00    1.04786   1.05509  195.484
 4285.00    1.01982   1.03950   -1.000
 4286.00    1.00017   1.02114   -1.000
 4287.00    0.98000   0.99707   -1.000
 4288.00    0.94864   0.96465   -1.000
 4289.00    0.90491   0.93639   -1.000
 4290.00    0.88560   0.93524   -1.000
 4291.00    0.91303   0.96389   -1.000
 4292.00    0.97573   0.99961   -1.000
 4293.00    1.02210   1.01921  194.370
 4294.00    1.01639   1.01598  198.469
 4295.00    0.99130   0.99678  206.830
 4296.00    0.96421   0.96579  222.564
 4297.00    0.91653   0.92159  240.279
 4298.00    0.86374   0.86931  247.847
 4299.00    0.80787   0.82797   -1.000
 4300.00    0.78562   0.81104   -1.000
 4301.00    0.79931   0.81548   -1.000
 4302.00    0.82568   0.82963  231.763
 4303.00    0.82923   0.84579   -1.000
 4304.00    0.83761   0.85712   -1.000
 4305.00    0.83763   0.85254   -1.000
 4306.00    0.81486   0.82910   -1.000
 4307.00    0.78756   0.80073  255.910
 4308.00    0.76457   0.78822   -1.000
 4309.00    0.76100   0.80466   -1.000
 4310.00    0.79998   0.84373   -1.000
 4311.00    0.84677   0.88912   -1.000
 4312.00    0.87011   0.93678   -1.000
 4313.00    0.91446   0.99390   -1.000
 4314.00    0.99502   1.06350   -1.000
 4315.00    1.10022   1.14011   -1.000
 4316.00    1.17896   1.20466   -1.000
 4317.00    1.20172   1.23916   -1.000
 4318.00    1.21907   1.24143   -1.000
 4319.00    1.21483   1.22440  167.085
 4320.00    1.20029   1.19594  174.609
 4321.00    1.16552   1.15114   -1.000
 4322.00    1.10592   1.08588   -1.000
 4323.00    1.03215   1.01146   -1.000
 4324.00    0.93913   0.95698   -1.000
 4325.00    0.89107   0.94943   -1.000
 4326.00    0.93425   0.99588   -1.000
 4327.00    1.05042   1.07400   -1.000
 4328.00    1.14538   1.14093  164.698
 4329.00    1.17308   1.17378  164.314
 4330.00    1.17153   1.18091  161.944
 4331.00    1.17234   1.18324  159.915
 4332.00    1.17257   1.19046  159.224
 4333.00    1.18466   1.19503  161.101
 4334.00    1.19559   1.18377  169.307
 4335.00    1.17856   1.14411   -1.000
 4336.00    1.14640   1.06963   -1.000
 4337.00    1.06384   0.97160   -1.000
 4338.00    0.96036   0.88141   -1.000
 4339.00    0.88968   0.82923   -1.000
 4340.00    0.85515   0.83258   -1.000
 4341.00    0.89025   0.88884  182.572
 4342.00    0.97179   0.97024  175.415
 4343.00    1.04114   1.04116  170.521
 4344.00    1.08976   1.09185  167.156
 4345.00    1.11774   1.12968  165.130
 4346.00    1.14954   1.16124  162.692
 4347.00    1.18356   1.18809  162.252
 4348.00    1.20628   1.20067  168.887
 4349.00    1.19776   1.18375  180.865
 4350.00    1.13843   1.13784  186.594
 4351.00    1.06463   1.09145   -1.000
 4352.00    1.03919   1.07722   -1.000
 4353.00    1.06186   1.10189   -1.000
 4354.00    1.10638   1.14535   -1.000
 4355.00    1.13989   1.18136   -1.000
 4356.00    1.16934   1.20014   -1.000
 4357.00    1.17155   1.20472   -1.000
 4358.00    1.16349   1.20238   -1.000
 4359.00    1.16200   1.20449   -1.000
 4360.00    1.18383   1.21960   -1.000
 4361.00    1.21399   1.24279   -1.000
 4362.00    1.23145   1.26242   -1.000
 4363.00    1.22486   1.27593   -1.000
 4364.00    1.22635   1.28311   -1.000
 4365.00    1.24902   1.27544   -1.000
 4366.00    1.22931   1.25099   -1.000
 4367.00    1.17052   1.22382   -1.000
 4368.00    1.13936   1.20571   -1.000
 4369.00    1.16170   1.19653   -1.000
 4370.00    1.17342   1.18993  166.540
 4371.00    1.18426   1.17761  172.009
 4372.00    1.16482   1.15438  179.043
 4373.00    1.13154   1.12411  181.014
 4374.00    1.09630   1.10234  175.340
 4375.00    1.06394   1.10792   -1.000
 4376.00    1.08304   1.14158   -1.000
 4377.00    1.14277   1.18076   -1.000
 4378.00    1.17012   1.20354   -1.000
 4379.00    1.20344   1.19930  171.444
 4380.00    1.19217   1.16168   -1.000
 4381.00    1.14839   1.09101   -1.000
 4382.00    1.05062   1.00648   -1.000
 4383.00    0.95252   0.94649  201.978
 4384.00    0.91388   0.94855   -1.000
 4385.00    0.97325   1.00662   -1.000
 4386.00    1.04793   1.07451   -1.000
 4387.00    1.10125   1.11487  174.152
 4388.00    1.14318   1.12593   -1.000
 4389.00    1.13547   1.12719  172.663
 4390.00    1.13890   1.13355  168.825
 4391.00    1.14500   1.14810  168.689
 4392.00    1.17112   1.16239  171.881
 4393.00    1.15572   1.16712  172.433
 4394.00    1.12673   1.16939   -1.000
 4395.00    1.13165   1.18439   -1.000
 4396.00    1.17517   1.21072   -1.000
 4397.00    1.21720   1.22651  166.249
 4398.00    1.20784   1.21780  171.597
 4399.00    1.17552   1.19596   -1.000
 4400.00    1.15152   1.17938   -1.000
 4401.00    1.14945   1.17247   -1.000
 4402.00    1.15723   1.16037  181.245
 4403.00    1.14123   1.13046  185.134
 4404.00    1.06966   1.09802   -1.000
 4405.00    1.05260   1.08764   -1.000
 4406.00    1.07325   1.10279   -1.000
 4407.00    1.09867   1.12971   -1.000
 4408.00    1.12919   1.16174   -1.000
 4409.00    1.17993   1.20550   -1.000
 4410.00    1.21890   1.25572   -1.000
 4411.00    1.24327   1.28672   -1.000
 4412.00    1.27627   1.28103  164.727
 4413.00    1.24068   1.24362  171.702
 4414.00    1.16930   1.19441   -1.000
 4415.00    1.12931   1.16275   -1.000
 4416.00    1.12000   1.17176   -1.000
 4417.00    1.14584   1.21552   -1.000
 4418.00    1.20928   1.26766   -1.000
 4419.00    1.24988   1.30284   -1.000
 4420.00    1.25163   1.30639   -1.000
 4421.00    1.23889   1.28670   -1.000
 4422.00    1.19389   1.26536   -1.000
 4423.00    1.18723   1.25624   -1.000
 4424.00    1.19725   1.25688   -1.000
 4425.00    1.18547   1.25681   -1.000
 4426.00    1.18175   1.25557   -1.000
 4427.00    1.19734   1.25936   -1.000
 4428.00    1.21820   1.26560   -1.000
 4429.00    1.22488   1.26989   -1.000
 4430.00    1.21634   1.27161   -1.000
 4431.00    1.21274   1.27003   -1.000
 4432.00    1.21484   1.25911   -1.000
 4433.00    1.19299   1.23241   -1.000
 4434.00    1.14625   1.20266   -1.000
 4435.00    1.11841   1.19852   -1.000
 4436.00    1.16190   1.23324   -1.000
 4437.00    1.22869   1.28814   -1.000
 4438.00    1.28119   1.32924   -1.000
 4439.00    1.30075   1.33587   -1.000
 4440.00    1.26466   1.30710   -1.000
 4441.00    1.22340   1.26227   -1.000
 4442.00    1.19697   1.23304   -1.000
 4443.00    1.19293   1.24038   -1.000
 4444.00    1.20425   1.27853   -1.000
 4445.00    1.24400   1.32064   -1.000
 4446.00    1.28215   1.34595   -1.000
 4447.00    1.30683   1.35237   -1.000
 4448.00    1.30600   1.35023   -1.000
 4449.00    1.28745   1.34658   -1.000
 4450.00    1.29197   1.34046   -1.000
 4451.00    1.29619   1.32744   -1.000
 4452.00    1.26989   1.29987   -1.000
 4453.00    1.22259   1.25522   -1.000
 4454.00    1.18804   1.20990   -1.000
 4455.00    1.16314   1.18620   -1.000
 4456.00    1.17698   1.18885  168.254
 4457.00    1.19841   1.20310  169.010
 4458.00    1.18970   1.21268   -1.000
 4459.00    1.18121   1.21526   -1.000
 4460.00    1.16633   1.21841   -1.000
 4461.00    1.17022   1.22903   -1.000
 4462.00    1.19517   1.25129   -1.000
 4463.00    1.23062   1.28104   -1.000
 4464.00    1.24300   1.30520   -1.000
 4465.00    1.25360   1.31450   -1.000
 4466.00    1.27419   1.30937   -1.000
 4467.00    1.24925   1.29732   -1.000
 4468.00    1.23809   1.28762   -1.000
 4469.00    1.22391   1.29018   -1.000
 4470.00    1.23810   1.31072   -1.000
 4471.00    1.27694   1.34410   -1.000
 4472.00    1.33022   1.37870   -1.000
 4473.00    1.33857   1.40404   -1.000
 4474.00    1.35205   1.41615   -1.000
 4475.00    1.37729   1.42102   -1.000
 4476.00    1.38133   1.42460   -1.000
 4477.00    1.39282   1.42212   -1.000
 4478.00    1.38672   1.40328  156.450
 4479.00    1.33692   1.36523   -1.000
 4480.00    1.28010   1.32205   -1.000
 4481.00    1.24477   1.29972   -1.000
 4482.00    1.26048   1.31126   -1.000
 4483.00    1.30976   1.34939   -1.000
 4484.00    1.36590   1.39535   -1.000
 4485.00    1.38716   1.42748   -1.000
 4486.00    1.39001   1.43151   -1.000
 4487.00    1.36528   1.40944   -1.000
 4488.00    1.31896   1.37783   -1.000
 4489.00    1.28528   1.35682   -1.000
 4490.00    1.27923   1.35793   -1.000
 4491.00    1.31618   1.37464   -1.000
 4492.00    1.34549   1.38788   -1.000
 4493.00    1.33407   1.38304   -1.000
 4494.00    1.31819   1.36660   -1.000
 4495.00    1.29575   1.35927   -1.000
 4496.00    1.30924   1.37032   -1.000
 4497.00    1.33493   1.39173   -1.000
 4498.00    1.35411   1.41084   -1.000
 4499.00    1.35460   1.42012   -1.000
 4500.00    1.33771   1.42163   -1.000
 4501.00    1.33114   1.42858   -1.000
 4502.00    1.35431   1.44948   -1.000
 4503.00    1.40886   1.47866   -1.000
 4504.00    1.45342   1.50389   -1.000
 4505.00    1.45772   1.51335   -1.000
 4506.00    1.43415   1.50695   -1.000
 4507.00    1.42175   1.49503   -1.000
 4508.00    1.42771   1.48862   -1.000
 4509.00    1.43093   1.48967   -1.000
 4510.00    1.44550   1.49090   -1.000
 4511.00    1.44562   1.48386   -1.000
 4512.00    1.39449   1.46779   -1.000
 4513.00    1.37896   1.45007   -1.000
 4514.00    1.38211   1.43694   -1.000
 4515.00    1.37738   1.43094   -1.000
 4516.00    1.37773   1.43018   -1.000
 4517.00    1.35133   1.42848   -1.000
 4518.00    1.34998   1.42677   -1.000
 4519.00    1.37712   1.43200   -1.000
 4520.00    1.40361   1.44252   -1.000
 4521.00    1.41790   1.44791   -1.000
 4522.00    1.38771   1.43969   -1.000
 4523.00    1.34458   1.42016   -1.000
 4524.00    1.33999   1.39682   -1.000
 4525.00    1.33284   1.36999   -1.000
 4526.00    1.28799   1.33661   -1.000
 4527.00    1.24601   1.30139   -1.000
 4528.00    1.22226   1.27783   -1.000
 4529.00    1.23488   1.27558   -1.000
 4530.00    1.26020   1.29033   -1.000
 4531.00    1.29490   1.30811  162.656
 4532.00    1.29422   1.31309   -1.000
 4533.00    1.27163   1.30282   -1.000
 4534.00    1.25313   1.29256   -1.000
 4535.00    1.25421   1.30376   -1.000
 4536.00    1.29572   1.34522   -1.000
 4537.00    1.36493   1.40178   -1.000
 4538.00    1.40167   1.44552   -1.000
 4539.00    1.41297   1.45922   -1.000
 4540.00    1.38839   1.45122   -1.000
 4541.00    1.37009   1.44160   -1.000
 4542.00    1.37787   1.44066   -1.000
 4543.00    1.37074   1.44181   -1.000
 4544.00    1.36637   1.43486   -1.000
 4545.00    1.39427   1.42131   81.427
 4546.00    1.21096   1.40799   -1.000
 4547.00    0.34283   1.39407   -1.000
 4548.00   -0.00687   1.37741    0.000
 4549.00    0.14437   1.36583   -1.000
 4550.00    0.75075   1.36981   -1.000
 4551.00    0.41293   1.38492   -1.000
 4552.00    0.98296   1.39337   -1.000
 4553.00    1.33520   1.38771   -1.000
 4554.00    1.33175   1.37912   -1.000
 4555.00    1.31424   1.38364   -1.000
 4556.00    1.35552   1.40983   -1.000
 4557.00    1.41571   1.44915   -1.000
 4558.00    1.46376   1.48382  142.300
 4559.00    1.47117   1.50487   -1.000
 4560.00    1.47342   1.51283   -1.000
 4561.00    1.47789   1.50985   -1.000
 4562.00    1.44178   1.49545   -1.000
 4563.00    1.40009   1.47125   -1.000
 4564.00    1.36852   1.44814   -1.000
 4565.00    1.34511   1.44125   -1.000
 4566.00    1.37816   1.45721   -1.000
 4567.00    1.43106   1.48533   -1.000
 4568.00    1.46509   1.50470   -1.000
 4569.00    1.45635   1.50265   -1.000
 4570.00    1.42253   1.48234   -1.000
 4571.00    1.39506   1.46050   -1.000
 4572.00    1.39262   1.45590   -1.000
 4573.00    1.40604   1.47302   -1.000
 4574.00    1.42914   1.49662   -1.000
 4575.00    1.44550   1.50979   -1.000
 4576.00    1.43944   1.50934   -1.000
 4577.00    1.42568   1.49782   -1.000
 4578.00    1.39694   1.47539   -1.000
 4579.00    1.36766   1.44514   -1.000
 4580.00    1.34234   1.41744   -1.000
 4581.00    1.34112   1.40295   -1.000
 4582.00    1.36840   1.40442   -1.000
 4583.00    1.38552   1.41360   -1.000
 4584.00    1.37157   1.41992   -1.000
 4585.00    1.35741   1.42277   -1.000
 4586.00    1.37705   1.43196   -1.000
 4587.00    1.42087   1.45249   -1.000
 4588.00    1.46163   1.47736  144.053
 4589.00    1.46013   1.49298   -1.000
 4590.00    1.43837   1.49062   -1.000
 4591.00    1.42401   1.47389   -1.000
 4592.00    1.39548   1.45566   -1.000
 4593.00    1.36741   1.44719   -1.000
 4594.00    1.36906   1.44952   -1.000
 4595.00    1.39187   1.45675   -1.000
 4596.00    1.40423   1.46467   -1.000
 4597.00    1.42416   1.47165   -1.000
 4598.00    1.43644   1.47473   -1.000
 4599.00    1.41089   1.47134   -1.000
 4600.00    1.37545   1.46365   -1.000
 4601.00    1.38045   1.45715   -1.000
 4602.00    1.40230   1.45613   -1.000
 4603.00    1.41304   1.46008   -1.000
 4604.00    1.41325   1.46687   -1.000
 4605.00    1.43155   1.47619   -1.000
 4606.00    1.46090   1.49035   -1.000
 4607.00    1.45471   1.51103   -1.000
 4608.00    1.50426   1.53475   -1.000
 4609.00    1.52432   1.55251   -1.000
 4610.00    1.53330   1.55434  140.866
 4611.00    1.50609   1.54217   -1.000
 4612.00    1.46761   1.52898   -1.000
 4613.00    1.44653   1.52265   -1.000
 4614.00    1.45594   1.52399   -1.000
 4615.00    1.46508   1.52857   -1.000
 4616.00    1.46882   1.53061   -1.000
 4617.00    1.47998   1.52823   -1.000
 4618.00    1.47220   1.52474   -1.000
 4619.00    1.45513   1.52585   -1.000
 4620.00    1.45939   1.53505   -1.000
 4621.00    1.48050   1.54900   -1.000
 4622.00    1.49186   1.55811   -1.000
 4623.00    1.51453   1.55733   -1.000
 4624.00    1.50969   1.55175   -1.000
 4625.00    1.49041   1.54614   -1.000
 4626.00    1.50303   1.54155   -1.000
 4627.00    1.50768   1.53967   -1.000
 4628.00    1.48777   1.54030   -1.000
 4629.00    1.46871   1.54240   -1.000
 4630.00    1.46658   1.54665   -1.000
 4631.00    1.48988   1.55249   -1.000
 4632.00    1.49329   1.55300   -1.000
 4633.00    1.47554   1.54378   -1.000
 4634.00    1.46837   1.53090   -1.000
 4635.00    1.47438   1.52060   -1.000
 4636.00    1.47198   1.51189   -1.000
 4637.00    1.46442   1.50289   -1.000
 4638.00    1.43700   1.49688   -1.000
 4639.00    1.43334   1.49881   -1.000
 4640.00    1.46446   1.51088   -1.000
 4641.00    1.48978   1.52917   -1.000
 4642.00    1.50990   1.54323   -1.000
 4643.00    1.52010   1.54165   -1.000
 4644.00    1.49599   1.52292   -1.000
 4645.00    1.44860   1.49383   -1.000
 4646.00    1.41468   1.46349   -1.000
 4647.00    1.42840   1.44637  144.607
 4648.00    1.44565   1.45351  142.398
 4649.00    1.44421   1.47954   -1.000
 4650.00    1.46752   1.50818   -1.000
 4651.00    1.48429   1.52566   -1.000
 4652.00    1.48109   1.52909   -1.000
 4653.00    1.47262   1.52165   -1.000
 4654.00    1.44387   1.50798   -1.000
 4655.00    1.41587   1.49814   -1.000
 4656.00    1.42197   1.50393   -1.000
 4657.00    1.46991   1.53018   -1.000
 4658.00    1.52548   1.56977   -1.000
 4659.00    1.56440   1.60453   -1.000
 4660.00    1.57049   1.61755   -1.000
 4661.00    1.55203   1.60710   -1.000
 4662.00    1.52001   1.58243   -1.000
 4663.00    1.48819   1.55372   -1.000
 4664.00    1.48346   1.52419   -1.000
 4665.00    1.45659   1.48997   -1.000
 4666.00    1.40003   1.45034   -1.000
 4667.00    1.36613   1.41749   -1.000
 4668.00    1.34652   1.41028   -1.000
 4669.00    1.36769   1.43483   -1.000
 4670.00    1.42822   1.47653   -1.000
 4671.00    1.48989   1.51378   -1.000
 4672.00    1.52161   1.53476  140.740
 4673.00    1.49188   1.54353   -1.000
 4674.00    1.49382   1.55084   -1.000
 4675.00    1.53087   1.56202   -1.000
 4676.00    1.54042   1.56910   -1.000
 4677.00    1.52639   1.56047   -1.000
 4678.00    1.49400   1.53713   -1.000
 4679.00    1.47677   1.51070   -1.000
 4680.00    1.44483   1.49289   -1.000
 4681.00    1.44803   1.48793   -1.000
 4682.00    1.47188   1.49480   -1.000
 4683.00    1.51645   1.51004  140.061
 4684.00    1.53870   1.52622  140.198
 4685.00    1.55589   1.53657  140.893
 4686.00    1.52378   1.53994  141.020
 4687.00    1.49666   1.53936   -1.000
 4688.00    1.52021   1.53744  141.906
 4689.00    1.50641   1.53553   -1.000
 4690.00    1.50041   1.53354   -1.000
 4691.00    1.49551   1.53197   -1.000
 4692.00    1.49597   1.53523   -1.000
 4693.00    1.50592   1.54513   -1.000
 4694.00    1.52612   1.55708   -1.000
 4695.00    1.55566   1.56550  137.750
 4696.00    1.57284   1.56536  141.936
 4697.00    1.53205   1.55189  143.952
 4698.00    1.49297   1.52820   -1.000
 4699.00    1.46836   1.50411   -1.000
 4700.00    1.44964   1.48548   -1.000
 4701.00    1.46650   1.47165  147.297
 4702.00    1.45030   1.46201  144.941
 4703.00    1.42631   1.46264   -1.000
 4704.00    1.45664   1.47620  144.144
 4705.00    1.48047   1.49136  146.974
 4706.00    1.46791   1.49358   -1.000
 4707.00    1.44017   1.48337   -1.000
 4708.00    1.42958   1.47543   -1.000
 4709.00    1.43922   1.48168   -1.000
 4710.00    1.46025   1.50052   -1.000
 4711.00    1.49182   1.52282   -1.000
 4712.00    1.51938   1.53766  141.943
 4713.00    1.51877   1.53810  142.304
 4714.00    1.49400   1.53223   -1.000
 4715.00    1.49369   1.53531   -1.000
 4716.00    1.52481   1.55348   -1.000
 4717.00    1.54688   1.57878   -1.000
 4718.00    1.55597   1.59920   -1.000
 4719.00    1.58135   1.60994   -1.000
 4720.00    1.57266   1.61227   -1.000
 4721.00    1.54677   1.61015   -1.000
 4722.00    1.52695   1.60844   -1.000
 4723.00    1.53053   1.61054   -1.000
 4724.00    1.54813   1.61309   -1.000
 4725.00    1.55440   1.60712   -1.000
 4726.00    1.53151   1.58556   -1.000
 4727.00    1.49581   1.55153   -1.000
 4728.00    1.46628   1.52031   -1.000
 4729.00    1.44977   1.50581   -1.000
 4730.00    1.47248   1.50819   -1.000
 4731.00    1.49900   1.52010   -1.000
 4732.00    1.52045   1.53574  139.959
 4733.00    1.53013   1.54925  139.180
 4734.00    1.53474   1.55566  140.410
 4735.00    1.51362   1.55598   -1.000
 4736.00    1.53499   1.55487  139.162
 4737.00    1.53254   1.55677   -1.000
 4738.00    1.55424   1.56478  139.728
 4739.00    1.55976   1.57565  139.992
 4740.00    1.54444   1.58188   -1.000
 4741.00    1.53975   1.58363   -1.000
 4742.00    1.56920   1.58762  137.594
 4743.00    1.57381   1.59492  137.750
 4744.00    1.57634   1.60173   -1.000
 4745.00    1.59818   1.60652  135.490
 4746.00    1.57419   1.61194   -1.000
 4747.00    1.58013   1.62100   -1.000
 4748.00    1.59291   1.63203   -1.000
 4749.00    1.59046   1.64154   -1.000
 4750.00    1.57879   1.64665   -1.000
 4751.00    1.56576   1.64305   -1.000
 4752.00    1.56525   1.62913   -1.000
 4753.00    1.54059   1.60921   -1.000
 4754.00    1.51795   1.59237   -1.000
 4755.00    1.52343   1.58564   -1.000
 4756.00    1.52308   1.58883   -1.000
 4757.00    1.51553   1.59823   -1.000
 4758.00    1.53039   1.61041   -1.000
 4759.00    1.53206   1.62029   -1.000
 4760.00    1.54277   1.61981   -1.000
 4761.00    1.53636   1.60357   -1.000
 4762.00    1.50264   1.57434   -1.000
 4763.00    1.47484   1.54535   -1.000
 4764.00    1.46624   1.52786   -1.000
 4765.00    1.47986   1.52154   -1.000
 4766.00    1.48229   1.52542   -1.000
 4767.00    1.49194   1.54357   -1.000
 4768.00    1.51978   1.57462   -1.000
 4769.00    1.55019   1.60454   -1.000
 4770.00    1.56037   1.61882   -1.000
 4771.00    1.55297   1.61765   -1.000
 4772.00    1.54670   1.61460   -1.000
 4773.00    1.54239   1.62207   -1.000
 4774.00    1.56793   1.64014   -1.000
 4775.00    1.58519   1.65767   -1.000
 4776.00    1.58814   1.66615   -1.000
 4777.00    1.58096   1.66540   -1.000
 4778.00    1.59043   1.65907   -1.000
 4779.00    1.59149   1.65013   -1.000
 4780.00    1.57756   1.64075   -1.000
 4781.00    1.57439   1.63120   -1.000
 4782.00    1.58399   1.61943   -1.000
 4783.00    1.57768   1.60728   -1.000
 4784.00    1.54756   1.59862   -1.000
 4785.00    1.53333   1.59354   -1.000
 4786.00    1.51520   1.59006   -1.000
 4787.00    1.50966   1.58863   -1.000
 4788.00    1.51523   1.59100   -1.000
 4789.00    1.54053   1.59742   -1.000
 4790.00    1.55422   1.60874   -1.000
 4791.00    1.55130   1.62692   -1.000
 4792.00    1.58217   1.65186   -1.000
 4793.00    1.59938   1.67946   -1.000
 4794.00    1.61933   1.70340   -1.000
 4795.00    1.64138   1.71623   -1.000
 4796.00    1.65358   1.71255   -1.000
 4797.00    1.61680   1.69523   -1.000
 4798.00    1.57949   1.67304   -1.000
 4799.00    1.54555   1.65640   -1.000
 4800.00    1.55955   1.65477   -1.000
 4801.00    1.59898   1.66939   -1.000
 4802.00    1.61006   1.68871   -1.000
 4803.00    1.61650   1.69821   -1.000
 4804.00    1.59523   1.69293   -1.000
 4805.00    1.59286   1.67870   -1.000
 4806.00    1.59978   1.66504   -1.000
 4807.00    1.59459   1.65691   -1.000
 4808.00    1.58772   1.65629   -1.000
 4809.00    1.58586   1.66370   -1.000
 4810.00    1.59576   1.67480   -1.000
 4811.00    1.62010   1.68365   -1.000
 4812.00    1.62188   1.68931   -1.000
 4813.00    1.60367   1.69457   -1.000
 4814.00    1.62989   1.70171   -1.000
 4815.00    1.63715   1.71182   -1.000
 4816.00    1.63135   1.72349   -1.000
 4817.00    1.66004   1.73305   -1.000
 4818.00    1.65577   1.73839   -1.000
 4819.00    1.65196   1.74018   -1.000
 4820.00    1.66208   1.73646   -1.000
 4821.00    1.64142   1.72120   -1.000
 4822.00    1.60697   1.69266   -1.000
 4823.00    1.57572   1.66033   -1.000
 4824.00    1.56961   1.64275   -1.000
 4825.00    1.60172   1.65039   -1.000
 4826.00    1.61620   1.67090   -1.000
 4827.00    1.61669   1.68463   -1.000
 4828.00    1.62317   1.68511   -1.000
 4829.00    1.59603   1.67900   -1.000
 4830.00    1.59565   1.67122   -1.000
 4831.00    1.59250   1.66025   -1.000
 4832.00    1.57463   1.65078   -1.000
 4833.00    1.59339   1.65131   -1.000
 4834.00    1.61916   1.66272   -1.000
 4835.00    1.62163   1.67738   -1.000
 4836.00    1.63183   1.68553   -1.000
 4837.00    1.64960   1.68296   -1.000
 4838.00    1.61339   1.67054   -1.000
 4839.00    1.57897   1.65255   -1.000
 4840.00    1.56817   1.63680   -1.000
 4841.00    1.57819   1.63004   -1.000
 4842.00    1.60060   1.63251   -1.000
 4843.00    1.59544   1.63957   -1.000
 4844.00    1.59694   1.65074   -1.000
 4845.00    1.63140   1.66678   -1.000
 4846.00    1.65903   1.67845  139.714
 4847.00    1.64278   1.67545   -1.000
 4848.00    1.62145   1.66337   -1.000
 4849.00    1.59748   1.65665   -1.000
 4850.00    1.60027   1.66014   -1.000
 4851.00    1.60156   1.66490   -1.000
 4852.00    1.60942   1.65928   -1.000
 4853.00    1.58983   1.63708   -1.000
 4854.00    1.55725   1.59974   -1.000
 4855.00    1.51576   1.56029   -1.000
 4856.00    1.51014   1.53263   -1.000
 4857.00    1.50180   1.51305  161.874
 4858.00    1.46558   1.47355  180.663
 4859.00    1.38050   1.39008  190.513
 4860.00    1.24631   1.28424   -1.000
 4861.00    1.16404   1.21208   -1.000
 4862.00    1.19978   1.21741  154.443
 4863.00    1.30854   1.29255  148.717
 4864.00    1.40007   1.39025  145.420
 4865.00    1.45694   1.47361  143.966
 4866.00    1.48518   1.53222   -1.000
 4867.00    1.51342   1.56912   -1.000
 4868.00    1.55769   1.58581   -1.000
 4869.00    1.54138   1.57951   -1.000
 4870.00    1.48226   1.55059   -1.000
 4871.00    1.44655   1.51404   -1.000
 4872.00    1.44435   1.49964   -1.000
 4873.00    1.46471   1.52381   -1.000
 4874.00    1.47816   1.56840   -1.000
 4875.00    1.51895   1.60395   -1.000
 4876.00    1.56228   1.61999   -1.000
 4877.00    1.57130   1.62927   -1.000
 4878.00    1.56954   1.64600   -1.000
 4879.00    1.59298   1.66866   -1.000
 4880.00    1.58397   1.68436   -1.000
 4881.00    1.57749   1.68333   -1.000
 4882.00    1.57622   1.67149   -1.000
 4883.00    1.58054   1.65996   -1.000
 4884.00    1.55400   1.64706   -1.000
 4885.00    1.53022   1.62920   -1.000
 4886.00    1.51601   1.61270   -1.000
 4887.00    1.53974   1.60438   -1.000
 4888.00    1.56110   1.59873   -1.000
 4889.00    1.50563   1.58308   -1.000
 4890.00    1.50460   1.55919   -1.000
 4891.00    1.49781   1.55018   -1.000
 4892.00    1.54252   1.58016   -1.000
 4893.00    1.62244   1.64893   -1.000
 4894.00    1.68217   1.72487   -1.000
 4895.00    1.71322   1.77646   -1.000
 4896.00    1.70252   1.79851   -1.000
 4897.00    1.70188   1.79901   -1.000
 4898.00    1.67242   1.78587   -1.000
 4899.00    1.65559   1.76632   -1.000
 4900.00    1.64705   1.74833   -1.000
 4901.00    1.64901   1.73541   -1.000
 4902.00    1.64136   1.72457   -1.000
 4903.00    1.63671   1.71480   -1.000
 4904.00    1.63749   1.71616   -1.000
 4905.00    1.65891   1.73558   -1.000
 4906.00    1.69833   1.75821   -1.000
 4907.00    1.68503   1.76210   -1.000
 4908.00    1.62519   1.74040   -1.000
 4909.00    1.59380   1.70363   -1.000
 4910.00    1.57447   1.67199   -1.000
 4911.00    1.58311   1.66286   -1.000
 4912.00    1.60331   1.67977   -1.000
 4913.00    1.61247   1.71008   -1.000
 4914.00    1.65438   1.73911   -1.000
 4915.00    1.69595   1.75651   -1.000
 4916.00    1.68331   1.74843   -1.000
 4917.00    1.63594   1.70284   -1.000
 4918.00    1.57144   1.62694   -1.000
 4919.00    1.48937   1.54918   -1.000
 4920.00    1.45191   1.50448   -1.000
 4921.00    1.49240   1.50966  143.147
 4922.00    1.54748   1.55050  142.889
 4923.00    1.56865   1.59591   -1.000
 4924.00    1.58628   1.62850   -1.000
 4925.00    1.59524   1.65597   -1.000
 4926.00    1.64105   1.68955   -1.000
 4927.00    1.68441   1.72856   -1.000
 4928.00    1.70524   1.76355   -1.000
 4929.00    1.71648   1.78682   -1.000
 4930.00    1.70477   1.79463   -1.000
 4931.00    1.70334   1.78207   -1.000
 4932.00    1.64100   1.74851   -1.000
 4933.00    1.61031   1.70805   -1.000
 4934.00    1.59970   1.68210   -1.000
 4935.00    1.62905   1.67769   -1.000
 4936.00    1.63792   1.67792   -1.000
 4937.00    1.58546   1.66000   -1.000
 4938.00    1.54917   1.63066   -1.000
 4939.00    1.56284   1.62078   -1.000
 4940.00    1.58845   1.64798   -1.000
 4941.00    1.67443   1.70106   -1.000
 4942.00    1.69781   1.75137   -1.000
 4943.00    1.74229   1.77974   -1.000
 4944.00    1.72636   1.78636   -1.000
 4945.00    1.70754   1.78059   -1.000
 4946.00    1.69823   1.77460   -1.000
 4947.00    1.70394   1.77897   -1.000
 4948.00    1.71714   1.79486   -1.000
 4949.00    1.72257   1.81150   -1.000
 4950.00    1.71938   1.81838   -1.000
 4951.00    1.72169   1.81476   -1.000
 4952.00    1.70885   1.80563   -1.000
 4953.00    1.70383   1.79353   -1.000
 4954.00    1.70132   1.77345   -1.000
 4955.00    1.68552   1.73189   -1.000
 4956.00    1.63126   1.66389   -1.000
 4957.00    1.54830   1.59924   -1.000
 4958.00    1.55806   1.58348   -1.000
 4959.00    1.64512   1.62884  134.775
 4960.00    1.71085   1.70132  135.324
 4961.00    1.71111   1.75629   -1.000
 4962.00    1.72065   1.77866   -1.000
 4963.00    1.73288   1.77655   -1.000
 4964.00    1.69782   1.75888   -1.000
 4965.00    1.69601   1.73304   -1.000
 4966.00    1.68494   1.70931   -1.000
 4967.00    1.66025   1.69537   -1.000
 4968.00    1.63381   1.69222   -1.000
 4969.00    1.63246   1.69869   -1.000
 4970.00    1.64124   1.71361   -1.000
 4971.00    1.68610   1.73404   -1.000
 4972.00    1.73796   1.75568  134.914
 4973.00    1.74387   1.77408   -1.000
 4974.00    1.72108   1.78494   -1.000
 4975.00    1.73450   1.78574   -1.000
 4976.00    1.72498   1.77663   -1.000
 4977.00    1.70560   1.75912   -1.000
 4978.00    1.65934   1.73693   -1.000
 4979.00    1.64092   1.71225   -1.000
 4980.00    1.63480   1.68073   -1.000
 4981.00    1.58322   1.63532   -1.000
 4982.00    1.53564   1.58181   -1.000
 4983.00    1.50628   1.54400   -1.000
 4984.00    1.53058   1.54471  143.195
 4985.00    1.57332   1.58386  139.590
 4986.00    1.62775   1.63989  139.549
 4987.00    1.67433   1.68959  141.535
 4988.00    1.71078   1.71746  143.029
 4989.00    1.68314   1.71884   -1.000
 4990.00    1.63741   1.70524   -1.000
 4991.00    1.65647   1.69434   -1.000
 4992.00    1.65779   1.69491   -1.000
 4993.00    1.66070   1.70325   -1.000
 4994.00    1.68346   1.71298   -1.000
 4995.00    1.71013   1.72275  140.590
 4996.00    1.70567   1.73129   -1.000
 4997.00    1.67255   1.73077   -1.000
 4998.00    1.65854   1.71312   -1.000
 4999.00    1.61814   1.68049   -1.000
 5000.00    1.60719   1.64645   -1.000
 5001.00    1.60567   1.62658  145.009
 5002.00    1.61568   1.62581  146.971
 5003.00    1.61900   1.63244  150.683
 5004.00    1.60468   1.62762   -1.000
 5005.00    1.58445   1.60509   -1.000
 5006.00    1.56524   1.58363  143.594
 5007.00    1.58395   1.59008  141.951
 5008.00    1.63881   1.62590  143.691
 5009.00    1.68739   1.66518   -1.000
 5010.00    1.67275   1.67919  153.479
 5011.00    1.62871   1.65756   -1.000
 5012.00    1.58511   1.61324   -1.000
 5013.00    1.54397   1.57153   -1.000
 5014.00    1.54716   1.55295  149.934
 5015.00    1.58205   1.55837   -1.000
 5016.00    1.60513   1.57447   -1.000
 5017.00    1.61774   1.58866   -1.000
 5018.00    1.61369   1.60060  146.358
 5019.00    1.61774   1.61607  146.950
 5020.00    1.63377   1.63154  147.290
 5021.00    1.64323   1.63923  146.482
 5022.00    1.64800   1.64082  144.947
 5023.00    1.64354   1.64803  143.953
 5024.00    1.63606   1.66755   -1.000
 5025.00    1.65291   1.68610   -1.000
 5026.00    1.64714   1.68815   -1.000
 5027.00    1.62799   1.67981   -1.000
 5028.00    1.64646   1.67760   -1.000
 5029.00    1.67084   1.69035  137.037
 5030.00    1.71684   1.71609  135.438
 5031.00    1.74778   1.74625  135.613
 5032.00    1.75558   1.77097  139.869
 5033.00    1.74044   1.77875   -1.000
 5034.00    1.73603   1.75977   -1.000
 5035.00    1.66582   1.72018   -1.000
 5036.00    1.62959   1.68133   -1.000
 5037.00    1.66204   1.65648  156.146
 5038.00    1.65280   1.63499  162.538
 5039.00    1.60018   1.59620  162.766
 5040.00    1.50612   1.54691   -1.000
 5041.00    1.46629   1.52294   -1.000
 5042.00    1.54371   1.55076  139.456
 5043.00    1.64715   1.62297   -1.000
 5044.00    1.71046   1.70477  131.267
 5045.00    1.75577   1.76453  135.156
 5046.00    1.74686   1.79025   39.762
 5047.00    1.83232   1.78102   -1.000
 5048.00    0.86391   1.74430   -1.000
 5049.00   -0.04008   1.69790    0.000
 5050.00   -0.01868   1.66396    0.000
 5051.00    0.21385   1.65596   -1.000
 5052.00    1.10160   1.67481   -1.000
 5053.00    1.75372   1.71100   -1.000
 5054.00    1.74566   1.74760  135.015
 5055.00    1.76634   1.77227  135.255
 5056.00    1.76263   1.78706   -1.000
 5057.00    1.76852   1.79773   -1.000
 5058.00    1.80278   1.80732  134.540
 5059.00    1.78315   1.81630   -1.000
 5060.00    1.76379   1.82322   -1.000
 5061.00    1.79284   1.82525   -1.000
 5062.00    1.82664   1.81416  145.399
 5063.00    1.77355   1.78121  147.113
 5064.00    1.68723   1.73574   -1.000
 5065.00    1.65891   1.70075   -1.000
 5066.00    1.67801   1.68938  142.672
 5067.00    1.68813   1.69607  141.996
 5068.00    1.69240   1.70662  141.058
 5069.00    1.71888   1.71554  142.193
 5070.00    1.73660   1.72244  143.324
 5071.00    1.74023   1.72236  141.565
 5072.00    1.72044   1.71426  140.452
 5073.00    1.73220   1.70864   -1.000
 5074.00    1.73878   1.71403   -1.000
 5075.00    1.73373   1.72508  141.516
 5076.00    1.72306   1.72945  146.471
 5077.00    1.71853   1.71681  153.486
 5078.00    1.67025   1.68269  155.272
 5079.00    1.61055   1.63734   -1.000
 5080.00    1.58349   1.60614   -1.000
 5081.00    1.60568   1.60381  146.735
 5082.00    1.63753   1.62286  143.955
 5083.00    1.64274   1.64931  141.487
 5084.00    1.67305   1.67761  140.479
 5085.00    1.74220   1.70858   -1.000
 5086.00    1.76072   1.73672   -1.000
 5087.00    1.75234   1.75492  138.566
 5088.00    1.74675   1.76428  137.803
 5089.00    1.77407   1.77054  137.089
 5090.00    1.76378   1.77783  135.496
 5091.00    1.77054   1.78872  134.279
 5092.00    1.81451   1.80349  135.528
 5093.00    1.83180   1.81626  138.384
 5094.00    1.78431   1.81532   -1.000
 5095.00    1.84492   1.79208   -1.000
 5096.00    1.87176   1.75048   -1.000
 5097.00    1.71356   1.70469  148.302
 5098.00    1.63627   1.67071   -1.000
 5099.00    1.63404   1.66145   -1.000
 5100.00    1.68383   1.68084  139.198
 5101.00    1.73267   1.71747  140.045
 5102.00    1.76290   1.74803  141.914
 5103.00    1.75143   1.75782  143.710
 5104.00    1.74788   1.74984  145.471
 5105.00    1.72840   1.73165  147.300
 5106.00    1.70436   1.70854  147.045
 5107.00    1.68238   1.68623  146.088
 5108.00    1.66179   1.67210  145.036
 5109.00    1.67448   1.67159  142.926
 5110.00    1.70274   1.68589  141.181
 5111.00    1.71527   1.71175  139.458
 5112.00    1.77905   1.74080   -1.000
 5113.00    1.78171   1.76518  137.478
 5114.00    1.77459   1.78464  136.007
 5115.00    1.75506   1.80196   -1.000
 5116.00    1.79430   1.81733  135.307
 5117.00    1.80524   1.82735  137.114
 5118.00    1.85438   1.82837   -1.000
 5119.00    1.81463   1.81817  141.497
 5120.00    1.80213   1.79677  145.181
 5121.00    1.76342   1.76751  149.591
 5122.00    1.71328   1.73442  150.550
 5123.00    1.70263   1.70108  149.150
 5124.00    1.68620   1.67435  148.436
 5125.00    1.67785   1.66243  147.544
 5126.00    1.69190   1.66410   -1.000
 5127.00    1.71419   1.67019   -1.000
 5128.00    1.70366   1.67458   -1.000
 5129.00    1.68209   1.68002  143.157
 5130.00    1.69405   1.69140  142.032
 5131.00    1.73502   1.70890   -1.000
 5132.00    1.74750   1.72764  139.432
 5133.00    1.76695   1.74331   -1.000
 5134.00    1.77339   1.75497  141.703
 5135.00    1.77722   1.76005  145.193
 5136.00    1.77659   1.75181   -1.000
 5137.00    1.72637   1.72790  147.607
 5138.00    1.66780   1.69865   -1.000
 5139.00    1.65850   1.67869  147.401
 5140.00    1.67681   1.67358  149.859
 5141.00    1.66968   1.67638  148.869
 5142.00    1.66319   1.67993  146.296
 5143.00    1.67729   1.68549  145.861
 5144.00    1.70523   1.69485  147.300
 5145.00    1.70780   1.70089  147.625
 5146.00    1.68394   1.69588  145.726
 5147.00    1.69101   1.68694  144.944
 5148.00    1.68430   1.68825  146.847
 5149.00    1.70043   1.69747  149.574
 5150.00    1.72105   1.69932   -1.000
 5151.00    1.69322   1.69000  149.656
 5152.00    1.66562   1.67808  146.705
 5153.00    1.67878   1.67302  142.935
 5154.00    1.69856   1.68175  139.298
 5155.00    1.74584   1.70721   -1.000
 5156.00    1.80443   1.74405   -1.000
 5157.00    1.82740   1.78000   -1.000
 5158.00    1.80627   1.80556  136.279
 5159.00    1.82222   1.81760  137.079
 5160.00    1.84927   1.81765   -1.000
 5161.00    1.85023   1.80624   -1.000
 5162.00    1.82418   1.78232   -1.000
 5163.00    1.74707   1.74544  158.850
 5164.00    1.73378   1.68997   -1.000
 5165.00    1.61993   1.60386   -1.000
 5166.00    1.45720   1.49361   -1.000
 5167.00    1.37456   1.40036   -1.000
 5168.00    1.38750   1.37057   -1.000
 5169.00    1.47589   1.40132   -1.000
 5170.00    1.51171   1.42898   -1.000
 5171.00    1.45878   1.40800   -1.000
 5172.00    1.32952   1.36616   -1.000
 5173.00    1.34148   1.36932   -1.000
 5174.00    1.51304   1.45021   -1.000
 5175.00    1.67333   1.56911   -1.000
 5176.00    1.74174   1.66679   -1.000
 5177.00    1.76876   1.72088   -1.000
 5178.00    1.78855   1.73852   -1.000
 5179.00    1.78546   1.72851   -1.000
 5180.00    1.74428   1.68247   -1.000
 5181.00    1.63286   1.59072   -1.000
 5182.00    1.46677   1.47139  184.880
 5183.00    1.32782   1.37758   -1.000
 5184.00    1.32287   1.36649   -1.000
 5185.00    1.48053   1.44568   -1.000
 5186.00    1.65910   1.56566   -1.000
 5187.00    1.75766   1.66358   -1.000
 5188.00    1.79093   1.71402   -1.000
 5189.00    1.78321   1.73094   -1.000
 5190.00    1.78038   1.72431   -1.000
 5191.00    1.73192   1.69672   -1.000
 5192.00    1.67462   1.66465  150.136
 5193.00    1.67797   1.65041   -1.000
 5194.00    1.70158   1.65900   -1.000
 5195.00    1.73320   1.68003   -1.000
 5196.00    1.74709   1.70488   -1.000
 5197.00    1.79375   1.73491   -1.000
 5198.00    1.82814   1.76917   -1.000
 5199.00    1.85403   1.79830   -1.000
 5200.00    1.84560   1.81290   -1.000
 5201.00    1.83016   1.80791   -1.000
 5202.00    1.80972   1.78097   -1.000
 5203.00    1.78620   1.73405   -1.000
 5204.00    1.72383   1.67554   -1.000
 5205.00    1.67201   1.62064   -1.000
 5206.00    1.68262   1.58400   -1.000
 5207.00    1.66014   1.56985   -1.000
 5208.00    1.64071   1.57363   -1.000
 5209.00    1.65808   1.59600   -1.000
 5210.00    1.70613   1.64192   -1.000
 5211.00    1.76428   1.70783   -1.000
 5212.00    1.84396   1.77505   -1.000
 5213.00    1.88430   1.81785   -1.000
 5214.00    1.87343   1.82202   -1.000
 5215.00    1.82764   1.79715   -1.000
 5216.00    1.77953   1.77305  137.880
 5217.00    1.78529   1.77521  135.864
 5218.00    1.83254   1.80584   -1.000
 5219.00    1.87653   1.84776   -1.000
 5220.00    1.89834   1.88145  136.344
 5221.00    1.91301   1.89634  140.697
 5222.00    1.90487   1.88739  146.636
 5223.00    1.84494   1.85237  153.527
 5224.00    1.76951   1.79067   -1.000
 5225.00    1.69435   1.71177  153.522
 5226.00    1.64409   1.64627  144.684
 5227.00    1.65340   1.62980   -1.000
 5228.00    1.71590   1.67158   -1.000
 5229.00    1.80357   1.74310   -1.000
 5230.00    1.85206   1.79859   -1.000
 5231.00    1.85567   1.81431   -1.000
 5232.00    1.82622   1.79747   -1.000
 5233.00    1.80357   1.77379   -1.000
 5234.00    1.78052   1.77077  134.833
 5235.00    1.80676   1.79849  133.461
 5236.00    1.85318   1.84397  133.440
 5237.00    1.91661   1.88602   -1.000
 5238.00    1.91914   1.91108  133.584
 5239.00    1.92751   1.91842  132.782
 5240.00    1.91476   1.91559  133.044
 5241.00    1.91865   1.90939  132.734
 5242.00    1.91123   1.90577  132.603
 5243.00    1.92589   1.90926  135.510
 5244.00    1.94113   1.91498   -1.000
 5245.00    1.93042   1.90801   -1.000
 5246.00    1.87213   1.88117  143.105
 5247.00    1.81180   1.84545   -1.000
 5248.00    1.80700   1.81782  144.318
 5249.00    1.83639   1.80501   -1.000
 5250.00    1.82345   1.80279  141.417
 5251.00    1.82167   1.80824  140.102
 5252.00    1.82707   1.81937  140.189
 5253.00    1.83332   1.82918  139.033
 5254.00    1.85095   1.83447  135.612
 5255.00    1.86150   1.84551  131.990
 5256.00    1.89212   1.87292  131.067
 5257.00    1.93247   1.91016  132.530
 5258.00    1.98393   1.93754   -1.000
 5259.00    1.97871   1.93704   -1.000
 5260.00    1.92591   1.90237   -1.000
 5261.00    1.84206   1.83886  154.104
 5262.00    1.76014   1.76047  157.048
 5263.00    1.70131   1.68490  157.181
 5264.00    1.65765   1.62851   -1.000
 5265.00    1.65503   1.60324   -1.000
 5266.00    1.69504   1.60705   -1.000
 5267.00    1.72669   1.61708   -1.000
 5268.00    1.70336   1.60762   -1.000
 5269.00    1.64291   1.58035   -1.000
 5270.00    1.63389   1.57128   -1.000
 5271.00    1.70589   1.61209   -1.000
 5272.00    1.79285   1.68359   -1.000
 5273.00    1.83798   1.74200   -1.000
 5274.00    1.82172   1.77264   -1.000
 5275.00    1.81533   1.79306  133.173
 5276.00    1.85047   1.82544   -1.000
 5277.00    1.94072   1.87214   -1.000
 5278.00    1.96527   1.91354   -1.000
 5279.00    1.95528   1.92572   -1.000
 5280.00    1.93739   1.90270   -1.000
 5281.00    1.89415   1.86091   -1.000
 5282.00    1.85200   1.82222   -1.000
 5283.00    1.82699   1.80520   -1.000
 5284.00    1.85117   1.82289   -1.000
 5285.00    1.92719   1.87284   -1.000
 5286.00    1.96910   1.93173   -1.000
 5287.00    1.86053   1.97349   -1.000
 5288.00    1.99395   1.99142  129.313
 5289.00    2.02237   1.99729   -1.000
 5290.00    2.01403   2.00068  129.977
 5291.00    2.01695   2.00068  131.263
 5292.00    1.99688   1.99598  133.126
 5293.00    1.99629   1.98698  136.955
 5294.00    1.98594   1.96851  142.269
 5295.00    1.94333   1.93193  145.737
 5296.00    1.89647   1.87679   -1.000
 5297.00    1.80253   1.82222  140.557
 5298.00    1.78772   1.79677  138.100
 5299.00    1.84766   1.80895   -1.000
 5300.00    1.88773   1.84055   -1.000
 5301.00    1.90166   1.87115   -1.000
 5302.00    1.91900   1.89793  129.470
 5303.00    1.96660   1.93050   -1.000
 5304.00    1.99621   1.96588   -1.000
 5305.00    2.00270   1.98817  131.742
 5306.00    2.01836   1.99123   -1.000
 5307.00    2.00597   1.98525   -1.000
 5308.00    1.99088   1.98614  128.598
 5309.00    2.02790   1.99980   -1.000
 5310.00    2.04616   2.01648   -1.000
 5311.00    2.04101   2.02432  130.149
 5312.00    2.05380   2.01937   -1.000
 5313.00    2.02381   2.00482  132.464
 5314.00    2.00009   1.98498  133.566
 5315.00    1.98894   1.96257   -1.000
 5316.00    1.95032   1.94373  132.428
 5317.00    1.95978   1.93874   -1.000
 5318.00    1.96620   1.95022  132.545
 5319.00    1.98722   1.96664  133.546
 5320.00    1.99779   1.97182   -1.000
 5321.00    2.00485   1.95969   -1.000
 5322.00    1.98327   1.93268   -1.000
 5323.00    1.94542   1.89703   -1.000
 5324.00    1.92416   1.86201   -1.000
 5325.00    1.89308   1.82851   -1.000
 5326.00    1.87308   1.78424   -1.000
 5327.00    1.78716   1.72430   -1.000
 5328.00    1.70214   1.67826   -1.000
 5329.00    1.72996   1.68694   -1.000
 5330.00    1.86744   1.75256   -1.000
 5331.00    1.94060   1.83472   -1.000
 5332.00    1.93758   1.89243   -1.000
 5333.00    1.94380   1.92314  131.976
 5334.00    1.97930   1.94504   -1.000
 5335.00    1.99886   1.96253   -1.000
 5336.00    1.99574   1.96792   -1.000
 5337.00    1.97017   1.95698  138.978
 5338.00    1.97412   1.92957   -1.000
 5339.00    1.94346   1.89002   -1.000
 5340.00    1.88479   1.85467   -1.000
 5341.00    1.87874   1.84634   -1.000
 5342.00    1.92361   1.87139   -1.000
 5343.00    1.98254   1.90922   -1.000
 5344.00    2.00372   1.93155   -1.000
 5345.00    1.97877   1.93008   -1.000
 5346.00    1.96617   1.91514   -1.000
 5347.00    1.97250   1.89953   -1.000
 5348.00    1.95852   1.89084   -1.000
 5349.00    1.94218   1.89368   -1.000
 5350.00    1.96584   1.91211   -1.000
 5351.00    1.98431   1.94309   -1.000
 5352.00    2.00434   1.97500   -1.000
 5353.00    2.01503   1.99836  127.339
 5354.00    2.02268   2.01634  126.515
 5355.00    2.07336   2.03500   -1.000
 5356.00    2.09583   2.05161   -1.000
 5357.00    2.07911   2.06075  127.490
 5358.00    2.06012   2.06116  129.118
 5359.00    2.08893   2.05457   -1.000
 5360.00    2.07797   2.04031   -1.000
 5361.00    2.01860   2.01764  133.989
 5362.00    2.00305   1.99025  134.762
 5363.00    1.99730   1.96344   -1.000
 5364.00    1.97989   1.94141   -1.000
 5365.00    1.95921   1.92763   -1.000
 5366.00    1.96831   1.92226   -1.000
 5367.00    1.96080   1.91822   -1.000
 5368.00    1.97476   1.90164   -1.000
 5369.00    1.92798   1.86491   -1.000
 5370.00    1.86505   1.81920   -1.000
 5371.00    1.83725   1.79292   -1.000
 5372.00    1.89348   1.81042   -1.000
 5373.00    1.97557   1.86930   -1.000
 5374.00    2.04759   1.94037   -1.000
 5375.00    2.08156   1.99169   -1.000
 5376.00    2.06802   2.01432   -1.000
 5377.00    2.07471   2.01769   -1.000
 5378.00    2.03496   2.01387  131.526
 5379.00    2.02407   2.00710  132.765
 5380.00    2.03326   1.99607   -1.000
 5381.00    2.01997   1.98075   -1.000
 5382.00    2.00552   1.96561   -1.000
 5383.00    2.02664   1.95853   -1.000
 5384.00    2.01523   1.96609   -1.000
 5385.00    2.02357   1.98589   -1.000
 5386.00    2.04611   2.00529   -1.000
 5387.00    2.03556   2.01108   -1.000
 5388.00    2.00170   1.99991  136.442
 5389.00    1.99853   1.97711   -1.000
 5390.00    1.98889   1.95174   -1.000
 5391.00    1.97597   1.93076   -1.000
 5392.00    1.95840   1.91636   -1.000
 5393.00    1.96574   1.90784   -1.000
 5394.00    1.96879   1.89979   -1.000
 5395.00    1.93044   1.88287   -1.000
 5396.00    1.91262   1.85750   -1.000
 5397.00    1.91089   1.83967   -1.000
 5398.00    1.93476   1.84761   -1.000
 5399.00    1.96369   1.88177   -1.000
 5400.00    1.97882   1.91997   -1.000
 5401.00    2.00190   1.94084   -1.000
 5402.00    1.99541   1.93448   -1.000
 5403.00    1.94067   1.89800   -1.000
 5404.00    1.90060   1.84281   -1.000
 5405.00    1.84395   1.79848   -1.000
 5406.00    1.85411   1.79006   -1.000
 5407.00    1.91238   1.81360   -1.000
 5408.00    1.95126   1.84163   -1.000
 5409.00    1.93456   1.85398   -1.000
 5410.00    1.90418   1.86138   -1.000
 5411.00    1.95648   1.88422   -1.000
 5412.00    2.03408   1.92099   -1.000
 5413.00    2.03803   1.95280   -1.000
 5414.00    2.00917   1.96871   -1.000
 5415.00    1.99673   1.97841  130.931
 5416.00    2.00077   1.99392  131.666
 5417.00    2.02622   2.01098  132.987
 5418.00    2.03722   2.01934  133.596
 5419.00    2.02161   2.01624  132.942
 5420.00    2.03018   2.00761   -1.000
 5421.00    2.05030   1.99866   -1.000
 5422.00    2.02505   1.98707   -1.000
 5423.00    2.00779   1.97166   -1.000
 5424.00    1.98776   1.96243   -1.000
 5425.00    1.99327   1.97177   -1.000
 5426.00    2.01269   1.99448  136.753
 5427.00    2.04850   2.00176   -1.000
 5428.00    2.02753   1.97355   -1.000
 5429.00    1.96500   1.92726   -1.000
 5430.00    1.94648   1.89741   -1.000
 5431.00    1.96944   1.89782   -1.000
 5432.00    1.96696   1.90765   -1.000
 5433.00    1.95301   1.90291   -1.000
 5434.00    1.94294   1.88858   -1.000
 5435.00    1.93006   1.88742   -1.000
 5436.00    1.96224   1.91459   -1.000
 5437.00    2.02045   1.96453   -1.000
 5438.00    2.06577   2.01672   -1.000
 5439.00    2.09862   2.05435   -1.000
 5440.00    2.12024   2.07457   -1.000
 5441.00    2.11634   2.08415   -1.000
 5442.00    2.08522   2.08342  134.246
 5443.00    2.05906   2.06457  139.858
 5444.00    2.03072   2.02053  143.724
 5445.00    1.98037   1.95769   -1.000
 5446.00    1.89473   1.90150  136.975
 5447.00    1.91327   1.88100   -1.000
 5448.00    1.98291   1.90602   -1.000
 5449.00    2.05796   1.95725   -1.000
 5450.00    2.09780   2.00236   -1.000
 5451.00    2.11640   2.02332   -1.000
 5452.00    2.10638   2.01663   -1.000
 5453.00    2.06298   1.98478   -1.000
 5454.00    2.00250   1.93788   -1.000
 5455.00    1.94833   1.89957   -1.000
 5456.00    1.97255   1.89778   -1.000
 5457.00    2.02592   1.93833   -1.000
 5458.00    2.08789   1.99252   -1.000
 5459.00    2.11676   2.02611   -1.000
 5460.00    2.09209   2.02568   -1.000
 5461.00    2.06373   1.99983   -1.000
 5462.00    2.01350   1.96805   -1.000
 5463.00    1.99712   1.95005   -1.000
 5464.00    2.02286   1.95510   -1.000
 5465.00    2.04036   1.97672   -1.000
 5466.00    2.07674   2.00089   -1.000
 5467.00    2.08185   2.01849   -1.000
 5468.00    2.07983   2.02835   -1.000
 5469.00    2.08716   2.03004   -1.000
 5470.00    2.08267   2.02339   -1.000
 5471.00    2.07800   2.01179   -1.000
 5472.00    2.07382   1.99821   -1.000
 5473.00    2.04833   1.98055   -1.000
 5474.00    2.02426   1.95380   -1.000
 5475.00    1.97851   1.91827   -1.000
 5476.00    1.93488   1.88772   -1.000
 5477.00    1.92850   1.88261   -1.000
 5478.00    1.97288   1.90819   -1.000
 5479.00    2.02997   1.94437   -1.000
 5480.00    2.02793   1.96423   -1.000
 5481.00    1.98720   1.96436   -1.000
 5482.00    1.97543   1.96562  134.046
 5483.00    2.00889   1.98359   -1.000
 5484.00    2.05701   2.01237   -1.000
 5485.00    2.09113   2.03243   -1.000
 5486.00    2.06459   2.03122   -1.000
 5487.00    2.02518   2.01499  137.198
 5488.00    2.04130   2.00079   -1.000
 5489.00    2.05237   2.00057   -1.000
 5490.00    2.07513   2.01168   -1.000
 5491.00    2.08997   2.02322   -1.000
 5492.00    2.06525   2.02915   -1.000
 5493.00    2.06512   2.03011   -1.000
 5494.00    2.08870   2.02870   -1.000
 5495.00    2.07154   2.02387   -1.000
 5496.00    2.06223   2.01441   -1.000
 5497.00    2.06227   2.00543   -1.000
 5498.00    2.07395   2.00386   -1.000
 5499.00    2.08530   2.00737   -1.000
 5500.00    2.07720   2.00394   -1.000
 5501.00    2.07096   1.98878   -1.000
 5502.00    2.07010   1.97474   -1.000
 5503.00    2.06767   1.97270   -1.000
 5504.00    2.05074   1.97432   -1.000
 5505.00    2.03055   1.96817   -1.000
 5506.00    2.02611   1.95670   -1.000
 5507.00    2.04353   1.95480   -1.000
 5508.00    2.06567   1.97018   -1.000
 5509.00    2.05869   1.98965   -1.000
 5510.00    2.06390   1.99458   -1.000
 5511.00    2.03862   1.97870   -1.000
 5512.00    2.00414   1.95240   -1.000
 5513.00    1.98098   1.93375   -1.000
 5514.00    1.99908   1.93493   -1.000
 5515.00    2.04648   1.95490   -1.000
 5516.00    2.08424   1.98445   -1.000
 5517.00    2.11869   2.01594   -1.000
 5518.00    2.14728   2.04385   -1.000
 5519.00    2.14779   2.06309   -1.000
 5520.00    2.15286   2.07087   -1.000
 5521.00    2.13112   2.07089   -1.000
 5522.00    2.10579   2.06911   -1.000
 5523.00    2.11662   2.06613   -1.000
 5524.00    2.10956   2.05538   -1.000
 5525.00    2.09981   2.02962   -1.000
 5526.00    2.05770   1.98965   -1.000
 5527.00    1.98243   1.94811   -1.000
 5528.00    1.97412   1.92687   -1.000
 5529.00    2.00733   1.94088   -1.000
 5530.00    2.06528   1.98189   -1.000
 5531.00    2.11010   2.02198   -1.000
 5532.00    2.09742   2.04000   -1.000
 5533.00    2.09321   2.03681   -1.000
 5534.00    2.07360   2.02538   -1.000
 5535.00    2.07250   2.01845   -1.000
 5536.00    2.08431   2.02165   -1.000
 5537.00    2.08508   2.03212   -1.000
 5538.00    2.09426   2.04358   -1.000
 5539.00    2.12929   2.05513   -1.000
 5540.00    2.12768   2.06726   -1.000
 5541.00    2.14014   2.07364   -1.000
 5542.00    2.13194   2.06828   -1.000
 5543.00    2.10315   2.05597   -1.000
 5544.00    2.09684   2.04727   -1.000
 5545.00    2.09635   2.04783   -1.000
 5546.00    2.11900   2.05572   -1.000
 5547.00    2.13153   2.06841   -1.000
 5548.00    2.15757   2.08506   -1.000
 5549.00    2.17631   2.10050   -1.000
 5550.00    2.17726   2.10787   -1.000
 5551.00    2.17536   2.10536   -1.000
 5552.00    2.14598   2.09462   -1.000
 5553.00    2.11383   2.08014   -1.000
 5554.00    2.11161   2.06945   -1.000
 5555.00    2.12001   2.06723   -1.000
 5556.00    2.14219   2.07102   -1.000
 5557.00    2.13960   2.07541   -1.000
 5558.00    2.16430   2.07891   -1.000
 5559.00    2.16487   2.08140   -1.000
 5560.00    2.15453   2.07924   -1.000
 5561.00    2.13682   2.06916   -1.000
 5562.00    2.12175   2.05420   -1.000
 5563.00    2.11083   2.04128   -1.000
 5564.00    2.09118   2.03317   -1.000
 5565.00    2.08726   2.02763   -1.000
 5566.00    2.10305   2.02258   -1.000
 5567.00    2.09771   2.01840   -1.000
 5568.00    2.08680   2.01613   -1.000
 5569.00    2.09019   2.01547   -1.000
 5570.00    2.07067   2.01484   -1.000
 5571.00    2.02013   2.01198  136.965
 5572.00    1.89249   2.00708   -1.000
 5573.00    1.76877   2.00563   -1.000
 5574.00    2.14380   2.01378   -1.000
 5575.00    2.85053   2.02806   -1.000
 5576.00    3.21396   2.04038   -1.000
 5577.00    3.00904   2.05099   -1.000
 5578.00    2.36305   2.06263   -1.000
 5579.00    2.23508   2.07234   -1.000
 5580.00    2.17423   2.07587   -1.000
 5581.00    2.15158   2.07369   -1.000
 5582.00    2.12195   2.06906   -1.000
 5583.00    2.12688   2.06301   -1.000
 5584.00    2.11865   2.04970   -1.000
 5585.00    2.08727   2.01895   -1.000
 5586.00    2.05005   1.96959   -1.000
 5587.00    1.99121   1.91922   -1.000
 5588.00    1.96570   1.89114   -1.000
 5589.00    1.99942   1.89396   -1.000
 5590.00    2.03485   1.92082   -1.000
 5591.00    2.05217   1.95475   -1.000
 5592.00    2.06703   1.97965   -1.000
 5593.00    2.05106   1.99140   -1.000
 5594.00    2.04490   1.99961   -1.000
 5595.00    2.09942   2.01288   -1.000
 5596.00    2.13045   2.02613   -1.000
 5597.00    2.13433   2.02575   -1.000
 5598.00    2.10137   2.00827   -1.000
 5599.00    2.08416   1.98605   -1.000
 5600.00    2.05405   1.96861   -1.000
 5601.00    2.03884   1.95603   -1.000
 5602.00    2.02165   1.95522   -1.000
 5603.00    2.04371   1.97784   -1.000
 5604.00    2.09829   2.02272   -1.000
 5605.00    2.16667   2.07413   -1.000
 5606.00    2.20617   2.11422   -1.000
 5607.00    2.20310   2.13569   -1.000
 5608.00    2.20381   2.14291   -1.000
 5609.00    2.20321   2.14408   -1.000
 5610.00    2.20228   2.14548   -1.000
 5611.00    2.20555   2.14570   -1.000
 5612.00    2.19610   2.13352   -1.000
 5613.00    2.15636   2.09690   -1.000
 5614.00    2.08331   2.03922   -1.000
 5615.00    2.03824   1.98566   -1.000
 5616.00    2.06028   1.96623   -1.000
 5617.00    2.09902   1.98738   -1.000
 5618.00    2.13841   2.02444   -1.000
 5619.00    2.15845   2.05410   -1.000
 5620.00    2.16222   2.07247   -1.000
 5621.00    2.20030   2.08171   -1.000
 5622.00    2.19121   2.07788   -1.000
 5623.00    2.14357   2.05815   -1.000
 5624.00    2.11527   2.03310   -1.000
 5625.00    2.10315   2.02223   -1.000
 5626.00    2.10962   2.03497   -1.000
 5627.00    2.14929   2.06304   -1.000
 5628.00    2.18310   2.09266   -1.000
 5629.00    2.19591   2.11574   -1.000
 5630.00    2.20921   2.12988   -1.000
 5631.00    2.22366   2.13351   -1.000
 5632.00    2.19084   2.12728   -1.000
 5633.00    2.18359   2.11524   -1.000
 5634.00    2.19630   2.10088   -1.000
 5635.00    2.19287   2.08580   -1.000
 5636.00    2.17826   2.07282   -1.000
 5637.00    2.15465   2.06486   -1.000
 5638.00    2.13252   2.06330   -1.000
 5639.00    2.14528   2.06539   -1.000
 5640.00    2.13271   2.06529   -1.000
 5641.00    2.14273   2.06224   -1.000
 5642.00    2.13508   2.06223   -1.000
 5643.00    2.15873   2.06797   -1.000
 5644.00    2.17401   2.07640   -1.000
 5645.00    2.16780   2.08507   -1.000
 5646.00    2.18079   2.09230   -1.000
 5647.00    2.18813   2.09570   -1.000
 5648.00    2.18322   2.09453   -1.000
 5649.00    2.17268   2.09187   -1.000
 5650.00    2.17661   2.09265   -1.000
 5651.00    2.19262   2.09809   -1.000
 5652.00    2.20382   2.10208   -1.000
 5653.00    2.19163   2.09817   -1.000
 5654.00    2.15885   2.08629   -1.000
 5655.00    2.15120   2.06880   -1.000
 5656.00    2.12173   2.04450   -1.000
 5657.00    2.07245   2.01335   -1.000
 5658.00    2.02449   1.98675   -1.000
 5659.00    2.02290   1.98085   -1.000
 5660.00    2.08185   1.99614   -1.000
 5661.00    2.11303   2.01630   -1.000
 5662.00    2.12346   2.03103   -1.000
 5663.00    2.13682   2.04478   -1.000
 5664.00    2.15658   2.06365   -1.000
 5665.00    2.16738   2.08166   -1.000
 5666.00    2.14380   2.08829   -1.000
 5667.00    2.15199   2.08409   -1.000
 5668.00    2.16337   2.07896   -1.000
 5669.00    2.15901   2.08023   -1.000
 5670.00    2.17580   2.08893   -1.000
 5671.00    2.18987   2.10257   -1.000
 5672.00    2.20743   2.11779   -1.000
 5673.00    2.22140   2.13013   -1.000
 5674.00    2.21748   2.13646   -1.000
 5675.00    2.22011   2.13753   -1.000
 5676.00    2.20853   2.13762   -1.000
 5677.00    2.19454   2.13833   -1.000
 5678.00    2.18813   2.13626   -1.000
 5679.00    2.19907   2.12759   -1.000
 5680.00    2.19645   2.11149   -1.000
 5681.00    2.17535   2.08944   -1.000
 5682.00    2.14047   2.06708   -1.000
 5683.00    2.12396   2.05399   -1.000
 5684.00    2.12721   2.05482   -1.000
 5685.00    2.12878   2.06246   -1.000
 5686.00    2.11927   2.06486   -1.000
 5687.00    2.11483   2.05926   -1.000
 5688.00    2.14394   2.05493   -1.000
 5689.00    2.14700   2.06195   -1.000
 5690.00    2.18135   2.08182   -1.000
 5691.00    2.21449   2.10645   -1.000
 5692.00    2.23273   2.12587   -1.000
 5693.00    2.22278   2.13637   -1.000
 5694.00    2.22192   2.13976   -1.000
 5695.00    2.22487   2.13910   -1.000
 5696.00    2.19618   2.13477   -1.000
 5697.00    2.19003   2.12564   -1.000
 5698.00    2.18724   2.11102   -1.000
 5699.00    2.14391   2.09329   -1.000
 5700.00    2.11105   2.07699   -1.000
 5701.00    2.09793   2.06688   -1.000
 5702.00    2.11255   2.06676   -1.000
 5703.00    2.14069   2.07436   -1.000
 5704.00    2.14852   2.08077   -1.000
 5705.00    2.14690   2.07645   -1.000
 5706.00    2.12418   2.05914   -1.000
 5707.00    2.09117   2.03373   -1.000
 5708.00    2.07264   2.00709   -1.000
 5709.00    2.04695   1.98714   -1.000
 5710.00    2.03807   1.98199   -1.000
 5711.00    2.07132   1.99517   -1.000
 5712.00    2.11381   2.02451   -1.000
 5713.00    2.14525   2.06296   -1.000
 5714.00    2.18926   2.09807   -1.000
 5715.00    2.22514   2.12110   -1.000
 5716.00    2.20903   2.13323   -1.000
 5717.00    2.20437   2.14140   -1.000
 5718.00    2.22208   2.14997   -1.000
 5719.00    2.25447   2.16059   -1.000
 5720.00    2.27195   2.17288   -1.000
 5721.00    2.26217   2.18459   -1.000
 5722.00    2.25609   2.19312   -1.000
 5723.00    2.27827   2.19673   -1.000
 5724.00    2.26091   2.19377   -1.000
 5725.00    2.25414   2.18286   -1.000
 5726.00    2.22501   2.16712   -1.000
 5727.00    2.19762   2.15543   -1.000
 5728.00    2.21869   2.15386   -1.000
 5729.00    2.22914   2.15824   -1.000
 5730.00    2.22246   2.16002   -1.000
 5731.00    2.21009   2.15737   -1.000
 5732.00    2.20812   2.15780   -1.000
 5733.00    2.24205   2.16714   -1.000
 5734.00    2.25389   2.18099   -1.000
 5735.00    2.24941   2.18994   -1.000
 5736.00    2.26206   2.19026   -1.000
 5737.00    2.24736   2.18620   -1.000
 5738.00    2.23948   2.18343   -1.000
 5739.00    2.24138   2.18346   -1.000
 5740.00    2.23730   2.18327   -1.000
 5741.00    2.25096   2.18070   -1.000
 5742.00    2.23235   2.17810   -1.000
 5743.00    2.20660   2.18014   -1.000
 5744.00    2.24175   2.18688   -1.000
 5745.00    2.25661   2.19209   -1.000
 5746.00    2.23583   2.18930   -1.000
 5747.00    2.21251   2.18082   -1.000
 5748.00    2.22722   2.17608   -1.000
 5749.00    2.25287   2.17876   -1.000
 5750.00    2.23810   2.18007   -1.000
 5751.00    2.21316   2.16893   -1.000
 5752.00    2.16749   2.14606   -1.000
 5753.00    2.15650   2.12569   -1.000
 5754.00    2.17361   2.12327   -1.000
 5755.00    2.19625   2.14288   -1.000
 5756.00    2.25102   2.17308   -1.000
 5757.00    2.27958   2.19734   -1.000
 5758.00    2.26662   2.20549   -1.000
 5759.00    2.26436   2.19668   -1.000
 5760.00    2.23789   2.17572   -1.000
 5761.00    2.18114   2.15130   -1.000
 5762.00    2.17039   2.13571   -1.000
 5763.00    2.20181   2.14000   -1.000
 5764.00    2.23991   2.16365   -1.000
 5765.00    2.27066   2.19370   -1.000
 5766.00    2.27157   2.21559   -1.000
 5767.00    2.26406   2.22447   -1.000
 5768.00    2.27296   2.22436   -1.000
 5769.00    2.27850   2.22032   -1.000
 5770.00    2.27163   2.21455   -1.000
 5771.00    2.24193   2.20665   -1.000
 5772.00    2.23494   2.19666   -1.000
 5773.00    2.22936   2.18746   -1.000
 5774.00    2.20400   2.18305   -1.000
 5775.00    2.18262   2.18497  132.628
 5776.00    2.17629   2.19095  133.495
 5777.00    2.18254   2.19312  135.887
 5778.00    2.15346   2.18235   -1.000
 5779.00    2.13088   2.15689   -1.000
 5780.00    2.11771   2.12461  139.312
 5781.00    2.13548   2.09769   -1.000
 5782.00    2.15293   2.08489   -1.000
 5783.00    2.15590   2.08488   -1.000
 5784.00    2.15814   2.09023   -1.000
 5785.00    2.15615   2.09865   -1.000
 5786.00    2.18503   2.11460   -1.000
 5787.00    2.21110   2.13781   -1.000
 5788.00    2.24665   2.15806   -1.000
 5789.00    2.25067   2.16623   -1.000
 5790.00    2.22670   2.16423   -1.000
 5791.00    2.21935   2.16272   -1.000
 5792.00    2.19626   2.17109   -1.000
 5793.00    2.18572   2.18853  131.415
 5794.00    2.20333   2.20651  132.301
 5795.00    2.22228   2.21657  132.743
 5796.00    2.22810   2.21480  131.670
 5797.00    2.23732   2.20605   -1.000
 5798.00    2.24853   2.20258   -1.000
 5799.00    2.27121   2.21203   -1.000
 5800.00    2.29310   2.22896   -1.000
 5801.00    2.29038   2.24171   -1.000
 5802.00    2.29453   2.24291   -1.000
 5803.00    2.28714   2.23260   -1.000
 5804.00    2.25508   2.21709   -1.000
 5805.00    2.25374   2.20552   -1.000
 5806.00    2.25601   2.20311   -1.000
 5807.00    2.24788   2.20786   -1.000
 5808.00    2.24840   2.21486   -1.000
 5809.00    2.26657   2.22178   -1.000
 5810.00    2.29353   2.22837   -1.000
 5811.00    2.30895   2.23273   -1.000
 5812.00    2.31537   2.23189   -1.000
 5813.00    2.31640   2.22470   -1.000
 5814.00    2.30109   2.21224   -1.000
 5815.00    2.27117   2.19926   -1.000
 5816.00    2.25873   2.19484   -1.000
 5817.00    2.28512   2.20483   -1.000
 5818.00    2.34159   2.22377   -1.000
 5819.00    2.36901   2.23976   -1.000
 5820.00    2.37024   2.24623   -1.000
 5821.00    2.35194   2.24565   -1.000
 5822.00    2.32486   2.24355   -1.000
 5823.00    2.30535   2.24282   -1.000
 5824.00    2.32683   2.24323   -1.000
 5825.00    2.32461   2.24425   -1.000
 5826.00    2.33061   2.24649   -1.000
 5827.00    2.33907   2.24983   -1.000
 5828.00    2.33395   2.25309   -1.000
 5829.00    2.34272   2.25493   -1.000
 5830.00    2.35118   2.25495   -1.000
 5831.00    2.33435   2.25316   -1.000
 5832.00    2.31070   2.24929   -1.000
 5833.00    2.31232   2.24358   -1.000
 5834.00    2.32055   2.23822   -1.000
 5835.00    2.32290   2.23668   -1.000
 5836.00    2.32736   2.23956   -1.000
 5837.00    2.32427   2.24366   -1.000
 5838.00    2.32226   2.24661   -1.000
 5839.00    2.32559   2.25012   -1.000
 5840.00    2.32932   2.25580   -1.000
 5841.00    2.32817   2.26168   -1.000
 5842.00    2.31747   2.26380   -1.000
 5843.00    2.32999   2.26051   -1.000
 5844.00    2.33202   2.25271   -1.000
 5845.00    2.32060   2.24172   -1.000
 5846.00    2.31901   2.23012   -1.000
 5847.00    2.30892   2.22232   -1.000
 5848.00    2.30406   2.22055   -1.000
 5849.00    2.30369   2.22098   -1.000
 5850.00    2.31717   2.21642   -1.000
 5851.00    2.31223   2.20389   -1.000
 5852.00    2.28967   2.18720   -1.000
 5853.00    2.27369   2.17290   -1.000
 5854.00    2.26268   2.16246   -1.000
 5855.00    2.25464   2.14975   -1.000
 5856.00    2.25369   2.12874   -1.000
 5857.00    2.21387   2.10628   -1.000
 5858.00    2.21834   2.10025   -1.000
 5859.00    2.24316   2.11737   -1.000
 5860.00    2.25964   2.14513   -1.000
 5861.00    2.28147   2.16817   -1.000
 5862.00    2.29824   2.18187   -1.000
 5863.00    2.30605   2.19002   -1.000
 5864.00    2.30623   2.19424   -1.000
 5865.00    2.30317   2.19134   -1.000
 5866.00    2.30223   2.18367   -1.000
 5867.00    2.30671   2.18101   -1.000
 5868.00    2.32346   2.19030   -1.000
 5869.00    2.33488   2.20828   -1.000
 5870.00    2.31526   2.22461   -1.000
 5871.00    2.32096   2.23159   -1.000
 5872.00    2.33414   2.22944   -1.000
 5873.00    2.32701   2.22386   -1.000
 5874.00    2.31367   2.21939   -1.000
 5875.00    2.32910   2.21594   -1.000
 5876.00    2.34440   2.21074   -1.000
 5877.00    2.32244   2.20237   -1.000
 5878.00    2.30039   2.19171   -1.000
 5879.00    2.27833   2.18102   -1.000
 5880.00    2.27392   2.17276   -1.000
 5881.00    2.27964   2.16691   -1.000
 5882.00    2.28874   2.16033   -1.000
 5883.00    2.25779   2.15093   -1.000
 5884.00    2.17065   2.13988   -1.000
 5885.00    2.02175   2.12414   -1.000
 5886.00    1.83900   2.08774   -1.000
 5887.00    1.69201   2.00955   -1.000
 5888.00    1.69483   1.88993   -1.000
 5889.00    1.76512   1.76953  156.397
 5890.00    1.81573   1.70801   -1.000
 5891.00    1.80306   1.72904   -1.000
 5892.00    1.76458   1.79029   -1.000
 5893.00    1.72295   1.83063   -1.000
 5894.00    1.75126   1.82402   -1.000
 5895.00    1.84895   1.79237   -1.000
 5896.00    1.95307   1.78342   -1.000
 5897.00    2.06309   1.82617   -1.000
 5898.00    2.14107   1.90556   -1.000
 5899.00    2.20797   1.98565   -1.000
 5900.00    2.25680   2.04927   -1.000
 5901.00    2.29579   2.09726   -1.000
 5902.00    2.30926   2.13062   -1.000
 5903.00    2.28742   2.14988   -1.000
 5904.00    2.28217   2.15873   -1.000
 5905.00    2.27266   2.16299   -1.000
 5906.00    2.28066   2.16793   -1.000
 5907.00    2.28235   2.17495   -1.000
 5908.00    2.29551   2.18256   -1.000
 5909.00    2.30662   2.18922   -1.000
 5910.00    2.30710   2.19343   -1.000
 5911.00    2.31584   2.19207   -1.000
 5912.00    2.28223   2.18159   -1.000
 5913.00    2.22638   2.16306   -1.000
 5914.00    2.21320   2.14524   -1.000
 5915.00    2.24241   2.13781   -1.000
 5916.00    2.26800   2.14331   -1.000
 5917.00    2.26024   2.15795   -1.000
 5918.00    2.26856   2.17527   -1.000
 5919.00    2.29767   2.18854   -1.000
 5920.00    2.29779   2.19426   -1.000
 5921.00    2.29006   2.19409   -1.000
 5922.00    2.29541   2.19227   -1.000
 5923.00    2.29631   2.19335   -1.000
 5924.00    2.30000   2.19912   -1.000
 5925.00    2.31572   2.20696   -1.000
 5926.00    2.33764   2.21077   -1.000
 5927.00    2.33985   2.20514   -1.000
 5928.00    2.30232   2.19110   -1.000
 5929.00    2.26961   2.17737   -1.000
 5930.00    2.27113   2.17343   -1.000
 5931.00    2.29247   2.18077   -1.000
 5932.00    2.31756   2.19061   -1.000
 5933.00    2.31598   2.19371   -1.000
 5934.00    2.30499   2.19242   -1.000
 5935.00    2.30733   2.19574   -1.000
 5936.00    2.30368   2.20583   -1.000
 5937.00    2.31069   2.21608   -1.000
 5938.00    2.29509   2.21942   -1.000
 5939.00    2.29089   2.21387   -1.000
 5940.00    2.27105   2.20278   -1.000
 5941.00    2.26741   2.19304   -1.000
 5942.00    2.26701   2.19098   -1.000
 5943.00    2.27025   2.19712   -1.000
 5944.00    2.30059   2.20656   -1.000
 5945.00    2.32120   2.21266   -1.000
 5946.00    2.28951   2.21071   -1.000
 5947.00    2.27574   2.20128   -1.000
 5948.00    2.27848   2.19126   -1.000
 5949.00    2.27469   2.18808   -1.000
 5950.00    2.27789   2.19111   -1.000
 5951.00    2.28890   2.19285   -1.000
 5952.00    2.30205   2.18949   -1.000
 5953.00    2.28817   2.18641   -1.000
 5954.00    2.28458   2.18780   -1.000
 5955.00    2.30070   2.18890   -1.000
 5956.00    2.29707   2.18620   -1.000
 5957.00    2.27396   2.18513   -1.000
 5958.00    2.31058   2.19205   -1.000
 5959.00    2.33114   2.20681   -1.000
 5960.00    2.32796   2.22322   -1.000
 5961.00    2.34020   2.23458   -1.000
 5962.00    2.35428   2.23858   -1.000
 5963.00    2.32528   2.23620   -1.000
 5964.00    2.30903   2.22975   -1.000
 5965.00    2.29206   2.22307   -1.000
 5966.00    2.30346   2.22049   -1.000
 5967.00    2.32062   2.22367   -1.000
 5968.00    2.32152   2.23063   -1.000
 5969.00    2.32234   2.23885   -1.000
 5970.00    2.32340   2.24678   -1.000
 5971.00    2.33128   2.25197   -1.000
 5972.00    2.32469   2.25197   -1.000
 5973.00    2.30305   2.24533   -1.000
 5974.00    2.29259   2.23149   -1.000
 5975.00    2.29207   2.21298   -1.000
 5976.00    2.28135   2.19667   -1.000
 5977.00    2.28029   2.19032   -1.000
 5978.00    2.29902   2.19660   -1.000
 5979.00    2.31026   2.21080   -1.000
 5980.00    2.30633   2.22341   -1.000
 5981.00    2.30442   2.22484   -1.000
 5982.00    2.28520   2.21194   -1.000
 5983.00    2.26993   2.19186   -1.000
 5984.00    2.27347   2.17790   -1.000
 5985.00    2.27517   2.17870   -1.000
 5986.00    2.28207   2.19122   -1.000
 5987.00    2.27711   2.20650   -1.000
 5988.00    2.28225   2.21874   -1.000
 5989.00    2.30262   2.22625   -1.000
 5990.00    2.30446   2.22956   -1.000
 5991.00    2.30895   2.23254   -1.000
 5992.00    2.31118   2.24013   -1.000
 5993.00    2.32363   2.25152   -1.000
 5994.00    2.35110   2.25813   -1.000
 5995.00    2.35031   2.25345   -1.000
 5996.00    2.32375   2.24073   -1.000
 5997.00    2.29945   2.22858   -1.000
 5998.00    2.30982   2.22379   -1.000
 5999.00    2.32325   2.22615   -1.000
 6000.00    2.31604   2.22936   -1.000
 6001.00    2.28731   2.22771   -1.000
 6002.00    2.28611   2.22171   -1.000
 6003.00    2.28666   2.21698   -1.000
 6004.00    2.28519   2.21598   -1.000
 6005.00    2.29627   2.21246   -1.000
 6006.00    2.28990   2.20031   -1.000
 6007.00    2.25229   2.18528   -1.000
 6008.00    2.24513   2.18096   -1.000
 6009.00    2.27699   2.19316   -1.000
 6010.00    2.31144   2.21197   -1.000
 6011.00    2.31387   2.22204   -1.000
 6012.00    2.29541   2.21936   -1.000
 6013.00    2.28272   2.21197   -1.000
 6014.00    2.29830   2.20717   -1.000
 6015.00    2.30539   2.20561   -1.000
 6016.00    2.29715   2.20462   -1.000
 6017.00    2.28172   2.20290   -1.000
 6018.00    2.27791   2.19902   -1.000
 6019.00    2.25026   2.19138   -1.000
 6020.00    2.24402   2.18317   -1.000
 6021.00    2.25604   2.18086   -1.000
 6022.00    2.27136   2.18603   -1.000
 6023.00    2.29112   2.19511   -1.000
 6024.00    2.29133   2.20685   -1.000
 6025.00    2.31355   2.22205   -1.000
 6026.00    2.32131   2.23765   -1.000
 6027.00    2.31965   2.25034   -1.000
 6028.00    2.32097   2.26123   -1.000
 6029.00    2.34302   2.27089   -1.000
 6030.00    2.34458   2.27756   -1.000
 6031.00    2.34271   2.28166   -1.000
 6032.00    2.34178   2.28628   -1.000
 6033.00    2.34905   2.29320   -1.000
 6034.00    2.36629   2.30039   -1.000
 6035.00    2.35968   2.30370   -1.000
 6036.00    2.36339   2.30156   -1.000
 6037.00    2.37041   2.29567   -1.000
 6038.00    2.34476   2.28778   -1.000
 6039.00    2.31553   2.27963   -1.000
 6040.00    2.30223   2.27389   -1.000
 6041.00    2.30534   2.27306   -1.000
 6042.00    2.32116   2.27744   -1.000
 6043.00    2.35191   2.28492   -1.000
 6044.00    2.36505   2.29248   -1.000
 6045.00    2.36460   2.29830   -1.000
 6046.00    2.36559   2.30286   -1.000
 6047.00    2.35476   2.30743   -1.000
 6048.00    2.34028   2.31173   -1.000
 6049.00    2.35079   2.31422   -1.000
 6050.00    2.36950   2.31357   -1.000
 6051.00    2.37111   2.30913   -1.000
 6052.00    2.37454   2.30073   -1.000
 6053.00    2.37229   2.28875   -1.000
 6054.00    2.34957   2.27544   -1.000
 6055.00    2.32541   2.26501   -1.000
 6056.00    2.31369   2.26213   -1.000
 6057.00    2.31530   2.26791   -1.000
 6058.00    2.33249   2.27848   -1.000
 6059.00    2.35479   2.28792   -1.000
 6060.00    2.36896   2.29194   -1.000
 6061.00    2.36098   2.28798   -1.000
 6062.00    2.32836   2.27467   -1.000
 6063.00    2.28156   2.25370   87.954
 6064.00    2.23926   2.23286   53.414
 6065.00    1.97224   2.22500   -1.000
 6066.00    1.14040   2.23753   -1.000
 6067.00    1.17751   2.26313   -1.000
 6068.00    2.27188   2.28814  129.900
 6069.00    2.30502   2.30550  130.163
 6070.00    2.17369   2.31534   -1.000
 6071.00    1.97133   2.32039   -1.000
 6072.00    1.25872   2.32298   -1.000
 6073.00    1.16408   2.32388   -1.000
 6074.00    2.36897   2.32209   -1.000
 6075.00    2.35949   2.31588   -1.000
 6076.00    2.32959   2.30455   -1.000
 6077.00    2.32539   2.28953   -1.000
 6078.00    2.31407   2.27491   -1.000
 6079.00    2.30124   2.26531   -1.000
 6080.00    2.29446   2.26030   -1.000
 6081.00    2.28897   2.25622   -1.000
 6082.00    2.29002   2.25256   -1.000
 6083.00    2.30580   2.25088   -1.000
 6084.00    2.29558   2.25180   -1.000
 6085.00    2.29821   2.25624   -1.000
 6086.00    2.29559   2.26401   -1.000
 6087.00    2.29898   2.27098   -1.000
 6088.00    2.30974   2.27187   -1.000
 6089.00    2.30252   2.26606   -1.000
 6090.00    2.28575   2.25849   -1.000
 6091.00    2.27062   2.25522  135.896
 6092.00    2.27465   2.25919  135.186
 6093.00    2.29493   2.26896   -1.000
 6094.00    2.31611   2.28051   -1.000
 6095.00    2.33431   2.29004   -1.000
 6096.00    2.33156   2.29640   -1.000
 6097.00    2.32362   2.30024   -1.000
 6098.00    2.33501   2.29966   -1.000
 6099.00    2.34381   2.28786   -1.000
 6100.00    2.29999   2.25858   -1.000
 6101.00    2.25119   2.21658   -1.000
 6102.00    2.23246   2.18156   -1.000
 6103.00    2.21999   2.17520   -1.000
 6104.00    2.23836   2.19925   -1.000
 6105.00    2.28715   2.23442   -1.000
 6106.00    2.30766   2.26288   -1.000
 6107.00    2.30565   2.28110   -1.000
 6108.00    2.29082   2.29284  136.567
 6109.00    2.29669   2.30016  136.177
 6110.00    2.32177   2.30290  135.915
 6111.00    2.32045   2.30367  135.284
 6112.00    2.30169   2.30652  135.355
 6113.00    2.29649   2.31159  136.105
 6114.00    2.31711   2.31516  136.737
 6115.00    2.32101   2.31434  137.057
 6116.00    2.31756   2.31010  138.324
 6117.00    2.31319   2.30357  140.361
 6118.00    2.30761   2.29092  141.948
 6119.00    2.28151   2.26623  142.748
 6120.00    2.25258   2.22991   -1.000
 6121.00    2.22336   2.19390   -1.000
 6122.00    2.21786   2.17615   -1.000
 6123.00    2.24584   2.18465   -1.000
 6124.00    2.27287   2.21026   -1.000
 6125.00    2.29079   2.23688   -1.000
 6126.00    2.28070   2.25484   -1.000
 6127.00    2.26770   2.26512  137.095
 6128.00    2.27014   2.27422  136.218
 6129.00    2.27963   2.28683  136.253
 6130.00    2.29457   2.30190  136.984
 6131.00    2.30641   2.31446  139.126
 6132.00    2.30760   2.31732  142.844
 6133.00    2.29147   2.30155  146.891
 6134.00    2.25914   2.26158  149.140
 6135.00    2.20806   2.20489  147.509
 6136.00    2.14690   2.15479  143.296
 6137.00    2.12191   2.13585  140.291
 6138.00    2.16035   2.15011  139.707
 6139.00    2.20563   2.17665   -1.000
 6140.00    2.22961   2.19990   -1.000
 6141.00    2.25606   2.22266   -1.000
 6142.00    2.25443   2.24960  136.870
 6143.00    2.24547   2.27716   -1.000
 6144.00    2.27691   2.29706  137.938
 6145.00    2.29680   2.30421  138.883
 6146.00    2.28363   2.30021  139.815
 6147.00    2.28030   2.28950  140.267
 6148.00    2.27690   2.27607  139.983
 6149.00    2.26931   2.26375  139.231
 6150.00    2.27536   2.25749  138.568
 6151.00    2.26915   2.26073  139.054
 6152.00    2.26909   2.26850  140.144
 6153.00    2.27402   2.27061  140.538
 6154.00    2.25072   2.26426  140.804
 6155.00    2.23983   2.25606  141.835
 6156.00    2.25100   2.25085  143.938
 6157.00    2.24989   2.24461  147.487
 6158.00    2.22289   2.22671  152.029
 6159.00    2.19654   2.18744  155.126
 6160.00    2.16311   2.12826   -1.000
 6161.00    2.10046   2.06807   -1.000
 6162.00    2.07391   2.03336   -1.000
 6163.00    2.10025   2.03754   -1.000
 6164.00    2.15694   2.07074   -1.000
 6165.00    2.20505   2.11075   -1.000
 6166.00    2.21853   2.13795   -1.000
 6167.00    2.18898   2.14206   -1.000
 6168.00    2.15431   2.12821   -1.000
 6169.00    2.14223   2.11674   -1.000
 6170.00    2.15575   2.12582   -1.000
 6171.00    2.19958   2.15328   -1.000
 6172.00    2.22588   2.18410   -1.000
 6173.00    2.23456   2.20776   -1.000
 6174.00    2.24566   2.22201   -1.000
 6175.00    2.23120   2.22927  142.824
 6176.00    2.24301   2.23421  142.174
 6177.00    2.26247   2.24043   -1.000
 6178.00    2.26234   2.24748  141.163
 6179.00    2.25638   2.25393  140.621
 6180.00    2.26432   2.26104  140.582
 6181.00    2.27538   2.26962  141.014
 6182.00    2.26033   2.27637  141.806
 6183.00    2.26645   2.27668  143.188
 6184.00    2.28216   2.26929  144.749
 6185.00    2.27187   2.25618  146.178
 6186.00    2.25823   2.24058  147.409
 6187.00    2.24374   2.22505  148.840
 6188.00    2.23508   2.20854   -1.000
 6189.00    2.22328   2.18725   -1.000
 6190.00    2.19389   2.16442   -1.000
 6191.00    2.17307   2.15433   -1.000
 6192.00    2.19147   2.16759   -1.000
 6193.00    2.23838   2.19696   -1.000
 6194.00    2.26510   2.22704   -1.000
 6195.00    2.27338   2.24870   -1.000
 6196.00    2.26737   2.25909  145.204
 6197.00    2.24338   2.25780  145.725
 6198.00    2.22950   2.24806  144.858
 6199.00    2.20920   2.23829   -1.000
 6200.00    2.19183   2.23747   -1.000
 6201.00    2.20263   2.24743   -1.000
 6202.00    2.24293   2.26271  141.781
 6203.00    2.28416   2.27733  141.623
 6204.00    2.29909   2.28830  141.902
 6205.00    2.29593   2.29526  142.239
 6206.00    2.29241   2.29909  142.463
 6207.00    2.29015   2.30028  143.480
 6208.00    2.29237   2.29777  144.759
 6209.00    2.28319   2.28951  145.996
 6210.00    2.26874   2.27351  147.834
 6211.00    2.25746   2.24911  149.809
 6212.00    2.23976   2.21970   -1.000
 6213.00    2.22662   2.19342   -1.000
 6214.00    2.21288   2.17820   -1.000
 6215.00    2.21398   2.17557   -1.000
 6216.00    2.21777   2.17944   -1.000
 6217.00    2.21936   2.18142   -1.000
 6218.00    2.22355   2.17848   -1.000
 6219.00    2.22453   2.17599   -1.000
 6220.00    2.23372   2.18082   -1.000
 6221.00    2.23438   2.19269   -1.000
 6222.00    2.24487   2.20510   -1.000
 6223.00    2.14675   2.21352   -1.000
 6224.00    2.00141   2.21840   -1.000
 6225.00    2.16469   2.22069   -1.000
 6226.00    2.28328   2.21815   -1.000
 6227.00    2.22941   2.20570   -1.000
 6228.00    2.21434   2.18052   -1.000
 6229.00    2.19975   2.14860   -1.000
 6230.00    2.15948   2.12434   -1.000
 6231.00    2.13795   2.12098  147.116
 6232.00    2.16494   2.14059   -1.000
 6233.00    2.21801   2.17308   -1.000
 6234.00    2.25837   2.20335   -1.000
 6235.00    2.26414   2.21997   -1.000
 6236.00    2.25943   2.22034   -1.000
 6237.00    2.26170   2.20962   -1.000
 6238.00    2.25246   2.19565   -1.000
 6239.00    2.22702   2.18377   -1.000
 6240.00    2.20777   2.17480   -1.000
 6241.00    2.20335   2.16619   -1.000
 6242.00    2.19895   2.15530   -1.000
 6243.00    2.18801   2.14283   -1.000
 6244.00    2.17301   2.13318   -1.000
 6245.00    2.17464   2.13227   -1.000
 6246.00    2.19524   2.14470   -1.000
 6247.00    2.22584   2.16901   -1.000
 6248.00    2.24761   2.19491   -1.000
 6249.00    2.25172   2.20866   -1.000
 6250.00    2.24772   2.20248   -1.000
 6251.00    2.20982   2.17988   -1.000
 6252.00    2.16787   2.15281  154.896
 6253.00    2.14813   2.13295  155.502
 6254.00    2.14226   2.12360   -1.000
 6255.00    2.14470   2.12000   -1.000
 6256.00    2.14594   2.11726   -1.000
 6257.00    2.13598   2.11646  153.307
 6258.00    2.12871   2.12306  151.130
 6259.00    2.15348   2.14022  148.950
 6260.00    2.20185   2.16569   -1.000
 6261.00    2.23559   2.19314   -1.000
 6262.00    2.24718   2.21506   -1.000
 6263.00    2.25426   2.22647   -1.000
 6264.00    2.25272   2.22928   -1.000
 6265.00    2.23575   2.23078  147.727
 6266.00    2.19377   2.23551   -1.000
 6267.00    2.19816   2.24060   -1.000
 6268.00    2.22284   2.24122  148.360
 6269.00    2.21803   2.23835  147.912
 6270.00    2.20822   2.23752   -1.000
 6271.00    2.22046   2.24107  148.711
 6272.00    2.23642   2.24455  149.899
 6273.00    2.22353   2.24051  151.688
 6274.00    2.17997   2.22538   -1.000
 6275.00    2.12996   2.20264   -1.000
 6276.00    2.10270   2.17918   -1.000
 6277.00    2.10470   2.16030   -1.000
 6278.00    2.10285   2.14769   -1.000
 6279.00    2.05639   2.14255   -1.000
 6280.00    2.03221   2.14802   -1.000
 6281.00    2.06114   2.16547   -1.000
 6282.00    2.10284   2.19110   -1.000
 6283.00    2.13614   2.21777   -1.000
 6284.00    2.17158   2.23930   -1.000
 6285.00    2.22146   2.25386   -1.000
 6286.00    2.24296   2.26318  146.954
 6287.00    2.24281   2.26820   -1.000
 6288.00    2.24418   2.26717   -1.000
 6289.00    2.24609   2.25937  149.945
 6290.00    2.24610   2.24854  150.116
 6291.00    2.23490   2.23994  150.328
 6292.00    2.22591   2.23582  151.045
 6293.00    2.22866   2.23436  152.198
 6294.00    2.23900   2.23090  152.800
 6295.00    2.24543   2.22142   -1.000
 6296.00    2.28011   2.20748   -1.000
 6297.00    2.34003   2.19575   -1.000
 6298.00    2.39814   2.18994   -1.000
 6299.00    2.40892   2.18626   -1.000
 6300.00    2.33819   2.18057   -1.000
 6301.00    2.23331   2.17708   -1.000
 6302.00    2.18186   2.18447  149.555
 6303.00    2.18969   2.20432  148.041
 6304.00    2.21018   2.22904  146.767
 6305.00    2.22849   2.25077   -1.000
 6306.00    2.24216   2.26655   -1.000
 6307.00    2.24824   2.27586   -1.000
 6308.00    2.26105   2.27878  147.915
 6309.00    2.28335   2.27671  148.470
 6310.00    2.25849   2.27169  148.855
 6311.00    2.21809   2.26483   -1.000
 6312.00    2.20279   2.25574   -1.000
 6313.00    2.19065   2.24348   -1.000
 6314.00    2.17331   2.22936   -1.000
 6315.00    2.17044   2.21626   -1.000
 6316.00    2.16310   2.20597   -1.000
 6317.00    2.14644   2.20086   -1.000
 6318.00    2.15129   2.20539   -1.000
 6319.00    2.18780   2.22090   -1.000
 6320.00    2.21941   2.24104   -1.000
 6321.00    2.23496   2.25835   -1.000
 6322.00    2.25066   2.27247   -1.000
 6323.00    2.26863   2.28641  144.578
 6324.00    2.27959   2.29889  144.196
 6325.00    2.27184   2.30633   -1.000
 6326.00    2.26054   2.30841   -1.000
 6327.00    2.26907   2.30792   -1.000
 6328.00    2.27689   2.30746   -1.000
 6329.00    2.28681   2.30806  143.494
 6330.00    2.28179   2.31016   -1.000
 6331.00    2.27030   2.31220   -1.000
 6332.00    2.24882   2.30844   -1.000
 6333.00    2.23805   2.29315   -1.000
 6334.00    2.21810   2.26841   -1.000
 6335.00    2.02511   2.24535   -1.000
 6336.00    1.95336   2.23577   -1.000
 6337.00    2.18022   2.24244   -1.000
 6338.00    2.24495   2.25957  142.460
 6339.00    2.24495   2.27963   -1.000
 6340.00    2.27276   2.29568   -1.000
 6341.00    2.27969   2.30188   -1.000
 6342.00    2.25387   2.29770   -1.000
 6343.00    2.23847   2.28950   -1.000
 6344.00    2.23470   2.28540   -1.000
 6345.00    2.24348   2.28951   -1.000
 6346.00    2.27668   2.30112   -1.000
 6347.00    2.28322   2.31704   -1.000
 6348.00    2.26191   2.33275   -1.000
 6349.00    2.26932   2.34385   -1.000
 6350.00    2.28902   2.34814   -1.000
 6351.00    2.28071   2.34516   -1.000
 6352.00    2.28035   2.33520   -1.000
 6353.00    2.28734   2.32061   -1.000
 6354.00    2.27000   2.30625   -1.000
 6355.00    2.24114   2.29545   -1.000
 6356.00    2.22493   2.28626   -1.000
 6357.00    2.22766   2.27515   -1.000
 6358.00    2.22926   2.26283   -1.000
 6359.00    2.22731   2.25212   -1.000
 6360.00    2.23829   2.24348  146.358
 6361.00    2.26187   2.23725   -1.000
 6362.00    2.27639   2.23637   -1.000
 6363.00    2.25780   2.24328  143.777
 6364.00    2.24708   2.25689  142.939
 6365.00    2.25437   2.27390  141.995
 6366.00    2.25409   2.29119   -1.000
 6367.00    2.25991   2.30547   -1.000
 6368.00    2.26730   2.31388   -1.000
 6369.00    2.27738   2.31728   -1.000
 6370.00    2.28622   2.32042   -1.000
 6371.00    2.29319   2.32697   -1.000
 6372.00    2.29137   2.33569   -1.000
 6373.00    2.27464   2.34232   -1.000
 6374.00    2.26609   2.34412   -1.000
 6375.00    2.23748   2.34109   -1.000
 6376.00    2.22611   2.33435   -1.000
 6377.00    2.25442   2.32571   -1.000
 6378.00    2.25665   2.31735   -1.000
 6379.00    2.24518   2.31060   -1.000
 6380.00    2.24235   2.30598   -1.000
 6381.00    2.24974   2.30368   -1.000
 6382.00    2.25244   2.30364   -1.000
 6383.00    2.25047   2.30613   -1.000
 6384.00    2.24347   2.31173   -1.000
 6385.00    2.25022   2.31948   -1.000
 6386.00    2.24764   2.32619   -1.000
 6387.00    2.21981   2.32932   -1.000
 6388.00    2.22127   2.32893   -1.000
 6389.00    2.23051   2.32466   -1.000
 6390.00    2.21401   2.31346   -1.000
 6391.00    2.18862   2.29439   -1.000
 6392.00    2.17508   2.27469   -1.000
 6393.00    2.14976   2.26641   -1.000
 6394.00    2.12522   2.27534   -1.000
 6395.00    2.11945   2.29435   -1.000
 6396.00    2.13963   2.30810   -1.000
 6397.00    2.15087   2.30457   -1.000
 6398.00    2.11985   2.28525   -1.000
 6399.00    2.06863   2.26581   -1.000
 6400.00    2.03936   2.26337   -1.000
 6401.00    2.05668   2.28152   -1.000
 6402.00    2.09427   2.30947   -1.000
 6403.00    2.11564   2.33290   -1.000
 6404.00    2.10993   2.34233   -1.000
 6405.00    2.09036   2.33632   -1.000
 6406.00    2.07001   2.32185   -1.000
 6407.00    2.05345   2.30994   -1.000
 6408.00    2.01967   2.30609   -1.000
 6409.00    1.98029   2.30622   -1.000
 6410.00    1.97099   2.30466   -1.000
 6411.00    1.98004   2.30290   -1.000
 6412.00    1.97953   2.30586   -1.000
 6413.00    1.96840   2.31374   -1.000
 6414.00    1.97634   2.32268   -1.000
 6415.00    1.98017   2.32932   -1.000
 6416.00    1.95586   2.33111   -1.000
 6417.00    1.94474   2.32516   -1.000
 6418.00    1.92509   2.31075   -1.000
 6419.00    1.87374   2.29326   -1.000
 6420.00    1.84076   2.28347   -1.000
 6421.00    1.83130   2.29017   -1.000
 6422.00    1.82717   2.31166   -1.000
 6423.00    1.84376   2.33708   -1.000
 6424.00    1.85408   2.35761   -1.000
 6425.00    1.83469   2.37125   -1.000
 6426.00    1.82156   2.37708   -1.000
 6427.00    1.79848   2.37154   -1.000
 6428.00    0.92158   2.35255   -1.000
