###################################################################
## OUTPUT of StarlightChains_v04.for    [Cid@UFSC - 01/Apr/2007] ##
###################################################################

## Some input info
NGC6362_a_1.cxt                          [arq_obs]
Base.BC03.N                              [arq_base]
NGC6362_a_1.msk                          [arq_masks]
StCv04.C11.config                        [arq_config]
   45                                    [N_base]
    0                                    [N_YAV_components = # of components with extra extinction!]
    0                                    [i_FitPowerLaw (1/0 = Yes/No)]
-9.99                                    [alpha_PowerLaw]
CCM                                      [red_law_option]
 1.458241                                [q_norm = A(l_norm)/A(V)]

## (Re)Sampling Parameters
 3359.00                                 [l_ini (A)]
 6428.00                                 [l_fin (A)]
    1.00                                 [dl    (A)]     (OBS: dl_cushion =    50.00 A)

## Normalization info
 4020.00                                 [l_norm (A) - for base]
 4010.00                                 [llow_norm (A) - window for f_obs]
 4060.00                                 [lupp_norm (A) - window for f_obs]
1.238399E-14                             [fobs_norm (in input units)]

## S/N
 4730.00                                 [llow_SN (A) - window for S/N]
 4780.00                                 [lupp_SN (A) - window for S/N]
  69.165                                 [S/N in S/N window]
  59.492                                 [S/N in norm. window]
  54.471                                 [S/N_err in S/N window]
  46.853                                 [S/N_err in norm. window]
  1.0000                                 [fscale_chi2]

## etc...
  2147483611                             [idum_orig]
  3061                                   [NOl_eff]
  2301                                   [Nl_eff]
   760    NSIGMA                         [Ntot_cliped & clip_method]
   572880                                [Nglobal_steps]
   7                                     [N_chains]
   6                                     [NEX0s_base = N_base in EX0s-fits]
 0   0   1      376   2.0   8.432E+02    [Clip-Bug, RC-Crash & Burn-In warning-flags, n_censored_weights, wei_nsig_threshold & wei_limit]
     9      8.358      8.354      0.004  [idt_all, wdt_TotTime, wdt_UsrTime & wdt_SysTime (sec)]

## Synthesis Results - Best model ##

 1.48032E+00                             [chi2/Nl_eff]
     1.75153                             [adev (%)]

   103.38132                             [sum-of-x (%)]
 2.00727E-14                             [Flux_tot (units of input spectrum!)]
 2.39936E-10                             [Mini_tot (???)]
 1.27608E-10                             [Mcor_tot (???)]

  -9.71                                  [v0_min  (km/s)]
  83.95                                  [vd_min  (km/s)]
 0.3348                                  [AV_min  (mag)]
 0.0000                                  [YAV_min (mag)]

# j     x_j(%)      Mini_j(%)     Mcor_j(%)     age_j(yr)     Z_j      (L/M)_j    YAV?  Mstars   component_j        a/Fe...       SSP_chi2r SSP_adev(%)   SSP_AV   SSP_x(%)
  1      0.0000     0.0000E+00    0.0000E+00    1.000000E+06  0.00400  1.114E-02    0   1.0000   age020_m42            0.0000     1.4887E+02    11.4766   4.0000    71.3503
  2      9.2402     1.8358E-02    3.4515E-02    3.160000E+06  0.00400  4.073E-02    0   0.9999   age045_m42            0.0000     3.3774E+01     5.9590   2.8758    90.0280
  3      0.0000     0.0000E+00    0.0000E+00    5.010000E+06  0.00400  2.534E-02    0   0.9488   age055_m42            0.0000     6.4199E+01     8.9121   3.3747    80.8901
  4      2.1404     1.3628E-02    2.2708E-02    1.000000E+07  0.00400  1.271E-02    0   0.8862   age070_m42            0.0000     5.1088E+01     9.1843   2.5794    84.7835
  5      0.0000     0.0000E+00    0.0000E+00    2.512000E+07  0.00400  5.070E-03    0   0.8174   age090_m42            0.0000     4.6490E+01     8.6512   2.4346    86.9014
  6      0.0000     0.0000E+00    0.0000E+00    4.000000E+07  0.00400  3.505E-03    0   0.7851   age104_m42            0.0000     3.5160E+01     6.8558   2.0732    91.5819
  7     12.3465     4.4053E-01    5.9696E-01    1.015200E+08  0.00400  2.268E-03    0   0.7207   age116_m42            0.0000     2.6609E+02     6.5694   1.7170   113.2704
  8      0.0000     0.0000E+00    0.0000E+00    2.861200E+08  0.00400  1.079E-03    0   0.6613   age125_m42            0.0000     2.6955E+02     7.5334   1.1789   117.5977
  9      0.0000     0.0000E+00    0.0000E+00    6.405400E+08  0.00400  5.077E-04    0   0.6197   age132_m42            0.0000     2.8450E+02     8.0236   0.7865   123.3745
 10      0.0000     0.0000E+00    0.0000E+00    9.047900E+08  0.00400  3.535E-04    0   0.6024   age135_m42            0.0000     1.6613E+02     6.4368   0.6179   120.0118
 11      0.0000     0.0000E+00    0.0000E+00    1.434000E+09  0.00400  1.910E-04    0   0.5716   age139_m42            0.0000     5.1013E+01     5.1969   0.1507   117.0290
 12     41.7792     3.4435E+01    3.5372E+01    2.500000E+09  0.00400  9.818E-05    0   0.5463   age150_m42            0.0000     6.0442E+00     2.9382  -0.0157   108.3037
 13     37.8088     6.4849E+01    6.3747E+01    5.000000E+09  0.00400  4.718E-05    0   0.5228   age161_m42            0.0000     1.9628E+01     2.4149  -0.1267   102.9356
 14      0.0662     2.4293E-01    2.2747E-01    1.100000E+10  0.00400  2.205E-05    0   0.4980   age185_m42            0.0000     6.6083E+01     3.3631  -0.3774   100.7100
 15      0.0000     0.0000E+00    0.0000E+00    1.300000E+10  0.00400  1.883E-05    0   0.4927   age193_m42            0.0000     7.5615E+01     3.5066  -0.3904   100.4474
 16      0.0000     0.0000E+00    0.0000E+00    1.000000E+06  0.02000  1.989E-02    0   1.0000   age020_m62            0.0000     1.5467E+02    11.6231   3.9712    72.0549
 17      0.0000     0.0000E+00    0.0000E+00    3.160000E+06  0.02000  3.772E-02    0   0.9858   age045_m62            0.0000     1.2760E+02    11.2177   3.8205    74.4128
 18      0.0000     0.0000E+00    0.0000E+00    5.010000E+06  0.02000  3.227E-02    0   0.9342   age055_m62            0.0000     4.1831E+01     7.3653   3.1800    85.3514
 19      0.0000     0.0000E+00    0.0000E+00    1.000000E+07  0.02000  1.011E-02    0   0.8751   age070_m62            0.0000     1.2626E+02    13.5748   2.7022    77.9629
 20      0.0000     0.0000E+00    0.0000E+00    2.512000E+07  0.02000  4.206E-03    0   0.8099   age090_m62            0.0000     1.0162E+02    11.4307   2.5995    80.3213
 21      0.0000     0.0000E+00    0.0000E+00    4.000000E+07  0.02000  3.373E-03    0   0.7799   age104_m62            0.0000     4.7719E+01     6.3169   2.2446    94.4019
 22      0.0000     0.0000E+00    0.0000E+00    1.015200E+08  0.02000  1.878E-03    0   0.7221   age116_m62            0.0000     2.1701E+02     5.8387   1.8019   111.6972
 23      0.0000     0.0000E+00    0.0000E+00    2.861200E+08  0.02000  8.869E-04    0   0.6700   age125_m62            0.0000     4.7184E+02    10.3364   1.0583   128.3424
 24      0.0000     0.0000E+00    0.0000E+00    6.405400E+08  0.02000  3.657E-04    0   0.6322   age132_m62            0.0000     2.2777E+02     9.9608   0.3963   132.6048
 25      0.0000     0.0000E+00    0.0000E+00    9.047900E+08  0.02000  2.312E-04    0   0.6152   age135_m62            0.0000     1.0070E+02     7.7890   0.1304   127.3251
 26      0.0000     0.0000E+00    0.0000E+00    1.434000E+09  0.02000  1.168E-04    0   0.5865   age139_m62            0.0000     1.3123E+01     4.3684  -0.1256   114.9586
 27      0.0000     0.0000E+00    0.0000E+00    2.500000E+09  0.02000  5.505E-05    0   0.5610   age150_m62            0.0000     3.9557E+01     4.2865  -0.4501   110.4375
 28      0.0000     0.0000E+00    0.0000E+00    5.000000E+09  0.02000  2.596E-05    0   0.5353   age161_m62            0.0000     1.4025E+02     5.9221  -0.8077   112.0123
 29      0.0000     0.0000E+00    0.0000E+00    1.100000E+10  0.02000  1.169E-05    0   0.5103   age185_m62            0.0000     3.0060E+02    10.1288  -1.0000   114.0640
 30      0.0000     0.0000E+00    0.0000E+00    1.300000E+10  0.02000  9.691E-06    0   0.5047   age193_m62            0.0000     3.4260E+02    11.5879  -1.0000   114.0835
 31      0.0000     0.0000E+00    0.0000E+00    1.000000E+06  0.05000  2.651E-02    0   0.9998   age020_m72            0.0000     1.4891E+02    11.1121   3.9653    73.1733
 32      0.0000     0.0000E+00    0.0000E+00    3.160000E+06  0.05000  4.817E-02    0   0.9577   age045_m72            0.0000     8.2954E+01     9.4377   3.6305    78.8867
 33      0.0000     0.0000E+00    0.0000E+00    5.010000E+06  0.05000  3.101E-02    0   0.9147   age055_m72            0.0000     7.2412E+01     9.3890   3.2644    81.5206
 34      0.0000     0.0000E+00    0.0000E+00    1.000000E+07  0.05000  8.954E-03    0   0.8524   age070_m72            0.0000     9.6502E+01     9.2703   3.5048    80.3521
 35      0.0000     0.0000E+00    0.0000E+00    2.512000E+07  0.05000  4.207E-03    0   0.7902   age090_m72            0.0000     4.7312E+01     6.6053   2.9823    88.7175
 36      0.0000     0.0000E+00    0.0000E+00    4.000000E+07  0.05000  3.198E-03    0   0.7618   age104_m72            0.0000     1.0825E+02     4.3483   2.2674   103.8344
 37      0.0000     0.0000E+00    0.0000E+00    1.015200E+08  0.05000  1.716E-03    0   0.7092   age116_m72            0.0000     2.6773E+02     6.4777   1.8499   113.1844
 38      0.0000     0.0000E+00    0.0000E+00    2.861200E+08  0.05000  7.047E-04    0   0.6618   age125_m72            0.0000     4.5132E+02    10.7843   0.8322   129.6722
 39      0.0000     0.0000E+00    0.0000E+00    6.405400E+08  0.05000  2.633E-04    0   0.6253   age132_m72            0.0000     1.6265E+02    10.1588   0.0000   130.5567
 40      0.0000     0.0000E+00    0.0000E+00    9.047900E+08  0.05000  1.484E-04    0   0.6088   age135_m72            0.0000     2.8334E+01     6.4934  -0.2799   119.6320
 41      0.0000     0.0000E+00    0.0000E+00    1.434000E+09  0.05000  7.827E-05    0   0.5847   age139_m72            0.0000     5.5086E+01     6.0166  -0.6022   113.6295
 42      0.0000     0.0000E+00    0.0000E+00    2.500000E+09  0.05000  3.759E-05    0   0.5583   age150_m72            0.0000     1.4964E+02     6.4810  -0.9029   112.3459
 43      0.0000     0.0000E+00    0.0000E+00    5.000000E+09  0.05000  1.548E-05    0   0.5320   age161_m72            0.0000     3.2001E+02    13.6234  -1.0000   110.7667
 44      0.0000     0.0000E+00    0.0000E+00    1.100000E+10  0.05000  6.532E-06    0   0.5070   age185_m72            0.0000     6.7605E+02    25.5142  -1.0000   107.4730
 45      0.0000     0.0000E+00    0.0000E+00    1.300000E+10  0.05000  5.316E-06    0   0.5018   age193_m72            0.0000     8.4667E+02    28.9875  -1.0000   106.0324


## Synthesis Results - Average & Chains ##

# j      x_j: min, <> & last-chain-values for 1 ...  7 chains
  1      0.0000      0.0056      0.0000      0.0008      0.0000      0.0000      0.0000      0.0000      0.1102
  2      9.2402      7.6603      7.6604      8.1860      7.7925      7.9024      7.9787      7.7699      7.9348
  3      0.0000      0.0702      0.1944      0.0000      0.0000      0.1303      0.0000      0.1156      0.0000
  4      2.1404      1.8168      1.7888      1.8782      2.2143      1.8437      2.2272      1.7328      2.1467
  5      0.0000      0.1717      0.1703      0.2176      0.0440      0.0000      0.0000      0.2894      0.1884
  6      0.0000      0.0624      0.0000      0.0000      0.0574      0.0000      0.0000      0.0000      0.0000
  7     12.3465     13.9013     13.6990     13.8967     13.9092     13.9697     13.8328     13.8940     13.9038
  8      0.0000      0.0175      0.0507      0.0000      0.0000      0.0000      0.0000      0.0000      0.0000
  9      0.0000      0.0524      0.1912      0.0000      0.0000      0.0125      0.1105      0.0098      0.0000
 10      0.0000      0.1078      0.1707      0.0871      0.0000      0.0000      0.0000      0.2614      0.0000
 11      0.0000      0.0624      0.0000      0.0000      0.0000      0.0000      0.0000      0.0932      0.0000
 12     41.7792     39.0038     39.4583     39.4938     39.4063     39.4410     38.7558     39.1239     39.5650
 13     37.8088     34.9702     34.7163     34.5591     35.2591     34.7870     35.9520     34.8599     35.4697
 14      0.0662      4.8819      4.8944      4.8923      4.7314      4.9273      4.6326      5.0331      3.8386
 15      0.0000      0.0450      0.0000      0.0000      0.0000      0.0000      0.0000      0.0000      0.0000
 16      0.0000      0.0038      0.0000      0.0000      0.0000      0.0000      0.0000      0.0000      0.0000
 17      0.0000      0.0114      0.0044      0.0000      0.0000      0.0009      0.0000      0.0000      0.0033
 18      0.0000      0.0815      0.0336      0.1289      0.1109      0.2628      0.0000      0.0625      0.0000
 19      0.0000      0.0312      0.0000      0.0000      0.0000      0.0000      0.0366      0.0000      0.0000
 20      0.0000      0.0096      0.0000      0.0041      0.0000      0.0000      0.0000      0.0000      0.0000
 21      0.0000      0.0209      0.0000      0.0000      0.0000      0.0045      0.0000      0.0000      0.0000
 22      0.0000      0.0218      0.0000      0.0000      0.0000      0.0443      0.0000      0.0000      0.0000
 23      0.0000      0.0117      0.0000      0.0000      0.0656      0.0000      0.0000      0.0000      0.0000
 24      0.0000      0.0117      0.0000      0.0000      0.0000      0.0000      0.0000      0.0000      0.0000
 25      0.0000      0.0325      0.0000      0.0000      0.0000      0.0023      0.0000      0.0000      0.0000
 26      0.0000      0.1215      0.0000      0.0000      0.0000      0.0111      0.0000      0.0000      0.2662
 27      0.0000      0.1016      0.1218      0.0000      0.0000      0.0000      0.0389      0.1429      0.0000
 28      0.0000      0.0205      0.0000      0.0000      0.0000      0.0000      0.0000      0.0000      0.0000
 29      0.0000      0.0138      0.0000      0.0000      0.0000      0.0000      0.0000      0.0000      0.0000
 30      0.0000      0.0056      0.0000      0.0000      0.0000      0.0000      0.0000      0.0000      0.0000
 31      0.0000      0.0079      0.0000      0.0000      0.0000      0.0000      0.0000      0.0000      0.0000
 32      0.0000      0.0337      0.1040      0.0000      0.0000      0.1034      0.0000      0.1131      0.0000
 33      0.0000      0.1009      0.2156      0.0754      0.0000      0.0000      0.0000      0.0917      0.0000
 34      0.0000      0.0055      0.0000      0.0000      0.0000      0.0000      0.0000      0.0000      0.0000
 35      0.0000      0.0068      0.0000      0.0000      0.0391      0.0000      0.0011      0.0000      0.0000
 36      0.0000      0.0133      0.0000      0.0000      0.0000      0.0000      0.0000      0.0000      0.0000
 37      0.0000      0.0203      0.0000      0.0000      0.0000      0.0000      0.0000      0.0000      0.0000
 38      0.0000      0.0117      0.0000      0.0000      0.0000      0.0000      0.0000      0.0032      0.0000
 39      0.0000      0.0171      0.0000      0.0000      0.0000      0.0490      0.0000      0.0000      0.0000
 40      0.0000      0.0398      0.0316      0.0000      0.0000      0.0000      0.0000      0.0000      0.0993
 41      0.0000      0.0414      0.0000      0.0000      0.0000      0.0000      0.0000      0.0090      0.0597
 42      0.0000      0.0130      0.1029      0.0243      0.0000      0.0932      0.0000      0.0000      0.0000
 43      0.0000      0.0190      0.0000      0.1137      0.0000      0.0000      0.0000      0.0000      0.0000
 44      0.0000      0.0060      0.0000      0.0000      0.0000      0.0000      0.0000      0.0000      0.0000
 45      0.0000      0.0037      0.0000      0.0000      0.0000      0.0026      0.0000      0.0000      0.0000

# j      m_j: min, <> & last-chain-values for 1 ...  7 chains
  1  0.0000E+00  6.9242E-05  0.0000E+00  1.0517E-05  0.0000E+00  0.0000E+00  0.0000E+00  0.0000E+00  1.3999E-03
  2  3.4515E-02  2.5886E-02  2.6012E-02  2.7819E-02  2.6508E-02  2.6839E-02  2.7057E-02  2.6321E-02  2.7557E-02
  3  0.0000E+00  3.6182E-04  1.0068E-03  0.0000E+00  0.0000E+00  6.7496E-04  0.0000E+00  5.9710E-04  0.0000E+00
  4  2.2708E-02  1.7437E-02  1.7252E-02  1.8128E-02  2.1393E-02  1.7785E-02  2.1451E-02  1.6672E-02  2.1174E-02
  5  0.0000E+00  3.8107E-03  3.7980E-03  4.8562E-03  9.8328E-04  0.0000E+00  0.0000E+00  6.4373E-03  4.2976E-03
  6  0.0000E+00  1.9255E-03  0.0000E+00  0.0000E+00  1.7818E-03  0.0000E+00  0.0000E+00  0.0000E+00  0.0000E+00
  7  5.9696E-01  6.0806E-01  6.0213E-01  6.1129E-01  6.1245E-01  6.1413E-01  6.0718E-01  6.0923E-01  6.2503E-01
  8  0.0000E+00  1.4759E-03  4.3001E-03  0.0000E+00  0.0000E+00  0.0000E+00  0.0000E+00  0.0000E+00  0.0000E+00
  9  0.0000E+00  8.8077E-03  3.2289E-02  0.0000E+00  0.0000E+00  2.1108E-03  1.8636E-02  1.6583E-03  0.0000E+00
 10  0.0000E+00  2.5294E-02  4.0236E-02  2.0535E-02  0.0000E+00  0.0000E+00  0.0000E+00  6.1470E-02  0.0000E+00
 11  0.0000E+00  2.5725E-02  0.0000E+00  0.0000E+00  0.0000E+00  0.0000E+00  0.0000E+00  3.8501E-02  0.0000E+00
 12  3.5372E+01  2.9874E+01  3.0369E+01  3.0420E+01  3.0383E+01  3.0361E+01  2.9788E+01  3.0040E+01  3.1144E+01
 13  6.3747E+01  5.3340E+01  5.3211E+01  5.3010E+01  5.4139E+01  5.3328E+01  5.5030E+01  5.3302E+01  5.5602E+01
 14  2.2747E-01  1.5177E+01  1.5290E+01  1.5295E+01  1.4807E+01  1.5395E+01  1.4452E+01  1.5685E+01  1.2264E+01
 15  0.0000E+00  1.6195E-01  0.0000E+00  0.0000E+00  0.0000E+00  0.0000E+00  0.0000E+00  0.0000E+00  0.0000E+00
 16  0.0000E+00  2.6467E-05  0.0000E+00  0.0000E+00  0.0000E+00  0.0000E+00  0.0000E+00  0.0000E+00  0.0000E+00
 17  0.0000E+00  4.0918E-05  1.6023E-05  0.0000E+00  0.0000E+00  3.2854E-06  0.0000E+00  0.0000E+00  1.2101E-05
 18  0.0000E+00  3.2476E-04  1.3450E-04  5.1642E-04  4.4483E-04  1.0526E-03  0.0000E+00  2.4966E-04  0.0000E+00
 19  0.0000E+00  3.7122E-04  0.0000E+00  0.0000E+00  0.0000E+00  0.0000E+00  4.3732E-04  0.0000E+00  0.0000E+00
 20  0.0000E+00  2.5501E-04  0.0000E+00  1.0960E-04  0.0000E+00  0.0000E+00  0.0000E+00  0.0000E+00  0.0000E+00
 21  0.0000E+00  6.6478E-04  0.0000E+00  0.0000E+00  0.0000E+00  1.4307E-04  0.0000E+00  0.0000E+00  0.0000E+00
 22  0.0000E+00  1.1542E-03  0.0000E+00  0.0000E+00  0.0000E+00  2.3551E-03  0.0000E+00  0.0000E+00  0.0000E+00
 23  0.0000E+00  1.2152E-03  0.0000E+00  0.0000E+00  6.8704E-03  0.0000E+00  0.0000E+00  0.0000E+00  0.0000E+00
 24  0.0000E+00  2.7857E-03  0.0000E+00  0.0000E+00  0.0000E+00  0.0000E+00  0.0000E+00  0.0000E+00  0.0000E+00
 25  0.0000E+00  1.1899E-02  0.0000E+00  0.0000E+00  0.0000E+00  8.4859E-04  0.0000E+00  0.0000E+00  0.0000E+00
 26  0.0000E+00  8.3959E-02  0.0000E+00  0.0000E+00  0.0000E+00  7.7065E-03  0.0000E+00  0.0000E+00  1.8909E-01
 27  0.0000E+00  1.4248E-01  1.7170E-01  0.0000E+00  0.0000E+00  0.0000E+00  5.4708E-02  2.0100E-01  0.0000E+00
 28  0.0000E+00  5.8292E-02  0.0000E+00  0.0000E+00  0.0000E+00  0.0000E+00  0.0000E+00  0.0000E+00  0.0000E+00
 29  0.0000E+00  8.2676E-02  0.0000E+00  0.0000E+00  0.0000E+00  0.0000E+00  0.0000E+00  0.0000E+00  0.0000E+00
 30  0.0000E+00  4.0008E-02  0.0000E+00  0.0000E+00  0.0000E+00  0.0000E+00  0.0000E+00  0.0000E+00  0.0000E+00
 31  0.0000E+00  4.0774E-05  0.0000E+00  0.0000E+00  0.0000E+00  0.0000E+00  0.0000E+00  0.0000E+00  0.0000E+00
 32  0.0000E+00  9.2256E-05  2.8598E-04  0.0000E+00  0.0000E+00  2.8447E-04  0.0000E+00  3.1025E-04  0.0000E+00
 33  0.0000E+00  4.0971E-04  8.7951E-04  3.0789E-04  0.0000E+00  0.0000E+00  0.0000E+00  3.7315E-04  0.0000E+00
 34  0.0000E+00  7.2126E-05  0.0000E+00  0.0000E+00  0.0000E+00  0.0000E+00  0.0000E+00  0.0000E+00  0.0000E+00
 35  0.0000E+00  1.7616E-04  0.0000E+00  0.0000E+00  1.0179E-03  0.0000E+00  2.9751E-05  0.0000E+00  0.0000E+00
 36  0.0000E+00  4.3562E-04  0.0000E+00  0.0000E+00  0.0000E+00  0.0000E+00  0.0000E+00  0.0000E+00  0.0000E+00
 37  0.0000E+00  1.1520E-03  0.0000E+00  0.0000E+00  0.0000E+00  0.0000E+00  0.0000E+00  0.0000E+00  0.0000E+00
 38  0.0000E+00  1.5164E-03  0.0000E+00  0.0000E+00  0.0000E+00  0.0000E+00  0.0000E+00  4.1317E-04  0.0000E+00
 39  0.0000E+00  5.5743E-03  0.0000E+00  0.0000E+00  0.0000E+00  1.6103E-02  0.0000E+00  0.0000E+00  0.0000E+00
 40  0.0000E+00  2.2500E-02  1.7949E-02  0.0000E+00  0.0000E+00  0.0000E+00  0.0000E+00  0.0000E+00  5.7650E-02
 41  0.0000E+00  4.2602E-02  0.0000E+00  0.0000E+00  0.0000E+00  0.0000E+00  0.0000E+00  9.2814E-03  6.3119E-02
 42  0.0000E+00  2.6631E-02  2.1146E-01  5.0052E-02  0.0000E+00  1.9152E-01  0.0000E+00  0.0000E+00  0.0000E+00
 43  0.0000E+00  8.9866E-02  0.0000E+00  5.4074E-01  0.0000E+00  0.0000E+00  0.0000E+00  0.0000E+00  0.0000E+00
 44  0.0000E+00  6.3767E-02  0.0000E+00  0.0000E+00  0.0000E+00  0.0000E+00  0.0000E+00  0.0000E+00  0.0000E+00
 45  0.0000E+00  4.7580E-02  0.0000E+00  0.0000E+00  0.0000E+00  3.3512E-02  0.0000E+00  0.0000E+00  0.0000E+00

# AV, chi2 & Mass for <> & i_chain = 1 ...  7 solutions
AV       0.3348      0.3043      0.3076      0.3121      0.3080      0.3105      0.3074      0.3081      0.3159
chi2 1.4803E+00  1.5239E+00  1.5185E+00  1.5086E+00  1.5142E+00  1.5123E+00  1.5112E+00  1.5163E+00  1.5068E+00
Mass 1.2761E-10  1.3538E-10  1.3532E-10  1.3605E-10  1.3516E-10  1.3583E-10  1.3547E-10  1.3575E-10  1.3380E-10
  -9.71                                  [v0_min (km/s) before EX0s...]
  83.95                                  [vd_min (km/s) before EX0s...]


## Synthetic spectrum (Best Model) ##l_obs f_obs f_syn wei
 3070    [Nl_obs]
 3359.00    0.00000   0.50500   -2.000
 3360.00    0.04239   0.48167   -1.000
 3361.00    0.28427   0.48070   -1.000
 3362.00    0.30571   0.50324   -1.000
 3363.00    0.34639   0.53536   -1.000
 3364.00    0.33084   0.55837   -1.000
 3365.00    0.35083   0.56163   -1.000
 3366.00    0.36539   0.54687   -1.000
 3367.00    0.35746   0.52451   -1.000
 3368.00    0.33949   0.50595   -1.000
 3369.00    0.34000   0.49573   -1.000
 3370.00    0.34346   0.49090   -1.000
 3371.00    0.32823   0.48787   -1.000
 3372.00    0.33358   0.48956   -1.000
 3373.00    0.36769   0.50282   -1.000
 3374.00    0.38750   0.52860   -1.000
 3375.00    0.40662   0.55792   -1.000
 3376.00    0.42218   0.57517   -1.000
 3377.00    0.41473   0.57044   -1.000
 3378.00    0.38889   0.54893   -1.000
 3379.00    0.39442   0.52583   -1.000
 3380.00    0.41423   0.51533   -1.000
 3381.00    0.42314   0.52181   -1.000
 3382.00    0.41692   0.53864   -1.000
 3383.00    0.43029   0.55571   -1.000
 3384.00    0.42840   0.56896   -1.000
 3385.00    0.45168   0.57930   -1.000
 3386.00    0.46077   0.58513   -1.000
 3387.00    0.46866   0.58485   -1.000
 3388.00    0.46457   0.58117   -1.000
 3389.00    0.45067   0.57696   -1.000
 3390.00    0.46372   0.57111   -1.000
 3391.00    0.47688   0.56151   -1.000
 3392.00    0.48937   0.55086   -1.000
 3393.00    0.48932   0.54743   -1.000
 3394.00    0.45873   0.55713   -1.000
 3395.00    0.47724   0.57714   -1.000
 3396.00    0.50602   0.59971   -1.000
 3397.00    0.51740   0.61797   -1.000
 3398.00    0.51406   0.62711   -1.000
 3399.00    0.53534   0.62516   -1.000
 3400.00    0.53210   0.61413   -1.000
 3401.00    0.51045   0.59817   -1.000
 3402.00    0.51700   0.58170   -1.000
 3403.00    0.50656   0.56966   -1.000
 3404.00    0.50407   0.56385   -1.000
 3405.00    0.49307   0.56013   -1.000
 3406.00    0.49647   0.55396   -1.000
 3407.00    0.48964   0.54674   -1.000
 3408.00    0.49332   0.54444   -1.000
 3409.00    0.50833   0.55008   -1.000
 3410.00    0.48662   0.55889   -1.000
 3411.00    0.47748   0.56258   -1.000
 3412.00    0.50846   0.55810   -1.000
 3413.00    0.45820   0.55038   -1.000
 3414.00    0.43706   0.54700   -1.000
 3415.00    0.47692   0.55173   -1.000
 3416.00    0.49728   0.56376   -1.000
 3417.00    0.50865   0.58000   -1.000
 3418.00    0.51771   0.59692   -1.000
 3419.00    0.50670   0.61003   -1.000
 3420.00    0.53551   0.61467   -1.000
 3421.00    0.54113   0.61025   -1.000
 3422.00    0.52472   0.60138   -1.000
 3423.00    0.53713   0.59351   -1.000
 3424.00    0.52670   0.58962   -1.000
 3425.00    0.53017   0.59034   -1.000
 3426.00    0.53959   0.59611   -1.000
 3427.00    0.55904   0.60845   -1.000
 3428.00    0.56883   0.62542   -1.000
 3429.00    0.58783   0.63786   -1.000
 3430.00    0.58598   0.63708   -1.000
 3431.00    0.59223   0.62376   -1.000
 3432.00    0.56861   0.60741   -1.000
 3433.00    0.55250   0.59802   -1.000
 3434.00    0.54385   0.59845   -1.000
 3435.00    0.55541   0.60353   -1.000
 3436.00    0.57623   0.60477   -1.000
 3437.00    0.57541   0.59660   -1.000
 3438.00    0.56158   0.57780  125.909
 3439.00    0.52000   0.55090   -1.000
 3440.00    0.49294   0.52256   -1.000
 3441.00    0.49650   0.50261  150.919
 3442.00    0.48344   0.49732  156.167
 3443.00    0.49583   0.50448  156.242
 3444.00    0.51317   0.51828  154.813
 3445.00    0.50641   0.53591   -1.000
 3446.00    0.54213   0.55783  140.124
 3447.00    0.54925   0.58279   -1.000
 3448.00    0.57597   0.60501   -1.000
 3449.00    0.58491   0.61655   -1.000
 3450.00    0.57327   0.61288   -1.000
 3451.00    0.56755   0.59717   -1.000
 3452.00    0.55703   0.57931   -1.000
 3453.00    0.57077   0.56995  843.194
 3454.00    0.57134   0.57200  843.194
 3455.00    0.56734   0.57901   -1.000
 3456.00    0.57623   0.58117  843.194
 3457.00    0.60243   0.57363   -1.000
 3458.00    0.60449   0.55996   -1.000
 3459.00    0.55250   0.54614   -1.000
 3460.00    0.54003   0.53738  125.750
 3461.00    0.54780   0.53948  127.143
 3462.00    0.55081   0.55302  142.321
 3463.00    0.54676   0.56870   -1.000
 3464.00    0.57296   0.57710  843.194
 3465.00    0.55784   0.57854   -1.000
 3466.00    0.54711   0.57979   -1.000
 3467.00    0.56380   0.58576   -1.000
 3468.00    0.58564   0.59498   -1.000
 3469.00    0.58594   0.60261   -1.000
 3470.00    0.61020   0.60465   -1.000
 3471.00    0.60297   0.59895   -1.000
 3472.00    0.58588   0.58533  843.194
 3473.00    0.57535   0.56526   -1.000
 3474.00    0.55311   0.54319   -1.000
 3475.00    0.51767   0.52817   -1.000
 3476.00    0.53101   0.52811  127.146
 3477.00    0.54053   0.54212  131.026
 3478.00    0.57134   0.56192  143.901
 3479.00    0.59099   0.57874   -1.000
 3480.00    0.57795   0.58744   -1.000
 3481.00    0.57065   0.58719   -1.000
 3482.00    0.60170   0.58087   -1.000
 3483.00    0.61312   0.57475   -1.000
 3484.00    0.62491   0.57611   -1.000
 3485.00    0.60642   0.58745   -1.000
 3486.00    0.60664   0.60131   -1.000
 3487.00    0.63299   0.60484   -1.000
 3488.00    0.61699   0.59297   -1.000
 3489.00    0.62395   0.57327   -1.000
 3490.00    0.57889   0.55888   -1.000
 3491.00    0.56448   0.55643   -1.000
 3492.00    0.56751   0.56115   -1.000
 3493.00    0.57217   0.56366   -1.000
 3494.00    0.57192   0.55879   -1.000
 3495.00    0.57564   0.54988   -1.000
 3496.00    0.57249   0.54665   -1.000
 3497.00    0.56003   0.55685   -1.000
 3498.00    0.56769   0.57643   -1.000
 3499.00    0.58621   0.59252   -1.000
 3500.00    0.59244   0.59922   -1.000
 3501.00    0.61919   0.60156   -1.000
 3502.00    0.65714   0.60480   -1.000
 3503.00    0.62991   0.60696   -1.000
 3504.00    0.60127   0.60325  843.194
 3505.00    0.59347   0.59542  843.194
 3506.00    0.60179   0.58997   -1.000
 3507.00    0.59971   0.58895   -1.000
 3508.00    0.60106   0.58835   -1.000
 3509.00    0.60031   0.58381   -1.000
 3510.00    0.61400   0.57570   -1.000
 3511.00    0.60640   0.56710   -1.000
 3512.00    0.60326   0.55904   -1.000
 3513.00    0.58794   0.55324   -1.000
 3514.00    0.59117   0.55573   -1.000
 3515.00    0.56144   0.57030   -1.000
 3516.00    0.60582   0.59224   -1.000
 3517.00    0.63149   0.61042   -1.000
 3518.00    0.61856   0.61536  843.194
 3519.00    0.60418   0.60570  843.194
 3520.00    0.61646   0.58758   -1.000
 3521.00    0.57675   0.56902   -1.000
 3522.00    0.57619   0.55262   -1.000
 3523.00    0.55781   0.53701   -1.000
 3524.00    0.52932   0.52424   -1.000
 3525.00    0.53293   0.52067  125.963
 3526.00    0.52177   0.53158  129.943
 3527.00    0.54486   0.55470  142.973
 3528.00    0.55571   0.57995   -1.000
 3529.00    0.57877   0.59710   -1.000
 3530.00    0.59644   0.60304   -1.000
 3531.00    0.61734   0.60260   -1.000
 3532.00    0.61144   0.60287   -1.000
 3533.00    0.63249   0.60703   -1.000
 3534.00    0.62476   0.61299   -1.000
 3535.00    0.60879   0.61774   -1.000
 3536.00    0.61452   0.62154   -1.000
 3537.00    0.60193   0.62684   -1.000
 3538.00    0.59729   0.63375   -1.000
 3539.00    0.70047   0.63814   -1.000
 3540.00    0.64753   0.63697   -1.000
 3541.00    0.63854   0.63391  843.194
 3542.00    0.63035   0.63451   -1.000
 3543.00    0.62906   0.63919   -1.000
 3544.00    0.62408   0.64373   -1.000
 3545.00    0.63647   0.64413   -1.000
 3546.00    0.62776   0.64109   -1.000
 3547.00    0.63796   0.63863  843.194
 3548.00    0.59969   0.63930   -1.000
 3549.00    0.62576   0.64188   -1.000
 3550.00    0.62021   0.64288   -1.000
 3551.00    0.60736   0.63948   -1.000
 3552.00    0.60875   0.63199   -1.000
 3553.00    0.57574   0.62434   -1.000
 3554.00    0.59194   0.62042   -1.000
 3555.00    0.60417   0.62069   -1.000
 3556.00    0.59633   0.62212   -1.000
 3557.00    0.59258   0.62100   -1.000
 3558.00    0.58682   0.61741   -1.000
 3559.00    0.60067   0.61585   -1.000
 3560.00    0.60542   0.62079   -1.000
 3561.00    0.59210   0.63045   -1.000
 3562.00    0.62466   0.63487   -1.000
 3563.00    0.60527   0.62232   -1.000
 3564.00    0.60127   0.59331   -1.000
 3565.00    0.56266   0.56436  644.056
 3566.00    0.53183   0.54903  127.261
 3567.00    0.52738   0.54463  131.828
 3568.00    0.51703   0.54005  130.314
 3569.00    0.49189   0.53022   -1.000
 3570.00    0.48922   0.52225   -1.000
 3571.00    0.50611   0.52412  136.186
 3572.00    0.52903   0.53369  131.654
 3573.00    0.54234   0.54355  138.292
 3574.00    0.54871   0.54956  843.194
 3575.00    0.54318   0.55303   -1.000
 3576.00    0.55986   0.55576   -1.000
 3577.00    0.56202   0.55519   -1.000
 3578.00    0.56091   0.54622   -1.000
 3579.00    0.55187   0.52833   -1.000
 3580.00    0.52951   0.50882   -1.000
 3581.00    0.50082   0.49646  142.229
 3582.00    0.49353   0.49345  149.338
 3583.00    0.50852   0.49335   -1.000
 3584.00    0.50730   0.48817   -1.000
 3585.00    0.48655   0.47903  155.082
 3586.00    0.47892   0.47429  159.950
 3587.00    0.48536   0.48001  161.149
 3588.00    0.50378   0.49669  152.843
 3589.00    0.51295   0.52113  144.760
 3590.00    0.52249   0.54782  137.168
 3591.00    0.56863   0.56962  137.242
 3592.00    0.55303   0.58195   -1.000
 3593.00    0.56965   0.58698   -1.000
 3594.00    0.58867   0.59207  843.194
 3595.00    0.57978   0.60221   -1.000
 3596.00    0.58637   0.61579   -1.000
 3597.00    0.61780   0.62891   -1.000
 3598.00    0.62668   0.63865   -1.000
 3599.00    0.62900   0.64169   -1.000
 3600.00    0.61147   0.63448   -1.000
 3601.00    0.61426   0.61676   -1.000
 3602.00    0.60937   0.59404   -1.000
 3603.00    0.58345   0.57512   -1.000
 3604.00    0.58741   0.56643   -1.000
 3605.00    0.57694   0.56668   -1.000
 3606.00    0.56082   0.56785   -1.000
 3607.00    0.57867   0.56314   -1.000
 3608.00    0.55258   0.55391  843.194
 3609.00    0.54691   0.54897  843.194
 3610.00    0.54452   0.55377   -1.000
 3611.00    0.54894   0.56391   -1.000
 3612.00    0.56266   0.57373   -1.000
 3613.00    0.56863   0.58322   -1.000
 3614.00    0.58208   0.59377   -1.000
 3615.00    0.59831   0.60073  843.194
 3616.00    0.59172   0.59358  843.194
 3617.00    0.56933   0.57159  843.194
 3618.00    0.54903   0.55119  843.194
 3619.00    0.54465   0.54858  700.563
 3620.00    0.54404   0.56420  135.111
 3621.00    0.56374   0.58649   -1.000
 3622.00    0.59750   0.60498   -1.000
 3623.00    0.61769   0.61831  843.194
 3624.00    0.62741   0.63258   -1.000
 3625.00    0.62320   0.65194   -1.000
 3626.00    0.65001   0.67205   -1.000
 3627.00    0.66236   0.68261   -1.000
 3628.00    0.67578   0.67282  843.194
 3629.00    0.62167   0.64129   -1.000
 3630.00    0.57786   0.60149   -1.000
 3631.00    0.54361   0.57278   -1.000
 3632.00    0.53229   0.56563   -1.000
 3633.00    0.55191   0.57548   -1.000
 3634.00    0.58053   0.58998   -1.000
 3635.00    0.59052   0.60073   -1.000
 3636.00    0.60901   0.60927  843.194
 3637.00    0.62819   0.62144   -1.000
 3638.00    0.61755   0.63827   -1.000
 3639.00    0.64244   0.65340   -1.000
 3640.00    0.64906   0.65810   -1.000
 3641.00    0.62324   0.64882   -1.000
 3642.00    0.63165   0.62986  843.194
 3643.00    0.60536   0.60998   -1.000
 3644.00    0.59730   0.59607  843.194
 3645.00    0.57176   0.58827   -1.000
 3646.00    0.59296   0.58324   -1.000
 3647.00    0.56344   0.58040   -1.000
 3648.00    0.57231   0.58194   -1.000
 3649.00    0.57552   0.58963   -1.000
 3650.00    0.60282   0.60376  843.194
 3651.00    0.60362   0.62222   -1.000
 3652.00    0.62280   0.64077   -1.000
 3653.00    0.62951   0.65542   -1.000
 3654.00    0.64538   0.66501   -1.000
 3655.00    0.65827   0.67239   -1.000
 3656.00    0.65691   0.68043   -1.000
 3657.00    0.65810   0.68798   -1.000
 3658.00    0.66036   0.69228   -1.000
 3659.00    0.64815   0.69206   -1.000
 3660.00    0.64077   0.68744   -1.000
 3661.00    0.65093   0.67948   -1.000
 3662.00    0.65531   0.67028   -1.000
 3663.00    0.64722   0.66281   -1.000
 3664.00    0.64216   0.65949   -1.000
 3665.00    0.65191   0.65929   -1.000
 3666.00    0.66545   0.65807   -1.000
 3667.00    0.68449   0.65215   -1.000
 3668.00    0.66716   0.64381   -1.000
 3669.00    0.63233   0.64095   -1.000
 3670.00    0.62698   0.64819   -1.000
 3671.00    0.63201   0.66163   -1.000
 3672.00    0.65068   0.67267   -1.000
 3673.00    0.64474   0.67565   -1.000
 3674.00    0.64952   0.67026   -1.000
 3675.00    0.66187   0.65844  843.194
 3676.00    0.64651   0.64298  843.194
 3677.00    0.62956   0.62733  843.194
 3678.00    0.61312   0.61514   -1.000
 3679.00    0.61855   0.60928   -1.000
 3680.00    0.60385   0.61046   -1.000
 3681.00    0.60867   0.61706   -1.000
 3682.00    0.63511   0.62486   -1.000
 3683.00    0.64336   0.62792   -1.000
 3684.00    0.60662   0.62122   -1.000
 3685.00    0.61642   0.60621   -1.000
 3686.00    0.60200   0.59241   -1.000
 3687.00    0.59887   0.59049   -1.000
 3688.00    0.60682   0.60408  843.194
 3689.00    0.62197   0.62784   -1.000
 3690.00    0.64907   0.65092  843.194
 3691.00    0.66648   0.66401  843.194
 3692.00    0.66229   0.66631   -1.000
 3693.00    0.65793   0.66315   -1.000
 3694.00    0.66586   0.65867   -1.000
 3695.00    0.66433   0.65466   -1.000
 3696.00    0.65261   0.65460   -1.000
 3697.00    0.67611   0.66353   -1.000
 3698.00    0.67849   0.68186   -1.000
 3699.00    0.68330   0.70108   -1.000
 3700.00    0.70120   0.70802   -1.000
 3701.00    0.70863   0.69298   -1.000
 3702.00    0.68900   0.65738   -1.000
 3703.00    0.63479   0.61378   -1.000
 3704.00    0.60117   0.57855   -1.000
 3705.00    0.57815   0.56301   -1.000
 3706.00    0.57459   0.56649   -1.000
 3707.00    0.58496   0.57881   -1.000
 3708.00    0.60888   0.58987   -1.000
 3709.00    0.60574   0.59611   -1.000
 3710.00    0.63493   0.60160   -1.000
 3711.00    0.64840   0.61471   -1.000
 3712.00    0.67550   0.63942   -1.000
 3713.00    0.68900   0.67066   -1.000
 3714.00    0.70694   0.69860   -1.000
 3715.00    0.71997   0.71437  813.781
 3716.00    0.71261   0.71265  813.017
 3717.00    0.70415   0.69094   -1.000
 3718.00    0.69776   0.64793   -1.000
 3719.00    0.62224   0.59115   -1.000
 3720.00    0.55446   0.54100   -1.000
 3721.00    0.51977   0.51820  815.192
 3722.00    0.55028   0.53088  134.482
 3723.00    0.57460   0.57186   -1.000
 3724.00    0.62487   0.62102   -1.000
 3725.00    0.67702   0.65651   -1.000
 3726.00    0.69411   0.67249   -1.000
 3727.00    0.67957   0.67897  843.194
 3728.00    0.69568   0.68388   -1.000
 3729.00    0.68769   0.68332   -1.000
 3730.00    0.66612   0.66594  843.194
 3731.00    0.65622   0.62536   -1.000
 3732.00    0.61008   0.56855   -1.000
 3733.00    0.53566   0.51217   -1.000
 3734.00    0.50715   0.47436   -1.000
 3735.00    0.51411   0.46760   -1.000
 3736.00    0.52866   0.49336   -1.000
 3737.00    0.56342   0.54365   -1.000
 3738.00    0.59463   0.60499  131.378
 3739.00    0.64486   0.66032   -1.000
 3740.00    0.68790   0.69528   -1.000
 3741.00    0.71147   0.70498   -1.000
 3742.00    0.70604   0.69303   -1.000
 3743.00    0.67135   0.66748   -1.000
 3744.00    0.66190   0.63661   -1.000
 3745.00    0.62707   0.60419   -1.000
 3746.00    0.60104   0.56906   -1.000
 3747.00    0.57042   0.52950   -1.000
 3748.00    0.53646   0.49275   -1.000
 3749.00    0.51610   0.47649   -1.000
 3750.00    0.52806   0.49397   -1.000
 3751.00    0.58196   0.54181   -1.000
 3752.00    0.64948   0.60473   -1.000
 3753.00    0.69735   0.66568   -1.000
 3754.00    0.73279   0.71054   -1.000
 3755.00    0.75828   0.72895   -1.000
 3756.00    0.71492   0.71849   -1.000
 3757.00    0.68532   0.69033   -1.000
 3758.00    0.67124   0.66441   -1.000
 3759.00    0.64415   0.65520   -1.000
 3760.00    0.64549   0.66199   -1.000
 3761.00    0.67990   0.67488   -1.000
 3762.00    0.70426   0.68600   -1.000
 3763.00    0.71297   0.69151   -1.000
 3764.00    0.70206   0.68813   -1.000
 3765.00    0.71601   0.67414   -1.000
 3766.00    0.69875   0.65151   -1.000
 3767.00    0.67597   0.62406   -1.000
 3768.00    0.64409   0.59582   -1.000
 3769.00    0.63731   0.57275   -1.000
 3770.00    0.61894   0.56414   -1.000
 3771.00    0.62185   0.57823   -1.000
 3772.00    0.65719   0.61180   -1.000
 3773.00    0.69472   0.65037   -1.000
 3774.00    0.71810   0.68267   -1.000
 3775.00    0.74944   0.70773   -1.000
 3776.00    0.75362   0.73018   -1.000
 3777.00    0.75943   0.75401  843.194
 3778.00    0.76188   0.77925   -1.000
 3779.00    0.79620   0.80282   -1.000
 3780.00    0.80875   0.82116   -1.000
 3781.00    0.82284   0.83276   -1.000
 3782.00    0.81309   0.83774   -1.000
 3783.00    0.81476   0.83473   -1.000
 3784.00    0.81157   0.82040   -1.000
 3785.00    0.78810   0.79478   -1.000
 3786.00    0.76484   0.76475   -1.000
 3787.00    0.72892   0.73982   -1.000
 3788.00    0.71751   0.72520   -1.000
 3789.00    0.73589   0.71956   -1.000
 3790.00    0.73873   0.71717   -1.000
 3791.00    0.74523   0.71001   -1.000
 3792.00    0.71621   0.69207   -1.000
 3793.00    0.70103   0.66244   -1.000
 3794.00    0.67361   0.62444   -1.000
 3795.00    0.62497   0.58270   -1.000
 3796.00    0.58641   0.54183   -1.000
 3797.00    0.57829   0.51147   -1.000
 3798.00    0.57990   0.50754   -1.000
 3799.00    0.59944   0.53787   -1.000
 3800.00    0.63177   0.59359   -1.000
 3801.00    0.68954   0.65654   -1.000
 3802.00    0.73789   0.71005   -1.000
 3803.00    0.78366   0.74553   -1.000
 3804.00    0.80033   0.76186   -1.000
 3805.00    0.77177   0.76335   -1.000
 3806.00    0.75939   0.76139   -1.000
 3807.00    0.76580   0.76892   -1.000
 3808.00    0.78003   0.78912   -1.000
 3809.00    0.78541   0.81240   -1.000
 3810.00    0.81947   0.82393   -1.000
 3811.00    0.81116   0.81481   -1.000
 3812.00    0.77224   0.78739   -1.000
 3813.00    0.74797   0.75335   -1.000
 3814.00    0.72860   0.72753  843.194
 3815.00    0.69641   0.71973   -1.000
 3816.00    0.73382   0.72655   -1.000
 3817.00    0.73160   0.73352  843.194
 3818.00    0.73436   0.72808   -1.000
 3819.00    0.71422   0.71081  843.194
 3820.00    0.70126   0.69514   -1.000
 3821.00    0.70179   0.69098   -1.000
 3822.00    0.71075   0.69167   -1.000
 3823.00    0.69652   0.68364   -1.000
 3824.00    0.70179   0.66337   -1.000
 3825.00    0.64943   0.63971   -1.000
 3826.00    0.63224   0.62254  131.221
 3827.00    0.61059   0.61374  133.873
 3828.00    0.61150   0.60788  132.596
 3829.00    0.62191   0.59768   -1.000
 3830.00    0.59628   0.57767  128.399
 3831.00    0.57830   0.54639   -1.000
 3832.00    0.55874   0.50717   -1.000
 3833.00    0.51455   0.46890   -1.000
 3834.00    0.49769   0.44323   -1.000
 3835.00    0.51258   0.43672   -1.000
 3836.00    0.52841   0.44708   -1.000
 3837.00    0.52313   0.46744   -1.000
 3838.00    0.54631   0.49338   -1.000
 3839.00    0.56796   0.52660   -1.000
 3840.00    0.60412   0.56967   -1.000
 3841.00    0.63900   0.61964   -1.000
 3842.00    0.70001   0.66876   -1.000
 3843.00    0.75064   0.70875   -1.000
 3844.00    0.77166   0.73651   -1.000
 3845.00    0.79853   0.75547   -1.000
 3846.00    0.80025   0.77015   -1.000
 3847.00    0.77358   0.78006   -1.000
 3848.00    0.78416   0.78319  843.194
 3849.00    0.77001   0.78263   -1.000
 3850.00    0.76848   0.78464   -1.000
 3851.00    0.77097   0.79202   -1.000
 3852.00    0.77735   0.80014   -1.000
 3853.00    0.79031   0.80116   -1.000
 3854.00    0.79412   0.79301  843.194
 3855.00    0.75765   0.77951   -1.000
 3856.00    0.74227   0.76392   -1.000
 3857.00    0.72656   0.74751   -1.000
 3858.00    0.70985   0.73352   -1.000
 3859.00    0.70328   0.72966   -1.000
 3860.00    0.70934   0.74160   -1.000
 3861.00    0.73028   0.76595   -1.000
 3862.00    0.77107   0.79049   -1.000
 3863.00    0.80818   0.80431  843.194
 3864.00    0.81080   0.80678  843.194
 3865.00    0.80865   0.80416  843.194
 3866.00    0.79822   0.80190   -1.000
 3867.00    0.78988   0.80099   -1.000
 3868.00    0.79035   0.79722   -1.000
 3869.00    0.79162   0.78511   -1.000
 3870.00    0.75811   0.76360   -1.000
 3871.00    0.72361   0.74046   -1.000
 3872.00    0.70047   0.72793   -1.000
 3873.00    0.71254   0.73405   -1.000
 3874.00    0.72719   0.75276   -1.000
 3875.00    0.76164   0.76607   -1.000
 3876.00    0.76143   0.76122  843.194
 3877.00    0.72166   0.74270   -1.000
 3878.00    0.69842   0.72499   -1.000
 3879.00    0.70236   0.71633   -1.000
 3880.00    0.71729   0.71302   -1.000
 3881.00    0.71560   0.70778   -1.000
 3882.00    0.70336   0.69754   -1.000
 3883.00    0.71481   0.68136   -1.000
 3884.00    0.70435   0.65599   -1.000
 3885.00    0.67320   0.61760   -1.000
 3886.00    0.64402   0.57110   -1.000
 3887.00    0.60315   0.53044   -1.000
 3888.00    0.57442   0.51111   -1.000
 3889.00    0.58798   0.52157   -1.000
 3890.00    0.63429   0.55919   -1.000
 3891.00    0.68576   0.60896   -1.000
 3892.00    0.70560   0.65222   -1.000
 3893.00    0.71051   0.68067   -1.000
 3894.00    0.73251   0.69929   -1.000
 3895.00    0.72488   0.71701   -1.000
 3896.00    0.75856   0.73584   -1.000
 3897.00    0.77582   0.75119   -1.000
 3898.00    0.75044   0.76099   -1.000
 3899.00    0.75950   0.76929   -1.000
 3900.00    0.77973   0.77953  841.529
 3901.00    0.81722   0.78912   -1.000
 3902.00    0.81006   0.79190   -1.000
 3903.00    0.77972   0.78568   -1.000
 3904.00    0.75619   0.77634   -1.000
 3905.00    0.76524   0.77378   -1.000
 3906.00    0.75466   0.78489   -1.000
 3907.00    0.78730   0.80961   -1.000
 3908.00    0.80349   0.83943   -1.000
 3909.00    0.82332   0.86395   -1.000
 3910.00    0.83548   0.87859   -1.000
 3911.00    0.86295   0.88376   76.878
 3912.00    0.85731   0.88089   76.144
 3913.00    0.85595   0.87263   75.716
 3914.00    0.85511   0.86265   76.660
 3915.00    0.81828   0.85373   -1.000
 3916.00    0.81870   0.84597   80.125
 3917.00    0.81301   0.83689   81.117
 3918.00    0.80138   0.82469   82.215
 3919.00    0.77449   0.81078   -1.000
 3920.00    0.76292   0.80002   -1.000
 3921.00    0.77042   0.79687   92.720
 3922.00    0.76193   0.80046   -1.000
 3923.00    0.75837   0.80355   -1.000
 3924.00    0.75060   0.79714   -1.000
 3925.00    0.73964   0.77640   -1.000
 3926.00    0.69312   0.74111   -1.000
 3927.00    0.65478   0.69414   -1.000
 3928.00    0.60895   0.63953   -1.000
 3929.00    0.53664   0.57910   13.897
 3930.00    0.47329   0.51449   16.296
 3931.00    0.39743   0.44995   19.064
 3932.00    0.32778   0.39589   22.567
 3933.00    0.30822   0.36788   26.382
 3934.00    0.30994   0.37731   28.767
 3935.00    0.35909   0.42138   27.492
 3936.00    0.41448   0.48698   23.816
 3937.00    0.48461   0.55903   19.677
 3938.00    0.56900   0.62597   16.159
 3939.00    0.63898   0.68095   13.651
 3940.00    0.66268   0.71999   -1.000
 3941.00    0.69005   0.74253   -1.000
 3942.00    0.69987   0.75289   -1.000
 3943.00    0.72074   0.75901   -1.000
 3944.00    0.74632   0.76845  106.422
 3945.00    0.77150   0.78293  100.930
 3946.00    0.77754   0.79737   91.583
 3947.00    0.78093   0.80725   86.350
 3948.00    0.78927   0.81410   85.501
 3949.00    0.80154   0.82045   84.885
 3950.00    0.82213   0.82529   81.697
 3951.00    0.82354   0.82786   79.034
 3952.00    0.80450   0.83046   79.470
 3953.00    0.82722   0.83411   80.666
 3954.00    0.83895   0.83464   79.173
 3955.00    0.82800   0.82814   77.169
 3956.00    0.81103   0.81809   78.083
 3957.00    0.80461   0.81037   81.015
 3958.00    0.79966   0.80231   82.293
 3959.00    0.79609   0.78408   80.764
 3960.00    0.76657   0.74988   82.732
 3961.00    0.71072   0.70532   91.794
 3962.00    0.66203   0.66039  103.799
 3963.00    0.62136   0.61689  114.809
 3964.00    0.56464   0.56724  120.341
 3965.00    0.50189   0.50276   13.083
 3966.00    0.43224   0.42691   15.336
 3967.00    0.36591   0.35784   18.941
 3968.00    0.32284   0.31688   23.168
 3969.00    0.31124   0.31525   25.559
 3970.00    0.34711   0.35086   23.684
 3971.00    0.42805   0.41143   19.496
 3972.00    0.50635   0.48273   16.016
 3973.00    0.57772   0.55478   13.401
 3974.00    0.64242   0.62175  111.836
 3975.00    0.71836   0.68105   -1.000
 3976.00    0.75932   0.73206   92.045
 3977.00    0.78243   0.77636   84.854
 3978.00    0.82630   0.81453   79.883
 3979.00    0.84144   0.84324   75.702
 3980.00    0.84165   0.85858   71.615
 3981.00    0.85622   0.86257   70.817
 3982.00    0.85099   0.86362   71.340
 3983.00    0.85347   0.86938   72.749
 3984.00    0.88435   0.88041   72.184
 3985.00    0.87894   0.89306   70.655
 3986.00    0.89317   0.90524   69.262
 3987.00    0.90935   0.91716   68.149
 3988.00    0.91749   0.92855   66.833
 3989.00    0.92132   0.93865   66.204
 3990.00    0.94032   0.94819   66.469
 3991.00    0.93552   0.95819   66.032
 3992.00    0.95844   0.96624   64.472
 3993.00    0.97075   0.96750   62.901
 3994.00    0.95072   0.95969   63.708
 3995.00    0.92632   0.94589   65.271
 3996.00    0.92213   0.93345   66.774
 3997.00    0.90093   0.93002   68.050
 3998.00    0.92096   0.93821   68.609
 3999.00    0.93529   0.95476   67.020
 4000.00    0.95218   0.97267   63.894
 4001.00    0.97795   0.98387   61.743
 4002.00    0.98661   0.98203   60.778
 4003.00    0.96963   0.96585   59.910
 4004.00    0.94733   0.94149   61.135
 4005.00    0.91238   0.92345   65.388
 4006.00    0.91134   0.92476   68.756
 4007.00    0.92782   0.94455   68.156
 4008.00    0.98406   0.97005   64.134
 4009.00    0.98208   0.98937   61.614
 4010.00    0.98704   0.99901   60.831
 4011.00    0.99957   1.00211   60.176
 4012.00    1.00850   1.00345   59.983
 4013.00    0.94049   1.00571   -1.000
 4014.00    1.01123   1.00832   60.755
 4015.00    1.00784   1.00988   60.287
 4016.00    0.97682   1.01081   59.418
 4017.00    0.97893   1.01355   59.956
 4018.00    1.00657   1.01918   60.706
 4019.00    0.98671   1.02539   60.398
 4020.00    1.00000   1.02831   59.445
 4021.00    1.01462   1.02608   59.605
 4022.00    1.00701   1.01979   60.498
 4023.00    0.97994   1.01254   60.845
 4024.00    0.99220   1.00904   61.244
 4025.00    1.00410   1.01352   61.727
 4026.00    1.00243   1.02439   60.164
 4027.00    1.00647   1.03168   57.998
 4028.00    1.01027   1.02453   56.835
 4029.00    0.98753   1.00182   57.374
 4030.00    0.96496   0.97277   59.781
 4031.00    0.94422   0.94971   63.930
 4032.00    0.92484   0.94056   66.609
 4033.00    0.92219   0.94687   67.386
 4034.00    0.95619   0.96627   66.509
 4035.00    0.97533   0.99518   64.312
 4036.00    1.00987   1.02777   61.107
 4037.00    1.04412   1.05424   58.090
 4038.00    1.03151   1.06540   56.053
 4039.00    1.01156   1.06151   -1.000
 4040.00    1.01627   1.05100   57.070
 4041.00    1.00127   1.03898   58.442
 4042.00    1.01925   1.02091   59.071
 4043.00    0.98862   0.99009   59.352
 4044.00    0.93612   0.95353   62.259
 4045.00    0.89893   0.93176   68.424
 4046.00    0.89069   0.93894   -1.000
 4047.00    0.93594   0.97002   70.646
 4048.00    1.00121   1.00734   63.711
 4049.00    1.02738   1.03485   59.858
 4050.00    1.03568   1.04627   58.160
 4051.00    1.02349   1.04311   57.495
 4052.00    1.01593   1.03028   57.902
 4053.00    0.99090   1.01507   59.514
 4054.00    0.99765   1.00368   61.059
 4055.00    1.00538   0.99685   62.004
 4056.00    0.99058   0.99317   62.494
 4057.00    0.98805   0.99429   62.916
 4058.00    0.98713   1.00269   63.580
 4059.00    1.00915   1.01432   62.820
 4060.00    1.00885   1.01715   60.518
 4061.00    0.99359   1.00238   59.321
 4062.00    0.96816   0.97461   60.357
 4063.00    0.93608   0.94846   64.837
 4064.00    0.93277   0.93617   69.352
 4065.00    0.93298   0.93935   68.253
 4066.00    0.95822   0.95244   64.855
 4067.00    0.98306   0.96923   63.280
 4068.00    1.00904   0.98250   61.567
 4069.00    1.00819   0.98402   59.571
 4070.00    1.00213   0.97259   58.814
 4071.00    0.98051   0.95836   61.163
 4072.00    0.97474   0.95303   63.987
 4073.00    0.98707   0.95561   63.522
 4074.00    0.97161   0.95318   61.160
 4075.00    0.96113   0.93739   60.833
 4076.00    0.92342   0.91498   63.810
 4077.00    0.91637   0.90191   69.310
 4078.00    0.90892   0.90956   71.413
 4079.00    0.91189   0.93588   69.044
 4080.00    0.95825   0.96621   64.276
 4081.00    0.99427   0.98401   59.835
 4082.00    0.99856   0.98340   58.019
 4083.00    0.99474   0.97213   59.007
 4084.00    0.97116   0.96395   61.049
 4085.00    0.97112   0.96814   61.986
 4086.00    0.99670   0.98420   61.061
 4087.00    1.01700   1.00352   58.986
 4088.00    1.04663   1.01558   56.711
 4089.00    1.04740   1.01497   54.883
 4090.00    1.03484   1.00431   55.131
 4091.00    1.02927   0.99033   56.281
 4092.00    1.01090   0.97658   57.337
 4093.00    1.01133   0.96094   57.985
 4094.00    0.98780   0.93941   58.036
 4095.00    0.95900   0.91129   59.106
 4096.00    0.93984   0.87890   -1.000
 4097.00    0.91146   0.84249   -1.000
 4098.00    0.87569   0.79831   -1.000
 4099.00    0.82313   0.74462   -1.000
 4100.00    0.77046   0.69107   -1.000
 4101.00    0.73002   0.65836   -1.000
 4102.00    0.73510   0.66334   -1.000
 4103.00    0.76104   0.70529   -1.000
 4104.00    0.83130   0.76600   -1.000
 4105.00    0.87390   0.82301   -1.000
 4106.00    0.90989   0.86437   63.211
 4107.00    0.92580   0.89020   61.271
 4108.00    0.92768   0.90541   60.964
 4109.00    0.95031   0.91588   61.546
 4110.00    0.95524   0.92668   62.755
 4111.00    0.94800   0.94024   63.688
 4112.00    0.96059   0.95666   62.903
 4113.00    0.98337   0.97502   61.475
 4114.00    1.00477   0.99262   60.417
 4115.00    0.99218   1.00446   59.487
 4116.00    1.01660   1.00662   58.904
 4117.00    0.98743   1.00011   59.191
 4118.00    0.96925   0.99053   60.455
 4119.00    0.96243   0.98400   62.511
 4120.00    0.96958   0.98298   63.254
 4121.00    0.96785   0.98603   62.468
 4122.00    0.98518   0.99126   61.818
 4123.00    0.98884   0.99830   61.878
 4124.00    0.99988   1.00554   61.217
 4125.00    0.99908   1.00860   60.127
 4126.00    1.01470   1.00467   59.917
 4127.00    0.99446   0.99648   60.722
 4128.00    0.99141   0.98904   62.039
 4129.00    0.97622   0.98285   62.560
 4130.00    0.97707   0.97391   62.876
 4131.00    0.95504   0.96138   63.666
 4132.00    0.95170   0.95207   65.676
 4133.00    0.94879   0.95493   67.759
 4134.00    0.95062   0.97255   67.960
 4135.00    0.97289   0.99930   65.738
 4136.00    1.01700   1.02650   62.410
 4137.00    1.01525   1.04822   60.364
 4138.00    1.03756   1.06195   59.381
 4139.00    1.04472   1.06422   58.452
 4140.00    1.04122   1.05057   58.214
 4141.00    1.00963   1.02244   59.396
 4142.00    0.97371   0.99078   62.522
 4143.00    0.92987   0.97119   -1.000
 4144.00    0.93845   0.97346   -1.000
 4145.00    0.96443   0.99258   68.913
 4146.00    0.99137   1.01325   64.757
 4147.00    1.01718   1.02415   62.318
 4148.00    1.00748   1.02547   61.650
 4149.00    0.99514   1.02420   62.808
 4150.00    0.99529   1.02436   64.574
 4151.00    0.99386   1.02348   65.394
 4152.00    0.99998   1.01767   64.932
 4153.00    0.99053   1.00762   64.554
 4154.00    0.97335   0.99918   65.148
 4155.00    0.98153   0.99825   66.224
 4156.00    0.97544   1.00606   64.598
 4157.00    1.04479   1.01948   64.033
 4158.00    1.32995   1.03401   -1.000
 4159.00    1.26937   1.04598   -1.000
 4160.00    0.63434   1.05429   -1.000
 4161.00    0.83003   1.06062   -1.000
 4162.00    1.12842   1.06656   60.349
 4163.00    1.04325   1.07109   59.661
 4164.00    1.03082   1.07118   -1.000
 4165.00    1.02080   1.06513   -1.000
 4166.00    1.01614   1.05523   -1.000
 4167.00    1.01768   1.04606   63.300
 4168.00    1.02086   1.03869   64.280
 4169.00    1.00821   1.02766   63.816
 4170.00    0.99300   1.00685   62.707
 4171.00    0.95322   0.97873   63.333
 4172.00    0.92606   0.95543   67.081
 4173.00    0.91725   0.94926   -1.000
 4174.00    0.93378   0.96070   71.482
 4175.00    0.96369   0.97829   68.942
 4176.00    0.96541   0.99124   66.440
 4177.00    0.96623   0.99899   66.340
 4178.00    0.98862   1.00664   66.733
 4179.00    0.99417   1.01504   66.456
 4180.00    1.00713   1.01975   65.421
 4181.00    0.97786   1.01895   -1.000
 4182.00    1.00108   1.01727   64.822
 4183.00    1.00294   1.01948   64.139
 4184.00    0.99641   1.02328   62.854
 4185.00    0.98933   1.02241   61.737
 4186.00    0.97074   1.01562   -1.000
 4187.00    0.95984   1.00861   -1.000
 4188.00    0.96428   1.00757   -1.000
 4189.00    0.98017   1.01325   65.186
 4190.00    0.99433   1.02262   63.711
 4191.00    1.00230   1.03336   63.304
 4192.00    1.00783   1.04277   62.469
 4193.00    1.02258   1.04548   61.117
 4194.00    1.00926   1.03688   60.295
 4195.00    0.98940   1.01767   62.012
 4196.00    0.97181   0.99389   65.277
 4197.00    0.95152   0.97285   67.470
 4198.00    0.92731   0.95915   -1.000
 4199.00    0.91906   0.95392   -1.000
 4200.00    0.93667   0.95560   68.106
 4201.00    0.94352   0.96130   67.012
 4202.00    0.94077   0.96961   66.814
 4203.00    0.95392   0.98143   66.389
 4204.00    0.96166   0.99731   -1.000
 4205.00    0.97514   1.01558   -1.000
 4206.00    0.98861   1.03295   -1.000
 4207.00    0.99867   1.04566   -1.000
 4208.00    1.02286   1.05170   60.813
 4209.00    1.00595   1.05312   -1.000
 4210.00    0.99968   1.05438   -1.000
 4211.00    1.00931   1.05689   -1.000
 4212.00    1.00706   1.05588   -1.000
 4213.00    1.00172   1.04549   -1.000
 4214.00    0.96604   1.02718   -1.000
 4215.00    0.94280   1.01076   -1.000
 4216.00    0.94864   1.00674   -1.000
 4217.00    0.95390   1.01824   -1.000
 4218.00    0.97150   1.03858   -1.000
 4219.00    1.00694   1.05636   -1.000
 4220.00    1.03576   1.06279   56.513
 4221.00    1.01618   1.05320   55.883
 4222.00    0.99895   1.02544   56.365
 4223.00    0.95390   0.98132   58.657
 4224.00    0.90978   0.92958   62.755
 4225.00    0.86254   0.88622   68.947
 4226.00    0.81256   0.86959   -1.000
 4227.00    0.81700   0.88921   -1.000
 4228.00    0.86069   0.93535   -1.000
 4229.00    0.92191   0.98350   -1.000
 4230.00    0.97776   1.01346   61.922
 4231.00    0.98655   1.02059   58.614
 4232.00    0.98713   1.01241   58.094
 4233.00    0.97519   0.99954   59.369
 4234.00    0.97199   0.98881   60.936
 4235.00    0.95274   0.98223   61.563
 4236.00    0.94393   0.98035   62.994
 4237.00    0.94354   0.98439   -1.000
 4238.00    0.95724   0.99446   63.714
 4239.00    0.96483   1.00785   -1.000
 4240.00    0.97359   1.02073   -1.000
 4241.00    0.96798   1.03097   -1.000
 4242.00    0.99038   1.03888   -1.000
 4243.00    1.01114   1.04471   59.069
 4244.00    1.01699   1.04579   58.070
 4245.00    0.99449   1.03796   -1.000
 4246.00    0.97696   1.02105   -1.000
 4247.00    0.93580   1.00144   -1.000
 4248.00    0.92079   0.98770   -1.000
 4249.00    0.92986   0.98453   -1.000
 4250.00    0.93308   0.99067   -1.000
 4251.00    0.95196   1.00019   -1.000
 4252.00    0.96849   1.00569   62.664
 4253.00    0.96408   1.00393   -1.000
 4254.00    0.95731   1.00034   -1.000
 4255.00    0.95634   1.00247   -1.000
 4256.00    0.97683   1.00846   62.095
 4257.00    0.98030   1.00810   59.687
 4258.00    0.97648   0.99574   59.143
 4259.00    0.94878   0.97907   61.352
 4260.00    0.93486   0.97319   -1.000
 4261.00    0.93125   0.98657   -1.000
 4262.00    0.95787   1.01389   -1.000
 4263.00    0.98284   1.04175   -1.000
 4264.00    1.02139   1.05952   57.262
 4265.00    1.00891   1.06409   -1.000
 4266.00    1.00897   1.05751   -1.000
 4267.00    0.98910   1.04225   -1.000
 4268.00    0.97776   1.01904   -1.000
 4269.00    0.94082   0.98912   -1.000
 4270.00    0.91816   0.95731   -1.000
 4271.00    0.89641   0.93176   66.660
 4272.00    0.89049   0.91984   70.804
 4273.00    0.88108   0.92355   -1.000
 4274.00    0.89217   0.94040   -1.000
 4275.00    0.92631   0.96704   -1.000
 4276.00    0.94925   0.99755   -1.000
 4277.00    0.98507   1.02158   61.105
 4278.00    1.00032   1.03041   58.222
 4279.00    0.97290   1.02483   -1.000
 4280.00    0.95733   1.01416   -1.000
 4281.00    0.94120   1.00702   -1.000
 4282.00    0.94871   1.00439   -1.000
 4283.00    0.96114   1.00139   -1.000
 4284.00    0.94611   0.99429   -1.000
 4285.00    0.93412   0.98278   -1.000
 4286.00    0.92376   0.96724   -1.000
 4287.00    0.90462   0.94761   -1.000
 4288.00    0.88988   0.92584   -1.000
 4289.00    0.86298   0.90923   -1.000
 4290.00    0.83924   0.90718   -1.000
 4291.00    0.86016   0.92082   -1.000
 4292.00    0.89447   0.93985   -1.000
 4293.00    0.91378   0.95156   65.007
 4294.00    0.92152   0.95028   63.665
 4295.00    0.91284   0.93763   64.201
 4296.00    0.90091   0.91622   65.254
 4297.00    0.86638   0.88699   66.736
 4298.00    0.82272   0.85333   70.058
 4299.00    0.78530   0.82364   -1.000
 4300.00    0.76475   0.80609   -1.000
 4301.00    0.76220   0.80264   -1.000
 4302.00    0.76769   0.80973   -1.000
 4303.00    0.78179   0.82192   -1.000
 4304.00    0.80850   0.83246   78.194
 4305.00    0.81520   0.83404   77.238
 4306.00    0.78465   0.82423   -1.000
 4307.00    0.75381   0.80954   -1.000
 4308.00    0.74668   0.80169   -1.000
 4309.00    0.74572   0.80866   -1.000
 4310.00    0.76790   0.82864   -1.000
 4311.00    0.81372   0.85427   -1.000
 4312.00    0.83235   0.88229   -1.000
 4313.00    0.85299   0.91587   -1.000
 4314.00    0.89308   0.95859   -1.000
 4315.00    0.95280   1.00752   -1.000
 4316.00    1.00320   1.05209   -1.000
 4317.00    1.02210   1.08094   -1.000
 4318.00    1.04127   1.08975   -1.000
 4319.00    1.04309   1.08193   52.484
 4320.00    1.02975   1.06239   53.284
 4321.00    1.00616   1.03255   54.485
 4322.00    0.97703   0.99284   56.315
 4323.00    0.93595   0.94929   59.066
 4324.00    0.88757   0.91533   63.392
 4325.00    0.86807   0.90538   -1.000
 4326.00    0.87970   0.92452   -1.000
 4327.00    0.92415   0.96210   67.680
 4328.00    0.98207   0.99821   60.552
 4329.00    1.00441   1.01934   56.117
 4330.00    0.99483   1.02589   54.929
 4331.00    0.99220   1.02576   55.126
 4332.00    0.99727   1.02371   54.845
 4333.00    1.00891   1.01707   53.901
 4334.00    1.00329   0.99879   53.333
 4335.00    0.97676   0.96177   53.202
 4336.00    0.93881   0.90334   54.080
 4337.00    0.88848   0.83071   57.474
 4338.00    0.81587   0.76107   63.017
 4339.00    0.74924   0.71467   68.904
 4340.00    0.73180   0.70619   74.645
 4341.00    0.74644   0.73705   76.650
 4342.00    0.79209   0.79279   71.272
 4343.00    0.87392   0.85261   64.256
 4344.00    0.92101   0.90390   60.203
 4345.00    0.94206   0.94509   58.241
 4346.00    0.96571   0.97848   56.652
 4347.00    0.98857   1.00375   55.670
 4348.00    0.99706   1.01620   55.072
 4349.00    0.99383   1.01104   54.177
 4350.00    0.96702   0.99124   54.284
 4351.00    0.94388   0.97060   57.192
 4352.00    0.93447   0.96486   61.479
 4353.00    0.93186   0.97907   -1.000
 4354.00    0.95725   1.00501   -1.000
 4355.00    0.98598   1.02991   -1.000
 4356.00    0.99239   1.04620   -1.000
 4357.00    1.01033   1.05365   54.363
 4358.00    1.01827   1.05653   54.341
 4359.00    1.01059   1.06062   -1.000
 4360.00    1.02763   1.06978   -1.000
 4361.00    1.03233   1.08286   -1.000
 4362.00    1.03226   1.09564   -1.000
 4363.00    1.04661   1.10504   -1.000
 4364.00    1.04928   1.10879   -1.000
 4365.00    1.06467   1.10409   52.071
 4366.00    1.04526   1.09106   -1.000
 4367.00    1.01371   1.07473   -1.000
 4368.00    1.01247   1.06084   -1.000
 4369.00    1.01200   1.05131   56.193
 4370.00    1.00307   1.04390   55.682
 4371.00    1.00267   1.03436   55.325
 4372.00    0.99087   1.01976   55.264
 4373.00    0.97862   1.00221   55.792
 4374.00    0.96667   0.98998   58.010
 4375.00    0.95046   0.99213   -1.000
 4376.00    0.97690   1.00954   60.482
 4377.00    1.00858   1.03276   58.078
 4378.00    1.03608   1.04941   55.164
 4379.00    1.03434   1.05041   54.105
 4380.00    1.02465   1.03084   54.377
 4381.00    0.99725   0.99121   55.329
 4382.00    0.94739   0.94169   57.879
 4383.00    0.89112   0.90249   64.143
 4384.00    0.87224   0.89292   71.458
 4385.00    0.89979   0.91446   72.581
 4386.00    0.95366   0.94958   66.178
 4387.00    0.99215   0.97856   59.899
 4388.00    0.99445   0.99406   57.774
 4389.00    1.00064   1.00072   57.733
 4390.00    0.98778   1.00604   58.346
 4391.00    0.99251   1.01318   58.556
 4392.00    1.00882   1.01950   57.479
 4393.00    1.01863   1.02178   56.183
 4394.00    0.99675   1.02277   56.484
 4395.00    0.99588   1.02871   57.714
 4396.00    1.00528   1.03971   57.577
 4397.00    1.01145   1.04746   55.033
 4398.00    1.02414   1.04511   53.379
 4399.00    1.01162   1.03559   54.020
 4400.00    0.99500   1.02730   55.981
 4401.00    1.00835   1.02354   57.675
 4402.00    1.01331   1.01919   57.114
 4403.00    0.99884   1.00890   56.084
 4404.00    0.96702   0.99602   57.907
 4405.00    0.96124   0.98911   61.268
 4406.00    0.96480   0.99221   61.937
 4407.00    0.97880   1.00328   59.960
 4408.00    0.98550   1.02033   59.020
 4409.00    1.00744   1.04346   58.483
 4410.00    1.03285   1.06889   56.324
 4411.00    1.05695   1.08657   53.910
 4412.00    1.06951   1.08729   52.055
 4413.00    1.06962   1.06983   51.384
 4414.00    1.03212   1.04273   52.678
 4415.00    0.99551   1.02117   55.658
 4416.00    0.98500   1.01833   57.748
 4417.00    1.00416   1.03628   57.539
 4418.00    1.04448   1.06526   55.595
 4419.00    1.06950   1.09065   53.292
 4420.00    1.06449   1.10183   51.749
 4421.00    1.06155   1.09884   51.960
 4422.00    1.06562   1.09021   53.295
 4423.00    1.05044   1.08381   54.289
 4424.00    1.04635   1.08093   54.051
 4425.00    1.04599   1.07909   53.776
 4426.00    1.03202   1.07765   -1.000
 4427.00    1.04397   1.07826   54.208
 4428.00    1.04645   1.08117   53.867
 4429.00    1.03141   1.08464   -1.000
 4430.00    1.03528   1.08661   -1.000
 4431.00    1.04199   1.08489   -1.000
 4432.00    1.03860   1.07708   53.747
 4433.00    1.03157   1.06314   53.308
 4434.00    1.01773   1.04959   54.960
 4435.00    1.00303   1.04761   -1.000
 4436.00    1.01892   1.06304   -1.000
 4437.00    1.05479   1.08933   56.224
 4438.00    1.08290   1.11171   52.801
 4439.00    1.09533   1.11770   50.515
 4440.00    1.09149   1.10438   50.261
 4441.00    1.05958   1.08008   51.770
 4442.00    1.02136   1.06023   -1.000
 4443.00    0.99533   1.05751   -1.000
 4444.00    1.01038   1.07316   -1.000
 4445.00    1.04244   1.09697   -1.000
 4446.00    1.06940   1.11638   -1.000
 4447.00    1.07690   1.12561   -1.000
 4448.00    1.07274   1.12656   -1.000
 4449.00    1.06496   1.12358   -1.000
 4450.00    1.06504   1.11871   -1.000
 4451.00    1.06119   1.11034   -1.000
 4452.00    1.05505   1.09470   52.243
 4453.00    1.04572   1.07110   52.546
 4454.00    1.02314   1.04616   54.398
 4455.00    1.01331   1.03000   56.901
 4456.00    1.00882   1.02710   58.178
 4457.00    1.01431   1.03300   57.320
 4458.00    1.03583   1.04013   56.289
 4459.00    1.02956   1.04496   56.259
 4460.00    1.01853   1.04890   56.541
 4461.00    1.01422   1.05515   -1.000
 4462.00    1.02403   1.06570   -1.000
 4463.00    1.04256   1.07916   56.600
 4464.00    1.06838   1.09086   54.421
 4465.00    1.06685   1.09612   53.079
 4466.00    1.06018   1.09344   52.930
 4467.00    1.05323   1.08557   52.966
 4468.00    1.03654   1.07859   -1.000
 4469.00    1.03503   1.07906   -1.000
 4470.00    1.03929   1.09001   -1.000
 4471.00    1.05447   1.10903   -1.000
 4472.00    1.08365   1.13025   -1.000
 4473.00    1.10873   1.14782   50.759
 4474.00    1.11735   1.15860   49.354
 4475.00    1.11230   1.16311   -1.000
 4476.00    1.12623   1.16327   48.937
 4477.00    1.12299   1.15878   48.546
 4478.00    1.11755   1.14672   48.249
 4479.00    1.11646   1.12592   48.636
 4480.00    1.09099   1.10206   50.352
 4481.00    1.04578   1.08650   -1.000
 4482.00    1.03928   1.08793   -1.000
 4483.00    1.07307   1.10571   53.727
 4484.00    1.10416   1.13083   51.550
 4485.00    1.12079   1.15128   49.576
 4486.00    1.12494   1.15839   48.459
 4487.00    1.12278   1.15129   48.456
 4488.00    1.10722   1.13672   49.496
 4489.00    1.08282   1.12451   -1.000
 4490.00    1.08526   1.12149   52.607
 4491.00    1.08985   1.12722   52.160
 4492.00    1.09989   1.13491   50.805
 4493.00    1.09607   1.13770   49.951
 4494.00    1.08415   1.13511   -1.000
 4495.00    1.07458   1.13277   -1.000
 4496.00    1.07864   1.13534   -1.000
 4497.00    1.09376   1.14207   -1.000
 4498.00    1.10398   1.14881   -1.000
 4499.00    1.10830   1.15238   49.594
 4500.00    1.10390   1.15396   -1.000
 4501.00    1.10979   1.15874   -1.000
 4502.00    1.12387   1.17057   -1.000
 4503.00    1.13938   1.18725   -1.000
 4504.00    1.15219   1.20220   -1.000
 4505.00    1.16505   1.20960   46.107
 4506.00    1.16089   1.20845   -1.000
 4507.00    1.15275   1.20272   -1.000
 4508.00    1.15439   1.19799   47.757
 4509.00    1.15252   1.19676   47.826
 4510.00    1.15366   1.19673   47.486
 4511.00    1.15262   1.19384   47.150
 4512.00    1.14918   1.18646   47.493
 4513.00    1.13085   1.17643   -1.000
 4514.00    1.11816   1.16699   -1.000
 4515.00    1.12279   1.16051   49.630
 4516.00    1.11725   1.15703   49.424
 4517.00    1.10448   1.15459   -1.000
 4518.00    1.09228   1.15231   -1.000
 4519.00    1.10369   1.15152   -1.000
 4520.00    1.11760   1.15253   49.482
 4521.00    1.11555   1.15259   48.505
 4522.00    1.11133   1.14847   48.559
 4523.00    1.09475   1.13981   -1.000
 4524.00    1.08419   1.12828   -1.000
 4525.00    1.08518   1.11427   51.152
 4526.00    1.07173   1.09715   51.972
 4527.00    1.05199   1.07873   53.510
 4528.00    1.04669   1.06442   55.041
 4529.00    1.04319   1.05922   55.778
 4530.00    1.04904   1.06256   55.458
 4531.00    1.06011   1.06790   54.522
 4532.00    1.06223   1.06817   53.524
 4533.00    1.04697   1.06279   53.199
 4534.00    1.02791   1.05943   54.543
 4535.00    1.02723   1.06779   -1.000
 4536.00    1.05846   1.09096   55.888
 4537.00    1.09776   1.12193   52.884
 4538.00    1.12602   1.14830   49.754
 4539.00    1.13300   1.16140   48.274
 4540.00    1.12236   1.16220   48.591
 4541.00    1.12308   1.15813   49.719
 4542.00    1.11888   1.15497   49.787
 4543.00    1.11965   1.15267   49.441
 4544.00    1.12099   1.14830   49.239
 4545.00    1.12640   1.14091   67.927
 4546.00    1.01742   1.13135   -1.000
 4547.00    0.42657   1.11974   -1.000
 4548.00    0.36366   1.10700   -1.000
 4549.00    0.21336   1.09761   -1.000
 4550.00    0.70220   1.09650   -1.000
 4551.00    0.37228   1.10242   -1.000
 4552.00    0.84518   1.10792   -1.000
 4553.00    1.08101   1.10771   51.577
 4554.00    1.05654   1.10468   -1.000
 4555.00    1.06796   1.10661   52.859
 4556.00    1.08869   1.11856   52.183
 4557.00    1.11069   1.13842   50.369
 4558.00    1.11808   1.15929   48.347
 4559.00    1.13191   1.17532   47.390
 4560.00    1.13944   1.18398   47.554
 4561.00    1.13261   1.18446   -1.000
 4562.00    1.11897   1.17689   -1.000
 4563.00    1.10622   1.16408   -1.000
 4564.00    1.09346   1.15239   -1.000
 4565.00    1.10302   1.14861   -1.000
 4566.00    1.12437   1.15500   50.264
 4567.00    1.13822   1.16701   49.046
 4568.00    1.15253   1.17618   47.746
 4569.00    1.15136   1.17609   47.188
 4570.00    1.13256   1.16686   47.612
 4571.00    1.11906   1.15537   48.762
 4572.00    1.10594   1.15057   -1.000
 4573.00    1.11975   1.15612   49.858
 4574.00    1.13906   1.16729   48.450
 4575.00    1.15118   1.17612   47.671
 4576.00    1.14167   1.17818   47.631
 4577.00    1.11998   1.17298   -1.000
 4578.00    1.11787   1.16125   48.109
 4579.00    1.11972   1.14471   48.878
 4580.00    1.10747   1.12726   50.285
 4581.00    1.10463   1.11380   51.381
 4582.00    1.10368   1.10737   51.362
 4583.00    1.09282   1.10761   50.687
 4584.00    1.08979   1.11195   50.272
 4585.00    1.09453   1.11829   50.369
 4586.00    1.10471   1.12644   50.674
 4587.00    1.11787   1.13659   50.082
 4588.00    1.13920   1.14701   48.822
 4589.00    1.15780   1.15394   47.754
 4590.00    1.15044   1.15440   47.582
 4591.00    1.13024   1.14920   48.203
 4592.00    1.11455   1.14279   49.090
 4593.00    1.11234   1.13991   49.959
 4594.00    1.11910   1.14210   50.098
 4595.00    1.12214   1.14757   49.716
 4596.00    1.13765   1.15353   49.317
 4597.00    1.14344   1.15775   49.158
 4598.00    1.14974   1.15863   49.054
 4599.00    1.13888   1.15566   48.944
 4600.00    1.13127   1.15022   49.316
 4601.00    1.12518   1.14516   49.763
 4602.00    1.11797   1.14303   49.937
 4603.00    1.12126   1.14449   49.479
 4604.00    1.12801   1.14866   48.921
 4605.00    1.13558   1.15453   48.931
 4606.00    1.13833   1.16191   48.872
 4607.00    1.14409   1.17094   48.389
 4608.00    1.14942   1.18068   47.475
 4609.00    1.16607   1.18830   46.462
 4610.00    1.16393   1.19068   45.863
 4611.00    1.16032   1.18747   45.986
 4612.00    1.16338   1.18189   46.579
 4613.00    1.15361   1.17743   47.115
 4614.00    1.14690   1.17506   47.444
 4615.00    1.14584   1.17344   47.270
 4616.00    1.15254   1.17081   46.865
 4617.00    1.13558   1.16695   46.649
 4618.00    1.14463   1.16384   46.906
 4619.00    1.14729   1.16447   47.255
 4620.00    1.16019   1.17032   47.257
 4621.00    1.17158   1.17939   46.848
 4622.00    1.17805   1.18719   46.132
 4623.00    1.16673   1.19045   46.031
 4624.00    1.16904   1.18946   46.139
 4625.00    1.17293   1.18637   46.233
 4626.00    1.16547   1.18276   46.621
 4627.00    1.15253   1.17942   46.775
 4628.00    1.15354   1.17697   46.763
 4629.00    1.14863   1.17627   47.027
 4630.00    1.15099   1.17798   47.155
 4631.00    1.14902   1.18109   46.956
 4632.00    1.15744   1.18248   46.445
 4633.00    1.15719   1.17970   46.561
 4634.00    1.14446   1.17378   47.194
 4635.00    1.13299   1.16769   47.740
 4636.00    1.14872   1.16319   47.763
 4637.00    1.14789   1.16062   48.095
 4638.00    1.13461   1.16059   48.709
 4639.00    1.13217   1.16420   48.965
 4640.00    1.13944   1.17163   48.924
 4641.00    1.16148   1.18078   48.181
 4642.00    1.17901   1.18735   47.034
 4643.00    1.18291   1.18704   46.325
 4644.00    1.17173   1.17846   46.417
 4645.00    1.15033   1.16387   47.209
 4646.00    1.13657   1.14809   48.494
 4647.00    1.13111   1.13747   49.846
 4648.00    1.13011   1.13689   50.203
 4649.00    1.13730   1.14570   49.436
 4650.00    1.14858   1.15788   48.302
 4651.00    1.14845   1.16672   47.580
 4652.00    1.14913   1.16896   47.431
 4653.00    1.15626   1.16530   47.339
 4654.00    1.13971   1.15872   47.821
 4655.00    1.11514   1.15376   48.873
 4656.00    1.10668   1.15549   -1.000
 4657.00    1.12590   1.16671   49.207
 4658.00    1.16347   1.18498   47.768
 4659.00    1.18998   1.20288   45.960
 4660.00    1.20118   1.21258   44.835
 4661.00    1.19967   1.21106   44.675
 4662.00    1.18441   1.20072   45.164
 4663.00    1.17964   1.18564   46.213
 4664.00    1.17021   1.16801   47.160
 4665.00    1.15724   1.14789   47.371
 4666.00    1.13295   1.12634   48.057
 4667.00    1.10219   1.10841   49.970
 4668.00    1.10253   1.10123   52.079
 4669.00    1.11341   1.10822   52.403
 4670.00    1.11993   1.12568   50.981
 4671.00    1.14800   1.14561   48.897
 4672.00    1.15883   1.16152   47.477
 4673.00    1.16862   1.17187   47.074
 4674.00    1.16244   1.17891   47.079
 4675.00    1.16969   1.18425   47.044
 4676.00    1.17850   1.18603   46.501
 4677.00    1.18896   1.18101   45.806
 4678.00    1.17379   1.16929   45.916
 4679.00    1.16206   1.15531   46.826
 4680.00    1.15057   1.14455   47.773
 4681.00    1.14122   1.13996   48.582
 4682.00    1.14634   1.14153   49.094
 4683.00    1.14907   1.14742   48.620
 4684.00    1.15250   1.15480   47.458
 4685.00    1.17129   1.16095   46.755
 4686.00    1.18153   1.16463   46.819
 4687.00    1.17315   1.16618   46.864
 4688.00    1.16530   1.16640   47.098
 4689.00    1.17266   1.16573   47.138
 4690.00    1.17567   1.16454   47.139
 4691.00    1.16516   1.16381   47.436
 4692.00    1.16982   1.16506   47.571
 4693.00    1.18902   1.16882   47.090
 4694.00    1.19447   1.17356   46.400
 4695.00    1.20289   1.17661   45.407
 4696.00    1.20970   1.17547   44.767
 4697.00    1.20591   1.16874   44.886
 4698.00    1.18487   1.15729   46.045
 4699.00    1.15751   1.14408   47.444
 4700.00    1.14815   1.13177   48.117
 4701.00    1.14762   1.12156   47.848
 4702.00    1.14612   1.11458   48.096
 4703.00    1.14653   1.11281   48.892
 4704.00    1.13949   1.11668   49.236
 4705.00    1.14065   1.12239   48.454
 4706.00    1.15322   1.12454   47.699
 4707.00    1.14631   1.12187   48.178
 4708.00    1.12612   1.11877   49.122
 4709.00    1.12047   1.12062   49.671
 4710.00    1.13749   1.12871   49.507
 4711.00    1.15883   1.13969   48.199
 4712.00    1.17332   1.14849   46.852
 4713.00    1.17741   1.15206   46.277
 4714.00    1.16324   1.15212   46.603
 4715.00    1.16519   1.15373   47.437
 4716.00    1.17342   1.16029   47.568
 4717.00    1.16772   1.17035   46.742
 4718.00    1.17453   1.17961   45.829
 4719.00    1.18639   1.18505   45.463
 4720.00    1.18619   1.18671   45.292
 4721.00    1.18047   1.18652   45.137
 4722.00    1.17707   1.18646   45.446
 4723.00    1.17839   1.18713   45.785
 4724.00    1.18832   1.18709   45.599
 4725.00    1.19025   1.18352   45.129
 4726.00    1.18553   1.17426   45.117
 4727.00    1.17211   1.16033   46.073
 4728.00    1.15957   1.14615   47.750
 4729.00    1.14911   1.13648   48.939
 4730.00    1.14500   1.13309   48.932
 4731.00    1.14939   1.13493   48.464
 4732.00    1.15809   1.13990   48.063
 4733.00    1.15397   1.14546   47.513
 4734.00    1.15808   1.14917   47.075
 4735.00    1.16442   1.15017   46.790
 4736.00    1.15494   1.14975   46.530
 4737.00    1.14427   1.15015   46.920
 4738.00    1.16073   1.15279   47.054
 4739.00    1.16593   1.15707   46.534
 4740.00    1.16589   1.16114   46.457
 4741.00    1.16159   1.16420   46.698
 4742.00    1.17101   1.16713   46.793
 4743.00    1.17945   1.17058   46.479
 4744.00    1.18705   1.17384   45.985
 4745.00    1.17954   1.17629   45.989
 4746.00    1.18046   1.17869   46.044
 4747.00    1.18638   1.18245   45.755
 4748.00    1.19703   1.18780   45.305
 4749.00    1.19630   1.19335   45.154
 4750.00    1.18691   1.19688   45.203
 4751.00    1.18597   1.19619   45.241
 4752.00    1.18249   1.19028   45.525
 4753.00    1.17807   1.18074   46.019
 4754.00    1.17895   1.17141   46.428
 4755.00    1.17999   1.16599   46.755
 4756.00    1.16804   1.16580   46.733
 4757.00    1.15924   1.16968   46.871
 4758.00    1.15777   1.17507   47.198
 4759.00    1.15592   1.17876   47.296
 4760.00    1.15188   1.17720   46.967
 4761.00    1.14827   1.16815   46.830
 4762.00    1.14488   1.15305   47.441
 4763.00    1.13283   1.13726   48.572
 4764.00    1.12972   1.12665   49.295
 4765.00    1.12961   1.12388   49.449
 4766.00    1.12916   1.12868   49.367
 4767.00    1.14357   1.13957   49.055
 4768.00    1.15385   1.15381   48.424
 4769.00    1.15612   1.16685   47.383
 4770.00    1.15389   1.17455   46.657
 4771.00    1.15350   1.17669   46.627
 4772.00    1.14975   1.17709   46.981
 4773.00    1.15341   1.18002   47.399
 4774.00    1.15856   1.18635   47.001
 4775.00    1.16543   1.19324   46.053
 4776.00    1.17187   1.19707   45.628
 4777.00    1.17147   1.19625   45.617
 4778.00    1.17416   1.19186   45.739
 4779.00    1.17347   1.18627   46.013
 4780.00    1.15421   1.18137   46.500
 4781.00    1.14698   1.17740   46.817
 4782.00    1.14421   1.17337   46.957
 4783.00    1.14146   1.16873   47.167
 4784.00    1.13963   1.16384   47.526
 4785.00    1.14937   1.15936   47.572
 4786.00    1.15521   1.15600   47.699
 4787.00    1.14714   1.15460   48.128
 4788.00    1.12415   1.15588   48.442
 4789.00    1.13006   1.16005   48.443
 4790.00    1.14192   1.16706   48.232
 4791.00    1.14821   1.17678   47.942
 4792.00    1.16222   1.18855   47.473
 4793.00    1.17093   1.20080   46.736
 4794.00    1.17485   1.21105   45.734
 4795.00    1.19071   1.21658   44.908
 4796.00    1.18823   1.21566   44.647
 4797.00    1.17527   1.20904   45.003
 4798.00    1.15297   1.20006   45.845
 4799.00    1.15302   1.19316   46.721
 4800.00    1.16448   1.19165   47.329
 4801.00    1.16678   1.19551   47.072
 4802.00    1.17348   1.20110   46.194
 4803.00    1.17479   1.20390   45.480
 4804.00    1.17114   1.20207   45.430
 4805.00    1.16490   1.19723   45.957
 4806.00    1.15578   1.19249   46.557
 4807.00    1.16142   1.18995   47.009
 4808.00    1.16657   1.19022   47.069
 4809.00    1.16153   1.19272   46.963
 4810.00    1.16674   1.19618   46.766
 4811.00    1.17062   1.19951   46.376
 4812.00    1.16853   1.20271   46.027
 4813.00    1.17240   1.20652   45.776
 4814.00    1.17863   1.21129   45.700
 4815.00    1.18492   1.21660   45.602
 4816.00    1.18840   1.22148   45.446
 4817.00    1.18776   1.22484   45.179
 4818.00    1.18184   1.22614   44.897
 4819.00    1.18021   1.22530   44.698
 4820.00    1.18819   1.22139   44.655
 4821.00    1.19125   1.21252   44.656
 4822.00    1.18087   1.19837   44.982
 4823.00    1.16597   1.18293   46.040
 4824.00    1.15968   1.17312   46.988
 4825.00    1.16496   1.17307   47.066
 4826.00    1.16698   1.18017   46.348
 4827.00    1.17659   1.18767   45.606
 4828.00    1.17537   1.19081   45.640
 4829.00    1.16749   1.18928   46.131
 4830.00    1.17105   1.18493   46.468
 4831.00    1.16833   1.17950   46.505
 4832.00    1.17066   1.17490   46.855
 4833.00    1.17379   1.17332   47.003
 4834.00    1.18077   1.17545   46.389
 4835.00    1.18840   1.17942   45.742
 4836.00    1.17776   1.18208   45.497
 4837.00    1.17652   1.18099   45.534
 4838.00    1.18111   1.17558   45.729
 4839.00    1.16431   1.16733   46.284
 4840.00    1.15401   1.15922   47.085
 4841.00    1.14871   1.15421   47.262
 4842.00    1.15712   1.15337   47.175
 4843.00    1.16659   1.15573   46.961
 4844.00    1.16977   1.15978   46.629
 4845.00    1.17510   1.16394   46.183
 4846.00    1.18615   1.16585   45.501
 4847.00    1.17569   1.16359   45.177
 4848.00    1.16207   1.15844   45.890
 4849.00    1.14852   1.15402   46.636
 4850.00    1.15417   1.15200   46.757
 4851.00    1.15614   1.14978   46.209
 4852.00    1.15511   1.14271   45.995
 4853.00    1.15625   1.12762   46.196
 4854.00    1.13221   1.10515   46.570
 4855.00    1.11085   1.07944   47.779
 4856.00    1.09878   1.05416   49.163
 4857.00    1.08668   1.02710   49.332
 4858.00    1.06091   0.98999   48.885
 4859.00    0.98467   0.93795   49.870
 4860.00    0.88339   0.88039   53.616
 4861.00    0.84575   0.83955   59.655
 4862.00    0.88050   0.83486   63.386
 4863.00    0.94021   0.86787   -1.000
 4864.00    1.00887   0.92263   -1.000
 4865.00    1.06496   0.97925   -1.000
 4866.00    1.09625   1.02571   -1.000
 4867.00    1.10618   1.05836   48.717
 4868.00    1.11122   1.07696   48.168
 4869.00    1.11547   1.08191   47.922
 4870.00    1.10588   1.07584   48.221
 4871.00    1.10169   1.06608   49.408
 4872.00    1.09300   1.06270   50.669
 4873.00    1.09283   1.07158   50.557
 4874.00    1.11446   1.08936   49.286
 4875.00    1.11995   1.10698   48.314
 4876.00    1.12287   1.11886   47.856
 4877.00    1.13285   1.12694   47.578
 4878.00    1.14248   1.13618   47.400
 4879.00    1.15507   1.14775   46.812
 4880.00    1.15103   1.15776   46.271
 4881.00    1.15247   1.16189   46.505
 4882.00    1.14766   1.15963   47.216
 4883.00    1.14338   1.15368   47.602
 4884.00    1.14420   1.14661   47.523
 4885.00    1.14606   1.13949   47.691
 4886.00    1.13510   1.13312   48.339
 4887.00    1.13829   1.12782   48.702
 4888.00    1.14423   1.12212   48.540
 4889.00    1.14279   1.11417   48.429
 4890.00    1.12138   1.10597   48.990
 4891.00    1.12337   1.10490   50.018
 4892.00    1.13153   1.11846   49.981
 4893.00    1.16416   1.14660   48.288
 4894.00    1.19112   1.18013   46.081
 4895.00    1.20081   1.20761   44.560
 4896.00    1.20644   1.22305   43.634
 4897.00    1.20937   1.22694   43.304
 4898.00    1.20332   1.22254   43.341
 4899.00    1.18120   1.21379   44.110
 4900.00    1.16910   1.20439   45.149
 4901.00    1.17111   1.19652   45.769
 4902.00    1.16840   1.19055   45.689
 4903.00    1.16472   1.18703   45.687
 4904.00    1.17287   1.18795   46.153
 4905.00    1.18996   1.19414   45.877
 4906.00    1.19295   1.20178   44.979
 4907.00    1.19219   1.20404   44.496
 4908.00    1.18636   1.19684   44.755
 4909.00    1.17092   1.18239   45.704
 4910.00    1.15253   1.16770   46.993
 4911.00    1.15647   1.16040   47.757
 4912.00    1.17260   1.16376   47.378
 4913.00    1.17463   1.17513   46.556
 4914.00    1.18397   1.18800   45.872
 4915.00    1.19522   1.19514   45.270
 4916.00    1.19971   1.19018   44.829
 4917.00    1.18271   1.16978   44.914
 4918.00    1.14767   1.13704   46.198
 4919.00    1.10354   1.10226   48.553
 4920.00    1.08120   1.07804   50.964
 4921.00    1.09657   1.07165   51.951
 4922.00    1.11581   1.08097   50.724
 4923.00    1.12833   1.09793   48.898
 4924.00    1.13805   1.11615   47.946
 4925.00    1.15517   1.13453   47.766
 4926.00    1.16851   1.15437   47.283
 4927.00    1.16784   1.17490   46.172
 4928.00    1.18624   1.19298   45.258
 4929.00    1.19926   1.20510   44.754
 4930.00    1.20417   1.20860   44.425
 4931.00    1.20713   1.20218   44.150
 4932.00    1.18169   1.18706   44.432
 4933.00    1.15270   1.16865   45.480
 4934.00    1.14696   1.15437   47.058
 4935.00    1.15572   1.14773   47.534
 4936.00    1.14882   1.14490   46.873
 4937.00    1.13910   1.13990   46.654
 4938.00    1.13330   1.13267   47.725
 4939.00    1.12919   1.13051   49.082
 4940.00    1.14749   1.14011   49.048
 4941.00    1.16375   1.15998   47.626
 4942.00    1.17432   1.18186   46.064
 4943.00    1.18605   1.19743   45.076
 4944.00    1.18244   1.20376   44.575
 4945.00    1.17632   1.20365   44.513
 4946.00    1.18550   1.20223   44.772
 4947.00    1.19840   1.20379   44.921
 4948.00    1.20867   1.20917   44.625
 4949.00    1.21062   1.21555   44.118
 4950.00    1.20793   1.21896   43.897
 4951.00    1.19591   1.21784   43.726
 4952.00    1.19670   1.21335   43.861
 4953.00    1.19842   1.20637   44.151
 4954.00    1.18874   1.19478   44.617
 4955.00    1.17368   1.17495   45.167
 4956.00    1.14205   1.14759   46.228
 4957.00    1.10656   1.12220   48.360
 4958.00    1.09325   1.11257   50.459
 4959.00    1.11962   1.12492   50.125
 4960.00    1.16032   1.15154   47.627
 4961.00    1.18313   1.17799   45.726
 4962.00    1.18875   1.19399   45.103
 4963.00    1.17793   1.19795   45.195
 4964.00    1.16919   1.19297   45.527
 4965.00    1.16013   1.18303   46.028
 4966.00    1.14629   1.17208   46.910
 4967.00    1.13783   1.16343   47.614
 4968.00    1.13813   1.15905   47.763
 4969.00    1.15001   1.15953   47.653
 4970.00    1.16093   1.16451   47.348
 4971.00    1.16198   1.17281   46.875
 4972.00    1.17274   1.18245   46.371
 4973.00    1.18450   1.19127   45.828
 4974.00    1.18590   1.19731   45.369
 4975.00    1.19329   1.19920   45.128
 4976.00    1.19870   1.19641   45.329
 4977.00    1.18456   1.18950   45.773
 4978.00    1.18259   1.17914   46.365
 4979.00    1.16364   1.16515   47.094
 4980.00    1.14422   1.14629   47.721
 4981.00    1.11525   1.12216   48.374
 4982.00    1.09353   1.09653   49.755
 4983.00    1.09027   1.07787   51.388
 4984.00    1.09499   1.07446   51.785
 4985.00    1.10804   1.08792   51.023
 4986.00    1.12385   1.11155   49.691
 4987.00    1.14052   1.13495   48.149
 4988.00    1.15183   1.15010   46.875
 4989.00    1.15420   1.15450   46.632
 4990.00    1.14905   1.15106   47.176
 4991.00    1.15101   1.14585   47.719
 4992.00    1.14822   1.14370   47.851
 4993.00    1.14862   1.14595   47.525
 4994.00    1.15893   1.15104   47.267
 4995.00    1.15591   1.15668   47.205
 4996.00    1.15665   1.16043   47.015
 4997.00    1.15769   1.15954   46.776
 4998.00    1.14420   1.15188   46.936
 4999.00    1.13299   1.13813   47.487
 5000.00    1.13381   1.12274   48.375
 5001.00    1.13228   1.11155   49.075
 5002.00    1.13200   1.10721   49.247
 5003.00    1.13970   1.10676   48.895
 5004.00    1.13894   1.10434   48.533
 5005.00    1.12792   1.09757   48.983
 5006.00    1.11755   1.09106   50.112
 5007.00    1.11704   1.09221   50.643
 5008.00    1.12927   1.10310   49.756
 5009.00    1.14683   1.11679   48.295
 5010.00    1.14900   1.12292   47.545
 5011.00    1.12540   1.11600   47.898
 5012.00    1.09325   1.09896   49.149
 5013.00    1.08068   1.08065   50.914
 5014.00    1.08439   1.06895   52.287
 5015.00    1.09330   1.06620   52.389
 5016.00    1.10454   1.06917   51.433
 5017.00    1.11461   1.07402   50.333
 5018.00    1.12503   1.07971   49.915
 5019.00    1.12386   1.08712   49.879
 5020.00    1.12925   1.09588   49.453
 5021.00    1.13409   1.10361   49.004
 5022.00    1.13493   1.10929   49.071
 5023.00    1.14139   1.11477   49.212
 5024.00    1.14904   1.12153   49.025
 5025.00    1.14106   1.12799   48.560
 5026.00    1.14338   1.13109   48.185
 5027.00    1.15114   1.13078   48.281
 5028.00    1.14872   1.13097   48.517
 5029.00    1.15344   1.13517   48.240
 5030.00    1.16702   1.14387   47.437
 5031.00    1.18100   1.15494   46.703
 5032.00    1.18136   1.16427   45.967
 5033.00    1.17636   1.16703   45.383
 5034.00    1.16857   1.16023   45.311
 5035.00    1.14362   1.14538   46.423
 5036.00    1.12634   1.12780   48.197
 5037.00    1.12332   1.11169   49.283
 5038.00    1.11878   1.09584   49.607
 5039.00    1.10170   1.07739   50.105
 5040.00    1.07189   1.05869   51.739
 5041.00    1.05481   1.04943   53.848
 5042.00    1.08118   1.05871   54.418
 5043.00    1.11247   1.08574   52.403
 5044.00    1.14580   1.12035   49.303
 5045.00    1.17261   1.14999   47.034
 5046.00    1.16885   1.16635   45.825
 5047.00    1.19938   1.16740   44.264
 5048.00    0.90987   1.15554   -1.000
 5049.00    0.42757   1.13711   -1.000
 5050.00    0.14513   1.12043   -1.000
 5051.00    0.29344   1.11289   -1.000
 5052.00    0.90188   1.11738   -1.000
 5053.00    1.15366   1.13127   48.037
 5054.00    1.17442   1.14816   46.847
 5055.00    1.18802   1.16232   45.910
 5056.00    1.19952   1.17189   45.376
 5057.00    1.20295   1.17861   45.162
 5058.00    1.19969   1.18389   45.190
 5059.00    1.19444   1.18783   45.276
 5060.00    1.18520   1.18972   45.284
 5061.00    1.17419   1.18813   45.046
 5062.00    1.17734   1.18109   44.985
 5063.00    1.16875   1.16773   45.448
 5064.00    1.14227   1.15054   46.599
 5065.00    1.12948   1.13540   48.196
 5066.00    1.13853   1.12744   49.053
 5067.00    1.15187   1.12657   48.735
 5068.00    1.15850   1.12942   48.020
 5069.00    1.16091   1.13234   47.721
 5070.00    1.15685   1.13366   47.519
 5071.00    1.16384   1.13287   47.226
 5072.00    1.15629   1.13049   47.431
 5073.00    1.15326   1.12867   47.818
 5074.00    1.15812   1.12950   47.470
 5075.00    1.16024   1.13208   47.035
 5076.00    1.16621   1.13221   46.897
 5077.00    1.16218   1.12562   46.857
 5078.00    1.13869   1.11158   47.188
 5079.00    1.10739   1.09446   48.534
 5080.00    1.09619   1.08130   50.707
 5081.00    1.10610   1.07747   51.775
 5082.00    1.12035   1.08294   51.085
 5083.00    1.12406   1.09418   49.980
 5084.00    1.12541   1.10816   49.208
 5085.00    1.14174   1.12278   48.349
 5086.00    1.16337   1.13621   47.495
 5087.00    1.16868   1.14637   47.036
 5088.00    1.16542   1.15281   46.908
 5089.00    1.17039   1.15711   46.718
 5090.00    1.17049   1.16114   46.403
 5091.00    1.17281   1.16595   46.126
 5092.00    1.18333   1.17122   45.884
 5093.00    1.19175   1.17482   45.428
 5094.00    1.20125   1.17315   44.986
 5095.00    1.19978   1.16338   45.188
 5096.00    1.17895   1.14612   46.006
 5097.00    1.15190   1.12621   47.000
 5098.00    1.13886   1.11057   48.109
 5099.00    1.13798   1.10453   49.161
 5100.00    1.14674   1.10937   49.542
 5101.00    1.15367   1.12134   48.661
 5102.00    1.16203   1.13387   47.287
 5103.00    1.16879   1.14089   46.624
 5104.00    1.17071   1.14004   46.733
 5105.00    1.16162   1.13274   47.271
 5106.00    1.14745   1.12191   47.880
 5107.00    1.13358   1.11126   48.471
 5108.00    1.12160   1.10441   49.076
 5109.00    1.12603   1.10387   49.180
 5110.00    1.12876   1.11000   48.918
 5111.00    1.14030   1.12106   48.573
 5112.00    1.15704   1.13419   47.963
 5113.00    1.17443   1.14673   47.344
 5114.00    1.18303   1.15718   46.768
 5115.00    1.17918   1.16563   46.308
 5116.00    1.18745   1.17210   46.018
 5117.00    1.19852   1.17599   45.595
 5118.00    1.19022   1.17600   45.184
 5119.00    1.17788   1.17117   45.186
 5120.00    1.17446   1.16161   45.665
 5121.00    1.16662   1.14841   46.336
 5122.00    1.14888   1.13337   47.086
 5123.00    1.12211   1.11849   48.186
 5124.00    1.11138   1.10605   49.593
 5125.00    1.11648   1.09791   50.244
 5126.00    1.12835   1.09457   49.988
 5127.00    1.13103   1.09439   49.681
 5128.00    1.12883   1.09566   49.401
 5129.00    1.13620   1.09809   49.376
 5130.00    1.13689   1.10260   49.367
 5131.00    1.13370   1.10939   48.876
 5132.00    1.14978   1.11735   48.083
 5133.00    1.16660   1.12479   47.578
 5134.00    1.16935   1.13008   47.148
 5135.00    1.16696   1.13164   46.722
 5136.00    1.16336   1.12807   46.526
 5137.00    1.15161   1.11941   47.114
 5138.00    1.13469   1.10810   48.198
 5139.00    1.12574   1.09822   49.081
 5140.00    1.12281   1.09248   49.331
 5141.00    1.12220   1.09128   49.011
 5142.00    1.11657   1.09303   49.155
 5143.00    1.11606   1.09630   49.855
 5144.00    1.12261   1.09999   49.861
 5145.00    1.13400   1.10251   49.147
 5146.00    1.12305   1.10277   48.795
 5147.00    1.12086   1.10166   49.096
 5148.00    1.13577   1.10120   49.316
 5149.00    1.14201   1.10193   48.896
 5150.00    1.13174   1.10161   48.524
 5151.00    1.11812   1.09815   48.897
 5152.00    1.11193   1.09331   49.729
 5153.00    1.11806   1.09094   50.216
 5154.00    1.11999   1.09435   50.108
 5155.00    1.14250   1.10471   49.325
 5156.00    1.16880   1.12008   48.141
 5157.00    1.19036   1.13644   46.913
 5158.00    1.19388   1.14952   45.952
 5159.00    1.18943   1.15712   45.479
 5160.00    1.19483   1.15859   45.392
 5161.00    1.19207   1.15418   45.506
 5162.00    1.18894   1.14369   45.741
 5163.00    1.17130   1.12539   46.192
 5164.00    1.14653   1.09603   46.860
 5165.00    1.09801   1.05422   48.363
 5166.00    1.02971   1.00499   51.777
 5167.00    0.97157   0.96201   56.921
 5168.00    0.95732   0.93893   61.378
 5169.00    0.98710   0.93615   61.524
 5170.00    0.99914   0.94138   -1.000
 5171.00    0.97868   0.94089   56.981
 5172.00    0.95411   0.93706   59.451
 5173.00    0.95853   0.94563   63.539
 5174.00    1.01293   0.97615   62.742
 5175.00    1.08134   1.02346   -1.000
 5176.00    1.12390   1.07002   51.752
 5177.00    1.13996   1.10226   49.217
 5178.00    1.14013   1.11648   48.342
 5179.00    1.13719   1.11225   48.140
 5180.00    1.12430   1.08948   48.468
 5181.00    1.08406   1.04905   49.840
 5182.00    1.01371   0.99975   52.948
 5183.00    0.95580   0.95993   58.479
 5184.00    0.96481   0.94736   63.758
 5185.00    1.01994   0.96803   -1.000
 5186.00    1.07778   1.00943   -1.000
 5187.00    1.10885   1.05179   51.383
 5188.00    1.12694   1.08118   49.039
 5189.00    1.14088   1.09434   48.349
 5190.00    1.13337   1.09564   48.105
 5191.00    1.11618   1.08933   48.430
 5192.00    1.09771   1.08019   49.704
 5193.00    1.08789   1.07394   51.157
 5194.00    1.09707   1.07410   51.251
 5195.00    1.11435   1.08003   50.470
 5196.00    1.12671   1.09010   49.683
 5197.00    1.13776   1.10274   48.958
 5198.00    1.14866   1.11713   48.044
 5199.00    1.17024   1.13069   47.182
 5200.00    1.18234   1.13903   46.686
 5201.00    1.17469   1.13847   46.555
 5202.00    1.15622   1.12753   46.822
 5203.00    1.13701   1.10745   47.550
 5204.00    1.11835   1.08248   48.586
 5205.00    1.09362   1.05849   50.007
 5206.00    1.07496   1.04065   51.566
 5207.00    1.06578   1.03164   52.136
 5208.00    1.06683   1.03209   52.364
 5209.00    1.07596   1.04185   52.674
 5210.00    1.09565   1.06105   52.200
 5211.00    1.12429   1.08761   50.728
 5212.00    1.15986   1.11528   48.771
 5213.00    1.19421   1.13565   46.841
 5214.00    1.19551   1.14273   45.639
 5215.00    1.17479   1.13848   45.759
 5216.00    1.16574   1.13105   46.712
 5217.00    1.16800   1.13003   47.441
 5218.00    1.17649   1.13924   47.302
 5219.00    1.18514   1.15522   46.431
 5220.00    1.19690   1.17099   45.634
 5221.00    1.21662   1.17989   45.196
 5222.00    1.20797   1.17829   44.975
 5223.00    1.16548   1.16393   45.349
 5224.00    1.13601   1.13725   46.527
 5225.00    1.10798   1.10366   48.326
 5226.00    1.08440   1.07399   50.529
 5227.00    1.09352   1.06073   52.210
 5228.00    1.11038   1.06889   51.777
 5229.00    1.14949   1.09114   49.317
 5230.00    1.17796   1.11395   47.074
 5231.00    1.18610   1.12584   45.952
 5232.00    1.18409   1.12574   45.693
 5233.00    1.17479   1.12038   46.354
 5234.00    1.16725   1.11892   47.234
 5235.00    1.17257   1.12688   47.389
 5236.00    1.18643   1.14313   46.550
 5237.00    1.19029   1.16146   45.432
 5238.00    1.20115   1.17572   44.763
 5239.00    1.20701   1.18358   44.605
 5240.00    1.21158   1.18578   44.705
 5241.00    1.21760   1.18515   44.690
 5242.00    1.22276   1.18432   44.472
 5243.00    1.21338   1.18455   44.444
 5244.00    1.21045   1.18454   44.404
 5245.00    1.20413   1.18128   44.324
 5246.00    1.18153   1.17246   44.944
 5247.00    1.16853   1.15958   46.234
 5248.00    1.16036   1.14702   47.428
 5249.00    1.15575   1.13828   47.815
 5250.00    1.15079   1.13458   47.894
 5251.00    1.14694   1.13491   48.141
 5252.00    1.15250   1.13765   48.067
 5253.00    1.15501   1.14131   47.510
 5254.00    1.15857   1.14563   46.978
 5255.00    1.17104   1.15186   46.857
 5256.00    1.18914   1.16167   46.626
 5257.00    1.20132   1.17367   45.736
 5258.00    1.20905   1.18232   44.529
 5259.00    1.21487   1.18147   43.906
 5260.00    1.20640   1.16723   44.109
 5261.00    1.17509   1.14058   45.108
 5262.00    1.13560   1.10649   46.847
 5263.00    1.10769   1.07233   49.026
 5264.00    1.09416   1.04564   50.914
 5265.00    1.08924   1.03078   52.154
 5266.00    1.09316   1.02642   -1.000
 5267.00    1.09741   1.02637   -1.000
 5268.00    1.08342   1.02369   50.966
 5269.00    1.06403   1.01872   51.496
 5270.00    1.06115   1.01894   53.347
 5271.00    1.08435   1.03053   53.337
 5272.00    1.12403   1.05266   -1.000
 5273.00    1.14574   1.07626   -1.000
 5274.00    1.15815   1.09477   47.329
 5275.00    1.17037   1.10961   47.241
 5276.00    1.17073   1.12520   47.178
 5277.00    1.18612   1.14346   46.491
 5278.00    1.20647   1.15982   45.076
 5279.00    1.21101   1.16751   44.024
 5280.00    1.20922   1.16313   43.994
 5281.00    1.18671   1.14952   44.849
 5282.00    1.15555   1.13475   46.012
 5283.00    1.15168   1.12702   46.959
 5284.00    1.16847   1.13129   47.363
 5285.00    1.18759   1.14728   46.727
 5286.00    1.20674   1.16942   45.407
 5287.00    1.19531   1.18964   43.978
 5288.00    1.20531   1.20320   43.345
 5289.00    1.21590   1.20976   43.437
 5290.00    1.21284   1.21188   43.510
 5291.00    1.21549   1.21174   43.320
 5292.00    1.22219   1.20960   43.176
 5293.00    1.21626   1.20481   43.334
 5294.00    1.21157   1.19562   43.708
 5295.00    1.19722   1.17995   44.244
 5296.00    1.16191   1.15915   45.270
 5297.00    1.13832   1.13895   46.877
 5298.00    1.14154   1.12630   48.310
 5299.00    1.15252   1.12527   48.455
 5300.00    1.16714   1.13334   47.453
 5301.00    1.17334   1.14532   46.459
 5302.00    1.17856   1.15832   46.006
 5303.00    1.19019   1.17115   45.530
 5304.00    1.19953   1.18313   44.485
 5305.00    1.21298   1.19181   43.542
 5306.00    1.21751   1.19538   43.239
 5307.00    1.21170   1.19617   43.521
 5308.00    1.20848   1.19775   43.925
 5309.00    1.21614   1.20220   43.830
 5310.00    1.22455   1.20834   43.405
 5311.00    1.22274   1.21246   43.072
 5312.00    1.22724   1.21196   43.026
 5313.00    1.22194   1.20614   43.218
 5314.00    1.22607   1.19605   43.426
 5315.00    1.22315   1.18440   43.702
 5316.00    1.20938   1.17502   44.105
 5317.00    1.20387   1.17172   44.513
 5318.00    1.20132   1.17538   44.637
 5319.00    1.20528   1.18212   44.398
 5320.00    1.21519   1.18598   44.160
 5321.00    1.21130   1.18231   44.223
 5322.00    1.19762   1.17116   44.499
 5323.00    1.19204   1.15556   44.964
 5324.00    1.19596   1.13827   45.682
 5325.00    1.18086   1.12002   46.224
 5326.00    1.15671   1.09934   46.328
 5327.00    1.12422   1.07813   47.204
 5328.00    1.09371   1.06290   49.753
 5329.00    1.09283   1.06292   51.885
 5330.00    1.12815   1.08101   50.888
 5331.00    1.16846   1.10877   48.067
 5332.00    1.18855   1.13544   46.114
 5333.00    1.20223   1.15408   45.365
 5334.00    1.19999   1.16503   44.940
 5335.00    1.19840   1.17091   44.444
 5336.00    1.20354   1.17192   44.153
 5337.00    1.19609   1.16741   44.304
 5338.00    1.18238   1.15764   44.602
 5339.00    1.17757   1.14495   45.031
 5340.00    1.16672   1.13397   45.982
 5341.00    1.15902   1.13033   46.915
 5342.00    1.16976   1.13607   46.876
 5343.00    1.18648   1.14707   45.835
 5344.00    1.19693   1.15630   44.870
 5345.00    1.19838   1.15855   44.640
 5346.00    1.19241   1.15485   44.862
 5347.00    1.18661   1.14934   45.159
 5348.00    1.18025   1.14606   45.401
 5349.00    1.18060   1.14745   45.754
 5350.00    1.19122   1.15396   45.959
 5351.00    1.20186   1.16429   45.483
 5352.00    1.21050   1.17584   44.508
 5353.00    1.22066   1.18648   43.804
 5354.00    1.23061   1.19545   43.555
 5355.00    1.22643   1.20350   43.282
 5356.00    1.22716   1.21061   42.785
 5357.00    1.23536   1.21545   42.391
 5358.00    1.23904   1.21703   42.328
 5359.00    1.23072   1.21466   42.394
 5360.00    1.22608   1.20818   42.522
 5361.00    1.21130   1.19782   42.920
 5362.00    1.20168   1.18467   43.585
 5363.00    1.20116   1.17135   44.258
 5364.00    1.19415   1.16054   44.668
 5365.00    1.18142   1.15362   44.935
 5366.00    1.17909   1.14969   45.202
 5367.00    1.18363   1.14568   45.187
 5368.00    1.18805   1.13788   45.133
 5369.00    1.17228   1.12482   45.457
 5370.00    1.15191   1.11012   46.399
 5371.00    1.14412   1.10107   47.754
 5372.00    1.14756   1.10506   48.303
 5373.00    1.16736   1.12295   47.064
 5374.00    1.20042   1.14851   44.976
 5375.00    1.22992   1.17239   43.576
 5376.00    1.23524   1.18769   43.054
 5377.00    1.23580   1.19372   43.064
 5378.00    1.22917   1.19272   43.126
 5379.00    1.22243   1.18777   43.187
 5380.00    1.21327   1.18098   43.389
 5381.00    1.19740   1.17390   43.770
 5382.00    1.19216   1.16833   44.207
 5383.00    1.19563   1.16635   44.490
 5384.00    1.19725   1.16938   44.529
 5385.00    1.19892   1.17649   44.367
 5386.00    1.20193   1.18434   43.965
 5387.00    1.21193   1.18876   43.754
 5388.00    1.21530   1.18726   43.877
 5389.00    1.20299   1.18051   44.241
 5390.00    1.19580   1.17071   44.849
 5391.00    1.18922   1.16030   45.416
 5392.00    1.17924   1.15127   45.706
 5393.00    1.17562   1.14384   45.776
 5394.00    1.17126   1.13670   45.875
 5395.00    1.16137   1.12859   46.159
 5396.00    1.14781   1.11950   46.693
 5397.00    1.14647   1.11340   47.548
 5398.00    1.15997   1.11462   47.875
 5399.00    1.17784   1.12351   46.859
 5400.00    1.18761   1.13585   45.460
 5401.00    1.19277   1.14397   44.876
 5402.00    1.18905   1.14220   44.881
 5403.00    1.16827   1.13010   45.162
 5404.00    1.14501   1.11236   46.229
 5405.00    1.13487   1.09675   47.740
 5406.00    1.13785   1.09040   48.719
 5407.00    1.14733   1.09338   48.551
 5408.00    1.15369   1.10069   47.639
 5409.00    1.15391   1.10793   47.033
 5410.00    1.15275   1.11414   47.212
 5411.00    1.16557   1.12251   47.205
 5412.00    1.18901   1.13372   46.240
 5413.00    1.20015   1.14495   45.091
 5414.00    1.20549   1.15403   44.450
 5415.00    1.20202   1.16069   44.343
 5416.00    1.19963   1.16700   44.379
 5417.00    1.20120   1.17348   44.152
 5418.00    1.19866   1.17818   43.845
 5419.00    1.19721   1.17993   43.887
 5420.00    1.20356   1.17858   44.259
 5421.00    1.20515   1.17457   44.586
 5422.00    1.20440   1.16881   44.537
 5423.00    1.19600   1.16238   44.345
 5424.00    1.19207   1.15827   44.719
 5425.00    1.19657   1.15902   45.222
 5426.00    1.19645   1.16218   45.006
 5427.00    1.19390   1.16278   44.302
 5428.00    1.17896   1.15598   44.159
 5429.00    1.16102   1.14369   45.072
 5430.00    1.15179   1.13315   46.492
 5431.00    1.15775   1.12796   47.018
 5432.00    1.16443   1.12707   46.412
 5433.00    1.15618   1.12632   46.113
 5434.00    1.14950   1.12501   46.589
 5435.00    1.15300   1.12778   47.187
 5436.00    1.16214   1.13807   47.231
 5437.00    1.17405   1.15546   46.503
 5438.00    1.19394   1.17473   45.306
 5439.00    1.21424   1.19064   44.256
 5440.00    1.22641   1.20079   43.552
 5441.00    1.23796   1.20484   43.123
 5442.00    1.24212   1.20304   42.968
 5443.00    1.22347   1.19351   42.952
 5444.00    1.19740   1.17592   43.265
 5445.00    1.16983   1.15361   44.215
 5446.00    1.14157   1.13392   45.862
 5447.00    1.13430   1.12530   47.523
 5448.00    1.14828   1.13060   47.760
 5449.00    1.16900   1.14628   46.523
 5450.00    1.18658   1.16387   45.129
 5451.00    1.19694   1.17505   44.448
 5452.00    1.19308   1.17575   44.345
 5453.00    1.17770   1.16606   44.620
 5454.00    1.16230   1.15048   45.463
 5455.00    1.14498   1.13750   46.718
 5456.00    1.14179   1.13447   47.847
 5457.00    1.15466   1.14349   47.683
 5458.00    1.18167   1.15936   46.268
 5459.00    1.19137   1.17248   44.872
 5460.00    1.18762   1.17660   44.326
 5461.00    1.18152   1.17122   44.634
 5462.00    1.17898   1.16140   45.400
 5463.00    1.17854   1.15359   46.101
 5464.00    1.18285   1.15228   46.463
 5465.00    1.18385   1.15754   46.133
 5466.00    1.18897   1.16624   45.558
 5467.00    1.19115   1.17477   45.247
 5468.00    1.18629   1.18066   44.843
 5469.00    1.18057   1.18323   44.546
 5470.00    1.18167   1.18236   44.785
 5471.00    1.18206   1.17819   45.259
 5472.00    1.17390   1.17125   45.519
 5473.00    1.16989   1.16152   45.718
 5474.00    1.16445   1.14867   46.116
 5475.00    1.14688   1.13441   46.722
 5476.00    1.13091   1.12263   47.621
 5477.00    1.13337   1.11833   48.467
 5478.00    1.15115   1.12354   48.394
 5479.00    1.16044   1.13433   47.195
 5480.00    1.16220   1.14512   46.094
 5481.00    1.16745   1.15214   46.072
 5482.00    1.16969   1.15676   46.617
 5483.00    1.17620   1.16254   46.746
 5484.00    1.18169   1.16958   46.134
 5485.00    1.18572   1.17549   45.208
 5486.00    1.18774   1.17718   44.642
 5487.00    1.18419   1.17472   44.830
 5488.00    1.17487   1.17127   45.437
 5489.00    1.17256   1.16981   45.833
 5490.00    1.17558   1.17140   45.909
 5491.00    1.18054   1.17447   45.683
 5492.00    1.18167   1.17715   45.342
 5493.00    1.18259   1.17846   45.123
 5494.00    1.18699   1.17779   45.144
 5495.00    1.18379   1.17516   45.197
 5496.00    1.17306   1.17101   45.194
 5497.00    1.16801   1.16667   45.416
 5498.00    1.17765   1.16363   45.753
 5499.00    1.17918   1.16143   45.687
 5500.00    1.17181   1.15854   45.235
 5501.00    1.17064   1.15470   45.304
 5502.00    1.16531   1.15085   45.951
 5503.00    1.17104   1.14868   46.256
 5504.00    1.17576   1.14757   45.996
 5505.00    1.17660   1.14518   45.794
 5506.00    1.16856   1.14221   46.195
 5507.00    1.15669   1.14095   46.735
 5508.00    1.16253   1.14333   46.585
 5509.00    1.17465   1.14798   45.905
 5510.00    1.17882   1.15043   45.523
 5511.00    1.16903   1.14813   45.683
 5512.00    1.15210   1.14206   46.403
 5513.00    1.14127   1.13665   47.241
 5514.00    1.13527   1.13613   47.772
 5515.00    1.14518   1.14203   47.513
 5516.00    1.17063   1.15266   46.730
 5517.00    1.18735   1.16477   45.979
 5518.00    1.19423   1.17556   45.174
 5519.00    1.20172   1.18330   44.385
 5520.00    1.20614   1.18755   44.074
 5521.00    1.20296   1.18879   44.106
 5522.00    1.20142   1.18785   44.192
 5523.00    1.20483   1.18434   44.325
 5524.00    1.19823   1.17714   44.429
 5525.00    1.18309   1.16499   44.631
 5526.00    1.16951   1.14929   45.134
 5527.00    1.15266   1.13448   46.048
 5528.00    1.14543   1.12657   47.214
 5529.00    1.15540   1.12943   47.803
 5530.00    1.16439   1.14094   47.156
 5531.00    1.17680   1.15488   45.936
 5532.00    1.18552   1.16422   45.130
 5533.00    1.17891   1.16657   45.021
 5534.00    1.17622   1.16458   45.359
 5535.00    1.17854   1.16266   45.660
 5536.00    1.18258   1.16365   45.621
 5537.00    1.18713   1.16740   45.304
 5538.00    1.19579   1.17236   45.098
 5539.00    1.20243   1.17707   44.941
 5540.00    1.20757   1.18057   44.577
 5541.00    1.20270   1.18203   44.187
 5542.00    1.19930   1.18066   44.088
 5543.00    1.20199   1.17728   44.413
 5544.00    1.20008   1.17437   44.883
 5545.00    1.18446   1.17387   45.110
 5546.00    1.17981   1.17636   45.052
 5547.00    1.19210   1.18110   44.934
 5548.00    1.21402   1.18666   44.713
 5549.00    1.21834   1.19167   44.314
 5550.00    1.21725   1.19460   43.915
 5551.00    1.21587   1.19444   43.727
 5552.00    1.21003   1.19165   43.859
 5553.00    1.20445   1.18759   44.205
 5554.00    1.20024   1.18414   44.678
 5555.00    1.19965   1.18266   44.999
 5556.00    1.19359   1.18320   45.015
 5557.00    1.18783   1.18490   44.887
 5558.00    1.19353   1.18651   44.787
 5559.00    1.19009   1.18703   44.726
 5560.00    1.18512   1.18551   44.676
 5561.00    1.19273   1.18149   44.724
 5562.00    1.18938   1.17573   44.915
 5563.00    1.17065   1.16969   45.302
 5564.00    1.15741   1.16475   45.677
 5565.00    1.16376   1.16125   45.864
 5566.00    1.17733   1.15877   45.963
 5567.00    1.17406   1.15676   46.026
 5568.00    1.16335   1.15487   45.976
 5569.00    1.16063   1.15287   45.873
 5570.00    1.16753   1.15066   45.929
 5571.00    1.17045   1.14829   45.962
 5572.00    1.14022   1.14643   45.946
 5573.00    1.04873   1.14635   -1.000
 5574.00    0.49594   1.14854   -1.000
 5575.00   -0.85274   1.15276    0.000
 5576.00   -2.42951   1.15799    0.000
 5577.00   -3.69668   1.16342    0.000
 5578.00   -3.57595   1.16874    0.000
 5579.00   -1.21205   1.17295    0.000
 5580.00    1.72919   1.17520   -1.000
 5581.00    2.35605   1.17550   -1.000
 5582.00    1.58147   1.17424   -1.000
 5583.00    1.23722   1.17119   45.518
 5584.00    1.19796   1.16444   45.285
 5585.00    1.17623   1.15176   45.440
 5586.00    1.15568   1.13385   46.208
 5587.00    1.13626   1.11474   47.366
 5588.00    1.12786   1.10115   48.482
 5589.00    1.13255   1.09760   49.092
 5590.00    1.13343   1.10360   48.808
 5591.00    1.14680   1.11482   47.992
 5592.00    1.15772   1.12568   47.242
 5593.00    1.15051   1.13333   46.929
 5594.00    1.14785   1.13793   47.026
 5595.00    1.14748   1.14143   46.918
 5596.00    1.15180   1.14375   46.353
 5597.00    1.15420   1.14338   45.855
 5598.00    1.14856   1.13970   46.020
 5599.00    1.14350   1.13358   46.735
 5600.00    1.14299   1.12734   47.358
 5601.00    1.13840   1.12334   47.497
 5602.00    1.13000   1.12385   47.641
 5603.00    1.13089   1.13154   47.901
 5604.00    1.15174   1.14656   47.460
 5605.00    1.17554   1.16519   46.292
 5606.00    1.18559   1.18260   45.142
 5607.00    1.19743   1.19511   44.444
 5608.00    1.20439   1.20214   44.217
 5609.00    1.20057   1.20515   44.245
 5610.00    1.19851   1.20540   44.334
 5611.00    1.19920   1.20262   44.337
 5612.00    1.19537   1.19470   44.224
 5613.00    1.18030   1.18025   44.309
 5614.00    1.16673   1.16094   44.994
 5615.00    1.15268   1.14337   46.373
 5616.00    1.13535   1.13448   47.670
 5617.00    1.14034   1.13683   47.774
 5618.00    1.15845   1.14739   46.821
 5619.00    1.17049   1.15947   45.982
 5620.00    1.18410   1.16871   45.714
 5621.00    1.18269   1.17312   45.563
 5622.00    1.17690   1.17228   45.335
 5623.00    1.17122   1.16736   45.382
 5624.00    1.15636   1.16138   46.055
 5625.00    1.15616   1.15825   46.964
 5626.00    1.16588   1.16083   47.131
 5627.00    1.17169   1.16841   46.490
 5628.00    1.17813   1.17820   45.756
 5629.00    1.18542   1.18711   45.188
 5630.00    1.19402   1.19300   44.793
 5631.00    1.19533   1.19516   44.604
 5632.00    1.19542   1.19372   44.451
 5633.00    1.19196   1.18953   44.415
 5634.00    1.18627   1.18391   44.669
 5635.00    1.18739   1.17805   45.015
 5636.00    1.18272   1.17278   45.309
 5637.00    1.17276   1.16894   45.625
 5638.00    1.17178   1.16676   45.947
 5639.00    1.17025   1.16578   46.057
 5640.00    1.17110   1.16539   46.013
 5641.00    1.17767   1.16536   46.096
 5642.00    1.17129   1.16598   46.178
 5643.00    1.15489   1.16773   46.059
 5644.00    1.15820   1.17034   45.846
 5645.00    1.17333   1.17316   45.723
 5646.00    1.17654   1.17552   45.496
 5647.00    1.17718   1.17682   45.288
 5648.00    1.18269   1.17687   45.178
 5649.00    1.18434   1.17629   45.092
 5650.00    1.18261   1.17587   45.143
 5651.00    1.17952   1.17575   45.189
 5652.00    1.18481   1.17522   44.947
 5653.00    1.18724   1.17284   44.727
 5654.00    1.17765   1.16766   44.809
 5655.00    1.16767   1.15920   45.117
 5656.00    1.15743   1.14785   45.534
 5657.00    1.14030   1.13574   46.257
 5658.00    1.12441   1.12647   47.517
 5659.00    1.12303   1.12307   48.567
 5660.00    1.12641   1.12594   48.355
 5661.00    1.13081   1.13238   47.354
 5662.00    1.13775   1.13959   46.856
 5663.00    1.14394   1.14682   46.885
 5664.00    1.15423   1.15392   46.581
 5665.00    1.16222   1.16015   45.938
 5666.00    1.16207   1.16405   45.584
 5667.00    1.16295   1.16506   45.699
 5668.00    1.15517   1.16484   45.981
 5669.00    1.15323   1.16550   46.116
 5670.00    1.16301   1.16812   46.049
 5671.00    1.17204   1.17232   45.806
 5672.00    1.17467   1.17689   45.435
 5673.00    1.16823   1.18070   44.996
 5674.00    1.17145   1.18312   44.553
 5675.00    1.18165   1.18434   44.408
 5676.00    1.17882   1.18472   44.530
 5677.00    1.18174   1.18450   44.497
 5678.00    1.18338   1.18303   44.386
 5679.00    1.17626   1.17934   44.512
 5680.00    1.17460   1.17287   44.725
 5681.00    1.16969   1.16428   44.956
 5682.00    1.16375   1.15547   45.394
 5683.00    1.15507   1.14894   45.945
 5684.00    1.15126   1.14615   46.207
 5685.00    1.15995   1.14622   46.048
 5686.00    1.15966   1.14698   45.804
 5687.00    1.14684   1.14687   45.874
 5688.00    1.14388   1.14670   46.322
 5689.00    1.15405   1.14881   46.633
 5690.00    1.16515   1.15424   46.329
 5691.00    1.17874   1.16204   45.559
 5692.00    1.18850   1.16982   44.966
 5693.00    1.18249   1.17576   44.653
 5694.00    1.17820   1.17933   44.503
 5695.00    1.18068   1.18066   44.520
 5696.00    1.17905   1.17993   44.567
 5697.00    1.17198   1.17695   44.660
 5698.00    1.16561   1.17199   44.993
 5699.00    1.15854   1.16572   45.506
 5700.00    1.14731   1.15966   45.956
 5701.00    1.14385   1.15529   46.411
 5702.00    1.15008   1.15333   46.733
 5703.00    1.15420   1.15329   46.571
 5704.00    1.15550   1.15319   46.105
 5705.00    1.15258   1.15100   45.854
 5706.00    1.14218   1.14532   46.031
 5707.00    1.12980   1.13642   46.581
 5708.00    1.11339   1.12622   47.393
 5709.00    1.10182   1.11777   48.195
 5710.00    1.10449   1.11421   48.637
 5711.00    1.11162   1.11747   48.642
 5712.00    1.12625   1.12706   48.262
 5713.00    1.14297   1.14038   47.426
 5714.00    1.15716   1.15385   46.296
 5715.00    1.16863   1.16452   45.422
 5716.00    1.17522   1.17177   45.090
 5717.00    1.17314   1.17665   44.994
 5718.00    1.16944   1.18090   44.869
 5719.00    1.17361   1.18526   44.675
 5720.00    1.18154   1.18980   44.406
 5721.00    1.19104   1.19393   44.166
 5722.00    1.19536   1.19695   44.029
 5723.00    1.19107   1.19827   43.952
 5724.00    1.19185   1.19745   43.895
 5725.00    1.18848   1.19445   43.943
 5726.00    1.17816   1.19010   44.226
 5727.00    1.16213   1.18588   44.675
 5728.00    1.15946   1.18332   45.077
 5729.00    1.17007   1.18263   45.047
 5730.00    1.17086   1.18289   44.754
 5731.00    1.16903   1.18345   44.736
 5732.00    1.18135   1.18446   44.948
 5733.00    1.19701   1.18673   44.928
 5734.00    1.18860   1.19003   44.564
 5735.00    1.17547   1.19316   44.214
 5736.00    1.17285   1.19500   44.147
 5737.00    1.17979   1.19536   44.211
 5738.00    1.18332   1.19495   44.314
 5739.00    1.17777   1.19433   44.389
 5740.00    1.17577   1.19354   44.456
 5741.00    1.18112   1.19251   44.538
 5742.00    1.18834   1.19159   44.624
 5743.00    1.18552   1.19133   44.596
 5744.00    1.18249   1.19180   44.519
 5745.00    1.18780   1.19217   44.300
 5746.00    1.18830   1.19178   44.012
 5747.00    1.18529   1.19069   44.082
 5748.00    1.18763   1.18966   44.476
 5749.00    1.18558   1.18869   44.756
 5750.00    1.18242   1.18654   44.635
 5751.00    1.18100   1.18205   44.429
 5752.00    1.16814   1.17570   44.608
 5753.00    1.15198   1.17028   45.109
 5754.00    1.14866   1.16892   45.606
 5755.00    1.15676   1.17278   45.763
 5756.00    1.17072   1.18041   45.365
 5757.00    1.18432   1.18821   44.590
 5758.00    1.18832   1.19304   43.939
 5759.00    1.18471   1.19316   43.847
 5760.00    1.17544   1.18900   44.241
 5761.00    1.16213   1.18267   44.807
 5762.00    1.15539   1.17753   45.414
 5763.00    1.15731   1.17652   45.791
 5764.00    1.16309   1.18073   45.544
 5765.00    1.17912   1.18816   44.811
 5766.00    1.19330   1.19556   44.155
 5767.00    1.19563   1.20036   43.882
 5768.00    1.19525   1.20196   43.823
 5769.00    1.18843   1.20121   43.762
 5770.00    1.18076   1.19897   43.788
 5771.00    1.18628   1.19575   43.922
 5772.00    1.18498   1.19200   44.131
 5773.00    1.17745   1.18850   44.401
 5774.00    1.17894   1.18615   44.575
 5775.00    1.17866   1.18540   44.642
 5776.00    1.17684   1.18548   44.603
 5777.00    1.17624   1.18455   44.419
 5778.00    1.17352   1.18073   44.302
 5779.00    1.16532   1.17351   44.383
 5780.00    1.15589   1.16450   44.845
 5781.00    1.13911   1.15646   45.751
 5782.00    1.12938   1.15148   46.535
 5783.00    1.14251   1.15016   46.689
 5784.00    1.14794   1.15165   46.511
 5785.00    1.14847   1.15511   46.337
 5786.00    1.15950   1.16008   46.170
 5787.00    1.16472   1.16585   45.787
 5788.00    1.17030   1.17100   45.196
 5789.00    1.17361   1.17397   44.748
 5790.00    1.16977   1.17481   44.660
 5791.00    1.16334   1.17534   44.823
 5792.00    1.17006   1.17742   44.866
 5793.00    1.18536   1.18155   44.597
 5794.00    1.19763   1.18650   44.252
 5795.00    1.19942   1.19038   43.977
 5796.00    1.18873   1.19201   43.856
 5797.00    1.18518   1.19175   44.017
 5798.00    1.18951   1.19130   44.307
 5799.00    1.19651   1.19224   44.288
 5800.00    1.20104   1.19472   43.833
 5801.00    1.20109   1.19726   43.231
 5802.00    1.20012   1.19819   42.936
 5803.00    1.19471   1.19675   43.142
 5804.00    1.18210   1.19361   43.511
 5805.00    1.17428   1.19049   43.856
 5806.00    1.17603   1.18887   44.118
 5807.00    1.17779   1.18920   44.125
 5808.00    1.18364   1.19086   43.969
 5809.00    1.19384   1.19307   43.822
 5810.00    1.19693   1.19516   43.772
 5811.00    1.19635   1.19655   43.752
 5812.00    1.20202   1.19659   43.632
 5813.00    1.19654   1.19495   43.483
 5814.00    1.18537   1.19200   43.487
 5815.00    1.18436   1.18898   43.752
 5816.00    1.19126   1.18758   44.033
 5817.00    1.19913   1.18886   43.966
 5818.00    1.19977   1.19229   43.672
 5819.00    1.19696   1.19618   43.407
 5820.00    1.19967   1.19902   43.188
 5821.00    1.20671   1.20054   43.017
 5822.00    1.20282   1.20123   43.005
 5823.00    1.20217   1.20154   43.137
 5824.00    1.20438   1.20164   43.154
 5825.00    1.20239   1.20172   43.072
 5826.00    1.20358   1.20205   43.000
 5827.00    1.21183   1.20273   42.942
 5828.00    1.21328   1.20342   42.936
 5829.00    1.20496   1.20377   42.995
 5830.00    1.20711   1.20355   42.982
 5831.00    1.21067   1.20279   42.945
 5832.00    1.20647   1.20151   42.921
 5833.00    1.20497   1.19991   42.943
 5834.00    1.20201   1.19855   43.161
 5835.00    1.19469   1.19810   43.330
 5836.00    1.20039   1.19882   43.257
 5837.00    1.20683   1.20020   43.138
 5838.00    1.19786   1.20153   43.193
 5839.00    1.19483   1.20239   43.320
 5840.00    1.19956   1.20290   43.273
 5841.00    1.19939   1.20311   43.013
 5842.00    1.20590   1.20281   42.742
 5843.00    1.20762   1.20169   42.665
 5844.00    1.20371   1.19959   42.766
 5845.00    1.19538   1.19671   42.929
 5846.00    1.18584   1.19366   43.169
 5847.00    1.18884   1.19120   43.421
 5848.00    1.18963   1.18963   43.632
 5849.00    1.18062   1.18814   43.690
 5850.00    1.17563   1.18548   43.697
 5851.00    1.17163   1.18079   43.884
 5852.00    1.16552   1.17453   44.159
 5853.00    1.15968   1.16768   44.531
 5854.00    1.15499   1.16084   44.847
 5855.00    1.15288   1.15368   44.964
 5856.00    1.14740   1.14604   45.018
 5857.00    1.14562   1.13960   45.312
 5858.00    1.15064   1.13715   45.777
 5859.00    1.14886   1.14029   45.754
 5860.00    1.15436   1.14773   45.241
 5861.00    1.17181   1.15638   44.779
 5862.00    1.16677   1.16386   44.554
 5863.00    1.15800   1.16914   44.393
 5864.00    1.16169   1.17185   44.275
 5865.00    1.15934   1.17211   44.331
 5866.00    1.15333   1.17093   44.483
 5867.00    1.14776   1.17034   44.676
 5868.00    1.16324   1.17218   44.743
 5869.00    1.17739   1.17647   44.455
 5870.00    1.17925   1.18153   44.041
 5871.00    1.18594   1.18504   43.782
 5872.00    1.18466   1.18587   43.709
 5873.00    1.18233   1.18444   43.785
 5874.00    1.18410   1.18195   43.843
 5875.00    1.18100   1.17935   43.799
 5876.00    1.17946   1.17694   43.845
 5877.00    1.17870   1.17449   44.022
 5878.00    1.17149   1.17169   44.140
 5879.00    1.16406   1.16835   44.362
 5880.00    1.15787   1.16447   44.693
 5881.00    1.15222   1.15998   44.808
 5882.00    1.15279   1.15484   44.717
 5883.00    1.15689   1.14897   44.660
 5884.00    1.15076   1.14180   44.784
 5885.00    1.11307   1.13115   44.898
 5886.00    1.00052   1.11276   -1.000
 5887.00    0.71086   1.08310   -1.000
 5888.00    0.21546   1.04438   -1.000
 5889.00   -0.18740   1.00641    0.000
 5890.00   -0.35141   0.98236    0.000
 5891.00   -0.13393   0.97741    0.000
 5892.00    0.42563   0.98571   -1.000
 5893.00    0.73959   0.99468   -1.000
 5894.00    0.59395   0.99655   -1.000
 5895.00    0.31765   0.99352   -1.000
 5896.00    0.23185   0.99419   -1.000
 5897.00    0.44744   1.00620   -1.000
 5898.00    0.84337   1.02940   -1.000
 5899.00    1.12663   1.05817   -1.000
 5900.00    1.18902   1.08597   -1.000
 5901.00    1.16444   1.10923   46.463
 5902.00    1.14762   1.12680   45.560
 5903.00    1.14740   1.13877   45.090
 5904.00    1.14578   1.14609   44.998
 5905.00    1.13579   1.15051   44.979
 5906.00    1.14467   1.15360   45.019
 5907.00    1.15756   1.15630   45.040
 5908.00    1.15431   1.15873   44.974
 5909.00    1.15722   1.16056   44.872
 5910.00    1.15980   1.16118   44.918
 5911.00    1.15393   1.15994   45.039
 5912.00    1.15305   1.15645   45.085
 5913.00    1.14485   1.15136   45.204
 5914.00    1.11925   1.14639   45.668
 5915.00    1.10737   1.14349   46.176
 5916.00    1.12376   1.14381   46.241
 5917.00    1.14342   1.14697   46.019
 5918.00    1.15214   1.15167   45.801
 5919.00    1.15304   1.15609   45.629
 5920.00    1.14483   1.15913   45.483
 5921.00    1.13899   1.16054   45.345
 5922.00    1.14034   1.16109   45.278
 5923.00    1.13536   1.16169   45.324
 5924.00    1.13520   1.16291   45.234
 5925.00    1.14866   1.16439   45.060
 5926.00    1.16059   1.16495   44.959
 5927.00    1.15653   1.16347   44.909
 5928.00    1.14637   1.15999   44.947
 5929.00    1.14453   1.15611   45.182
 5930.00    1.14057   1.15380   45.542
 5931.00    1.13565   1.15404   45.665
 5932.00    1.13499   1.15590   45.355
 5933.00    1.13865   1.15792   45.023
 5934.00    1.14970   1.15956   45.151
 5935.00    1.15840   1.16130   45.509
 5936.00    1.15741   1.16348   45.675
 5937.00    1.15204   1.16547   45.518
 5938.00    1.15252   1.16606   45.149
 5939.00    1.16146   1.16476   44.887
 5940.00    1.16416   1.16213   44.928
 5941.00    1.14924   1.15967   45.289
 5942.00    1.13722   1.15852   45.650
 5943.00    1.13759   1.15897   45.717
 5944.00    1.13658   1.16015   45.530
 5945.00    1.13756   1.16079   45.248
 5946.00    1.14459   1.16003   45.037
 5947.00    1.14875   1.15798   45.043
 5948.00    1.14465   1.15575   45.353
 5949.00    1.13829   1.15436   45.821
 5950.00    1.13568   1.15401   46.086
 5951.00    1.13399   1.15390   45.963
 5952.00    1.12631   1.15343   45.747
 5953.00    1.12254   1.15280   45.752
 5954.00    1.12819   1.15232   45.799
 5955.00    1.13525   1.15196   45.718
 5956.00    1.14055   1.15183   45.687
 5957.00    1.14192   1.15253   45.808
 5958.00    1.15020   1.15486   45.938
 5959.00    1.16022   1.15882   45.850
 5960.00    1.16138   1.16334   45.452
 5961.00    1.16581   1.16711   44.956
 5962.00    1.17454   1.16916   44.682
 5963.00    1.16567   1.16934   44.596
 5964.00    1.14838   1.16810   44.642
 5965.00    1.14815   1.16630   44.839
 5966.00    1.15208   1.16489   45.040
 5967.00    1.15083   1.16461   45.190
 5968.00    1.15208   1.16560   45.201
 5969.00    1.15121   1.16758   44.936
 5970.00    1.14744   1.16985   44.714
 5971.00    1.15494   1.17149   44.681
 5972.00    1.16575   1.17159   44.623
 5973.00    1.16081   1.16950   44.546
 5974.00    1.14315   1.16528   44.670
 5975.00    1.13183   1.15990   44.999
 5976.00    1.13033   1.15505   45.354
 5977.00    1.12955   1.15260   45.685
 5978.00    1.13890   1.15325   45.941
 5979.00    1.15112   1.15612   45.900
 5980.00    1.15080   1.15895   45.557
 5981.00    1.15443   1.15954   45.283
 5982.00    1.15167   1.15701   45.290
 5983.00    1.13515   1.15245   45.567
 5984.00    1.13255   1.14837   45.973
 5985.00    1.13597   1.14684   46.275
 5986.00    1.13745   1.14845   46.265
 5987.00    1.14723   1.15201   45.888
 5988.00    1.15159   1.15588   45.506
 5989.00    1.15067   1.15882   45.321
 5990.00    1.15363   1.16083   45.135
 5991.00    1.15683   1.16260   45.074
 5992.00    1.15970   1.16491   45.187
 5993.00    1.16764   1.16756   45.103
 5994.00    1.16968   1.16925   44.768
 5995.00    1.15784   1.16906   44.527
 5996.00    1.15170   1.16705   44.669
 5997.00    1.15619   1.16448   45.010
 5998.00    1.16225   1.16248   45.252
 5999.00    1.16280   1.16133   45.384
 6000.00    1.15727   1.16043   45.373
 6001.00    1.15348   1.15904   45.350
 6002.00    1.15263   1.15705   45.534
 6003.00    1.14856   1.15496   45.753
 6004.00    1.14726   1.15299   45.797
 6005.00    1.15065   1.15064   45.709
 6006.00    1.14423   1.14734   45.665
 6007.00    1.12663   1.14397   45.878
 6008.00    1.12179   1.14241   46.306
 6009.00    1.13817   1.14391   46.513
 6010.00    1.14361   1.14771   46.171
 6011.00    1.14555   1.15126   45.637
 6012.00    1.14943   1.15288   45.452
 6013.00    1.14634   1.15239   45.694
 6014.00    1.14625   1.15093   46.002
 6015.00    1.13774   1.14948   45.967
 6016.00    1.13796   1.14822   45.830
 6017.00    1.13880   1.14675   45.963
 6018.00    1.13530   1.14456   46.114
 6019.00    1.14658   1.14170   46.076
 6020.00    1.14985   1.13885   46.088
 6021.00    1.13805   1.13715   46.338
 6022.00    1.14128   1.13728   46.376
 6023.00    1.14889   1.13930   46.084
 6024.00    1.14091   1.14304   45.887
 6025.00    1.13726   1.14818   45.827
 6026.00    1.14674   1.15394   45.647
 6027.00    1.15451   1.15951   45.434
 6028.00    1.16567   1.16436   45.226
 6029.00    1.17419   1.16827   44.976
 6030.00    1.16759   1.17118   44.864
 6031.00    1.16229   1.17317   44.852
 6032.00    1.16693   1.17462   44.920
 6033.00    1.16921   1.17585   44.927
 6034.00    1.17110   1.17688   44.764
 6035.00    1.16943   1.17736   44.606
 6036.00    1.16304   1.17700   44.552
 6037.00    1.16764   1.17570   44.503
 6038.00    1.17228   1.17355   44.487
 6039.00    1.16794   1.17087   44.662
 6040.00    1.16662   1.16830   44.840
 6041.00    1.16349   1.16658   44.944
 6042.00    1.16058   1.16630   44.961
 6043.00    1.16482   1.16749   44.865
 6044.00    1.16895   1.16977   44.716
 6045.00    1.17229   1.17240   44.401
 6046.00    1.17538   1.17500   44.250
 6047.00    1.16892   1.17735   44.297
 6048.00    1.16005   1.17918   44.255
 6049.00    1.16025   1.18026   44.241
 6050.00    1.17069   1.18028   44.357
 6051.00    1.18660   1.17919   44.489
 6052.00    1.18888   1.17680   44.550
 6053.00    1.17557   1.17327   44.611
 6054.00    1.16635   1.16918   44.755
 6055.00    1.16569   1.16579   44.920
 6056.00    1.16512   1.16425   45.114
 6057.00    1.16375   1.16499   45.312
 6058.00    1.16193   1.16727   45.321
 6059.00    1.15827   1.16971   45.140
 6060.00    1.16444   1.17086   44.894
 6061.00    1.16959   1.16955   44.821
 6062.00    1.16018   1.16525   44.922
 6063.00    1.14978   1.15865   45.320
 6064.00    1.13656   1.15182   46.143
 6065.00    1.12608   1.14778   45.710
 6066.00    1.11636   1.14863   55.943
 6067.00    1.11097   1.15384   23.896
 6068.00    1.12002   1.16125   20.400
 6069.00    1.13870   1.16826   48.668
 6070.00    1.14750   1.17346   44.918
 6071.00    1.16895   1.17677   44.308
 6072.00    1.09254   1.17867   -1.000
 6073.00    0.72448   1.17959   -1.000
 6074.00    0.77740   1.17945   -1.000
 6075.00    1.16929   1.17783   44.459
 6076.00    1.17211   1.17457   44.551
 6077.00    1.16296   1.17005   44.755
 6078.00    1.16451   1.16525   45.005
 6079.00    1.16080   1.16135   45.314
 6080.00    1.15590   1.15858   45.633
 6081.00    1.15206   1.15654   45.769
 6082.00    1.15467   1.15480   45.785
 6083.00    1.15762   1.15337   45.879
 6084.00    1.15649   1.15282   45.945
 6085.00    1.15599   1.15358   45.915
 6086.00    1.14952   1.15550   45.872
 6087.00    1.14535   1.15764   45.777
 6088.00    1.14846   1.15881   45.610
 6089.00    1.14523   1.15863   45.569
 6090.00    1.14668   1.15756   45.780
 6091.00    1.14690   1.15681   46.024
 6092.00    1.14289   1.15723   46.095
 6093.00    1.14674   1.15906   45.911
 6094.00    1.15292   1.16186   45.633
 6095.00    1.15871   1.16487   45.397
 6096.00    1.16484   1.16736   45.168
 6097.00    1.16671   1.16831   45.090
 6098.00    1.15910   1.16649   45.172
 6099.00    1.15425   1.16058   45.246
 6100.00    1.15260   1.15022   45.254
 6101.00    1.14986   1.13753   45.540
 6102.00    1.15255   1.12663   46.427
 6103.00    1.15769   1.12227   47.400
 6104.00    1.16291   1.12578   47.544
 6105.00    1.16334   1.13479   46.827
 6106.00    1.15843   1.14542   46.002
 6107.00    1.15081   1.15447   45.607
 6108.00    1.14845   1.16102   45.659
 6109.00    1.14632   1.16518   45.820
 6110.00    1.14414   1.16746   45.857
 6111.00    1.14538   1.16856   45.787
 6112.00    1.14655   1.16919   45.629
 6113.00    1.15079   1.16980   45.522
 6114.00    1.15883   1.17041   45.405
 6115.00    1.15613   1.17054   45.213
 6116.00    1.14477   1.16967   45.265
 6117.00    1.14301   1.16714   45.525
 6118.00    1.14062   1.16178   45.709
 6119.00    1.13012   1.15281   45.837
 6120.00    1.12101   1.14067   46.304
 6121.00    1.11570   1.12807   46.971
 6122.00    1.11077   1.11934   47.487
 6123.00    1.11770   1.11723   47.714
 6124.00    1.13178   1.12189   47.298
 6125.00    1.13909   1.13027   46.560
 6126.00    1.13991   1.13895   46.283
 6127.00    1.13649   1.14587   46.456
 6128.00    1.13836   1.15110   46.571
 6129.00    1.14675   1.15583   46.463
 6130.00    1.15211   1.16058   46.218
 6131.00    1.15283   1.16450   45.789
 6132.00    1.14839   1.16551   45.530
 6133.00    1.14351   1.16098   45.554
 6134.00    1.13110   1.14960   45.829
 6135.00    1.11074   1.13308   46.598
 6136.00    1.09625   1.11597   47.865
 6137.00    1.08574   1.10378   49.196
 6138.00    1.08799   1.09930   49.851
 6139.00    1.10333   1.10122   49.193
 6140.00    1.11869   1.10779   47.790
 6141.00    1.11787   1.11724   46.863
 6142.00    1.10928   1.12830   46.711
 6143.00    1.12126   1.13940   46.826
 6144.00    1.14348   1.14804   46.612
 6145.00    1.15332   1.15285   46.057
 6146.00    1.14948   1.15371   45.751
 6147.00    1.14822   1.15164   45.861
 6148.00    1.14554   1.14823   46.130
 6149.00    1.14168   1.14500   46.449
 6150.00    1.14010   1.14312   46.754
 6151.00    1.13790   1.14309   46.884
 6152.00    1.13847   1.14410   46.778
 6153.00    1.14114   1.14457   46.516
 6154.00    1.13942   1.14366   46.318
 6155.00    1.13118   1.14152   46.513
 6156.00    1.12890   1.13863   46.860
 6157.00    1.12649   1.13429   46.978
 6158.00    1.12351   1.12657   47.081
 6159.00    1.11395   1.11343   47.447
 6160.00    1.09187   1.09534   48.177
 6161.00    1.06329   1.07624   49.401
 6162.00    1.04531   1.06201   50.910
 6163.00    1.04904   1.05722   51.876
 6164.00    1.06228   1.06156   51.651
 6165.00    1.07444   1.07110   50.461
 6166.00    1.08069   1.07998   49.348
 6167.00    1.08531   1.08471   48.921
 6168.00    1.08072   1.08516   48.915
 6169.00    1.06510   1.08492   49.324
 6170.00    1.06019   1.08776   49.932
 6171.00    1.07945   1.09467   49.974
 6172.00    1.09991   1.10435   49.234
 6173.00    1.10768   1.11398   48.379
 6174.00    1.11371   1.12176   48.096
 6175.00    1.11070   1.12716   48.190
 6176.00    1.10524   1.13077   48.139
 6177.00    1.10882   1.13342   48.023
 6178.00    1.11503   1.13564   47.916
 6179.00    1.11613   1.13785   47.727
 6180.00    1.11635   1.14027   47.516
 6181.00    1.11874   1.14285   47.360
 6182.00    1.12206   1.14503   47.174
 6183.00    1.12238   1.14585   47.000
 6184.00    1.11904   1.14476   46.998
 6185.00    1.11501   1.14171   47.145
 6186.00    1.11432   1.13706   47.421
 6187.00    1.10861   1.13117   47.889
 6188.00    1.10222   1.12402   48.408
 6189.00    1.08311   1.11601   48.884
 6190.00    1.07392   1.10853   49.290
 6191.00    1.07501   1.10441   49.785
 6192.00    1.07159   1.10582   50.296
 6193.00    1.08190   1.11205   50.135
 6194.00    1.09831   1.12082   49.157
 6195.00    1.11072   1.12900   48.104
 6196.00    1.11522   1.13449   47.609
 6197.00    1.11290   1.13660   47.461
 6198.00    1.10265   1.13587   47.596
 6199.00    1.08868   1.13387   48.060
 6200.00    1.08609   1.13278   48.551
 6201.00    1.09029   1.13389   48.706
 6202.00    1.10351   1.13730   48.399
 6203.00    1.11173   1.14200   47.816
 6204.00    1.11857   1.14665   47.447
 6205.00    1.12765   1.15027   47.423
 6206.00    1.12605   1.15250   47.389
 6207.00    1.11460   1.15325   47.340
 6208.00    1.11095   1.15230   47.441
 6209.00    1.10452   1.14925   47.544
 6210.00    1.09543   1.14368   47.629
 6211.00    1.09319   1.13581   47.976
 6212.00    1.08718   1.12682   48.400
 6213.00    1.07703   1.11850   48.818
 6214.00    1.07280   1.11246   49.441
 6215.00    1.07160   1.10894   50.090
 6216.00    1.06901   1.10727   50.381
 6217.00    1.07843   1.10616   50.085
 6218.00    1.09624   1.10539   49.575
 6219.00    1.08532   1.10555   49.691
 6220.00    1.06059   1.10731   49.833
 6221.00    1.05788   1.11074   49.499
 6222.00    1.08021   1.11455   49.463
 6223.00    1.08883   1.11784   51.467
 6224.00    1.17517   1.11977   52.802
 6225.00    1.29568   1.11989   -1.000
 6226.00    1.18829   1.11772   -1.000
 6227.00    1.07998   1.11251   49.112
 6228.00    1.09329   1.10441   49.248
 6229.00    1.06907   1.09505   49.747
 6230.00    1.04589   1.08745   50.530
 6231.00    1.03525   1.08461   51.282
 6232.00    1.02888   1.08739   -1.000
 6233.00    1.02583   1.09436   -1.000
 6234.00    1.01946   1.10208   -1.000
 6235.00    1.01402   1.10770   -1.000
 6236.00    1.01358   1.10970   -1.000
 6237.00    1.02957   1.10860   -1.000
 6238.00    1.05475   1.10585   49.198
 6239.00    1.05679   1.10267   49.705
 6240.00    1.04631   1.09949   50.222
 6241.00    1.04379   1.09590   50.600
 6242.00    1.04291   1.09135   50.669
 6243.00    1.04594   1.08598   50.828
 6244.00    1.05531   1.08109   51.218
 6245.00    1.06087   1.07854   51.364
 6246.00    1.06733   1.08014   51.158
 6247.00    1.07302   1.08573   50.723
 6248.00    1.07335   1.09320   50.138
 6249.00    1.07538   1.09883   49.546
 6250.00    1.07404   1.09983   49.267
 6251.00    1.06661   1.09574   49.499
 6252.00    1.04869   1.08850   50.217
 6253.00    1.03151   1.08135   51.031
 6254.00    1.02952   1.07624   51.493
 6255.00    1.02217   1.07386   51.726
 6256.00    0.99860   1.07342   -1.000
 6257.00    0.97218   1.07447   -1.000
 6258.00    0.96984   1.07710   -1.000
 6259.00    0.99699   1.08176   -1.000
 6260.00    1.03713   1.08837   52.064
 6261.00    1.06723   1.09601   51.245
 6262.00    1.07577   1.10326   50.517
 6263.00    1.07646   1.10880   49.789
 6264.00    1.07378   1.11254   49.260
 6265.00    1.06810   1.11507   49.361
 6266.00    1.06573   1.11699   49.768
 6267.00    1.06743   1.11832   49.821
 6268.00    1.07050   1.11856   49.490
 6269.00    1.07856   1.11786   49.379
 6270.00    1.08434   1.11691   49.633
 6271.00    1.08074   1.11595   49.733
 6272.00    1.07867   1.11456   49.593
 6273.00    1.07772   1.11115   49.443
 6274.00    1.07036   1.10496   49.448
 6275.00    1.05987   1.09639   49.706
 6276.00    1.05279   1.08694   50.103
 6277.00    1.04453   1.07875   50.697
 6278.00    1.02382   1.07320   51.766
 6279.00    1.01325   1.07131   -1.000
 6280.00    1.01105   1.07365   -1.000
 6281.00    1.01620   1.07966   -1.000
 6282.00    1.03096   1.08830   -1.000
 6283.00    1.03893   1.09767   -1.000
 6284.00    1.04228   1.10604   -1.000
 6285.00    1.04847   1.11238   -1.000
 6286.00    1.04896   1.11626   -1.000
 6287.00    1.04768   1.11788   -1.000
 6288.00    1.05025   1.11743   -1.000
 6289.00    1.06905   1.11549   49.029
 6290.00    1.08829   1.11304   49.117
 6291.00    1.09230   1.11084   49.477
 6292.00    1.07542   1.10929   49.882
 6293.00    1.05672   1.10803   50.120
 6294.00    1.06186   1.10624   50.178
 6295.00    1.06286   1.10322   50.248
 6296.00    1.04626   1.09903   50.480
 6297.00    1.04129   1.09445   50.868
 6298.00    1.03917   1.09029   51.075
 6299.00    1.06144   1.08695   51.062
 6300.00    1.09433   1.08485   50.912
 6301.00    1.12995   1.08485   50.683
 6302.00    1.14461   1.08811   50.761
 6303.00    1.13406   1.09460   51.311
 6304.00    1.10609   1.10281   51.431
 6305.00    1.07880   1.11066   50.746
 6306.00    1.05239   1.11651   -1.000
 6307.00    1.04301   1.11985   -1.000
 6308.00    1.05671   1.12115   -1.000
 6309.00    1.10002   1.12121   48.791
 6310.00    1.11830   1.12024   48.875
 6311.00    1.10064   1.11832   49.163
 6312.00    1.08669   1.11520   49.438
 6313.00    1.07762   1.11084   49.622
 6314.00    1.06641   1.10590   49.756
 6315.00    1.05908   1.10109   49.980
 6316.00    1.06544   1.09740   50.347
 6317.00    1.07044   1.09577   50.403
 6318.00    1.07948   1.09687   50.350
 6319.00    1.07802   1.10071   50.357
 6320.00    1.07201   1.10630   50.319
 6321.00    1.07908   1.11233   49.920
 6322.00    1.08690   1.11819   49.340
 6323.00    1.09473   1.12355   49.003
 6324.00    1.10309   1.12786   48.845
 6325.00    1.09946   1.13091   48.635
 6326.00    1.08553   1.13237   48.414
 6327.00    1.08476   1.13263   48.328
 6328.00    1.07873   1.13243   48.211
 6329.00    1.07113   1.13219   -1.000
 6330.00    1.08160   1.13196   48.146
 6331.00    1.10829   1.13104   48.176
 6332.00    1.12702   1.12836   48.115
 6333.00    1.13079   1.12328   47.968
 6334.00    1.11634   1.11651   47.992
 6335.00    1.09892   1.11002   48.132
 6336.00    1.10269   1.10627   48.699
 6337.00    1.11007   1.10652   49.453
 6338.00    1.10261   1.11030   49.245
 6339.00    1.11665   1.11616   48.764
 6340.00    1.13251   1.12194   48.246
 6341.00    1.13030   1.12583   47.844
 6342.00    1.12165   1.12719   47.632
 6343.00    1.12064   1.12641   47.516
 6344.00    1.11735   1.12492   47.748
 6345.00    1.11456   1.12434   48.045
 6346.00    1.11376   1.12578   47.995
 6347.00    1.11098   1.12945   47.795
 6348.00    1.11207   1.13431   47.493
 6349.00    1.12872   1.13877   47.223
 6350.00    1.14453   1.14150   47.140
 6351.00    1.13900   1.14175   47.111
 6352.00    1.12705   1.13966   47.064
 6353.00    1.12238   1.13604   47.189
 6354.00    1.10721   1.13185   47.409
 6355.00    1.08777   1.12794   47.772
 6356.00    1.08329   1.12442   48.286
 6357.00    1.08889   1.12110   48.516
 6358.00    1.10309   1.11799   48.565
 6359.00    1.11245   1.11507   48.900
 6360.00    1.11229   1.11232   49.334
 6361.00    1.10873   1.11013   49.336
 6362.00    1.11392   1.10896   49.131
 6363.00    1.12827   1.10928   49.028
 6364.00    1.14282   1.11126   48.935
 6365.00    1.15462   1.11442   48.688
 6366.00    1.16029   1.11799   48.362
 6367.00    1.15581   1.12101   48.077
 6368.00    1.14751   1.12288   47.800
 6369.00    1.14327   1.12386   47.486
 6370.00    1.14666   1.12475   47.253
 6371.00    1.14690   1.12630   47.212
 6372.00    1.15076   1.12857   47.171
 6373.00    1.15821   1.13080   46.986
 6374.00    1.14518   1.13201   46.934
 6375.00    1.13471   1.13177   47.041
 6376.00    1.14113   1.13009   47.098
 6377.00    1.13325   1.12765   47.236
 6378.00    1.11842   1.12495   47.445
 6379.00    1.11369   1.12234   47.726
 6380.00    1.11421   1.12003   47.995
 6381.00    1.11019   1.11825   48.103
 6382.00    1.11039   1.11732   48.153
 6383.00    1.11456   1.11756   48.205
 6384.00    1.11501   1.11897   48.135
 6385.00    1.10960   1.12111   48.150
 6386.00    1.10757   1.12308   48.350
 6387.00    1.10690   1.12421   48.386
 6388.00    1.10854   1.12398   48.417
 6389.00    1.10262   1.12213   48.581
 6390.00    1.08778   1.11851   48.842
 6391.00    1.08286   1.11352   49.255
 6392.00    1.07473   1.10878   49.713
 6393.00    1.06716   1.10606   50.376
 6394.00    1.06081   1.10644   51.014
 6395.00    1.06080   1.10896   51.173
 6396.00    1.06969   1.11112   50.719
 6397.00    1.07073   1.11083   50.210
 6398.00    1.06395   1.10779   50.337
 6399.00    1.05593   1.10438   50.861
 6400.00    1.04023   1.10334   -1.000
 6401.00    1.01812   1.10614   -1.000
 6402.00    1.02362   1.11191   -1.000
 6403.00    1.04409   1.11807   -1.000
 6404.00    1.05087   1.12204   -1.000
 6405.00    1.04401   1.12254   -1.000
 6406.00    1.03818   1.12035   -1.000
 6407.00    1.03274   1.11723   -1.000
 6408.00    1.02334   1.11480   -1.000
 6409.00    1.01601   1.11338   -1.000
 6410.00    1.00813   1.11277   -1.000
 6411.00    0.99577   1.11308   -1.000
 6412.00    0.98476   1.11423   -1.000
 6413.00    0.98203   1.11602   -1.000
 6414.00    0.98759   1.11793   -1.000
 6415.00    0.99128   1.11932   -1.000
 6416.00    0.98126   1.11954   -1.000
 6417.00    0.96813   1.11802   -1.000
 6418.00    0.95956   1.11485   -1.000
 6419.00    0.94566   1.11119   -1.000
 6420.00    0.92992   1.10888   -1.000
 6421.00    0.92328   1.10994   -1.000
 6422.00    0.93041   1.11478   -1.000
 6423.00    0.93430   1.12173   -1.000
 6424.00    0.92514   1.12904   -1.000
 6425.00    0.92111   1.13462   -1.000
 6426.00    0.91734   1.13705   -1.000
 6427.00    0.90931   1.13575   -1.000
 6428.00    0.89877   1.13080   -1.000
