###################################################################
## OUTPUT of StarlightChains_v04.for    [Cid@UFSC - 01/Apr/2007] ##
###################################################################

## Some input info
NGC6528_c_2.cxt                          [arq_obs]
Base.BC03.N                              [arq_base]
NGC6528_c_2.msk                          [arq_masks]
StCv04.C11.config                        [arq_config]
   45                                    [N_base]
    0                                    [N_YAV_components = # of components with extra extinction!]
    0                                    [i_FitPowerLaw (1/0 = Yes/No)]
-9.99                                    [alpha_PowerLaw]
CCM                                      [red_law_option]
 1.458241                                [q_norm = A(l_norm)/A(V)]

## (Re)Sampling Parameters
 3359.00                                 [l_ini (A)]
 6428.00                                 [l_fin (A)]
    1.00                                 [dl    (A)]     (OBS: dl_cushion =    50.00 A)

## Normalization info
 4020.00                                 [l_norm (A) - for base]
 4010.00                                 [llow_norm (A) - window for f_obs]
 4060.00                                 [lupp_norm (A) - window for f_obs]
4.572307E-15                             [fobs_norm (in input units)]

## S/N
 4730.00                                 [llow_SN (A) - window for S/N]
 4780.00                                 [lupp_SN (A) - window for S/N]
  26.838                                 [S/N in S/N window]
  13.309                                 [S/N in norm. window]
 348.211                                 [S/N_err in S/N window]
 172.676                                 [S/N_err in norm. window]
  1.0000                                 [fscale_chi2]

## etc...
  2147483601                             [idum_orig]
  3069                                   [NOl_eff]
   516                                   [Nl_eff]
  2553    NSIGMA                         [Ntot_cliped & clip_method]
   891800                                [Nglobal_steps]
   7                                     [N_chains]
  11                                     [NEX0s_base = N_base in EX0s-fits]
 0   0   1      162   2.0   3.907E+02    [Clip-Bug, RC-Crash & Burn-In warning-flags, n_censored_weights, wei_nsig_threshold & wei_limit]
    10     10.422     10.418      0.004  [idt_all, wdt_TotTime, wdt_UsrTime & wdt_SysTime (sec)]

## Synthesis Results - Best model ##

 3.00586E+00                             [chi2/Nl_eff]
     2.56176                             [adev (%)]

   104.88373                             [sum-of-x (%)]
 2.19062E-14                             [Flux_tot (units of input spectrum!)]
 1.93501E-09                             [Mini_tot (???)]
 9.80458E-10                             [Mcor_tot (???)]

   3.00                                  [v0_min  (km/s)]
 107.70                                  [vd_min  (km/s)]
 1.1310                                  [AV_min  (mag)]
 0.0000                                  [YAV_min (mag)]

# j     x_j(%)      Mini_j(%)     Mcor_j(%)     age_j(yr)     Z_j      (L/M)_j    YAV?  Mstars   component_j        a/Fe...       SSP_chi2r SSP_adev(%)   SSP_AV   SSP_x(%)
  1      2.9993     2.9061E-03    5.7353E-03    1.000000E+06  0.00400  1.114E-02    0   1.0000   age020_m42            0.0000     5.7532E+03    48.0165   4.0000    90.5516
  2      1.1153     2.9557E-04    5.8326E-04    3.160000E+06  0.00400  4.073E-02    0   0.9999   age045_m42            0.0000     2.2286E+03    27.2864   4.0000   104.1824
  3      2.9378     1.2514E-03    2.3432E-03    5.010000E+06  0.00400  2.534E-02    0   0.9488   age055_m42            0.0000     3.5146E+03    37.1462   4.0000    99.1531
  4      4.7597     4.0422E-03    7.0697E-03    1.000000E+07  0.00400  1.271E-02    0   0.8862   age070_m42            0.0000     1.7836E+03    25.5520   4.0000    99.6399
  5      0.2925     6.2271E-04    1.0046E-03    2.512000E+07  0.00400  5.070E-03    0   0.8174   age090_m42            0.0000     1.4739E+03    23.0202   4.0000   100.3551
  6      0.0000     0.0000E+00    0.0000E+00    4.000000E+07  0.00400  3.505E-03    0   0.7851   age104_m42            0.0000     9.6513E+02    17.1971   4.0000   100.0783
  7      0.0000     0.0000E+00    0.0000E+00    1.015200E+08  0.00400  2.268E-03    0   0.7207   age116_m42            0.0000     1.4561E+03    19.3900   4.0000   106.7126
  8      0.0000     0.0000E+00    0.0000E+00    2.861200E+08  0.00400  1.079E-03    0   0.6613   age125_m42            0.0000     1.3622E+03    19.3646   3.8337   104.5619
  9      0.0000     0.0000E+00    0.0000E+00    6.405400E+08  0.00400  5.077E-04    0   0.6197   age132_m42            0.0000     1.3549E+03    19.3523   3.4427   108.8267
 10      0.0000     0.0000E+00    0.0000E+00    9.047900E+08  0.00400  3.535E-04    0   0.6024   age135_m42            0.0000     1.0461E+03    16.8441   3.1716   108.4795
 11      0.0000     0.0000E+00    0.0000E+00    1.434000E+09  0.00400  1.910E-04    0   0.5716   age139_m42            0.0000     6.0344E+02    12.2606   2.4922   108.3276
 12      0.0000     0.0000E+00    0.0000E+00    2.500000E+09  0.00400  9.818E-05    0   0.5463   age150_m42            0.0000     2.7779E+02     8.0273   2.1568   104.5680
 13      0.0000     0.0000E+00    0.0000E+00    5.000000E+09  0.00400  4.718E-05    0   0.5228   age161_m42            0.0000     1.5590E+02     5.9927   1.9755   101.5758
 14      0.0000     0.0000E+00    0.0000E+00    1.100000E+10  0.00400  2.205E-05    0   0.4980   age185_m42            0.0000     6.9094E+01     4.5908   1.6001   100.2948
 15      0.0000     0.0000E+00    0.0000E+00    1.300000E+10  0.00400  1.883E-05    0   0.4927   age193_m42            0.0000     6.2615E+01     4.5005   1.5781   100.1749
 16      0.5206     2.8251E-04    5.5756E-04    1.000000E+06  0.02000  1.989E-02    0   1.0000   age020_m62            0.0000     5.5893E+03    47.2156   4.0000    91.6121
 17      0.2562     7.3308E-05    1.4263E-04    3.160000E+06  0.02000  3.772E-02    0   0.9858   age045_m62            0.0000     5.0419E+03    45.1945   4.0000    94.1348
 18      0.0000     0.0000E+00    0.0000E+00    5.010000E+06  0.02000  3.227E-02    0   0.9342   age055_m62            0.0000     2.9323E+03    33.4330   4.0000   101.8166
 19      0.0000     0.0000E+00    0.0000E+00    1.000000E+07  0.02000  1.011E-02    0   0.8751   age070_m62            0.0000     2.3079E+03    30.4808   4.0000    97.0852
 20      0.0000     0.0000E+00    0.0000E+00    2.512000E+07  0.02000  4.206E-03    0   0.8099   age090_m62            0.0000     1.8781E+03    27.5131   4.0000    97.3352
 21      0.0000     0.0000E+00    0.0000E+00    4.000000E+07  0.02000  3.373E-03    0   0.7799   age104_m62            0.0000     1.3025E+03    19.5920   4.0000   103.4508
 22      0.0000     0.0000E+00    0.0000E+00    1.015200E+08  0.02000  1.878E-03    0   0.7221   age116_m62            0.0000     1.4498E+03    18.6905   4.0000   107.9252
 23      0.0000     0.0000E+00    0.0000E+00    2.861200E+08  0.02000  8.869E-04    0   0.6700   age125_m62            0.0000     1.8150E+03    21.7822   3.7967   109.3712
 24      0.0000     0.0000E+00    0.0000E+00    6.405400E+08  0.02000  3.657E-04    0   0.6322   age132_m62            0.0000     1.2367E+03    16.9606   2.8950   114.7644
 25      0.0000     0.0000E+00    0.0000E+00    9.047900E+08  0.02000  2.312E-04    0   0.6152   age135_m62            0.0000     8.1553E+02    13.5055   2.4812   113.9755
 26      0.0000     0.0000E+00    0.0000E+00    1.434000E+09  0.02000  1.168E-04    0   0.5865   age139_m62            0.0000     3.4270E+02     8.4990   2.0354   108.7922
 27      0.0000     0.0000E+00    0.0000E+00    2.500000E+09  0.02000  5.505E-05    0   0.5610   age150_m62            0.0000     1.2871E+02     5.8314   1.5631   106.8479
 28      0.0000     0.0000E+00    0.0000E+00    5.000000E+09  0.02000  2.596E-05    0   0.5353   age161_m62            0.0000     3.9162E+01     5.3319   1.0660   108.3255
 29     49.1317     4.5365E+01    4.5688E+01    1.100000E+10  0.02000  1.169E-05    0   0.5103   age185_m62            0.0000     5.8197E+01     7.5292   0.5521   110.9943
 30     30.7913     3.4295E+01    3.4160E+01    1.300000E+10  0.02000  9.691E-06    0   0.5047   age193_m62            0.0000     6.9857E+01     8.0684   0.4830   111.4220
 31      0.0000     0.0000E+00    0.0000E+00    1.000000E+06  0.05000  2.651E-02    0   0.9998   age020_m72            0.0000     5.4473E+03    46.6742   4.0000    92.8512
 32      2.0670     4.6317E-04    8.7544E-04    3.160000E+06  0.05000  4.817E-02    0   0.9577   age045_m72            0.0000     4.2791E+03    41.3783   4.0000    98.0863
 33      0.0000     0.0000E+00    0.0000E+00    5.010000E+06  0.05000  3.101E-02    0   0.9147   age055_m72            0.0000     3.3091E+03    36.1035   4.0000   100.3574
 34      0.0000     0.0000E+00    0.0000E+00    1.000000E+07  0.05000  8.954E-03    0   0.8524   age070_m72            0.0000     3.7422E+03    38.8910   4.0000    99.7593
 35      0.0000     0.0000E+00    0.0000E+00    2.512000E+07  0.05000  4.207E-03    0   0.7902   age090_m72            0.0000     2.3169E+03    29.5719   4.0000   104.2741
 36      0.0000     0.0000E+00    0.0000E+00    4.000000E+07  0.05000  3.198E-03    0   0.7618   age104_m72            0.0000     1.5215E+03    18.8547   4.0000   107.9605
 37      0.0000     0.0000E+00    0.0000E+00    1.015200E+08  0.05000  1.716E-03    0   0.7092   age116_m72            0.0000     1.6274E+03    19.6271   4.0000   109.0845
 38      0.0000     0.0000E+00    0.0000E+00    2.861200E+08  0.05000  7.047E-04    0   0.6618   age125_m72            0.0000     1.7150E+03    20.6030   3.4930   110.5624
 39      0.0000     0.0000E+00    0.0000E+00    6.405400E+08  0.05000  2.633E-04    0   0.6253   age132_m72            0.0000     9.6141E+02    14.5672   2.4465   114.4709
 40      0.0000     0.0000E+00    0.0000E+00    9.047900E+08  0.05000  1.484E-04    0   0.6088   age135_m72            0.0000     3.9114E+02     9.6014   1.8691   110.5708
 41      0.0000     0.0000E+00    0.0000E+00    1.434000E+09  0.05000  7.827E-05    0   0.5847   age139_m72            0.0000     1.2621E+02     6.4345   1.3598   108.2925
 42      0.0000     0.0000E+00    0.0000E+00    2.500000E+09  0.05000  3.759E-05    0   0.5583   age150_m72            0.0000     4.0732E+01     5.5302   0.9522   108.4846
 43      0.0000     0.0000E+00    0.0000E+00    5.000000E+09  0.05000  1.548E-05    0   0.5320   age161_m72            0.0000     6.4551E+01     7.6399   0.4335   109.0856
 44      0.0000     0.0000E+00    0.0000E+00    1.100000E+10  0.05000  6.532E-06    0   0.5070   age185_m72            0.0000     1.5276E+02    10.4111  -0.1666   110.7602
 45     10.0123     2.0329E+01    2.0133E+01    1.300000E+10  0.05000  5.316E-06    0   0.5018   age193_m72            0.0000     1.9917E+02    11.5012  -0.3736   111.7006


## Synthesis Results - Average & Chains ##

# j      x_j: min, <> & last-chain-values for 1 ...  7 chains
  1      2.9993      2.8081      2.6705      2.8578      2.7404      2.8620      2.7835      2.8640      2.8329
  2      1.1153      0.3687      0.5162      0.2484      0.4075      0.5618      0.3300      0.4702      0.2174
  3      2.9378      1.9281      2.3117      2.0582      1.9898      1.8932      1.8905      1.9627      2.1013
  4      4.7597      4.4133      3.9366      4.3160      4.4077      4.7070      4.6348      4.4495      4.3653
  5      0.2925      0.4433      0.5518      0.2226      0.3293      0.5112      0.4217      0.4950      0.4222
  6      0.0000      0.0322      0.0556      0.0000      0.0184      0.0000      0.0000      0.0000      0.0000
  7      0.0000      0.0194      0.0000      0.0000      0.0000      0.0682      0.0055      0.0000      0.0000
  8      0.0000      0.0094      0.0000      0.0000      0.0000      0.0000      0.0000      0.1706      0.1291
  9      0.0000      0.0228      0.0000      0.0000      0.0281      0.0000      0.0000      0.0000      0.0000
 10      0.0000      0.0231      0.0000      0.0000      0.0000      0.0000      0.0000      0.0000      0.0104
 11      0.0000      0.0258      0.0000      0.0000      0.0251      0.0000      0.0242      0.0000      0.0000
 12      0.0000      0.0397      0.0000      0.0000      0.0000      0.0000      0.0000      0.0000      0.0000
 13      0.0000      0.0442      0.0000      0.0000      0.0000      0.0000      0.1811      0.0000      0.0000
 14      0.0000      0.0431      0.1445      0.0243      0.0000      0.0000      0.0000      0.0000      0.0000
 15      0.0000      0.0381      0.1121      0.0000      0.0345      0.0000      0.0000      0.0000      0.0000
 16      0.5206      0.7325      0.8120      0.7497      0.7220      0.5556      0.7023      0.6709      0.6609
 17      0.2562      0.4923      0.5093      0.6084      0.5610      0.5834      0.4587      0.4985      0.4528
 18      0.0000      0.4160      0.4444      0.4101      0.4989      0.3489      0.5599      0.4722      0.3872
 19      0.0000      0.0663      0.0000      0.0000      0.1258      0.0000      0.2084      0.0000      0.0000
 20      0.0000      0.0409      0.1547      0.0000      0.0000      0.0000      0.0108      0.0358      0.0000
 21      0.0000      0.0399      0.0000      0.0000      0.0000      0.0000      0.0000      0.1976      0.0828
 22      0.0000      0.0117      0.0000      0.0000      0.0000      0.0000      0.0000      0.0000      0.0000
 23      0.0000      0.0064      0.0000      0.0000      0.0000      0.0000      0.0000      0.0000      0.0000
 24      0.0000      0.0284      0.0000      0.2074      0.0000      0.0000      0.0000      0.0000      0.0000
 25      0.0000      0.0394      0.2320      0.0000      0.0000      0.0000      0.0000      0.0000      0.0000
 26      0.0000      0.0606      0.0000      0.2899      0.0000      0.0000      0.0000      0.0000      0.0000
 27      0.0000      0.1123      0.0000      0.0424      0.0000      0.0000      0.0929      0.1281      0.0000
 28      0.0000      0.2544      0.3455      0.2078      0.0000      0.0000      1.0154      0.0000      0.1534
 29     49.1317     50.3405     50.5437     50.6496     50.4381     50.3607     49.5880     50.5643     50.7670
 30     30.7913     27.9413     27.7061     28.0705     27.5887     28.4022     27.7680     27.7837     27.8354
 31      0.0000      0.0366      0.0000      0.0085      0.0173      0.1524      0.0000      0.0982      0.3877
 32      2.0670      2.4228      2.4086      2.5453      2.4247      2.3185      2.5150      2.3254      2.4713
 33      0.0000      0.0322      0.0000      0.1816      0.0613      0.1475      0.0000      0.0329      0.0085
 34      0.0000      0.0390      0.1396      0.0000      0.1625      0.0000      0.0000      0.0000      0.0000
 35      0.0000      0.0302      0.0000      0.0000      0.0000      0.0000      0.0000      0.0000      0.0000
 36      0.0000      0.0280      0.0000      0.1579      0.0000      0.0000      0.0000      0.0000      0.0000
 37      0.0000      0.0167      0.0000      0.0000      0.0000      0.0184      0.0000      0.0202      0.0000
 38      0.0000      0.0115      0.0000      0.0000      0.0000      0.0000      0.0000      0.0000      0.0150
 39      0.0000      0.0306      0.0000      0.0000      0.0000      0.1696      0.0000      0.0000      0.0000
 40      0.0000      0.0506      0.0000      0.0000      0.1663      0.1073      0.1421      0.0000      0.4592
 41      0.0000      0.1016      0.0000      0.4301      0.0942      0.0000      0.0000      0.0935      0.0000
 42      0.0000      0.2187      0.0000      0.0000      0.9005      0.3159      0.0000      0.1374      0.3605
 43      0.0000      0.5072      1.1948      0.1210      0.7161      0.2738      0.7760      0.6933      0.3657
 44      0.0000      0.2834      0.0000      0.5879      0.5406      0.3475      0.2705      0.4473      0.1043
 45     10.0123     10.3694     10.1218      9.9556      9.9451     10.2442     10.5396     10.3580     10.3302

# j      m_j: min, <> & last-chain-values for 1 ...  7 chains
  1  5.7353E-03  5.3796E-03  5.1437E-03  5.4890E-03  5.2784E-03  5.4809E-03  5.3404E-03  5.4752E-03  5.4420E-03
  2  5.8326E-04  1.9314E-04  2.7191E-04  1.3049E-04  2.1467E-04  2.9425E-04  1.7317E-04  2.4583E-04  1.1420E-04
  3  2.3432E-03  1.5407E-03  1.8572E-03  1.6490E-03  1.5986E-03  1.5123E-03  1.5130E-03  1.5651E-03  1.6837E-03
  4  7.0697E-03  6.5670E-03  5.8894E-03  6.4391E-03  6.5943E-03  7.0018E-03  6.9070E-03  6.6072E-03  6.5134E-03
  5  1.0046E-03  1.5254E-03  1.9089E-03  7.6777E-04  1.1391E-03  1.7583E-03  1.4532E-03  1.6995E-03  1.4566E-03
  6  0.0000E+00  1.5404E-04  2.6743E-04  0.0000E+00  8.8639E-05  0.0000E+00  0.0000E+00  0.0000E+00  0.0000E+00
  7  0.0000E+00  1.3178E-04  0.0000E+00  0.0000E+00  0.0000E+00  4.6231E-04  3.7283E-05  0.0000E+00  0.0000E+00
  8  0.0000E+00  1.2231E-04  0.0000E+00  0.0000E+00  0.0000E+00  0.0000E+00  0.0000E+00  2.2268E-03  1.6936E-03
  9  0.0000E+00  5.9403E-04  0.0000E+00  0.0000E+00  7.3623E-04  0.0000E+00  0.0000E+00  0.0000E+00  0.0000E+00
 10  0.0000E+00  8.4073E-04  0.0000E+00  0.0000E+00  0.0000E+00  0.0000E+00  0.0000E+00  0.0000E+00  3.7767E-04
 11  0.0000E+00  1.6497E-03  0.0000E+00  0.0000E+00  1.6128E-03  0.0000E+00  1.5509E-03  0.0000E+00  0.0000E+00
 12  0.0000E+00  4.7184E-03  0.0000E+00  0.0000E+00  0.0000E+00  0.0000E+00  0.0000E+00  0.0000E+00  0.0000E+00
 13  0.0000E+00  1.0441E-02  0.0000E+00  0.0000E+00  0.0000E+00  0.0000E+00  4.2899E-02  0.0000E+00  0.0000E+00
 14  0.0000E+00  2.0783E-02  7.0003E-02  1.1732E-02  0.0000E+00  0.0000E+00  0.0000E+00  0.0000E+00  0.0000E+00
 15  0.0000E+00  2.1276E-02  6.2936E-02  0.0000E+00  1.9374E-02  0.0000E+00  0.0000E+00  0.0000E+00  0.0000E+00
 16  5.5756E-04  7.8592E-04  8.7597E-04  8.0654E-04  7.7890E-04  5.9595E-04  7.5472E-04  7.1830E-04  7.1103E-04
 17  1.4263E-04  2.7456E-04  2.8558E-04  3.4021E-04  3.1459E-04  3.2527E-04  2.5621E-04  2.7745E-04  2.5327E-04
 18  0.0000E+00  2.5699E-04  2.7605E-04  2.5405E-04  3.0989E-04  2.1548E-04  3.4640E-04  2.9114E-04  2.3989E-04
 19  0.0000E+00  1.2241E-04  0.0000E+00  0.0000E+00  2.3364E-04  0.0000E+00  3.8564E-04  0.0000E+00  0.0000E+00
 20  0.0000E+00  1.6817E-04  6.3930E-04  0.0000E+00  0.0000E+00  0.0000E+00  4.4437E-05  1.4702E-04  0.0000E+00
 21  0.0000E+00  1.9680E-04  0.0000E+00  0.0000E+00  0.0000E+00  0.0000E+00  0.0000E+00  9.7290E-04  4.0951E-04
 22  0.0000E+00  9.5887E-05  0.0000E+00  0.0000E+00  0.0000E+00  0.0000E+00  0.0000E+00  0.0000E+00  0.0000E+00
 23  0.0000E+00  1.0328E-04  0.0000E+00  0.0000E+00  0.0000E+00  0.0000E+00  0.0000E+00  0.0000E+00  0.0000E+00
 24  0.0000E+00  1.0476E-03  0.0000E+00  7.6730E-03  0.0000E+00  0.0000E+00  0.0000E+00  0.0000E+00  0.0000E+00
 25  0.0000E+00  2.2350E-03  1.3246E-02  0.0000E+00  0.0000E+00  0.0000E+00  0.0000E+00  0.0000E+00  0.0000E+00
 26  0.0000E+00  6.4906E-03  0.0000E+00  3.1150E-02  0.0000E+00  0.0000E+00  0.0000E+00  0.0000E+00  0.0000E+00
 27  0.0000E+00  2.4419E-02  0.0000E+00  9.2545E-03  0.0000E+00  0.0000E+00  2.0229E-02  2.7811E-02  0.0000E+00
 28  0.0000E+00  1.1194E-01  1.5284E-01  9.1689E-02  0.0000E+00  0.0000E+00  4.4751E-01  0.0000E+00  6.7694E-02
 29  4.5688E+01  4.6897E+01  4.7341E+01  4.7309E+01  4.7243E+01  4.6900E+01  4.6266E+01  4.7008E+01  4.7425E+01
 30  3.4160E+01  3.1055E+01  3.0960E+01  3.1280E+01  3.0829E+01  3.1557E+01  3.0909E+01  3.0815E+01  3.1022E+01
 31  0.0000E+00  2.9482E-05  0.0000E+00  6.8925E-06  1.3970E-05  1.2265E-04  0.0000E+00  7.8874E-05  3.1291E-04
 32  8.7544E-04  1.0280E-03  1.0275E-03  1.0828E-03  1.0344E-03  9.8341E-04  1.0687E-03  9.8463E-04  1.0515E-03
 33  0.0000E+00  2.0249E-05  0.0000E+00  1.1461E-04  3.8783E-05  9.2848E-05  0.0000E+00  2.0666E-05  5.3933E-06
 34  0.0000E+00  7.9237E-05  2.8506E-04  0.0000E+00  3.3198E-04  0.0000E+00  0.0000E+00  0.0000E+00  0.0000E+00
 35  0.0000E+00  1.2118E-04  0.0000E+00  0.0000E+00  0.0000E+00  0.0000E+00  0.0000E+00  0.0000E+00  0.0000E+00
 36  0.0000E+00  1.4237E-04  0.0000E+00  8.0473E-04  0.0000E+00  0.0000E+00  0.0000E+00  0.0000E+00  0.0000E+00
 37  0.0000E+00  1.4767E-04  0.0000E+00  0.0000E+00  0.0000E+00  1.6263E-04  0.0000E+00  1.7775E-04  0.0000E+00
 38  0.0000E+00  2.2970E-04  0.0000E+00  0.0000E+00  0.0000E+00  0.0000E+00  0.0000E+00  0.0000E+00  3.0240E-04
 39  0.0000E+00  1.5496E-03  0.0000E+00  0.0000E+00  0.0000E+00  8.5949E-03  0.0000E+00  0.0000E+00  0.0000E+00
 40  0.0000E+00  4.4326E-03  0.0000E+00  0.0000E+00  1.4640E-02  9.3919E-03  1.2459E-02  0.0000E+00  4.0311E-02
 41  0.0000E+00  1.6192E-02  0.0000E+00  6.8753E-02  1.5105E-02  0.0000E+00  0.0000E+00  1.4868E-02  0.0000E+00
 42  0.0000E+00  6.9312E-02  0.0000E+00  0.0000E+00  2.8697E-01  1.0008E-01  0.0000E+00  4.3456E-02  1.1459E-01
 43  0.0000E+00  3.7197E-01  8.8107E-01  8.8989E-02  5.2809E-01  2.0072E-01  5.7002E-01  5.0743E-01  2.6899E-01
 44  0.0000E+00  4.6941E-01  0.0000E+00  9.7641E-01  9.0032E-01  5.7548E-01  4.4883E-01  7.3939E-01  1.7323E-01
 45  2.0133E+01  2.0889E+01  2.0500E+01  2.0108E+01  2.0143E+01  2.0630E+01  2.1264E+01  2.0823E+01  2.0867E+01

# AV, chi2 & Mass for <> & i_chain = 1 ...  7 solutions
AV       1.1310      1.1141      1.1240      1.1230      1.1188      1.1228      1.1191      1.1167      1.1224
chi2 3.0059E+00  3.0448E+00  3.0261E+00  3.0284E+00  3.0295E+00  3.0208E+00  3.0276E+00  3.0321E+00  3.0270E+00
Mass 9.8046E-10  9.5674E-10  9.6425E-10  9.6571E-10  9.5757E-10  9.6820E-10  9.6163E-10  9.6205E-10  9.6479E-10
   3.00                                  [v0_min (km/s) before EX0s...]
 107.70                                  [vd_min (km/s) before EX0s...]


## Synthetic spectrum (Best Model) ##l_obs f_obs f_syn wei
 3070    [Nl_obs]
 3359.00    0.26891   0.39811   -1.000
 3360.00    0.28396   0.37635   -1.000
 3361.00    0.27327   0.37901   -1.000
 3362.00    0.26212   0.40271   -1.000
 3363.00    0.26184   0.43392   -1.000
 3364.00    0.27323   0.45602   -1.000
 3365.00    0.30327   0.45866   -1.000
 3366.00    0.30170   0.44326   -1.000
 3367.00    0.30462   0.41974   -1.000
 3368.00    0.31847   0.39807   -1.000
 3369.00    0.31149   0.38331   -1.000
 3370.00    0.34088   0.37644   87.949
 3371.00    0.31621   0.37741   -1.000
 3372.00    0.29847   0.38778   -1.000
 3373.00    0.28740   0.40850   -1.000
 3374.00    0.30933   0.43619   -1.000
 3375.00    0.33803   0.46268   -1.000
 3376.00    0.33117   0.47781   -1.000
 3377.00    0.32740   0.47519   -1.000
 3378.00    0.34567   0.45808   -1.000
 3379.00    0.32598   0.43846   -1.000
 3380.00    0.31990   0.42859   -1.000
 3381.00    0.32623   0.43284   -1.000
 3382.00    0.32054   0.44675   -1.000
 3383.00    0.31465   0.46294   -1.000
 3384.00    0.32522   0.47671   -1.000
 3385.00    0.35282   0.48610   -1.000
 3386.00    0.37742   0.49045   -1.000
 3387.00    0.38014   0.49056   -1.000
 3388.00    0.35317   0.48819   -1.000
 3389.00    0.37409   0.48332   -1.000
 3390.00    0.37132   0.47388   -1.000
 3391.00    0.34809   0.46020   -1.000
 3392.00    0.35237   0.44866   -1.000
 3393.00    0.35324   0.44732   -1.000
 3394.00    0.36144   0.45881   -1.000
 3395.00    0.35351   0.47877   -1.000
 3396.00    0.37657   0.50039   -1.000
 3397.00    0.39686   0.51940   -1.000
 3398.00    0.42953   0.53361   -1.000
 3399.00    0.42622   0.54068   -1.000
 3400.00    0.40920   0.53917   -1.000
 3401.00    0.41570   0.52994   -1.000
 3402.00    0.42085   0.51621   -1.000
 3403.00    0.41127   0.50205   -1.000
 3404.00    0.40458   0.48967   -1.000
 3405.00    0.42991   0.47905   53.899
 3406.00    0.41771   0.47021   54.735
 3407.00    0.44431   0.46472   54.970
 3408.00    0.42921   0.46457   54.503
 3409.00    0.41834   0.46899   52.922
 3410.00    0.40516   0.47274   -1.000
 3411.00    0.40769   0.46889   -1.000
 3412.00    0.44704   0.45554   55.881
 3413.00    0.44459   0.43907   55.623
 3414.00    0.43729   0.42994   54.122
 3415.00    0.43591   0.43524   51.752
 3416.00    0.43044   0.45425   49.282
 3417.00    0.43786   0.48042   46.985
 3418.00    0.43778   0.50582   -1.000
 3419.00    0.44220   0.52369   -1.000
 3420.00    0.47150   0.52902   46.939
 3421.00    0.49333   0.52092   48.315
 3422.00    0.46286   0.50542   49.173
 3423.00    0.44802   0.49222   47.730
 3424.00    0.46347   0.48678   46.565
 3425.00    0.45051   0.48844   50.432
 3426.00    0.45511   0.49531   -1.000
 3427.00    0.48305   0.50724   -1.000
 3428.00    0.46490   0.52297   -1.000
 3429.00    0.49279   0.53562   -1.000
 3430.00    0.49868   0.53605   -1.000
 3431.00    0.47630   0.52284   46.517
 3432.00    0.47111   0.50519   50.494
 3433.00    0.43877   0.49459   -1.000
 3434.00    0.44592   0.49395   -1.000
 3435.00    0.45292   0.49582   46.414
 3436.00    0.45712   0.49058   48.672
 3437.00    0.45031   0.47345   51.705
 3438.00    0.44378   0.44539   55.653
 3439.00    0.44485   0.41212   57.657
 3440.00    0.40841   0.38225   57.694
 3441.00    0.39588   0.36372   57.229
 3442.00    0.39895   0.36040   54.838
 3443.00    0.40272   0.37019   51.819
 3444.00    0.42009   0.38733   49.061
 3445.00    0.42566   0.40730   52.325
 3446.00    0.43074   0.42869  390.720
 3447.00    0.43703   0.45151   -1.000
 3448.00    0.46093   0.47424   -1.000
 3449.00    0.47890   0.49156   -1.000
 3450.00    0.47775   0.49743   -1.000
 3451.00    0.46959   0.49245   -1.000
 3452.00    0.48682   0.48497  390.720
 3453.00    0.51203   0.48312   -1.000
 3454.00    0.48934   0.48703  390.720
 3455.00    0.48687   0.48917  390.720
 3456.00    0.45915   0.48210   -1.000
 3457.00    0.46273   0.46517   46.418
 3458.00    0.45709   0.44427   46.947
 3459.00    0.43983   0.42743   51.806
 3460.00    0.47226   0.42048   -1.000
 3461.00    0.46018   0.42572   -1.000
 3462.00    0.45044   0.44065   -1.000
 3463.00    0.46339   0.45712   -1.000
 3464.00    0.47508   0.46679   -1.000
 3465.00    0.49453   0.46951   -1.000
 3466.00    0.49481   0.47229   -1.000
 3467.00    0.48475   0.48090  390.720
 3468.00    0.50167   0.49427   -1.000
 3469.00    0.51616   0.50570   -1.000
 3470.00    0.51864   0.50792   -1.000
 3471.00    0.51884   0.49714   -1.000
 3472.00    0.50515   0.47462   -1.000
 3473.00    0.48324   0.44640   46.941
 3474.00    0.46891   0.42126   48.377
 3475.00    0.45486   0.40778   53.130
 3476.00    0.46349   0.41077   -1.000
 3477.00    0.45745   0.42788   -1.000
 3478.00    0.46710   0.45049   -1.000
 3479.00    0.50821   0.46907   -1.000
 3480.00    0.52199   0.47796   -1.000
 3481.00    0.49425   0.47673   -1.000
 3482.00    0.48158   0.46955   -1.000
 3483.00    0.48204   0.46372   -1.000
 3484.00    0.49298   0.46594   -1.000
 3485.00    0.50172   0.47676   -1.000
 3486.00    0.50363   0.48843   -1.000
 3487.00    0.49320   0.49024  390.720
 3488.00    0.50569   0.47718   -1.000
 3489.00    0.51130   0.45477   -1.000
 3490.00    0.48932   0.43509   -1.000
 3491.00    0.47591   0.42758   -1.000
 3492.00    0.49402   0.43278   -1.000
 3493.00    0.49269   0.44330   -1.000
 3494.00    0.47615   0.45037   -1.000
 3495.00    0.47969   0.45109   -1.000
 3496.00    0.48110   0.45132   -1.000
 3497.00    0.47578   0.46030   -1.000
 3498.00    0.48597   0.48082  369.811
 3499.00    0.50476   0.50570  365.344
 3500.00    0.52082   0.52588  361.218
 3501.00    0.52467   0.53929   -1.000
 3502.00    0.54881   0.54782  370.069
 3503.00    0.57944   0.55096   -1.000
 3504.00    0.55961   0.54718   -1.000
 3505.00    0.53861   0.53832  375.972
 3506.00    0.53310   0.52891  373.022
 3507.00    0.53930   0.52096   -1.000
 3508.00    0.51801   0.51209  390.720
 3509.00    0.51205   0.49982   -1.000
 3510.00    0.51545   0.48476   -1.000
 3511.00    0.51433   0.46884   -1.000
 3512.00    0.52134   0.45437   -1.000
 3513.00    0.47795   0.44570   -1.000
 3514.00    0.45624   0.44928  390.720
 3515.00    0.47514   0.46877  371.362
 3516.00    0.49440   0.49855  368.264
 3517.00    0.51699   0.52498  380.268
 3518.00    0.52766   0.53547  390.720
 3519.00    0.53794   0.52614   -1.000
 3520.00    0.52141   0.50219   -1.000
 3521.00    0.51021   0.47256   -1.000
 3522.00    0.49288   0.44419   46.574
 3523.00    0.45424   0.42060   47.962
 3524.00    0.44887   0.40553   55.075
 3525.00    0.42920   0.40456   -1.000
 3526.00    0.42222   0.42072  390.720
 3527.00    0.44521   0.44996  389.775
 3528.00    0.47099   0.48185   -1.000
 3529.00    0.52027   0.50494   -1.000
 3530.00    0.53487   0.51421   -1.000
 3531.00    0.51566   0.51433  390.042
 3532.00    0.49086   0.51491   -1.000
 3533.00    0.49748   0.52155   -1.000
 3534.00    0.53033   0.53224  370.852
 3535.00    0.54909   0.54179  372.092
 3536.00    0.55280   0.54818  367.828
 3537.00    0.54479   0.55346   -1.000
 3538.00    0.55808   0.55834  368.228
 3539.00    0.54798   0.55980   -1.000
 3540.00    0.54418   0.55598   -1.000
 3541.00    0.51851   0.55051   -1.000
 3542.00    0.51150   0.54964   -1.000
 3543.00    0.51885   0.55506   -1.000
 3544.00    0.53361   0.56184   -1.000
 3545.00    0.54019   0.56412   -1.000
 3546.00    0.52165   0.56096   -1.000
 3547.00    0.52202   0.55618   -1.000
 3548.00    0.52591   0.55317   -1.000
 3549.00    0.51882   0.55101   -1.000
 3550.00    0.50933   0.54580   -1.000
 3551.00    0.51218   0.53501   -1.000
 3552.00    0.51040   0.52063   -1.000
 3553.00    0.50429   0.50853  390.720
 3554.00    0.49652   0.50374  390.720
 3555.00    0.47069   0.50562   -1.000
 3556.00    0.45973   0.50882   -1.000
 3557.00    0.46780   0.50930   -1.000
 3558.00    0.48311   0.50829   -1.000
 3559.00    0.47729   0.51046   -1.000
 3560.00    0.47372   0.51777   -1.000
 3561.00    0.48027   0.52534   -1.000
 3562.00    0.48627   0.52335   -1.000
 3563.00    0.49393   0.50484   47.128
 3564.00    0.47480   0.47320   48.626
 3565.00    0.44906   0.44152   48.093
 3566.00    0.42469   0.42126   48.160
 3567.00    0.42589   0.41202   49.697
 3568.00    0.44022   0.40580   50.149
 3569.00    0.41714   0.39919   48.425
 3570.00    0.39972   0.39666   55.514
 3571.00    0.40314   0.40369  390.720
 3572.00    0.40228   0.41936   -1.000
 3573.00    0.42915   0.43715  390.720
 3574.00    0.45978   0.45084   -1.000
 3575.00    0.46762   0.45670   -1.000
 3576.00    0.46819   0.45216   -1.000
 3577.00    0.45132   0.43608   49.038
 3578.00    0.43475   0.41028   52.756
 3579.00    0.42029   0.38086   55.166
 3580.00    0.40131   0.35667   55.474
 3581.00    0.38375   0.34406   55.918
 3582.00    0.37730   0.34210   57.428
 3583.00    0.36810   0.34413   59.131
 3584.00    0.37374   0.34466   59.199
 3585.00    0.36687   0.34425   56.133
 3586.00    0.36724   0.34808   53.191
 3587.00    0.37675   0.36091   50.168
 3588.00    0.39251   0.38414   55.954
 3589.00    0.41624   0.41477  390.720
 3590.00    0.44638   0.44610  390.720
 3591.00    0.47160   0.47058  390.720
 3592.00    0.48691   0.48540  390.720
 3593.00    0.49167   0.49525  388.898
 3594.00    0.48741   0.50773   -1.000
 3595.00    0.49277   0.52608   -1.000
 3596.00    0.50729   0.54693   -1.000
 3597.00    0.53177   0.56534   -1.000
 3598.00    0.54030   0.57880   -1.000
 3599.00    0.55958   0.58476   -1.000
 3600.00    0.56067   0.57877   -1.000
 3601.00    0.54263   0.55913   -1.000
 3602.00    0.53337   0.53051  390.720
 3603.00    0.50415   0.50179  390.720
 3604.00    0.48869   0.48011   -1.000
 3605.00    0.47432   0.46619   -1.000
 3606.00    0.47393   0.45520   -1.000
 3607.00    0.47859   0.44311   -1.000
 3608.00    0.47251   0.43269   -1.000
 3609.00    0.46414   0.43138   -1.000
 3610.00    0.47583   0.44348   -1.000
 3611.00    0.49847   0.46477   -1.000
 3612.00    0.50160   0.48746   -1.000
 3613.00    0.50162   0.50700  377.610
 3614.00    0.51488   0.52074  384.890
 3615.00    0.50877   0.52280   -1.000
 3616.00    0.50816   0.50731  160.389
 3617.00    0.49344   0.47697   56.561
 3618.00    0.47476   0.44787   -1.000
 3619.00    0.45908   0.43880   -1.000
 3620.00    0.46833   0.45610   -1.000
 3621.00    0.50648   0.49050   -1.000
 3622.00    0.52334   0.52800  356.187
 3623.00    0.54319   0.56146   -1.000
 3624.00    0.56910   0.59240   -1.000
 3625.00    0.58791   0.62260   -1.000
 3626.00    0.59111   0.64671   -1.000
 3627.00    0.60754   0.65343   -1.000
 3628.00    0.60962   0.63390   -1.000
 3629.00    0.59306   0.58961  390.720
 3630.00    0.56942   0.53601   -1.000
 3631.00    0.53067   0.49420   -1.000
 3632.00    0.49383   0.47727   -1.000
 3633.00    0.50547   0.48399   -1.000
 3634.00    0.51698   0.50416   -1.000
 3635.00    0.51925   0.52796   -1.000
 3636.00    0.54379   0.55185  343.779
 3637.00    0.56013   0.57683   -1.000
 3638.00    0.57955   0.60194   -1.000
 3639.00    0.57509   0.62159   -1.000
 3640.00    0.59094   0.62896   -1.000
 3641.00    0.60647   0.62102   -1.000
 3642.00    0.57712   0.60110   -1.000
 3643.00    0.56218   0.57568   -1.000
 3644.00    0.54918   0.54961  390.720
 3645.00    0.53881   0.52492   -1.000
 3646.00    0.53388   0.50309   -1.000
 3647.00    0.50296   0.48851   -1.000
 3648.00    0.50591   0.48777   -1.000
 3649.00    0.51830   0.50485   -1.000
 3650.00    0.53526   0.53702  342.544
 3651.00    0.55753   0.57576   -1.000
 3652.00    0.57735   0.61086   -1.000
 3653.00    0.59748   0.63614   -1.000
 3654.00    0.61803   0.65295   -1.000
 3655.00    0.62147   0.66695   -1.000
 3656.00    0.63120   0.68239   -1.000
 3657.00    0.63450   0.69848   -1.000
 3658.00    0.63821   0.71093   -1.000
 3659.00    0.65352   0.71583   -1.000
 3660.00    0.65490   0.71161   -1.000
 3661.00    0.64700   0.69941   -1.000
 3662.00    0.64145   0.68365   -1.000
 3663.00    0.63764   0.67018   -1.000
 3664.00    0.63231   0.66226   -1.000
 3665.00    0.62066   0.65821   -1.000
 3666.00    0.62801   0.65303   -1.000
 3667.00    0.62787   0.64348   -1.000
 3668.00    0.61918   0.63238   -1.000
 3669.00    0.60471   0.62756   -1.000
 3670.00    0.60497   0.63464   -1.000
 3671.00    0.62603   0.65061   -1.000
 3672.00    0.63959   0.66657   -1.000
 3673.00    0.64236   0.67495   -1.000
 3674.00    0.64218   0.67255   -1.000
 3675.00    0.63867   0.65897   -1.000
 3676.00    0.61536   0.63569   -1.000
 3677.00    0.60959   0.60686  366.127
 3678.00    0.58955   0.57984  362.769
 3679.00    0.56444   0.56329  352.856
 3680.00    0.55916   0.56247  344.369
 3681.00    0.56043   0.57453   -1.000
 3682.00    0.58569   0.58952  354.176
 3683.00    0.60164   0.59602  368.889
 3684.00    0.58107   0.58734  381.949
 3685.00    0.57479   0.56580   -1.000
 3686.00    0.55664   0.54337   -1.000
 3687.00    0.52844   0.53542   -1.000
 3688.00    0.54098   0.55065   -1.000
 3689.00    0.56357   0.58534   -1.000
 3690.00    0.58857   0.62513   -1.000
 3691.00    0.63706   0.65305   -1.000
 3692.00    0.66190   0.66022  333.330
 3693.00    0.64851   0.65168  331.373
 3694.00    0.62023   0.64021   -1.000
 3695.00    0.61233   0.63636   -1.000
 3696.00    0.62484   0.64445   -1.000
 3697.00    0.63529   0.66294   -1.000
 3698.00    0.63877   0.68498   -1.000
 3699.00    0.66265   0.70065   -1.000
 3700.00    0.68182   0.70115   -1.000
 3701.00    0.67376   0.68127  362.156
 3702.00    0.64429   0.64090  390.720
 3703.00    0.60631   0.58756   -1.000
 3704.00    0.57025   0.53500   -1.000
 3705.00    0.53480   0.49626   -1.000
 3706.00    0.51586   0.47760   -1.000
 3707.00    0.53078   0.47723   -1.000
 3708.00    0.53059   0.49154   -1.000
 3709.00    0.54022   0.51928   -1.000
 3710.00    0.56961   0.55885   -1.000
 3711.00    0.58999   0.60467   -1.000
 3712.00    0.62063   0.64785   -1.000
 3713.00    0.65882   0.67819   -1.000
 3714.00    0.67857   0.68797  311.481
 3715.00    0.67520   0.67489  329.698
 3716.00    0.65024   0.64045   -1.000
 3717.00    0.61770   0.58813   -1.000
 3718.00    0.57547   0.52557   -1.000
 3719.00    0.51924   0.46559   -1.000
 3720.00    0.46043   0.42431   -1.000
 3721.00    0.43565   0.41450   -1.000
 3722.00    0.46048   0.43699   -1.000
 3723.00    0.50340   0.47985   -1.000
 3724.00    0.55403   0.52422   -1.000
 3725.00    0.58612   0.55368   -1.000
 3726.00    0.59135   0.56331   -1.000
 3727.00    0.59193   0.56103   -1.000
 3728.00    0.58019   0.55654   -1.000
 3729.00    0.57543   0.54971   -1.000
 3730.00    0.58663   0.53238   -1.000
 3731.00    0.56488   0.49796   -1.000
 3732.00    0.52039   0.44979   -1.000
 3733.00    0.47993   0.40051   -1.000
 3734.00    0.43074   0.36419   -1.000
 3735.00    0.39588   0.35122   61.321
 3736.00    0.40068   0.36522   -1.000
 3737.00    0.43002   0.40241   -1.000
 3738.00    0.46037   0.45271   -1.000
 3739.00    0.50167   0.50187  347.754
 3740.00    0.54898   0.53439   -1.000
 3741.00    0.56142   0.54093   -1.000
 3742.00    0.55711   0.52271   -1.000
 3743.00    0.53487   0.48990   -1.000
 3744.00    0.50964   0.45464   -1.000
 3745.00    0.47733   0.42487   47.661
 3746.00    0.45475   0.40127   50.031
 3747.00    0.46018   0.38335   -1.000
 3748.00    0.45583   0.37557   -1.000
 3749.00    0.43061   0.38584   -1.000
 3750.00    0.44394   0.41853   -1.000
 3751.00    0.49087   0.46855   -1.000
 3752.00    0.53894   0.52380   -1.000
 3753.00    0.56675   0.57204  312.285
 3754.00    0.58846   0.60147   -1.000
 3755.00    0.60427   0.60213  380.422
 3756.00    0.59927   0.57458   -1.000
 3757.00    0.56887   0.53374   -1.000
 3758.00    0.53235   0.50103   -1.000
 3759.00    0.51865   0.48925   -1.000
 3760.00    0.51923   0.49482   -1.000
 3761.00    0.53789   0.50520   -1.000
 3762.00    0.54467   0.51066   -1.000
 3763.00    0.53629   0.51002   -1.000
 3764.00    0.53834   0.50635   -1.000
 3765.00    0.54453   0.50230   -1.000
 3766.00    0.55984   0.50073   -1.000
 3767.00    0.54624   0.50508   -1.000
 3768.00    0.55153   0.51664   -1.000
 3769.00    0.57556   0.53404   -1.000
 3770.00    0.58837   0.55550   -1.000
 3771.00    0.59231   0.57885   -1.000
 3772.00    0.61459   0.60047   -1.000
 3773.00    0.62603   0.61659  319.573
 3774.00    0.63466   0.62559  318.723
 3775.00    0.63676   0.63012  316.718
 3776.00    0.62205   0.63461   -1.000
 3777.00    0.62127   0.64225   -1.000
 3778.00    0.62672   0.65374   -1.000
 3779.00    0.64286   0.66737   -1.000
 3780.00    0.65659   0.68035   -1.000
 3781.00    0.66529   0.68982   -1.000
 3782.00    0.66650   0.69299   -1.000
 3783.00    0.67347   0.68591   -1.000
 3784.00    0.66780   0.66463  344.682
 3785.00    0.64902   0.63001   -1.000
 3786.00    0.60969   0.58977   -1.000
 3787.00    0.56610   0.55442   -1.000
 3788.00    0.54895   0.53243   -1.000
 3789.00    0.54395   0.52638   -1.000
 3790.00    0.53295   0.53107  362.026
 3791.00    0.54886   0.53637   -1.000
 3792.00    0.55726   0.53349   -1.000
 3793.00    0.53828   0.52021   -1.000
 3794.00    0.50300   0.50095  390.720
 3795.00    0.49579   0.48048   -1.000
 3796.00    0.50028   0.46159   -1.000
 3797.00    0.49433   0.44791   -1.000
 3798.00    0.48463   0.44648   -1.000
 3799.00    0.47840   0.46378   -1.000
 3800.00    0.49088   0.49844  331.784
 3801.00    0.52007   0.54057   -1.000
 3802.00    0.54381   0.57854   -1.000
 3803.00    0.56333   0.60308   -1.000
 3804.00    0.57768   0.61057   -1.000
 3805.00    0.57318   0.60424   -1.000
 3806.00    0.54662   0.59375   -1.000
 3807.00    0.53489   0.58941   -1.000
 3808.00    0.54010   0.59527   -1.000
 3809.00    0.55414   0.60525   -1.000
 3810.00    0.57745   0.60795   -1.000
 3811.00    0.58396   0.59484  376.955
 3812.00    0.55980   0.56613  390.720
 3813.00    0.52566   0.53027  390.720
 3814.00    0.48215   0.49793   -1.000
 3815.00    0.45398   0.47693   -1.000
 3816.00    0.45142   0.46677   -1.000
 3817.00    0.46014   0.45970  390.720
 3818.00    0.47448   0.44780   -1.000
 3819.00    0.46757   0.43209   -1.000
 3820.00    0.44717   0.42097   -1.000
 3821.00    0.44573   0.41894   -1.000
 3822.00    0.44916   0.42056   -1.000
 3823.00    0.44577   0.41573   48.752
 3824.00    0.42789   0.40199   49.288
 3825.00    0.40572   0.38658   48.711
 3826.00    0.40153   0.37760   47.912
 3827.00    0.39673   0.37807   47.595
 3828.00    0.39988   0.38473   48.744
 3829.00    0.41983   0.39098   51.565
 3830.00    0.43330   0.39058   54.885
 3831.00    0.42941   0.38186   55.553
 3832.00    0.41363   0.36873   53.999
 3833.00    0.39889   0.35814   52.143
 3834.00    0.38491   0.35468   51.792
 3835.00    0.39760   0.35753   52.992
 3836.00    0.41902   0.36227   -1.000
 3837.00    0.42551   0.36521   -1.000
 3838.00    0.43050   0.36803   -1.000
 3839.00    0.41632   0.37683   -1.000
 3840.00    0.40796   0.39714   -1.000
 3841.00    0.43236   0.42903  379.613
 3842.00    0.46827   0.46575  375.295
 3843.00    0.49191   0.49868  375.317
 3844.00    0.50470   0.52154   -1.000
 3845.00    0.50790   0.53370   -1.000
 3846.00    0.49727   0.53720   -1.000
 3847.00    0.49174   0.53369   -1.000
 3848.00    0.48128   0.52525   -1.000
 3849.00    0.49235   0.51662   -1.000
 3850.00    0.49135   0.51304   -1.000
 3851.00    0.48745   0.51517   -1.000
 3852.00    0.49935   0.51737   -1.000
 3853.00    0.50757   0.51364  390.720
 3854.00    0.48558   0.50239   -1.000
 3855.00    0.46259   0.48617  108.842
 3856.00    0.46512   0.46774   46.839
 3857.00    0.47699   0.44902   48.355
 3858.00    0.46415   0.43434   69.434
 3859.00    0.45614   0.43122   -1.000
 3860.00    0.46241   0.44438   -1.000
 3861.00    0.46793   0.47063  366.910
 3862.00    0.49843   0.49849  371.461
 3863.00    0.52628   0.51697   -1.000
 3864.00    0.53107   0.52247   -1.000
 3865.00    0.52133   0.51933  390.720
 3866.00    0.50773   0.51334  390.720
 3867.00    0.49427   0.50599   -1.000
 3868.00    0.49467   0.49546  109.103
 3869.00    0.49099   0.48104   68.653
 3870.00    0.47888   0.46675   -1.000
 3871.00    0.45947   0.46124  390.720
 3872.00    0.45765   0.47069   -1.000
 3873.00    0.47943   0.49333   -1.000
 3874.00    0.51417   0.51787  379.793
 3875.00    0.54840   0.53096   -1.000
 3876.00    0.55329   0.52596   -1.000
 3877.00    0.52912   0.50933   -1.000
 3878.00    0.50234   0.49331   -1.000
 3879.00    0.49390   0.48501   -1.000
 3880.00    0.48941   0.48468  390.720
 3881.00    0.48813   0.48963  381.647
 3882.00    0.49007   0.49757  370.153
 3883.00    0.51083   0.50421   -1.000
 3884.00    0.54122   0.50201   -1.000
 3885.00    0.53584   0.48777   -1.000
 3886.00    0.51451   0.46902   -1.000
 3887.00    0.51462   0.45898   -1.000
 3888.00    0.53172   0.46861   -1.000
 3889.00    0.54918   0.49943   -1.000
 3890.00    0.57994   0.54334   -1.000
 3891.00    0.62941   0.58697   -1.000
 3892.00    0.66197   0.61865   -1.000
 3893.00    0.65424   0.63321   -1.000
 3894.00    0.64355   0.63520  305.705
 3895.00    0.64596   0.63328   -1.000
 3896.00    0.64804   0.63236   -1.000
 3897.00    0.65710   0.63225   -1.000
 3898.00    0.65743   0.63114   -1.000
 3899.00    0.64630   0.62965   -1.000
 3900.00    0.65097   0.62911   -1.000
 3901.00    0.65691   0.62755   -1.000
 3902.00    0.66744   0.62172   -1.000
 3903.00    0.66123   0.61158   -1.000
 3904.00    0.62893   0.60207   -1.000
 3905.00    0.59914   0.60117  305.780
 3906.00    0.60718   0.61402  290.398
 3907.00    0.64715   0.63961  285.389
 3908.00    0.68055   0.67044   -1.000
 3909.00    0.70738   0.69818  280.520
 3910.00    0.72594   0.71800  280.841
 3911.00    0.73718   0.72979  285.255
 3912.00    0.75364   0.73451   -1.000
 3913.00    0.74701   0.73279   -1.000
 3914.00    0.73546   0.72499   -1.000
 3915.00    0.72591   0.71199   -1.000
 3916.00    0.71401   0.69436   -1.000
 3917.00    0.69321   0.67197   -1.000
 3918.00    0.67019   0.64471   -1.000
 3919.00    0.64110   0.61533   -1.000
 3920.00    0.61574   0.59002   -1.000
 3921.00    0.59338   0.57431   -1.000
 3922.00    0.58603   0.56965   -1.000
 3923.00    0.59388   0.57016   -1.000
 3924.00    0.60255   0.56629   -1.000
 3925.00    0.59591   0.55050   -1.000
 3926.00    0.57523   0.52092   -1.000
 3927.00    0.52909   0.48222   -1.000
 3928.00    0.46542   0.44055   74.937
 3929.00    0.40022   0.40129   88.337
 3930.00    0.33791   0.36626  100.708
 3931.00    0.31062   0.33605  104.332
 3932.00    0.31567   0.31327   95.696
 3933.00    0.31970   0.30229   81.194
 3934.00    0.32283   0.30754   66.889
 3935.00    0.32902   0.32959   55.495
 3936.00    0.36125   0.36480   78.008
 3937.00    0.41644   0.40705   -1.000
 3938.00    0.46189   0.45022   -1.000
 3939.00    0.50267   0.48720   -1.000
 3940.00    0.54777   0.51365   -1.000
 3941.00    0.56776   0.52824   -1.000
 3942.00    0.55501   0.53516   -1.000
 3943.00    0.53668   0.54283  330.046
 3944.00    0.53931   0.55872   -1.000
 3945.00    0.57689   0.58320  314.759
 3946.00    0.63300   0.61068   -1.000
 3947.00    0.66452   0.63620   -1.000
 3948.00    0.68156   0.65883   -1.000
 3949.00    0.70440   0.67928   -1.000
 3950.00    0.72738   0.69596   -1.000
 3951.00    0.73894   0.70641   -1.000
 3952.00    0.73128   0.71239   -1.000
 3953.00    0.73429   0.71628   -1.000
 3954.00    0.75282   0.71735   -1.000
 3955.00    0.74659   0.71370   -1.000
 3956.00    0.71525   0.70543   -1.000
 3957.00    0.69967   0.69368  318.507
 3958.00    0.70388   0.67584   -1.000
 3959.00    0.69040   0.64529   -1.000
 3960.00    0.63948   0.60049   -1.000
 3961.00    0.57434   0.55029  100.404
 3962.00    0.51756   0.50445   51.412
 3963.00    0.48028   0.46752   61.548
 3964.00    0.45468   0.43425   75.766
 3965.00    0.42485   0.39783   89.078
 3966.00    0.38236   0.35846   91.337
 3967.00    0.35067   0.32315   80.163
 3968.00    0.33257   0.30293   65.901
 3969.00    0.34054   0.30482   54.599
 3970.00    0.37237   0.32939   -1.000
 3971.00    0.41229   0.37151   -1.000
 3972.00    0.46034   0.42463   -1.000
 3973.00    0.51978   0.48211   -1.000
 3974.00    0.58269   0.54024   -1.000
 3975.00    0.63895   0.59616   -1.000
 3976.00    0.67511   0.64908   -1.000
 3977.00    0.71124   0.69861   -1.000
 3978.00    0.75942   0.74225   -1.000
 3979.00    0.79250   0.77643   -1.000
 3980.00    0.81106   0.79675   -1.000
 3981.00    0.81451   0.80422  264.034
 3982.00    0.80054   0.80462  258.594
 3983.00    0.80431   0.80629  253.904
 3984.00    0.81934   0.81471  249.461
 3985.00    0.82578   0.83038  245.717
 3986.00    0.83762   0.85013   -1.000
 3987.00    0.85475   0.86867   -1.000
 3988.00    0.87064   0.88140  241.237
 3989.00    0.87598   0.88844   -1.000
 3990.00    0.87575   0.89386   -1.000
 3991.00    0.89135   0.90087  237.736
 3992.00    0.91629   0.90808  243.433
 3993.00    0.93129   0.91050   -1.000
 3994.00    0.92763   0.90485   -1.000
 3995.00    0.90012   0.89374  250.694
 3996.00    0.87523   0.88472   -1.000
 3997.00    0.87119   0.88655   -1.000
 3998.00    0.88116   0.90221   -1.000
 3999.00    0.90783   0.92741   -1.000
 4000.00    0.93523   0.95243   -1.000
 4001.00    0.95632   0.96774   -1.000
 4002.00    0.97671   0.96551  246.950
 4003.00    0.97507   0.94388   -1.000
 4004.00    0.92678   0.91108   -1.000
 4005.00    0.87678   0.88532  232.414
 4006.00    0.85812   0.88155   -1.000
 4007.00    0.88215   0.90125   -1.000
 4008.00    0.93529   0.93280  221.835
 4009.00    0.96214   0.96166  222.198
 4010.00    0.95916   0.98199   -1.000
 4011.00    0.96729   0.99490   -1.000
 4012.00    0.98806   1.00397   -1.000
 4013.00    1.00000   1.01165   -1.000
 4014.00    1.01798   1.01770  222.637
 4015.00    1.02376   1.02088  223.636
 4016.00    1.01837   1.02193  221.361
 4017.00    1.00712   1.02401   -1.000
 4018.00    1.00204   1.02890   -1.000
 4019.00    1.02297   1.03439   -1.000
 4020.00    1.03191   1.03644  225.334
 4021.00    1.01825   1.03246   -1.000
 4022.00    1.00757   1.02403   -1.000
 4023.00    0.99558   1.01531   -1.000
 4024.00    0.99176   1.01169   -1.000
 4025.00    1.00605   1.01694   -1.000
 4026.00    1.02645   1.02888  215.895
 4027.00    1.04747   1.03637  227.699
 4028.00    1.05138   1.02481   -1.000
 4029.00    1.01312   0.98762   -1.000
 4030.00    0.94205   0.93336  247.298
 4031.00    0.87285   0.88213   -1.000
 4032.00    0.83672   0.85096   -1.000
 4033.00    0.83937   0.84959   -1.000
 4034.00    0.85895   0.87872   -1.000
 4035.00    0.90278   0.93096   -1.000
 4036.00    0.97738   0.99042   -1.000
 4037.00    1.04412   1.03998  213.131
 4038.00    1.07846   1.06657  216.928
 4039.00    1.07009   1.06959  218.614
 4040.00    1.04715   1.05581  224.122
 4041.00    1.04556   1.02975   -1.000
 4042.00    1.03447   0.98734   -1.000
 4043.00    0.99117   0.92699   -1.000
 4044.00    0.90216   0.86237   -1.000
 4045.00    0.80411   0.82074   -1.000
 4046.00    0.78347   0.82544   -1.000
 4047.00    0.86200   0.87435   -1.000
 4048.00    0.95776   0.94233  212.970
 4049.00    1.00980   1.00321  216.630
 4050.00    1.03585   1.04001  222.531
 4051.00    1.05422   1.05050  227.185
 4052.00    1.04588   1.04053  229.843
 4053.00    1.01270   1.01918  231.511
 4054.00    0.97929   0.99393   -1.000
 4055.00    0.95923   0.96997   -1.000
 4056.00    0.94132   0.95131  227.677
 4057.00    0.92360   0.94236   -1.000
 4058.00    0.92345   0.94524   -1.000
 4059.00    0.93829   0.95265   -1.000
 4060.00    0.96485   0.94960   -1.000
 4061.00    0.96852   0.92582   -1.000
 4062.00    0.91106   0.88705   -1.000
 4063.00    0.83152   0.85445   -1.000
 4064.00    0.81034   0.84448   -1.000
 4065.00    0.86026   0.86009  223.521
 4066.00    0.91531   0.89191   -1.000
 4067.00    0.94603   0.92521   -1.000
 4068.00    0.97517   0.94674   -1.000
 4069.00    0.99649   0.94882   -1.000
 4070.00    0.98748   0.93403   -1.000
 4071.00    0.94314   0.91677   -1.000
 4072.00    0.91700   0.91184  229.950
 4073.00    0.94517   0.91779   -1.000
 4074.00    0.96811   0.92049   -1.000
 4075.00    0.94474   0.90851   -1.000
 4076.00    0.88533   0.88924  245.624
 4077.00    0.84561   0.88353   -1.000
 4078.00    0.86866   0.90512   -1.000
 4079.00    0.93376   0.95086   -1.000
 4080.00    1.00328   1.00067  221.675
 4081.00    1.05241   1.03490   -1.000
 4082.00    1.05414   1.04463  227.166
 4083.00    1.01713   1.03860   -1.000
 4084.00    0.99490   1.03403   -1.000
 4085.00    1.00165   1.04429   -1.000
 4086.00    1.03253   1.07081   -1.000
 4087.00    1.08564   1.10266   -1.000
 4088.00    1.12938   1.12673  209.849
 4089.00    1.13672   1.13375  212.980
 4090.00    1.11751   1.12472  214.223
 4091.00    1.08451   1.10686   -1.000
 4092.00    1.06171   1.08678   -1.000
 4093.00    1.06646   1.06401  232.410
 4094.00    1.06220   1.03582   -1.000
 4095.00    1.01739   1.00226   -1.000
 4096.00    0.95486   0.96762   -1.000
 4097.00    0.92143   0.93575   -1.000
 4098.00    0.91548   0.90450  289.097
 4099.00    0.90421   0.87123   -1.000
 4100.00    0.86668   0.84053   -1.000
 4101.00    0.82161   0.82501  255.879
 4102.00    0.81606   0.83560   -1.000
 4103.00    0.85404   0.87267   -1.000
 4104.00    0.89941   0.92334   -1.000
 4105.00    0.94742   0.97282   -1.000
 4106.00    1.00477   1.00886  229.602
 4107.00    1.02552   1.02698  233.587
 4108.00    1.00462   1.02900   -1.000
 4109.00    0.98535   1.02163   -1.000
 4110.00    0.95762   1.01410   -1.000
 4111.00    0.93978   1.01438   -1.000
 4112.00    0.94877   1.02501   -1.000
 4113.00    0.97553   1.04302   -1.000
 4114.00    1.01829   1.06077   -1.000
 4115.00    1.03425   1.07020   -1.000
 4116.00    1.02639   1.06634   -1.000
 4117.00    1.01145   1.05139   -1.000
 4118.00    0.99437   1.03329   -1.000
 4119.00    0.97249   1.02079   -1.000
 4120.00    0.97609   1.01799   -1.000
 4121.00    0.99940   1.02292   -1.000
 4122.00    0.99543   1.03191   -1.000
 4123.00    0.99568   1.04217   -1.000
 4124.00    1.02140   1.05091   -1.000
 4125.00    1.04089   1.05418   -1.000
 4126.00    1.02706   1.04907   -1.000
 4127.00    1.00478   1.03610   -1.000
 4128.00    0.98570   1.01788   -1.000
 4129.00    0.96933   0.99526   -1.000
 4130.00    0.95211   0.96865   -1.000
 4131.00    0.93285   0.94297   -1.000
 4132.00    0.90991   0.92754   -1.000
 4133.00    0.89849   0.93293   -1.000
 4134.00    0.91367   0.96041   -1.000
 4135.00    0.95015   1.00084   -1.000
 4136.00    0.99889   1.04132   -1.000
 4137.00    1.03355   1.07151   -1.000
 4138.00    1.05374   1.08553   -1.000
 4139.00    1.05611   1.08012   -1.000
 4140.00    1.04223   1.05203  258.117
 4141.00    1.00667   1.00444  258.819
 4142.00    0.93179   0.95207   -1.000
 4143.00    0.84942   0.91770   -1.000
 4144.00    0.83610   0.91480   -1.000
 4145.00    0.89254   0.93937   -1.000
 4146.00    0.94680   0.97311   -1.000
 4147.00    0.97256   0.99697   -1.000
 4148.00    0.97562   1.00457   -1.000
 4149.00    0.95839   1.00018   -1.000
 4150.00    0.93316   0.99195   -1.000
 4151.00    0.92259   0.98419   -1.000
 4152.00    0.92280   0.97731   -1.000
 4153.00    0.92410   0.97127   -1.000
 4154.00    0.95045   0.96798   -1.000
 4155.00    1.09067   0.97145   -1.000
 4156.00    1.15477   0.98510   -1.000
 4157.00    0.90336   1.00828   -1.000
 4158.00    0.77705   1.03747   -1.000
 4159.00    0.93589   1.06706   -1.000
 4160.00    1.03796   1.09218   -1.000
 4161.00    1.04702   1.11097   -1.000
 4162.00    1.04497   1.12093   -1.000
 4163.00    1.04706   1.11963   -1.000
 4164.00    1.03615   1.10618   -1.000
 4165.00    1.00414   1.08464   -1.000
 4166.00    0.97127   1.06297   -1.000
 4167.00    0.95029   1.04925   -1.000
 4168.00    0.95580   1.04266   -1.000
 4169.00    0.98259   1.03567   -1.000
 4170.00    0.98599   1.01920   -1.000
 4171.00    0.94999   0.99247   -1.000
 4172.00    0.89649   0.96612   -1.000
 4173.00    0.86804   0.95122   -1.000
 4174.00    0.88190   0.95249   -1.000
 4175.00    0.91551   0.96472   -1.000
 4176.00    0.93320   0.98003   -1.000
 4177.00    0.92443   0.99442   -1.000
 4178.00    0.92711   1.00683   -1.000
 4179.00    0.94859   1.01543   -1.000
 4180.00    0.95506   1.02022   -1.000
 4181.00    0.95033   1.02404   -1.000
 4182.00    0.95739   1.03231   -1.000
 4183.00    0.98863   1.04591   -1.000
 4184.00    1.02558   1.05652   -1.000
 4185.00    1.03738   1.05657   -1.000
 4186.00    1.00959   1.04604   -1.000
 4187.00    0.97358   1.03507   -1.000
 4188.00    0.96787   1.03398   -1.000
 4189.00    0.99257   1.04408   -1.000
 4190.00    1.00871   1.06031   -1.000
 4191.00    1.01582   1.07586   -1.000
 4192.00    1.03285   1.08498   -1.000
 4193.00    1.05602   1.08143   -1.000
 4194.00    1.04302   1.06080   -1.000
 4195.00    0.98149   1.02547   -1.000
 4196.00    0.93462   0.98702   -1.000
 4197.00    0.92592   0.95596   -1.000
 4198.00    0.92029   0.93882   -1.000
 4199.00    0.91670   0.93442   -1.000
 4200.00    0.92042   0.93991   -1.000
 4201.00    0.92490   0.95286   -1.000
 4202.00    0.93018   0.97436   -1.000
 4203.00    0.95325   1.00524   -1.000
 4204.00    0.99986   1.04311   -1.000
 4205.00    1.03199   1.08163   -1.000
 4206.00    1.06717   1.11349   -1.000
 4207.00    1.08993   1.13440   -1.000
 4208.00    1.08727   1.14308   -1.000
 4209.00    1.08677   1.14320   -1.000
 4210.00    1.06520   1.13923   -1.000
 4211.00    1.05597   1.13191   -1.000
 4212.00    1.07012   1.11749   -1.000
 4213.00    1.05356   1.09361   -1.000
 4214.00    0.99822   1.06891   -1.000
 4215.00    0.95526   1.06052   -1.000
 4216.00    0.97879   1.08003   -1.000
 4217.00    1.06686   1.12383   -1.000
 4218.00    1.14894   1.17150   -1.000
 4219.00    1.18050   1.20431   -1.000
 4220.00    1.18582   1.20765   -1.000
 4221.00    1.17217   1.17693  245.774
 4222.00    1.12603   1.11247   -1.000
 4223.00    1.04193   1.02224   -1.000
 4224.00    0.94076   0.92189   -1.000
 4225.00    0.82648   0.84026   -1.000
 4226.00    0.72910   0.80377   -1.000
 4227.00    0.72721   0.82837   -1.000
 4228.00    0.84290   0.90206   -1.000
 4229.00    0.98221   0.99516   -1.000
 4230.00    1.08410   1.07032   -1.000
 4231.00    1.13449   1.11082   -1.000
 4232.00    1.12950   1.11603   -1.000
 4233.00    1.10085   1.10006  235.393
 4234.00    1.06749   1.07837   -1.000
 4235.00    1.03141   1.06364   -1.000
 4236.00    1.02310   1.06082   -1.000
 4237.00    1.04178   1.07146   -1.000
 4238.00    1.06236   1.09326   -1.000
 4239.00    1.08354   1.12235   -1.000
 4240.00    1.11337   1.15501   -1.000
 4241.00    1.14423   1.18943   -1.000
 4242.00    1.17430   1.22272   -1.000
 4243.00    1.20518   1.25120   -1.000
 4244.00    1.24786   1.26659   -1.000
 4245.00    1.26556   1.25980  234.091
 4246.00    1.21492   1.22801   -1.000
 4247.00    1.13839   1.17928   -1.000
 4248.00    1.08575   1.12800   -1.000
 4249.00    1.05244   1.09032   -1.000
 4250.00    1.01843   1.07224   -1.000
 4251.00    1.01245   1.07055   -1.000
 4252.00    1.04143   1.07399   -1.000
 4253.00    1.05143   1.07710   -1.000
 4254.00    1.02889   1.08322   -1.000
 4255.00    1.03666   1.09751   -1.000
 4256.00    1.09829   1.11470   -1.000
 4257.00    1.14810   1.11897   -1.000
 4258.00    1.12929   1.10309   -1.000
 4259.00    1.06503   1.08000   -1.000
 4260.00    1.02038   1.07388   -1.000
 4261.00    1.02807   1.10232   -1.000
 4262.00    1.08738   1.15951   -1.000
 4263.00    1.17848   1.22442   -1.000
 4264.00    1.24474   1.27147   -1.000
 4265.00    1.26472   1.28845   -1.000
 4266.00    1.25071   1.27273   -1.000
 4267.00    1.21413   1.22837   -1.000
 4268.00    1.16347   1.16174  256.453
 4269.00    1.10057   1.08419   -1.000
 4270.00    1.01674   1.00850  260.880
 4271.00    0.92691   0.95299   -1.000
 4272.00    0.88688   0.92814   -1.000
 4273.00    0.90349   0.93839   -1.000
 4274.00    0.93701   0.97862   -1.000
 4275.00    0.97242   1.03991   -1.000
 4276.00    1.04900   1.10698   -1.000
 4277.00    1.14792   1.16336   -1.000
 4278.00    1.20160   1.19359  232.581
 4279.00    1.19017   1.19785  230.512
 4280.00    1.14936   1.18698   -1.000
 4281.00    1.11902   1.17612   -1.000
 4282.00    1.11168   1.17029   -1.000
 4283.00    1.13289   1.16573   -1.000
 4284.00    1.14242   1.15695   -1.000
 4285.00    1.10855   1.14085   -1.000
 4286.00    1.07455   1.11726   -1.000
 4287.00    1.05650   1.08552   -1.000
 4288.00    1.02149   1.04949   -1.000
 4289.00    0.96149   1.01978   -1.000
 4290.00    0.93240   1.01052   -1.000
 4291.00    0.97496   1.02591   -1.000
 4292.00    1.05789   1.05556  239.728
 4293.00    1.10979   1.08016   -1.000
 4294.00    1.10312   1.08739   -1.000
 4295.00    1.07719   1.07273  273.784
 4296.00    1.05544   1.03841   -1.000
 4297.00    1.02286   0.98812   -1.000
 4298.00    0.95118   0.93258   -1.000
 4299.00    0.86464   0.88476   -1.000
 4300.00    0.82705   0.85753   -1.000
 4301.00    0.84055   0.85167   -1.000
 4302.00    0.86682   0.85906  285.798
 4303.00    0.88844   0.86657   -1.000
 4304.00    0.90357   0.86470   -1.000
 4305.00    0.89680   0.84861   -1.000
 4306.00    0.85378   0.82193   -1.000
 4307.00    0.80526   0.79729  302.229
 4308.00    0.78225   0.79051  283.340
 4309.00    0.80374   0.81216  267.580
 4310.00    0.86317   0.86161  255.988
 4311.00    0.93739   0.93237  242.659
 4312.00    1.00595   1.01588  223.572
 4313.00    1.06943   1.10875   -1.000
 4314.00    1.13918   1.20854   -1.000
 4315.00    1.23170   1.30587   -1.000
 4316.00    1.35708   1.38928   -1.000
 4317.00    1.44807   1.44170  199.896
 4318.00    1.46551   1.45780  205.977
 4319.00    1.43308   1.43982  215.144
 4320.00    1.37468   1.39522   -1.000
 4321.00    1.32041   1.32658  248.981
 4322.00    1.26564   1.23984   -1.000
 4323.00    1.16662   1.14698   -1.000
 4324.00    1.04049   1.07570   -1.000
 4325.00    0.95553   1.05394   -1.000
 4326.00    0.97657   1.09437   -1.000
 4327.00    1.11300   1.18011   -1.000
 4328.00    1.27642   1.27852  202.827
 4329.00    1.36067   1.35581  199.975
 4330.00    1.35932   1.40340   -1.000
 4331.00    1.35537   1.42845   -1.000
 4332.00    1.37494   1.44404   -1.000
 4333.00    1.39837   1.45153   -1.000
 4334.00    1.42309   1.44129   -1.000
 4335.00    1.43392   1.40108   -1.000
 4336.00    1.37355   1.32706   -1.000
 4337.00    1.26504   1.23307   -1.000
 4338.00    1.14835   1.14393  268.633
 4339.00    1.07203   1.09024   -1.000
 4340.00    1.04794   1.08475   -1.000
 4341.00    1.08644   1.12499   -1.000
 4342.00    1.16805   1.19098   -1.000
 4343.00    1.24233   1.26216   -1.000
 4344.00    1.29158   1.32298   -1.000
 4345.00    1.33284   1.37189   -1.000
 4346.00    1.35872   1.40910   -1.000
 4347.00    1.36737   1.43399   -1.000
 4348.00    1.39771   1.43889   -1.000
 4349.00    1.41712   1.41577  230.224
 4350.00    1.36958   1.36731  224.235
 4351.00    1.25338   1.31432   -1.000
 4352.00    1.18432   1.28183   -1.000
 4353.00    1.20884   1.28502   -1.000
 4354.00    1.27294   1.31595   -1.000
 4355.00    1.33102   1.35657   -1.000
 4356.00    1.37777   1.38802  206.926
 4357.00    1.39378   1.40493  204.809
 4358.00    1.38524   1.41172   -1.000
 4359.00    1.35874   1.42001   -1.000
 4360.00    1.35530   1.43801   -1.000
 4361.00    1.40235   1.46487   -1.000
 4362.00    1.44475   1.49414   -1.000
 4363.00    1.46160   1.51681   -1.000
 4364.00    1.48640   1.52656   -1.000
 4365.00    1.50161   1.51824   -1.000
 4366.00    1.46083   1.49254   -1.000
 4367.00    1.39304   1.45781   -1.000
 4368.00    1.36200   1.42701   -1.000
 4369.00    1.36836   1.40515   -1.000
 4370.00    1.37360   1.38861   -1.000
 4371.00    1.36449   1.36764  220.783
 4372.00    1.34764   1.33717  223.407
 4373.00    1.31742   1.30267  216.593
 4374.00    1.26006   1.27736   -1.000
 4375.00    1.24834   1.27554   -1.000
 4376.00    1.28384   1.29802   -1.000
 4377.00    1.33774   1.33054  203.437
 4378.00    1.38076   1.34764   -1.000
 4379.00    1.38212   1.33030   -1.000
 4380.00    1.34769   1.27046   -1.000
 4381.00    1.27044   1.17875   -1.000
 4382.00    1.13779   1.08132   -1.000
 4383.00    0.99321   1.01480   -1.000
 4384.00    0.92915   1.00315   -1.000
 4385.00    1.00205   1.04635   -1.000
 4386.00    1.15123   1.11741   -1.000
 4387.00    1.25323   1.18263   -1.000
 4388.00    1.28447   1.22460   -1.000
 4389.00    1.27130   1.24599   -1.000
 4390.00    1.26589   1.25953  208.157
 4391.00    1.28802   1.27422  212.048
 4392.00    1.31486   1.29176   -1.000
 4393.00    1.32837   1.31141   -1.000
 4394.00    1.32129   1.33512   -1.000
 4395.00    1.33467   1.36493   -1.000
 4396.00    1.39681   1.39675  205.061
 4397.00    1.45686   1.41777   -1.000
 4398.00    1.46891   1.41822   -1.000
 4399.00    1.42200   1.39777   -1.000
 4400.00    1.34076   1.36566   -1.000
 4401.00    1.31134   1.32586   -1.000
 4402.00    1.31901   1.27889   -1.000
 4403.00    1.26787   1.22560   -1.000
 4404.00    1.17070   1.17969  218.474
 4405.00    1.12018   1.15919   -1.000
 4406.00    1.15803   1.17410   -1.000
 4407.00    1.21717   1.21899  200.746
 4408.00    1.25946   1.28389   -1.000
 4409.00    1.31510   1.35541   -1.000
 4410.00    1.39708   1.42017   -1.000
 4411.00    1.46911   1.45973  203.156
 4412.00    1.50085   1.46081   -1.000
 4413.00    1.47166   1.42741   -1.000
 4414.00    1.36975   1.38263   -1.000
 4415.00    1.26871   1.35487   -1.000
 4416.00    1.26765   1.36437   -1.000
 4417.00    1.34629   1.40610   -1.000
 4418.00    1.41408   1.45899   -1.000
 4419.00    1.45848   1.49523   -1.000
 4420.00    1.46743   1.50246   -1.000
 4421.00    1.41742   1.48390   -1.000
 4422.00    1.35529   1.45728   -1.000
 4423.00    1.32101   1.43827   -1.000
 4424.00    1.32467   1.43385   -1.000
 4425.00    1.34176   1.43992   -1.000
 4426.00    1.35469   1.44957   -1.000
 4427.00    1.38863   1.45758   -1.000
 4428.00    1.40891   1.46059   -1.000
 4429.00    1.40457   1.45776   -1.000
 4430.00    1.37614   1.45011   -1.000
 4431.00    1.37772   1.43786   -1.000
 4432.00    1.40491   1.42028   -1.000
 4433.00    1.38670   1.39748  209.170
 4434.00    1.33062   1.37949   -1.000
 4435.00    1.30381   1.38324   -1.000
 4436.00    1.33765   1.41616   -1.000
 4437.00    1.42879   1.46963   -1.000
 4438.00    1.52107   1.51549  198.571
 4439.00    1.57385   1.53333   -1.000
 4440.00    1.55214   1.51710   -1.000
 4441.00    1.47967   1.48562  203.934
 4442.00    1.41169   1.46414   -1.000
 4443.00    1.40437   1.47148   -1.000
 4444.00    1.47892   1.50693   -1.000
 4445.00    1.55432   1.55277  190.155
 4446.00    1.59185   1.59106  191.865
 4447.00    1.61078   1.61190  193.855
 4448.00    1.62450   1.61729  193.164
 4449.00    1.60596   1.61160  193.762
 4450.00    1.59347   1.59572  199.601
 4451.00    1.59398   1.56783   -1.000
 4452.00    1.57545   1.52523   -1.000
 4453.00    1.51643   1.47258   -1.000
 4454.00    1.43040   1.41891  208.402
 4455.00    1.36881   1.37932  207.650
 4456.00    1.36305   1.35777  208.581
 4457.00    1.37974   1.35110   -1.000
 4458.00    1.38656   1.34953   -1.000
 4459.00    1.37843   1.34907   -1.000
 4460.00    1.36282   1.35397  202.182
 4461.00    1.33761   1.37133   -1.000
 4462.00    1.35788   1.40423   -1.000
 4463.00    1.43992   1.44601  195.533
 4464.00    1.50478   1.48427   -1.000
 4465.00    1.51371   1.50882  200.819
 4466.00    1.50287   1.51760  202.660
 4467.00    1.50567   1.51639  200.669
 4468.00    1.50218   1.51452  195.030
 4469.00    1.48366   1.52104   -1.000
 4470.00    1.47940   1.54142   -1.000
 4471.00    1.53220   1.57600   -1.000
 4472.00    1.60791   1.61658  180.617
 4473.00    1.66176   1.65604  179.475
 4474.00    1.68155   1.68798  178.278
 4475.00    1.67567   1.71154   -1.000
 4476.00    1.70138   1.72386   -1.000
 4477.00    1.75392   1.71789   -1.000
 4478.00    1.75321   1.68785   -1.000
 4479.00    1.67720   1.63920   -1.000
 4480.00    1.58549   1.59102  191.469
 4481.00    1.52367   1.56831   -1.000
 4482.00    1.53464   1.58271   -1.000
 4483.00    1.59422   1.62904   -1.000
 4484.00    1.67270   1.68267  182.170
 4485.00    1.74915   1.72094   -1.000
 4486.00    1.76805   1.72608   -1.000
 4487.00    1.72280   1.70161   -1.000
 4488.00    1.64964   1.66167  188.245
 4489.00    1.58559   1.62979   -1.000
 4490.00    1.55686   1.61613   -1.000
 4491.00    1.57550   1.61690   -1.000
 4492.00    1.62137   1.61714  196.167
 4493.00    1.62594   1.60668   -1.000
 4494.00    1.56906   1.59205   -1.000
 4495.00    1.51798   1.58664   -1.000
 4496.00    1.52367   1.60200   -1.000
 4497.00    1.57025   1.63414   -1.000
 4498.00    1.64341   1.67018   -1.000
 4499.00    1.69784   1.69884  180.244
 4500.00    1.70191   1.71863   -1.000
 4501.00    1.68805   1.73792   -1.000
 4502.00    1.71233   1.76446   -1.000
 4503.00    1.79857   1.79814  174.022
 4504.00    1.87331   1.83024   -1.000
 4505.00    1.87667   1.84996   -1.000
 4506.00    1.83864   1.85311  175.487
 4507.00    1.80367   1.84541   -1.000
 4508.00    1.80113   1.83563   -1.000
 4509.00    1.82130   1.82810  178.300
 4510.00    1.82898   1.82021  181.594
 4511.00    1.80642   1.80604  183.134
 4512.00    1.75824   1.78345   -1.000
 4513.00    1.70595   1.75706   -1.000
 4514.00    1.68135   1.73447   -1.000
 4515.00    1.70831   1.72104  185.408
 4516.00    1.73554   1.71726  183.039
 4517.00    1.72057   1.72122  179.450
 4518.00    1.69961   1.73164   -1.000
 4519.00    1.73080   1.74731   -1.000
 4520.00    1.78952   1.76298   -1.000
 4521.00    1.81103   1.76999   -1.000
 4522.00    1.76449   1.76042  191.561
 4523.00    1.71248   1.73190   -1.000
 4524.00    1.67979   1.68754  202.678
 4525.00    1.64248   1.63287  205.727
 4526.00    1.57770   1.57421  204.919
 4527.00    1.51002   1.52082  201.643
 4528.00    1.44757   1.48329   -1.000
 4529.00    1.43320   1.46879   -1.000
 4530.00    1.46896   1.47691  200.830
 4531.00    1.52092   1.49772   -1.000
 4532.00    1.56721   1.51915   -1.000
 4533.00    1.56435   1.53452   -1.000
 4534.00    1.52403   1.54780   -1.000
 4535.00    1.50626   1.57014   -1.000
 4536.00    1.58200   1.60826   -1.000
 4537.00    1.71790   1.65661   -1.000
 4538.00    1.77848   1.69910   -1.000
 4539.00    1.75410   1.72237   -1.000
 4540.00    1.70781   1.72568   -1.000
 4541.00    1.68609   1.71897   -1.000
 4542.00    1.71199   1.71293   97.374
 4543.00    1.59513   1.70949   -1.000
 4544.00    0.63712   1.70564   -1.000
 4545.00    0.07711   1.69781   -1.000
 4546.00    0.13591   1.68692   -1.000
 4547.00    0.94630   1.67595   -1.000
 4548.00    0.69758   1.66711   -1.000
 4549.00    1.07386   1.66281   -1.000
 4550.00    1.58226   1.66325   -1.000
 4551.00    1.68582   1.66641   -1.000
 4552.00    1.69215   1.66776   -1.000
 4553.00    1.67904   1.66640  186.463
 4554.00    1.66310   1.66835  179.009
 4555.00    1.66513   1.68321   -1.000
 4556.00    1.73722   1.71609   -1.000
 4557.00    1.82488   1.76156   -1.000
 4558.00    1.88103   1.80726   -1.000
 4559.00    1.88544   1.84010   -1.000
 4560.00    1.88265   1.85473   -1.000
 4561.00    1.88179   1.84955   -1.000
 4562.00    1.86022   1.82901   -1.000
 4563.00    1.81042   1.79894  181.377
 4564.00    1.75180   1.77181   -1.000
 4565.00    1.73761   1.75936   -1.000
 4566.00    1.79674   1.76866   -1.000
 4567.00    1.86791   1.79279   -1.000
 4568.00    1.90918   1.81760   -1.000
 4569.00    1.90593   1.82816   -1.000
 4570.00    1.84704   1.82322   -1.000
 4571.00    1.78280   1.81188   -1.000
 4572.00    1.77369   1.80754   -1.000
 4573.00    1.82273   1.81612  176.571
 4574.00    1.87180   1.83168   -1.000
 4575.00    1.87609   1.84342   -1.000
 4576.00    1.86057   1.84150   -1.000
 4577.00    1.84666   1.82335   -1.000
 4578.00    1.81279   1.79108   -1.000
 4579.00    1.75537   1.75335  187.275
 4580.00    1.70555   1.72073  185.672
 4581.00    1.70663   1.70290  185.939
 4582.00    1.74952   1.70038   -1.000
 4583.00    1.77014   1.70703   -1.000
 4584.00    1.76585   1.71537   -1.000
 4585.00    1.72997   1.72466  176.468
 4586.00    1.72661   1.74004  175.679
 4587.00    1.77800   1.76472  177.858
 4588.00    1.84479   1.79353   -1.000
 4589.00    1.89197   1.81506   -1.000
 4590.00    1.86646   1.81937   -1.000
 4591.00    1.80636   1.80551  183.619
 4592.00    1.74975   1.78051   -1.000
 4593.00    1.73059   1.75504   -1.000
 4594.00    1.73189   1.73583  181.125
 4595.00    1.72510   1.72609  180.722
 4596.00    1.72806   1.72488  182.022
 4597.00    1.74205   1.73044  183.678
 4598.00    1.78042   1.73909   -1.000
 4599.00    1.78306   1.74738   -1.000
 4600.00    1.77403   1.75291   -1.000
 4601.00    1.77118   1.75582   -1.000
 4602.00    1.79199   1.75748   -1.000
 4603.00    1.80922   1.75980   -1.000
 4604.00    1.81029   1.76569   -1.000
 4605.00    1.79404   1.77996  171.638
 4606.00    1.80686   1.80676  169.379
 4607.00    1.89158   1.84550   -1.000
 4608.00    1.98643   1.88715   -1.000
 4609.00    2.04992   1.91974   -1.000
 4610.00    2.03237   1.93273   -1.000
 4611.00    1.98039   1.92792   -1.000
 4612.00    1.95260   1.91405   -1.000
 4613.00    1.95095   1.90359   -1.000
 4614.00    1.96969   1.90294   -1.000
 4615.00    1.98027   1.91165   -1.000
 4616.00    2.00626   1.92416   -1.000
 4617.00    2.01098   1.93482   -1.000
 4618.00    1.99885   1.94133   -1.000
 4619.00    1.98407   1.94449   -1.000
 4620.00    1.97183   1.94656   -1.000
 4621.00    1.99119   1.94853   -1.000
 4622.00    2.00893   1.94905   -1.000
 4623.00    1.99660   1.94647   -1.000
 4624.00    1.98497   1.94028   -1.000
 4625.00    1.96887   1.93243   -1.000
 4626.00    1.95757   1.92524   -1.000
 4627.00    1.95541   1.92126   -1.000
 4628.00    1.94703   1.92129   -1.000
 4629.00    1.94936   1.92464   -1.000
 4630.00    1.96752   1.92847   -1.000
 4631.00    1.98207   1.92881   -1.000
 4632.00    1.95680   1.92189   -1.000
 4633.00    1.90994   1.90688  177.569
 4634.00    1.88635   1.88610  179.836
 4635.00    1.88588   1.86337   -1.000
 4636.00    1.87046   1.84024   -1.000
 4637.00    1.84046   1.81796   -1.000
 4638.00    1.80131   1.79891  173.641
 4639.00    1.77372   1.78783  171.028
 4640.00    1.79231   1.78736  171.382
 4641.00    1.84822   1.79522   -1.000
 4642.00    1.90335   1.80203   -1.000
 4643.00    1.90198   1.79777   -1.000
 4644.00    1.86763   1.77604   -1.000
 4645.00    1.79923   1.74167   -1.000
 4646.00    1.73741   1.70672   -1.000
 4647.00    1.70809   1.68678   -1.000
 4648.00    1.72280   1.69201   -1.000
 4649.00    1.79475   1.72140   -1.000
 4650.00    1.87081   1.76431   -1.000
 4651.00    1.90462   1.80514   -1.000
 4652.00    1.93116   1.83201   -1.000
 4653.00    1.91865   1.84058   -1.000
 4654.00    1.87751   1.83676   -1.000
 4655.00    1.83235   1.83297  169.574
 4656.00    1.83372   1.84332  165.471
 4657.00    1.89968   1.87291   -1.000
 4658.00    2.00307   1.91629   -1.000
 4659.00    2.08583   1.95679   -1.000
 4660.00    2.09778   1.97829   -1.000
 4661.00    2.03338   1.97105   -1.000
 4662.00    1.95836   1.93799   -1.000
 4663.00    1.88805   1.88706  184.697
 4664.00    1.87468   1.82794   -1.000
 4665.00    1.85381   1.76682   -1.000
 4666.00    1.78286   1.71186   -1.000
 4667.00    1.66507   1.67406  180.312
 4668.00    1.62662   1.66536   -1.000
 4669.00    1.68484   1.68834  173.779
 4670.00    1.79534   1.73401   -1.000
 4671.00    1.87688   1.78353   -1.000
 4672.00    1.91007   1.82337   -1.000
 4673.00    1.90448   1.84798   -1.000
 4674.00    1.91297   1.86304   -1.000
 4675.00    1.93120   1.87255   -1.000
 4676.00    1.95865   1.87665   -1.000
 4677.00    1.97497   1.87077   -1.000
 4678.00    1.93364   1.85272   -1.000
 4679.00    1.87931   1.82714   -1.000
 4680.00    1.84148   1.80315   -1.000
 4681.00    1.81721   1.79004   -1.000
 4682.00    1.82779   1.79167   -1.000
 4683.00    1.89219   1.80504   -1.000
 4684.00    1.95008   1.82254   -1.000
 4685.00    1.96049   1.83567   -1.000
 4686.00    1.93999   1.84109   -1.000
 4687.00    1.91044   1.83929   -1.000
 4688.00    1.90980   1.83455   -1.000
 4689.00    1.92799   1.82994   -1.000
 4690.00    1.91653   1.82780   -1.000
 4691.00    1.89971   1.82916   -1.000
 4692.00    1.90516   1.83570   -1.000
 4693.00    1.94370   1.84777   -1.000
 4694.00    1.98003   1.86288   -1.000
 4695.00    2.00570   1.87424   -1.000
 4696.00    2.02645   1.87440   -1.000
 4697.00    1.99295   1.85885   -1.000
 4698.00    1.92507   1.83090   -1.000
 4699.00    1.87455   1.79830   -1.000
 4700.00    1.88286   1.77086   -1.000
 4701.00    1.89081   1.75330   -1.000
 4702.00    1.84851   1.74795   -1.000
 4703.00    1.83515   1.75294   -1.000
 4704.00    1.87150   1.76458   -1.000
 4705.00    1.92969   1.77592   -1.000
 4706.00    1.95309   1.78149   -1.000
 4707.00    1.91735   1.78111   -1.000
 4708.00    1.86919   1.78062   -1.000
 4709.00    1.86073   1.78679   -1.000
 4710.00    1.90908   1.80087   -1.000
 4711.00    1.96688   1.81774   -1.000
 4712.00    1.98829   1.83043   -1.000
 4713.00    1.95669   1.83738   -1.000
 4714.00    1.91730   1.84407   -1.000
 4715.00    1.91423   1.85939   -1.000
 4716.00    1.97926   1.88795   -1.000
 4717.00    2.05357   1.92624   -1.000
 4718.00    2.07917   1.96583   -1.000
 4719.00    2.10808   1.99755   -1.000
 4720.00    2.13849   2.01715   -1.000
 4721.00    2.12159   2.02463   -1.000
 4722.00    2.09219   2.02424   -1.000
 4723.00    2.06616   2.01912   -1.000
 4724.00    2.06899   2.00874   -1.000
 4725.00    2.10487   1.98648   -1.000
 4726.00    2.05825   1.94753   -1.000
 4727.00    1.93467   1.89561   -1.000
 4728.00    1.84028   1.84324  177.345
 4729.00    1.82763   1.80776   -1.000
 4730.00    1.86792   1.79742   -1.000
 4731.00    1.90504   1.81157   -1.000
 4732.00    1.95049   1.83903   -1.000
 4733.00    1.98299   1.86817   -1.000
 4734.00    2.01677   1.89080   -1.000
 4735.00    2.03588   1.90515   -1.000
 4736.00    2.00064   1.91509   -1.000
 4737.00    1.99887   1.92509   -1.000
 4738.00    2.03990   1.93727   -1.000
 4739.00    2.07111   1.94967   -1.000
 4740.00    2.07790   1.95940   -1.000
 4741.00    2.06102   1.96541   -1.000
 4742.00    2.04382   1.97012   -1.000
 4743.00    2.07196   1.97659   -1.000
 4744.00    2.10087   1.98634   -1.000
 4745.00    2.08847   2.00016   -1.000
 4746.00    2.10341   2.01663   -1.000
 4747.00    2.13638   2.03385   -1.000
 4748.00    2.12463   2.04854   -1.000
 4749.00    2.10978   2.05750   -1.000
 4750.00    2.11436   2.05805   -1.000
 4751.00    2.10348   2.04875   -1.000
 4752.00    2.06805   2.03050   -1.000
 4753.00    2.02410   2.00793   -1.000
 4754.00    2.01338   1.98706   -1.000
 4755.00    2.01535   1.97364   -1.000
 4756.00    2.01003   1.97042   -1.000
 4757.00    2.00346   1.97591   -1.000
 4758.00    1.99087   1.98600  175.470
 4759.00    1.99627   1.99345  179.828
 4760.00    2.00252   1.99141   -1.000
 4761.00    1.96051   1.97511  182.586
 4762.00    1.91633   1.94604   -1.000
 4763.00    1.89326   1.91019  180.970
 4764.00    1.87567   1.87636  178.501
 4765.00    1.84570   1.85275  174.484
 4766.00    1.85911   1.84627  172.000
 4767.00    1.87749   1.86043   -1.000
 4768.00    1.93982   1.89297   -1.000
 4769.00    1.99449   1.93289   -1.000
 4770.00    2.01955   1.96716   -1.000
 4771.00    2.00565   1.98998   -1.000
 4772.00    1.98927   2.00471  168.346
 4773.00    2.02124   2.02140  168.447
 4774.00    2.06556   2.04385   -1.000
 4775.00    2.08693   2.06987   -1.000
 4776.00    2.08074   2.09221  171.927
 4777.00    2.08238   2.10550   -1.000
 4778.00    2.07328   2.10793   -1.000
 4779.00    2.06924   2.09951   -1.000
 4780.00    2.05834   2.08165   -1.000
 4781.00    2.03985   2.05655  175.622
 4782.00    2.00891   2.02848  176.194
 4783.00    1.97871   2.00174   -1.000
 4784.00    1.97279   1.98130  178.979
 4785.00    1.98118   1.96899  178.826
 4786.00    1.97407   1.96353  177.957
 4787.00    1.97399   1.96225  176.860
 4788.00    1.98664   1.96438   -1.000
 4789.00    2.00234   1.97091   -1.000
 4790.00    2.00341   1.98546   -1.000
 4791.00    2.02836   2.01147   -1.000
 4792.00    2.07262   2.05049   -1.000
 4793.00    2.13019   2.09768   -1.000
 4794.00    2.19418   2.14251   -1.000
 4795.00    2.21559   2.17212   -1.000
 4796.00    2.20173   2.17788   -1.000
 4797.00    2.14920   2.16010  173.549
 4798.00    2.08872   2.12925   -1.000
 4799.00    2.04930   2.10118   -1.000
 4800.00    2.04830   2.08879   -1.000
 4801.00    2.10066   2.09630  170.023
 4802.00    2.16881   2.11532   -1.000
 4803.00    2.17917   2.13190   -1.000
 4804.00    2.12714   2.13295  173.762
 4805.00    2.07596   2.11721   -1.000
 4806.00    2.04681   2.09216   -1.000
 4807.00    2.02797   2.07008   -1.000
 4808.00    2.02431   2.05922   -1.000
 4809.00    2.03629   2.06232   -1.000
 4810.00    2.06430   2.07525  168.712
 4811.00    2.09993   2.09142  168.302
 4812.00    2.10818   2.10554  167.698
 4813.00    2.10624   2.11668  166.641
 4814.00    2.11161   2.12787  165.606
 4815.00    2.13714   2.14224  164.931
 4816.00    2.17150   2.16092  164.868
 4817.00    2.19326   2.18201  164.876
 4818.00    2.21281   2.20076  166.325
 4819.00    2.23013   2.21122   -1.000
 4820.00    2.23623   2.20740   -1.000
 4821.00    2.21804   2.18674   -1.000
 4822.00    2.14198   2.15295  170.607
 4823.00    2.07304   2.11663   -1.000
 4824.00    2.05393   2.09060   -1.000
 4825.00    2.10659   2.08208   -1.000
 4826.00    2.16300   2.08830   -1.000
 4827.00    2.14832   2.09804   -1.000
 4828.00    2.11658   2.10144   -1.000
 4829.00    2.12517   2.09571   -1.000
 4830.00    2.13151   2.08361   -1.000
 4831.00    2.09294   2.07095   -1.000
 4832.00    2.07490   2.06351  167.889
 4833.00    2.08956   2.06708   -1.000
 4834.00    2.13585   2.08105   -1.000
 4835.00    2.17245   2.10003   -1.000
 4836.00    2.16608   2.11392   -1.000
 4837.00    2.16132   2.11570   -1.000
 4838.00    2.14319   2.10441   -1.000
 4839.00    2.10589   2.08479   -1.000
 4840.00    2.07491   2.06494  171.928
 4841.00    2.07542   2.05162   -1.000
 4842.00    2.08451   2.04840   -1.000
 4843.00    2.06845   2.05590  166.664
 4844.00    2.08012   2.07256  170.099
 4845.00    2.16680   2.09407   -1.000
 4846.00    2.20768   2.11228   -1.000
 4847.00    2.16642   2.12060   -1.000
 4848.00    2.10224   2.11858  169.767
 4849.00    2.09206   2.11226  170.755
 4850.00    2.12586   2.10827   -1.000
 4851.00    2.14264   2.10523   -1.000
 4852.00    2.14622   2.09626   -1.000
 4853.00    2.11905   2.07388   -1.000
 4854.00    2.06360   2.03859   -1.000
 4855.00    1.97870   1.99783  185.161
 4856.00    1.95259   1.95947  201.349
 4857.00    2.00620   1.92349   -1.000
 4858.00    2.00734   1.87828   -1.000
 4859.00    1.92333   1.81709   -1.000
 4860.00    1.76617   1.74478   -1.000
 4861.00    1.64832   1.68752   -1.000
 4862.00    1.66849   1.66978  182.976
 4863.00    1.79571   1.70107   -1.000
 4864.00    1.90064   1.76743   -1.000
 4865.00    1.96673   1.84471   -1.000
 4866.00    2.00939   1.91179   -1.000
 4867.00    2.01838   1.95635   -1.000
 4868.00    2.03596   1.97281   -1.000
 4869.00    2.02761   1.96182   -1.000
 4870.00    1.97104   1.93011   -1.000
 4871.00    1.87561   1.89440  177.771
 4872.00    1.87044   1.87378  176.424
 4873.00    1.94544   1.88227   -1.000
 4874.00    2.01066   1.91797   -1.000
 4875.00    2.02830   1.96661   -1.000
 4876.00    2.06516   2.01545   -1.000
 4877.00    2.08566   2.05745   -1.000
 4878.00    2.13012   2.09127   -1.000
 4879.00    2.17052   2.11444   -1.000
 4880.00    2.15704   2.12432   -1.000
 4881.00    2.07638   2.11972   -1.000
 4882.00    2.06320   2.10327   -1.000
 4883.00    2.08869   2.07986  180.002
 4884.00    2.09318   2.05242   -1.000
 4885.00    2.02810   2.02231  178.761
 4886.00    1.97587   1.99271  181.491
 4887.00    1.98944   1.96718   -1.000
 4888.00    2.02876   1.94551   -1.000
 4889.00    2.03386   1.92543   -1.000
 4890.00    1.97630   1.91159   -1.000
 4891.00    1.94512   1.91556   -1.000
 4892.00    2.00254   1.95355   -1.000
 4893.00    2.14481   2.02654   -1.000
 4894.00    2.30133   2.12056   -1.000
 4895.00    2.37856   2.20902   -1.000
 4896.00    2.39447   2.27044   -1.000
 4897.00    2.40537   2.29782   -1.000
 4898.00    2.39249   2.29548   -1.000
 4899.00    2.32966   2.27453   -1.000
 4900.00    2.25554   2.24589  170.905
 4901.00    2.24290   2.21878   -1.000
 4902.00    2.24089   2.19867   -1.000
 4903.00    2.22124   2.18966   -1.000
 4904.00    2.24999   2.19385   -1.000
 4905.00    2.31693   2.20779   -1.000
 4906.00    2.36155   2.22138   -1.000
 4907.00    2.35577   2.21992   -1.000
 4908.00    2.30668   2.19630   -1.000
 4909.00    2.22781   2.15810   -1.000
 4910.00    2.18932   2.12205   -1.000
 4911.00    2.20561   2.10571   -1.000
 4912.00    2.23480   2.11570   -1.000
 4913.00    2.27092   2.14616   -1.000
 4914.00    2.32667   2.18046   -1.000
 4915.00    2.34598   2.19916   -1.000
 4916.00    2.36166   2.18407   -1.000
 4917.00    2.30329   2.12776   -1.000
 4918.00    2.14219   2.03702   -1.000
 4919.00    1.99319   1.93985   -1.000
 4920.00    1.91911   1.86863   -1.000
 4921.00    1.97032   1.84666   -1.000
 4922.00    2.09138   1.87356   -1.000
 4923.00    2.18015   1.93090   -1.000
 4924.00    2.20314   1.99707   -1.000
 4925.00    2.23489   2.06052   16.486
 4926.00    2.29830   2.12167   -1.000
 4927.00    2.33594   2.18176   16.278
 4928.00    2.39383   2.23720   16.450
 4929.00    2.41612   2.28040   16.913
 4930.00    2.43376   2.30248   17.533
 4931.00    2.42337   2.29829   17.553
 4932.00    2.35337   2.27073   17.226
 4933.00    2.25752   2.23048   17.230
 4934.00    2.25038   2.18948   17.760
 4935.00    2.27127   2.15400   18.244
 4936.00    2.28432   2.12100   -1.000
 4937.00    2.21557   2.08665   17.423
 4938.00    2.13301   2.05714   16.867
 4939.00    2.11047   2.04740   16.566
 4940.00    2.18676   2.07089   16.422
 4941.00    2.32508   2.12364   -1.000
 4942.00    2.40518   2.18873   -1.000
 4943.00    2.43347   2.24563   -1.000
 4944.00    2.45297   2.28298   16.434
 4945.00    2.43497   2.30176   16.239
 4946.00    2.40094   2.31058   16.195
 4947.00    2.41218   2.31931   16.129
 4948.00    2.44573   2.33252   16.219
 4949.00    2.44658   2.34832   16.333
 4950.00    2.44917   2.36034   16.526
 4951.00    2.45071   2.36337   16.738
 4952.00    2.43472   2.35210   17.204
 4953.00    2.40345   2.32208   18.109
 4954.00    2.32693   2.26997   18.809
 4955.00    2.24897   2.19504   18.376
 4956.00    2.11843   2.10952   17.307
 4957.00    1.97603   2.03635   16.735
 4958.00    1.95702   2.00372   16.626
 4959.00    2.10710   2.02608   16.712
 4960.00    2.26867   2.08692   -1.000
 4961.00    2.28009   2.15619   17.056
 4962.00    2.28479   2.20382   17.421
 4963.00    2.27889   2.21761   17.637
 4964.00    2.27797   2.20141   17.632
 4965.00    2.23307   2.16757   17.576
 4966.00    2.19553   2.13230   17.442
 4967.00    2.19167   2.10878   17.253
 4968.00    2.18380   2.10322   17.067
 4969.00    2.20060   2.11576   16.863
 4970.00    2.24022   2.14301   16.708
 4971.00    2.26960   2.17839   16.649
 4972.00    2.30761   2.21519   16.774
 4973.00    2.33495   2.24566   16.955
 4974.00    2.36318   2.26316   17.189
 4975.00    2.34823   2.26424   17.469
 4976.00    2.31274   2.24849   17.684
 4977.00    2.28462   2.21817   17.948
 4978.00    2.20120   2.17768   18.553
 4979.00    2.15858   2.13015   19.133
 4980.00    2.15008   2.07713   19.100
 4981.00    2.09704   2.02005   18.722
 4982.00    1.99860   1.96542   18.187
 4983.00    1.95058   1.92651   17.611
 4984.00    1.99697   1.91845   17.197
 4985.00    2.07997   1.94557   17.235
 4986.00    2.16092   1.99976   17.495
 4987.00    2.23923   2.06173   -1.000
 4988.00    2.30268   2.11325   -1.000
 4989.00    2.28515   2.14349   17.501
 4990.00    2.24824   2.15437   17.433
 4991.00    2.24560   2.15600   17.423
 4992.00    2.26096   2.15716   17.330
 4993.00    2.27744   2.16196   17.253
 4994.00    2.27381   2.16964   17.370
 4995.00    2.27352   2.17663   17.613
 4996.00    2.29000   2.17853   17.968
 4997.00    2.28763   2.16949   18.178
 4998.00    2.24968   2.14436   18.175
 4999.00    2.18020   2.10641   18.000
 5000.00    2.10326   2.06378   17.902
 5001.00    2.07972   2.02671   18.181
 5002.00    2.11914   1.99967   18.635
 5003.00    2.15201   1.97917   -1.000
 5004.00    2.14697   1.95969   -1.000
 5005.00    2.08045   1.94116   17.675
 5006.00    2.03524   1.93253   17.520
 5007.00    2.05763   1.94268   17.779
 5008.00    2.15060   1.97234   -1.000
 5009.00    2.22834   2.00604   -1.000
 5010.00    2.21055   2.02379   -1.000
 5011.00    2.14850   2.01377   19.287
 5012.00    2.06549   1.97912   18.850
 5013.00    2.00158   1.93629   18.475
 5014.00    2.00094   1.90374   18.411
 5015.00    2.02448   1.89319   18.404
 5016.00    2.08116   1.90238   -1.000
 5017.00    2.10418   1.92252   -1.000
 5018.00    2.09675   1.94478   18.144
 5019.00    2.12260   1.96398   -1.000
 5020.00    2.16146   1.97952   -1.000
 5021.00    2.16809   1.99148   -1.000
 5022.00    2.12495   2.00326   17.765
 5023.00    2.13803   2.01956   17.856
 5024.00    2.21488   2.04061   -1.000
 5025.00    2.25434   2.06142   -1.000
 5026.00    2.25501   2.07613   -1.000
 5027.00    2.22090   2.08416   17.158
 5028.00    2.20859   2.09417   16.883
 5029.00    2.26402   2.11552   16.706
 5030.00    2.33169   2.15120   -1.000
 5031.00    2.35682   2.19420   17.342
 5032.00    2.40923   2.23108   -1.000
 5033.00    2.44613   2.24853   -1.000
 5034.00    2.39810   2.23821   -1.000
 5035.00    2.27368   2.20228   18.616
 5036.00    2.17266   2.15040   19.370
 5037.00    2.17827   2.09305   20.103
 5038.00    2.18968   2.03416   -1.000
 5039.00    2.11476   1.97575   18.987
 5040.00    1.98355   1.92705   17.835
 5041.00    1.93676   1.90609   17.147
 5042.00    2.04138   1.93092   16.771
 5043.00    2.21769   2.00111   -1.000
 5044.00    2.32700   2.09645   -1.000
 5045.00    1.44112   2.18420   -1.000
 5046.00    0.16850   2.23651   -1.000
 5047.00    0.09678   2.24245   -1.000
 5048.00    0.80489   2.20980   -1.000
 5049.00    2.07615   2.15935   17.585
 5050.00    2.21709   2.11529   17.149
 5051.00    2.24148   2.09507   16.853
 5052.00    2.28168   2.10289   -1.000
 5053.00    2.34269   2.13368   -1.000
 5054.00    2.39952   2.17741   -1.000
 5055.00    2.44561   2.22201   -1.000
 5056.00    2.48855   2.26000   -1.000
 5057.00    2.49909   2.29077   -1.000
 5058.00    2.49299   2.31619   -1.000
 5059.00    2.50099   2.33882   16.888
 5060.00    2.52762   2.35618   -1.000
 5061.00    2.56068   2.36074   -1.000
 5062.00    2.55593   2.34453   -1.000
 5063.00    2.47542   2.30415   -1.000
 5064.00    2.34889   2.24756   17.649
 5065.00    2.26137   2.19078   17.598
 5066.00    2.28184   2.14999   17.510
 5067.00    2.32845   2.13175   -1.000
 5068.00    2.33183   2.13283   -1.000
 5069.00    2.35933   2.14455   -1.000
 5070.00    2.38524   2.15808   -1.000
 5071.00    2.36725   2.16705   -1.000
 5072.00    2.34188   2.17025   -1.000
 5073.00    2.36597   2.17096   -1.000
 5074.00    2.40305   2.17318   -1.000
 5075.00    2.40209   2.17458   -1.000
 5076.00    2.37645   2.16832   -1.000
 5077.00    2.36811   2.14741   -1.000
 5078.00    2.31478   2.10921   -1.000
 5079.00    2.20305   2.06054   18.316
 5080.00    2.12105   2.01633   18.065
 5081.00    2.12542   1.99394   17.722
 5082.00    2.19283   1.99908   -1.000
 5083.00    2.24345   2.02686   -1.000
 5084.00    2.28619   2.06783   -1.000
 5085.00    2.35333   2.11254   -1.000
 5086.00    2.39896   2.15435   -1.000
 5087.00    2.42563   2.18957   -1.000
 5088.00    2.44605   2.21753   -1.000
 5089.00    2.45177   2.24074   -1.000
 5090.00    2.46324   2.26240   -1.000
 5091.00    2.49506   2.28441   -1.000
 5092.00    2.52964   2.30493   -1.000
 5093.00    2.55553   2.31693   -1.000
 5094.00    2.55744   2.31129   -1.000
 5095.00    2.47752   2.28218   -1.000
 5096.00    2.39223   2.23293   -1.000
 5097.00    2.33206   2.17591   17.773
 5098.00    2.27396   2.12769   17.296
 5099.00    2.24229   2.10255   17.187
 5100.00    2.28136   2.10748   -1.000
 5101.00    2.37231   2.13461   -1.000
 5102.00    2.42210   2.16791   -1.000
 5103.00    2.42074   2.19021   -1.000
 5104.00    2.38358   2.19346   -1.000
 5105.00    2.34813   2.18007   -1.000
 5106.00    2.31324   2.15626   -1.000
 5107.00    2.29529   2.13028   -1.000
 5108.00    2.28744   2.10987   -1.000
 5109.00    2.28729   2.10121   -1.000
 5110.00    2.29223   2.10873   -1.000
 5111.00    2.34308   2.13170   -1.000
 5112.00    2.39485   2.16624   -1.000
 5113.00    2.44045   2.20532   -1.000
 5114.00    2.48388   2.24368   -1.000
 5115.00    2.53411   2.27935   -1.000
 5116.00    2.56570   2.30960   -1.000
 5117.00    2.58203   2.33078   -1.000
 5118.00    2.58965   2.33796   -1.000
 5119.00    2.55667   2.32658   -1.000
 5120.00    2.49584   2.29533   -1.000
 5121.00    2.44456   2.24768   -1.000
 5122.00    2.36793   2.19062   -1.000
 5123.00    2.27328   2.13423   18.303
 5124.00    2.22026   2.08895   18.211
 5125.00    2.23305   2.06134   -1.000
 5126.00    2.27828   2.05204   -1.000
 5127.00    2.29226   2.05584   -1.000
 5128.00    2.28509   2.06748   -1.000
 5129.00    2.29847   2.08536   -1.000
 5130.00    2.33874   2.10934   -1.000
 5131.00    2.40870   2.13912   -1.000
 5132.00    2.46482   2.17140   -1.000
 5133.00    2.47523   2.20068   -1.000
 5134.00    2.51000   2.22196   -1.000
 5135.00    2.55053   2.22975   -1.000
 5136.00    2.54115   2.22106   -1.000
 5137.00    2.46598   2.19661   -1.000
 5138.00    2.37003   2.16349   -1.000
 5139.00    2.33272   2.13460   -1.000
 5140.00    2.36887   2.11662   -1.000
 5141.00    2.39435   2.10914   -1.000
 5142.00    2.34951   2.10823   -1.000
 5143.00    2.32108   2.10904   -1.000
 5144.00    2.36794   2.10970   -1.000
 5145.00    2.36215   2.10804   -1.000
 5146.00    2.30948   2.10174   -1.000
 5147.00    2.28993   2.09489   -1.000
 5148.00    2.31496   2.09179   -1.000
 5149.00    2.33207   2.09226   -1.000
 5150.00    2.34393   2.09309   -1.000
 5151.00    2.30789   2.09066   -1.000
 5152.00    2.27551   2.08747   -1.000
 5153.00    2.27519   2.09055   -1.000
 5154.00    2.30699   2.10675   -1.000
 5155.00    2.40076   2.13967   -1.000
 5156.00    2.49877   2.18575   -1.000
 5157.00    2.57974   2.23509   -1.000
 5158.00    2.59404   2.27574   -1.000
 5159.00    2.59359   2.29935   -1.000
 5160.00    2.59205   2.30132   -1.000
 5161.00    2.57942   2.27965   -1.000
 5162.00    2.54655   2.23357   -1.000
 5163.00    2.47145   2.16118   -1.000
 5164.00    2.35490   2.06260   -1.000
 5165.00    2.14520   1.94429   -1.000
 5166.00    1.87075   1.81937   21.164
 5167.00    1.68383   1.70958   21.177
 5168.00    1.66891   1.63813   22.640
 5169.00    1.82310   1.60567   -1.000
 5170.00    1.94031   1.59585   -1.000
 5171.00    1.84198   1.58956   -1.000
 5172.00    1.67844   1.58667   18.524
 5173.00    1.67107   1.61146   17.946
 5174.00    1.88299   1.67923   -1.000
 5175.00    2.16367   1.78635   -1.000
 5176.00    2.31199   1.90263   -1.000
 5177.00    2.36401   1.99455   -1.000
 5178.00    2.42985   2.04364   -1.000
 5179.00    2.41508   2.03965   -1.000
 5180.00    2.28739   1.98329   -1.000
 5181.00    2.12327   1.88628   -1.000
 5182.00    1.89158   1.77279   19.883
 5183.00    1.66027   1.68475   18.383
 5184.00    1.64085   1.65927   17.923
 5185.00    1.89890   1.71301   -1.000
 5186.00    2.19809   1.82562   -1.000
 5187.00    2.36690   1.95418   -1.000
 5188.00    2.42389   2.05956   -1.000
 5189.00    2.45383   2.11931   -1.000
 5190.00    2.45095   2.13162   -1.000
 5191.00    2.37394   2.10947   -1.000
 5192.00    2.29809   2.07365   -1.000
 5193.00    2.28472   2.04756   -1.000
 5194.00    2.34034   2.04674   -1.000
 5195.00    2.37720   2.06929   -1.000
 5196.00    2.42003   2.10919   -1.000
 5197.00    2.47896   2.15867   -1.000
 5198.00    2.52623   2.20737   -1.000
 5199.00    2.55908   2.24606   -1.000
 5200.00    2.55621   2.26600   -1.000
 5201.00    2.53631   2.26039   -1.000
 5202.00    2.49836   2.22602   -1.000
 5203.00    2.44654   2.16585   -1.000
 5204.00    2.36514   2.08764   -1.000
 5205.00    2.27536   2.00566   -1.000
 5206.00    2.23100   1.93725   -1.000
 5207.00    2.21812   1.89649   -1.000
 5208.00    2.20485   1.89106   -1.000
 5209.00    2.23538   1.92212   -1.000
 5210.00    2.32530   1.98581   -1.000
 5211.00    2.45064   2.07030   -1.000
 5212.00    2.58527   2.15495   -1.000
 5213.00    2.65882   2.22009   -1.000
 5214.00    2.64458   2.25439   -1.000
 5215.00    2.59616   2.26291   -1.000
 5216.00    2.57508   2.26250   -1.000
 5217.00    2.59916   2.27188   -1.000
 5218.00    2.64331   2.29907   -1.000
 5219.00    2.70518   2.33661   -1.000
 5220.00    2.74471   2.36886   -1.000
 5221.00    2.75104   2.37936   -1.000
 5222.00    2.72450   2.35745   -1.000
 5223.00    2.62897   2.30117   -1.000
 5224.00    2.48186   2.22026   -1.000
 5225.00    2.33517   2.13545   -1.000
 5226.00    2.25086   2.07260   -1.000
 5227.00    2.28144   2.05424   -1.000
 5228.00    2.45739   2.08589   -1.000
 5229.00    2.65491   2.15059   -1.000
 5230.00    2.74567   2.21852   -1.000
 5231.00    2.74715   2.26228   -1.000
 5232.00    2.68599   2.27656   -1.000
 5233.00    2.60584   2.27530   -1.000
 5234.00    2.60153   2.28021   -1.000
 5235.00    2.66503   2.30646   -1.000
 5236.00    2.76980   2.35119   -1.000
 5237.00    2.84777   2.40199   -1.000
 5238.00    2.86066   2.44388   -1.000
 5239.00    2.83365   2.46865   -1.000
 5240.00    2.79164   2.47822   -1.000
 5241.00    2.77306   2.47910   -1.000
 5242.00    2.78482   2.47709   -1.000
 5243.00    2.80824   2.47311   -1.000
 5244.00    2.82978   2.46283   -1.000
 5245.00    2.79013   2.43949   -1.000
 5246.00    2.68125   2.40082   -1.000
 5247.00    2.58321   2.35334   -1.000
 5248.00    2.57473   2.30979   -1.000
 5249.00    2.59923   2.28073   -1.000
 5250.00    2.56807   2.26867   -1.000
 5251.00    2.57300   2.27138   -1.000
 5252.00    2.63146   2.28515   -1.000
 5253.00    2.67197   2.30467   -1.000
 5254.00    2.67272   2.32885   -1.000
 5255.00    2.67669   2.36040   -1.000
 5256.00    2.74758   2.40182   -1.000
 5257.00    2.85950   2.44872   -1.000
 5258.00    2.92071   2.48361   -1.000
 5259.00    2.89459   2.48798   -1.000
 5260.00    2.83292   2.45114   -1.000
 5261.00    2.72927   2.37415   -1.000
 5262.00    2.57888   2.27000   -1.000
 5263.00    2.42969   2.15928   -1.000
 5264.00    2.31407   2.06202   -1.000
 5265.00    2.25987   1.99074   -1.000
 5266.00    2.29547   1.94591   -1.000
 5267.00    2.36784   1.92044   -1.000
 5268.00    2.35463   1.90480   -1.000
 5269.00    2.22551   1.89805   -1.000
 5270.00    2.20287   1.91303   -1.000
 5271.00    2.36795   1.96035   -1.000
 5272.00    2.59234   2.03924   -1.000
 5273.00    2.70136   2.12887   -1.000
 5274.00    2.71132   2.20820   -1.000
 5275.00    2.71503   2.27728   -1.000
 5276.00    2.77522   2.34023   -1.000
 5277.00    2.88649   2.39883   -1.000
 5278.00    2.96832   2.44533   -1.000
 5279.00    2.99002   2.46553   -1.000
 5280.00    2.92627   2.45439   -1.000
 5281.00    2.83199   2.42089   -1.000
 5282.00    2.77064   2.38499   -1.000
 5283.00    2.73034   2.36899   -1.000
 5284.00    2.74508   2.38747   -1.000
 5285.00    2.90495   2.43910   -1.000
 5286.00    3.04902   2.50894   -1.000
 5287.00    3.10193   2.57402   -1.000
 5288.00    3.09638   2.62081   -1.000
 5289.00    3.09265   2.64831   -1.000
 5290.00    3.10940   2.66077   -1.000
 5291.00    3.10137   2.66250   -1.000
 5292.00    3.07424   2.65233   -1.000
 5293.00    3.05139   2.62650   -1.000
 5294.00    3.03284   2.58312   -1.000
 5295.00    2.95435   2.52221   -1.000
 5296.00    2.80370   2.44983   -1.000
 5297.00    2.67011   2.38176   -1.000
 5298.00    2.63761   2.33673   -1.000
 5299.00    2.72772   2.32796   -1.000
 5300.00    2.83964   2.35396   -1.000
 5301.00    2.89387   2.40276   -1.000
 5302.00    2.94120   2.46360   -1.000
 5303.00    3.03396   2.52818   -1.000
 5304.00    3.13551   2.58928   -1.000
 5305.00    3.18664   2.63879   -1.000
 5306.00    3.17160   2.67010   -1.000
 5307.00    3.13638   2.68615   -1.000
 5308.00    3.14241   2.69461   -1.000
 5309.00    3.18537   2.70154   -1.000
 5310.00    3.21242   2.70761   -1.000
 5311.00    3.21129   2.70771   -1.000
 5312.00    3.16943   2.69866   -1.000
 5313.00    3.13613   2.68133   -1.000
 5314.00    3.11029   2.65880   -1.000
 5315.00    3.09050   2.63610   -1.000
 5316.00    3.07590   2.61684   -1.000
 5317.00    3.06602   2.60331   -1.000
 5318.00    3.07850   2.59635   -1.000
 5319.00    3.08428   2.59177   -1.000
 5320.00    3.08479   2.58319   -1.000
 5321.00    3.06388   2.56505   -1.000
 5322.00    3.00564   2.53345   -1.000
 5323.00    2.93569   2.48638   -1.000
 5324.00    2.88497   2.42437   -1.000
 5325.00    2.87392   2.35136   -1.000
 5326.00    2.80868   2.27278   -1.000
 5327.00    2.60954   2.20063   -1.000
 5328.00    2.42796   2.15589   -1.000
 5329.00    2.47315   2.15841   -1.000
 5330.00    2.70722   2.21591   -1.000
 5331.00    2.91125   2.30815   -1.000
 5332.00    2.99992   2.40576   -1.000
 5333.00    3.04345   2.48998   -1.000
 5334.00    3.09691   2.55350   -1.000
 5335.00    3.14817   2.59551   -1.000
 5336.00    3.14463   2.61308   -1.000
 5337.00    3.10585   2.60300   -1.000
 5338.00    3.05133   2.56853   -1.000
 5339.00    2.96120   2.52050   -1.000
 5340.00    2.86649   2.47555   -1.000
 5341.00    2.85468   2.45086   -1.000
 5342.00    2.94856   2.45522   -1.000
 5343.00    3.05559   2.47876   -1.000
 5344.00    3.09183   2.50401   -1.000
 5345.00    3.05980   2.51796   -1.000
 5346.00    3.04232   2.51739   -1.000
 5347.00    3.03905   2.50845   -1.000
 5348.00    3.00330   2.50131   -1.000
 5349.00    2.99127   2.50559   -1.000
 5350.00    3.06271   2.52891   -1.000
 5351.00    3.17520   2.57106   -1.000
 5352.00    3.22740   2.62438   -1.000
 5353.00    3.24027   2.67945   -1.000
 5354.00    3.25346   2.72836   -1.000
 5355.00    3.29321   2.76823   -1.000
 5356.00    3.34496   2.79677   -1.000
 5357.00    3.34314   2.81117   -1.000
 5358.00    3.32350   2.81108   -1.000
 5359.00    3.31321   2.79766   -1.000
 5360.00    3.26388   2.77231   -1.000
 5361.00    3.18805   2.73817   -1.000
 5362.00    3.14580   2.70022   -1.000
 5363.00    3.13425   2.66266   -1.000
 5364.00    3.10946   2.62819   -1.000
 5365.00    3.07650   2.59737   -1.000
 5366.00    3.07700   2.56722   -1.000
 5367.00    3.07100   2.53378   -1.000
 5368.00    3.04851   2.49263   -1.000
 5369.00    2.96053   2.44339   -1.000
 5370.00    2.82279   2.39843   -1.000
 5371.00    2.76591   2.37713   -1.000
 5372.00    2.86384   2.39556   -1.000
 5373.00    3.06137   2.45348   -1.000
 5374.00    3.23286   2.53112   -1.000
 5375.00    3.30809   2.60444   -1.000
 5376.00    3.29645   2.65642   -1.000
 5377.00    3.26943   2.68496   -1.000
 5378.00    3.29018   2.69650   -1.000
 5379.00    3.31286   2.69707   -1.000
 5380.00    3.29292   2.68952   -1.000
 5381.00    3.24041   2.67560   -1.000
 5382.00    3.19697   2.66013   -1.000
 5383.00    3.18537   2.64954   -1.000
 5384.00    3.19648   2.64734   -1.000
 5385.00    3.23243   2.65135   -1.000
 5386.00    3.25449   2.65444   -1.000
 5387.00    3.23672   2.64785   -1.000
 5388.00    3.18126   2.62659   -1.000
 5389.00    3.10207   2.59345   -1.000
 5390.00    3.04393   2.55598   -1.000
 5391.00    3.02216   2.52266   -1.000
 5392.00    3.02153   2.49742   -1.000
 5393.00    3.02751   2.47807   -1.000
 5394.00    3.03086   2.45938   -1.000
 5395.00    3.00367   2.43848   -1.000
 5396.00    2.91685   2.41845   -1.000
 5397.00    2.87240   2.40801   -1.000
 5398.00    2.94264   2.41694   -1.000
 5399.00    3.04009   2.44544   -1.000
 5400.00    3.09131   2.48002   -1.000
 5401.00    3.09832   2.50171   -1.000
 5402.00    3.09669   2.49653   -1.000
 5403.00    3.02719   2.46151   -1.000
 5404.00    2.88752   2.40681   -1.000
 5405.00    2.77211   2.35102   -1.000
 5406.00    2.76298   2.31638   -1.000
 5407.00    2.85631   2.31389   -1.000
 5408.00    2.93919   2.33588   -1.000
 5409.00    2.93743   2.37132   -1.000
 5410.00    2.94903   2.41282   -1.000
 5411.00    3.03307   2.46150   -1.000
 5412.00    3.14602   2.51739   -1.000
 5413.00    3.22901   2.57239   -1.000
 5414.00    3.25079   2.61999   -1.000
 5415.00    3.25814   2.65814   -1.000
 5416.00    3.29254   2.68738   -1.000
 5417.00    3.32420   2.70744   -1.000
 5418.00    3.31900   2.71492   -1.000
 5419.00    3.27373   2.70917   -1.000
 5420.00    3.24515   2.69450   -1.000
 5421.00    3.26204   2.67677   -1.000
 5422.00    3.27610   2.66203   -1.000
 5423.00    3.22528   2.65356   -1.000
 5424.00    3.16708   2.65236   -1.000
 5425.00    3.20731   2.65884   -1.000
 5426.00    3.29467   2.66575   -1.000
 5427.00    3.30025   2.66074   -1.000
 5428.00    3.18503   2.63471   -1.000
 5429.00    3.04475   2.59021   -1.000
 5430.00    3.01780   2.54453   -1.000
 5431.00    3.08038   2.51129   -1.000
 5432.00    3.10133   2.49225   -1.000
 5433.00    3.04693   2.48152   -1.000
 5434.00    2.99641   2.47692   -1.000
 5435.00    3.00213   2.48699   -1.000
 5436.00    3.06232   2.52045   -1.000
 5437.00    3.17351   2.57790   -1.000
 5438.00    3.28030   2.65017   -1.000
 5439.00    3.37731   2.72223   -1.000
 5440.00    3.43807   2.77981   -1.000
 5441.00    3.43137   2.81280   -1.000
 5442.00    3.37857   2.81675   -1.000
 5443.00    3.31636   2.78985   -1.000
 5444.00    3.27194   2.73465   -1.000
 5445.00    3.14864   2.66195   -1.000
 5446.00    2.95716   2.59109   -1.000
 5447.00    2.87914   2.54593   -1.000
 5448.00    2.96453   2.53895   -1.000
 5449.00    3.10914   2.56475   -1.000
 5450.00    3.20979   2.60136   -1.000
 5451.00    3.26508   2.62337   -1.000
 5452.00    3.22336   2.61878   -1.000
 5453.00    3.14697   2.58934   -1.000
 5454.00    3.03714   2.54774   -1.000
 5455.00    2.95650   2.51431   -1.000
 5456.00    2.97021   2.50791   -1.000
 5457.00    3.06669   2.53377   -1.000
 5458.00    3.20199   2.57989   -1.000
 5459.00    3.26330   2.62013   -1.000
 5460.00    3.22810   2.63702   -1.000
 5461.00    3.15288   2.62933   -1.000
 5462.00    3.07783   2.60888   -1.000
 5463.00    3.03670   2.59169   -1.000
 5464.00    3.05479   2.58954   -1.000
 5465.00    3.11200   2.60343   -1.000
 5466.00    3.16385   2.62523   -1.000
 5467.00    3.17830   2.64536   -1.000
 5468.00    3.18629   2.65684   -1.000
 5469.00    3.18451   2.65659   -1.000
 5470.00    3.14149   2.64535   -1.000
 5471.00    3.12188   2.62597   -1.000
 5472.00    3.12596   2.60066   -1.000
 5473.00    3.09345   2.57015   -1.000
 5474.00    3.05631   2.53496   -1.000
 5475.00    2.99862   2.49948   -1.000
 5476.00    2.90886   2.47255   -1.000
 5477.00    2.89696   2.46240   -1.000
 5478.00    3.00422   2.47340   -1.000
 5479.00    3.10735   2.49676   -1.000
 5480.00    3.10383   2.51899   -1.000
 5481.00    3.01700   2.53593   -1.000
 5482.00    2.97597   2.55334   -1.000
 5483.00    3.04054   2.57995   -1.000
 5484.00    3.13945   2.61349   -1.000
 5485.00    3.20871   2.64188   -1.000
 5486.00    3.21181   2.65514   -1.000
 5487.00    3.16576   2.65227   -1.000
 5488.00    3.13748   2.64285   -1.000
 5489.00    3.14575   2.63743   -1.000
 5490.00    3.15920   2.64169   -1.000
 5491.00    3.20657   2.65178   -1.000
 5492.00    3.24563   2.66125   -1.000
 5493.00    3.23995   2.66605   -1.000
 5494.00    3.22476   2.66599   -1.000
 5495.00    3.22918   2.66375   -1.000
 5496.00    3.20259   2.66152   -1.000
 5497.00    3.15421   2.66027   -1.000
 5498.00    3.17642   2.66105   -1.000
 5499.00    3.22296   2.66197   -1.000
 5500.00    3.21596   2.65738   -1.000
 5501.00    3.16410   2.64419   -1.000
 5502.00    3.12418   2.62429   -1.000
 5503.00    3.13508   2.60453   -1.000
 5504.00    3.15190   2.58991   -1.000
 5505.00    3.11406   2.58032   -1.000
 5506.00    3.08373   2.57658   -1.000
 5507.00    3.11926   2.58075   -1.000
 5508.00    3.17863   2.59126   -1.000
 5509.00    3.20884   2.60070   -1.000
 5510.00    3.18200   2.59835   -1.000
 5511.00    3.12207   2.58057   -1.000
 5512.00    3.07010   2.55482   -1.000
 5513.00    3.05317   2.53377   -1.000
 5514.00    3.09272   2.52917   -1.000
 5515.00    3.14248   2.54521   -1.000
 5516.00    3.17961   2.57954   -1.000
 5517.00    3.25232   2.62523   -1.000
 5518.00    3.34676   2.67393   -1.000
 5519.00    3.39005   2.71693   -1.000
 5520.00    3.38796   2.74761   -1.000
 5521.00    3.38877   2.76324   -1.000
 5522.00    3.37185   2.76625   -1.000
 5523.00    3.36741   2.75835   -1.000
 5524.00    3.35229   2.73883   -1.000
 5525.00    3.30514   2.70668   -1.000
 5526.00    3.23828   2.66485   -1.000
 5527.00    3.14886   2.62341   -1.000
 5528.00    3.08274   2.59513   -1.000
 5529.00    3.11223   2.59196   -1.000
 5530.00    3.22194   2.61297   -1.000
 5531.00    3.28542   2.64531   -1.000
 5532.00    3.28578   2.67314   -1.000
 5533.00    3.27127   2.68826   -1.000
 5534.00    3.26733   2.69223   -1.000
 5535.00    3.26893   2.69123   -1.000
 5536.00    3.28265   2.69197   -1.000
 5537.00    3.30610   2.69932   -1.000
 5538.00    3.32866   2.71444   -1.000
 5539.00    3.37329   2.73419   -1.000
 5540.00    3.42838   2.75377   -1.000
 5541.00    3.45520   2.76716   -1.000
 5542.00    3.42771   2.77065   -1.000
 5543.00    3.39278   2.76532   -1.000
 5544.00    3.39195   2.75779   -1.000
 5545.00    3.40453   2.75501   -1.000
 5546.00    3.40889   2.76107   -1.000
 5547.00    3.42828   2.77641   -1.000
 5548.00    3.48066   2.79857   -1.000
 5549.00    3.52922   2.82094   -1.000
 5550.00    3.53633   2.83548   -1.000
 5551.00    3.51222   2.83758   -1.000
 5552.00    3.47888   2.82755   -1.000
 5553.00    3.43902   2.80953   -1.000
 5554.00    3.40599   2.79025   -1.000
 5555.00    3.39430   2.77570   -1.000
 5556.00    3.40410   2.76788   -1.000
 5557.00    3.41348   2.76499   -1.000
 5558.00    3.40579   2.76336   -1.000
 5559.00    3.41107   2.76059   -1.000
 5560.00    3.42345   2.75489   -1.000
 5561.00    3.39979   2.74469   -1.000
 5562.00    3.35741   2.73019   -1.000
 5563.00    3.33314   2.71457   -1.000
 5564.00    3.32482   2.70049   -1.000
 5565.00    3.31330   2.68876   -1.000
 5566.00    3.30239   2.67912   -1.000
 5567.00    3.31213   2.67240   -1.000
 5568.00    3.33040   2.66985   -1.000
 5569.00    3.34906   2.67133   -1.000
 5570.00    3.39730   2.67522   -1.000
 5571.00    3.46146   2.68012   -1.000
 5572.00    3.38469   2.68536   -1.000
 5573.00    3.21989   2.69216   -1.000
 5574.00    3.20990   2.70293   -1.000
 5575.00    3.32772   2.71996   -1.000
 5576.00    3.49463   2.73968   -1.000
 5577.00    3.51175   2.75679   -1.000
 5578.00    3.47750   2.77032   -1.000
 5579.00    3.45460   2.78006   -1.000
 5580.00    3.45180   2.78361   -1.000
 5581.00    3.44976   2.77904   -1.000
 5582.00    3.43366   2.76429   -1.000
 5583.00    3.40675   2.73783   -1.000
 5584.00    3.37841   2.69905   -1.000
 5585.00    3.31432   2.64766   -1.000
 5586.00    3.20928   2.58899   -1.000
 5587.00    3.11884   2.53496   -1.000
 5588.00    3.07959   2.49911   -1.000
 5589.00    3.10863   2.49018   -1.000
 5590.00    3.17175   2.50553   -1.000
 5591.00    3.22533   2.53663   -1.000
 5592.00    3.24953   2.57290   -1.000
 5593.00    3.24992   2.60821   -1.000
 5594.00    3.28069   2.64043   -1.000
 5595.00    3.35291   2.66812   -1.000
 5596.00    3.39917   2.68650   -1.000
 5597.00    3.34777   2.68815   -1.000
 5598.00    3.25462   2.67046   -1.000
 5599.00    3.20154   2.63973   -1.000
 5600.00    3.18560   2.60876   -1.000
 5601.00    3.16735   2.59040   -1.000
 5602.00    3.16099   2.59325   -1.000
 5603.00    3.21202   2.62134   -1.000
 5604.00    3.29428   2.67239   -1.000
 5605.00    3.38375   2.73483   -1.000
 5606.00    3.47597   2.79340   -1.000
 5607.00    3.52104   2.83807   -1.000
 5608.00    3.50433   2.86588   -1.000
 5609.00    3.47791   2.87946   -1.000
 5610.00    3.47823   2.88159   -1.000
 5611.00    3.50356   2.87189   -1.000
 5612.00    3.51412   2.84593   -1.000
 5613.00    3.44817   2.80008   -1.000
 5614.00    3.30522   2.73872   -1.000
 5615.00    3.18549   2.67658   -1.000
 5616.00    3.18027   2.63461   -1.000
 5617.00    3.24906   2.62395   -1.000
 5618.00    3.30390   2.64121   -1.000
 5619.00    3.29957   2.66980   -1.000
 5620.00    3.30787   2.69561   -1.000
 5621.00    3.35812   2.71097   -1.000
 5622.00    3.37055   2.71142   -1.000
 5623.00    3.30832   2.69592   -1.000
 5624.00    3.23025   2.67351   -1.000
 5625.00    3.21281   2.65834   -1.000
 5626.00    3.26948   2.66345   -1.000
 5627.00    3.34933   2.69020   -1.000
 5628.00    3.42112   2.72926   -1.000
 5629.00    3.46720   2.76956   -1.000
 5630.00    3.47904   2.80206   -1.000
 5631.00    3.47853   2.82036   -1.000
 5632.00    3.47314   2.82277   -1.000
 5633.00    3.43985   2.81140   -1.000
 5634.00    3.40701   2.79076   -1.000
 5635.00    3.37481   2.76583   -1.000
 5636.00    3.34221   2.74182   -1.000
 5637.00    3.33201   2.72281   -1.000
 5638.00    3.34220   2.71052   -1.000
 5639.00    3.34981   2.70385   -1.000
 5640.00    3.33677   2.70010   -1.000
 5641.00    3.31480   2.69773   -1.000
 5642.00    3.31476   2.69819   -1.000
 5643.00    3.33727   2.70470   -1.000
 5644.00    3.37007   2.71686   -1.000
 5645.00    3.39134   2.73122   -1.000
 5646.00    3.40432   2.74466   -1.000
 5647.00    3.42566   2.75519   -1.000
 5648.00    3.43302   2.76232   -1.000
 5649.00    3.43319   2.76757   -1.000
 5650.00    3.45273   2.77327   -1.000
 5651.00    3.49408   2.78016   -1.000
 5652.00    3.52690   2.78532   -1.000
 5653.00    3.51383   2.78259   -1.000
 5654.00    3.47783   2.76806   -1.000
 5655.00    3.44449   2.74289   -1.000
 5656.00    3.39631   2.71047   -1.000
 5657.00    3.30361   2.67480   -1.000
 5658.00    3.20685   2.64211   -1.000
 5659.00    3.21193   2.62114   -1.000
 5660.00    3.29398   2.61955   -1.000
 5661.00    3.33997   2.63490   -1.000
 5662.00    3.33548   2.65768   -1.000
 5663.00    3.34290   2.68334   -1.000
 5664.00    3.39312   2.71024   -1.000
 5665.00    3.43157   2.73325   -1.000
 5666.00    3.42241   2.74763   -1.000
 5667.00    3.38851   2.75289   -1.000
 5668.00    3.36606   2.75417   -1.000
 5669.00    3.37742   2.75909   -1.000
 5670.00    3.40767   2.77180   -1.000
 5671.00    3.45231   2.79293   -1.000
 5672.00    3.52033   2.82012   -1.000
 5673.00    3.57776   2.84828   -1.000
 5674.00    3.59757   2.87087   -1.000
 5675.00    3.60339   2.88483   -1.000
 5676.00    3.60535   2.89020   -1.000
 5677.00    3.59775   2.88846   -1.000
 5678.00    3.59364   2.87950   -1.000
 5679.00    3.58086   2.86241   -1.000
 5680.00    3.54517   2.83900   -1.000
 5681.00    3.50931   2.81322   -1.000
 5682.00    3.47328   2.78900   -1.000
 5683.00    3.47085   2.77052   -1.000
 5684.00    3.50863   2.76084   -1.000
 5685.00    3.52064   2.75771   -1.000
 5686.00    3.47985   2.75616   -1.000
 5687.00    3.43155   2.75609   -1.000
 5688.00    3.42748   2.76196   -1.000
 5689.00    3.48248   2.77825   -1.000
 5690.00    3.56013   2.80477   -1.000
 5691.00    3.62233   2.83575   -1.000
 5692.00    3.66498   2.86374   -1.000
 5693.00    3.66866   2.88236   -1.000
 5694.00    3.64505   2.88871   -1.000
 5695.00    3.63057   2.88335   -1.000
 5696.00    3.60860   2.86855   -1.000
 5697.00    3.56103   2.84607   -1.000
 5698.00    3.48625   2.81814   -1.000
 5699.00    3.41387   2.78899   -1.000
 5700.00    3.36612   2.76351   -1.000
 5701.00    3.33217   2.74522   -1.000
 5702.00    3.34449   2.73571   -1.000
 5703.00    3.40429   2.73393   -1.000
 5704.00    3.44737   2.73252   -1.000
 5705.00    3.43988   2.72293   -1.000
 5706.00    3.38947   2.70115   -1.000
 5707.00    3.32807   2.67054   -1.000
 5708.00    3.28563   2.64086   -1.000
 5709.00    3.26871   2.62143   -1.000
 5710.00    3.28904   2.61884   -1.000
 5711.00    3.32975   2.63604   -1.000
 5712.00    3.39026   2.67122   -1.000
 5713.00    3.49136   2.71887   -1.000
 5714.00    3.58382   2.77064   -1.000
 5715.00    3.63486   2.81729   -1.000
 5716.00    3.65242   2.85511   -1.000
 5717.00    3.66083   2.88466   -1.000
 5718.00    3.67088   2.90869   -1.000
 5719.00    3.68745   2.93042   -1.000
 5720.00    3.71832   2.95166   -1.000
 5721.00    3.75141   2.97130   -1.000
 5722.00    3.77847   2.98608   -1.000
 5723.00    3.77535   2.99230   -1.000
 5724.00    3.75015   2.98786   -1.000
 5725.00    3.72040   2.97344   -1.000
 5726.00    3.66670   2.95348   -1.000
 5727.00    3.62404   2.93501   -1.000
 5728.00    3.64484   2.92389   -1.000
 5729.00    3.68489   2.92108   -1.000
 5730.00    3.67846   2.92238   -1.000
 5731.00    3.64057   2.92531   -1.000
 5732.00    3.65700   2.93148   -1.000
 5733.00    3.73453   2.94290   -1.000
 5734.00    3.78488   2.95759   -1.000
 5735.00    3.77403   2.96901   -1.000
 5736.00    3.73866   2.97326   -1.000
 5737.00    3.70717   2.97121   -1.000
 5738.00    3.69288   2.96636   -1.000
 5739.00    3.69736   2.96233   -1.000
 5740.00    3.70809   2.96006   -1.000
 5741.00    3.71598   2.95993   -1.000
 5742.00    3.71604   2.96233   -1.000
 5743.00    3.71574   2.96756   -1.000
 5744.00    3.73254   2.97496   -1.000
 5745.00    3.77284   2.98087   -1.000
 5746.00    3.79393   2.98118   -1.000
 5747.00    3.74511   2.97459   -1.000
 5748.00    3.69942   2.96433   -1.000
 5749.00    3.73505   2.95529   -1.000
 5750.00    3.77910   2.94628   -1.000
 5751.00    3.75137   2.93305   -1.000
 5752.00    3.67845   2.91424   -1.000
 5753.00    3.62359   2.89656   -1.000
 5754.00    3.61825   2.89213   -1.000
 5755.00    3.65326   2.90635   -1.000
 5756.00    3.72173   2.93418   -1.000
 5757.00    3.78052   2.96031   -1.000
 5758.00    3.78269   2.97075   -1.000
 5759.00    3.73201   2.96024   -1.000
 5760.00    3.65054   2.93404   -1.000
 5761.00    3.57722   2.90545   -1.000
 5762.00    3.54833   2.88962   -1.000
 5763.00    3.59360   2.89636   -1.000
 5764.00    3.68208   2.92554   -1.000
 5765.00    3.76289   2.96693   -1.000
 5766.00    3.79875   3.00545   -1.000
 5767.00    3.79729   3.03200   -1.000
 5768.00    3.78210   3.04423   -1.000
 5769.00    3.74839   3.04392   -1.000
 5770.00    3.72543   3.03480   -1.000
 5771.00    3.70537   3.02133   -1.000
 5772.00    3.65676   3.00721   -1.000
 5773.00    3.59045   2.99518   -1.000
 5774.00    3.52285   2.98715   -1.000
 5775.00    3.45450   2.98253   -1.000
 5776.00    3.41314   2.97802   -1.000
 5777.00    3.43331   2.96714   -1.000
 5778.00    3.50403   2.94280   -1.000
 5779.00    3.54669   2.90257   -1.000
 5780.00    3.51074   2.85065   -1.000
 5781.00    3.44514   2.79766   -1.000
 5782.00    3.41385   2.75544   -1.000
 5783.00    3.42305   2.73220   -1.000
 5784.00    3.44561   2.72866   -1.000
 5785.00    3.47635   2.74200   -1.000
 5786.00    3.53459   2.77029   -1.000
 5787.00    3.62201   2.80883   -1.000
 5788.00    3.69736   2.84870   -1.000
 5789.00    3.71603   2.88251   -1.000
 5790.00    3.67509   2.90794   -1.000
 5791.00    3.63846   2.92886   -1.000
 5792.00    3.64184   2.95071   -1.000
 5793.00    3.68558   2.97557   -1.000
 5794.00    3.75539   2.99967   -1.000
 5795.00    3.80613   3.01645   -1.000
 5796.00    3.82217   3.02353   -1.000
 5797.00    3.81596   3.02498   -1.000
 5798.00    3.81422   3.03000   -1.000
 5799.00    3.83849   3.04479   -1.000
 5800.00    3.88138   3.06718   -1.000
 5801.00    3.89742   3.08721   -1.000
 5802.00    3.89211   3.09461   -1.000
 5803.00    3.86351   3.08670   -1.000
 5804.00    3.78260   3.06836   -1.000
 5805.00    3.73895   3.04918   -1.000
 5806.00    3.75723   3.03729   -1.000
 5807.00    3.76280   3.03561   -1.000
 5808.00    3.77331   3.04209   -1.000
 5809.00    3.81532   3.05236   -1.000
 5810.00    3.86255   3.06163   -1.000
 5811.00    3.88846   3.06552   -1.000
 5812.00    3.87277   3.06097   -1.000
 5813.00    3.83987   3.04809   -1.000
 5814.00    3.81048   3.03061   -1.000
 5815.00    3.78086   3.01541   -1.000
 5816.00    3.77190   3.01025   -1.000
 5817.00    3.80996   3.02026   -1.000
 5818.00    3.86438   3.04291   -1.000
 5819.00    3.91252   3.06956   -1.000
 5820.00    3.93882   3.09055   -1.000
 5821.00    3.93779   3.10129   -1.000
 5822.00    3.91880   3.10334   -1.000
 5823.00    3.90754   3.10141   -1.000
 5824.00    3.91804   3.10053   -1.000
 5825.00    3.94424   3.10259   -1.000
 5826.00    3.96417   3.10726   -1.000
 5827.00    3.96031   3.11322   -1.000
 5828.00    3.96798   3.11905   -1.000
 5829.00    3.96732   3.12369   -1.000
 5830.00    3.96272   3.12549   -1.000
 5831.00    3.96778   3.12304   -1.000
 5832.00    3.95668   3.11631   -1.000
 5833.00    3.94592   3.10645   -1.000
 5834.00    3.93700   3.09575   -1.000
 5835.00    3.93467   3.08695   -1.000
 5836.00    3.93991   3.08263   -1.000
 5837.00    3.91992   3.08349   -1.000
 5838.00    3.89655   3.08911   -1.000
 5839.00    3.89582   3.09977   -1.000
 5840.00    3.91753   3.11425   -1.000
 5841.00    3.95902   3.12848   -1.000
 5842.00    3.98471   3.13689   -1.000
 5843.00    3.97652   3.13503   -1.000
 5844.00    3.94529   3.12218   -1.000
 5845.00    3.88406   3.10121   -1.000
 5846.00    3.82085   3.07701   -1.000
 5847.00    3.80111   3.05439   -1.000
 5848.00    3.80367   3.03607   -1.000
 5849.00    3.79577   3.02157   -1.000
 5850.00    3.76923   3.00782   -1.000
 5851.00    3.72248   2.99122   -1.000
 5852.00    3.67568   2.97096   -1.000
 5853.00    3.66965   2.94892   -1.000
 5854.00    3.68930   2.92702   -1.000
 5855.00    3.68332   2.90569   -1.000
 5856.00    3.63719   2.88453   -1.000
 5857.00    3.58520   2.86702   -1.000
 5858.00    3.59345   2.86033   -1.000
 5859.00    3.65507   2.86922   -1.000
 5860.00    3.70047   2.89144   -1.000
 5861.00    3.71009   2.91739   -1.000
 5862.00    3.71661   2.93854   -1.000
 5863.00    3.71278   2.95150   -1.000
 5864.00    3.69847   2.95722   -1.000
 5865.00    3.68562   2.95906   -1.000
 5866.00    3.66664   2.96068   -1.000
 5867.00    3.66164   2.96629   -1.000
 5868.00    3.70951   2.97943   -1.000
 5869.00    3.76370   2.99813   -1.000
 5870.00    3.78643   3.01605   -1.000
 5871.00    3.78526   3.02803   -1.000
 5872.00    3.75716   3.03229   -1.000
 5873.00    3.75035   3.03046   -1.000
 5874.00    3.77105   3.02471   -1.000
 5875.00    3.77716   3.01555   -1.000
 5876.00    3.74998   3.00167   -1.000
 5877.00    3.71199   2.98228   -1.000
 5878.00    3.65935   2.95954   -1.000
 5879.00    3.61221   2.93751   -1.000
 5880.00    3.56734   2.92033   -1.000
 5881.00    3.49193   2.90949   -1.000
 5882.00    3.33117   2.90261   -1.000
 5883.00    3.04802   2.89218   -1.000
 5884.00    2.74113   2.86794   18.236
 5885.00    2.46573   2.81991   -1.000
 5886.00    2.39292   2.73823   -1.000
 5887.00    2.51692   2.61896   19.796
 5888.00    2.52832   2.47269   19.037
 5889.00    2.34466   2.32694   18.533
 5890.00    2.15988   2.21872   18.584
 5891.00    2.12967   2.17135   19.043
 5892.00    2.29381   2.18127   19.184
 5893.00    2.56928   2.21814   -1.000
 5894.00    2.75460   2.25268   -1.000
 5895.00    2.80756   2.27860   -1.000
 5896.00    2.87042   2.31105   -1.000
 5897.00    3.04690   2.37235   -1.000
 5898.00    3.28150   2.46591   -1.000
 5899.00    3.46526   2.57502   -1.000
 5900.00    3.57702   2.67974   -1.000
 5901.00    3.64039   2.76637   -1.000
 5902.00    3.67071   2.82918   -1.000
 5903.00    3.68054   2.86959   -1.000
 5904.00    3.67825   2.89314   -1.000
 5905.00    3.68501   2.90670   -1.000
 5906.00    3.71431   2.91651   -1.000
 5907.00    3.73940   2.92701   -1.000
 5908.00    3.75282   2.93896   -1.000
 5909.00    3.74940   2.94957   -1.000
 5910.00    3.75807   2.95506   -1.000
 5911.00    3.76141   2.95197   -1.000
 5912.00    3.67593   2.93853   -1.000
 5913.00    3.59027   2.91710   -1.000
 5914.00    3.53692   2.89441   -1.000
 5915.00    3.51837   2.87951   -1.000
 5916.00    3.54829   2.87876   -1.000
 5917.00    3.60157   2.89133   -1.000
 5918.00    3.65450   2.91183   -1.000
 5919.00    3.69334   2.93295   -1.000
 5920.00    3.70293   2.94924   -1.000
 5921.00    3.67837   2.95913   -1.000
 5922.00    3.69753   2.96467   -1.000
 5923.00    3.72219   2.96932   -1.000
 5924.00    3.74274   2.97537   -1.000
 5925.00    3.75696   2.98144   -1.000
 5926.00    3.75452   2.98370   -1.000
 5927.00    3.76193   2.97949   -1.000
 5928.00    3.72059   2.96931   -1.000
 5929.00    3.66038   2.95801   -1.000
 5930.00    3.65726   2.95094   -1.000
 5931.00    3.70794   2.95079   -1.000
 5932.00    3.73357   2.95539   -1.000
 5933.00    3.72601   2.96029   -1.000
 5934.00    3.67981   2.96437   -1.000
 5935.00    3.67219   2.96982   -1.000
 5936.00    3.71735   2.97916   -1.000
 5937.00    3.75093   2.99030   -1.000
 5938.00    3.76432   2.99741   -1.000
 5939.00    3.76783   2.99708   -1.000
 5940.00    3.72360   2.98991   -1.000
 5941.00    3.67972   2.98038   -1.000
 5942.00    3.69068   2.97475   -1.000
 5943.00    3.73810   2.97717   -1.000
 5944.00    3.77403   2.98591   -1.000
 5945.00    3.79781   2.99493   -1.000
 5946.00    3.79618   2.99830   -1.000
 5947.00    3.76405   2.99371   -1.000
 5948.00    3.73060   2.98348   -1.000
 5949.00    3.70571   2.97267   -1.000
 5950.00    3.69665   2.96569   -1.000
 5951.00    3.70122   2.96207   -1.000
 5952.00    3.69706   2.95945   -1.000
 5953.00    3.68264   2.95699   -1.000
 5954.00    3.68581   2.95534   -1.000
 5955.00    3.70913   2.95517   -1.000
 5956.00    3.69073   2.95622   -1.000
 5957.00    3.66650   2.95998   -1.000
 5958.00    3.69091   2.97030   -1.000
 5959.00    3.74578   2.98839   -1.000
 5960.00    3.78949   3.01077   -1.000
 5961.00    3.81809   3.03142   -1.000
 5962.00    3.83143   3.04486   -1.000
 5963.00    3.82148   3.04936   -1.000
 5964.00    3.79152   3.04721   -1.000
 5965.00    3.76581   3.04322   -1.000
 5966.00    3.77987   3.04253   -1.000
 5967.00    3.80860   3.04852   -1.000
 5968.00    3.82172   3.06042   -1.000
 5969.00    3.84852   3.07434   -1.000
 5970.00    3.87686   3.08621   -1.000
 5971.00    3.87575   3.09250   -1.000
 5972.00    3.86513   3.09035   -1.000
 5973.00    3.85023   3.07857   -1.000
 5974.00    3.81609   3.05829   -1.000
 5975.00    3.77168   3.03321   -1.000
 5976.00    3.73763   3.00930   -1.000
 5977.00    3.72805   2.99313   -1.000
 5978.00    3.75177   2.98756   -1.000
 5979.00    3.77802   2.99052   -1.000
 5980.00    3.80638   2.99550   -1.000
 5981.00    3.81904   2.99510   -1.000
 5982.00    3.79506   2.98549   -1.000
 5983.00    3.72727   2.96980   -1.000
 5984.00    3.69021   2.95670   -1.000
 5985.00    3.72727   2.95465   -1.000
 5986.00    3.78816   2.96636   -1.000
 5987.00    3.82672   2.98688   -1.000
 5988.00    3.84667   3.00942   -1.000
 5989.00    3.87203   3.03002   -1.000
 5990.00    3.89161   3.04726   -1.000
 5991.00    3.88965   3.06169   -1.000
 5992.00    3.88550   3.07453   -1.000
 5993.00    3.91238   3.08516   -1.000
 5994.00    3.93955   3.09010   -1.000
 5995.00    3.92611   3.08562   -1.000
 5996.00    3.86566   3.07166   -1.000
 5997.00    3.82288   3.05354   -1.000
 5998.00    3.82219   3.03828   -1.000
 5999.00    3.84124   3.03034   -1.000
 6000.00    3.84030   3.02896   -1.000
 6001.00    3.81916   3.02997   -1.000
 6002.00    3.79779   3.02973   -1.000
 6003.00    3.79743   3.02628   -1.000
 6004.00    3.80240   3.01964   -1.000
 6005.00    3.77492   3.00971   -1.000
 6006.00    3.73331   2.99672   -1.000
 6007.00    3.71148   2.98476   -1.000
 6008.00    3.72283   2.97982   -1.000
 6009.00    3.77194   2.98500   -1.000
 6010.00    3.81982   2.99683   -1.000
 6011.00    3.85303   3.00641   -1.000
 6012.00    3.84264   3.00828   -1.000
 6013.00    3.81185   3.00364   -1.000
 6014.00    3.80164   2.99715   -1.000
 6015.00    3.80282   2.99229   -1.000
 6016.00    3.80669   2.98857   -1.000
 6017.00    3.82561   2.98472   -1.000
 6018.00    3.84753   2.98115   -1.000
 6019.00    3.82432   2.97819   -1.000
 6020.00    3.80361   2.97679   -1.000
 6021.00    3.82977   2.98034   -1.000
 6022.00    3.85010   2.99111   -1.000
 6023.00    3.86013   3.00866   -1.000
 6024.00    3.88609   3.03095   -1.000
 6025.00    3.92990   3.05537   -1.000
 6026.00    3.96065   3.07972   -1.000
 6027.00    3.96723   3.10256   -1.000
 6028.00    3.97888   3.12344   -1.000
 6029.00    3.99250   3.14237   -1.000
 6030.00    3.99696   3.15925   -1.000
 6031.00    3.99850   3.17490   -1.000
 6032.00    4.00166   3.19067   -1.000
 6033.00    4.01686   3.20651   -1.000
 6034.00    4.03864   3.22073   -1.000
 6035.00    4.05433   3.22999   -1.000
 6036.00    4.05333   3.23116   -1.000
 6037.00    4.04748   3.22450   -1.000
 6038.00    4.03727   3.21321   -1.000
 6039.00    4.01901   3.20196   -1.000
 6040.00    4.01290   3.19515   -1.000
 6041.00    4.02244   3.19552   -1.000
 6042.00    4.04223   3.20315   -1.000
 6043.00    4.07177   3.21545   -1.000
 6044.00    4.10751   3.22884   -1.000
 6045.00    4.11327   3.24005   -1.000
 6046.00    4.11463   3.24814   -1.000
 6047.00    4.11947   3.25317   -1.000
 6048.00    4.12343   3.25501   -1.000
 6049.00    4.12694   3.25330   -1.000
 6050.00    4.10950   3.24720   -1.000
 6051.00    4.08837   3.23563   -1.000
 6052.00    4.07504   3.21827   -1.000
 6053.00    4.06516   3.19692   -1.000
 6054.00    4.04423   3.17557   -1.000
 6055.00    4.01838   3.15852   -1.000
 6056.00    4.00143   3.14893   -1.000
 6057.00    4.00644   3.14822   -1.000
 6058.00    4.02169   3.15431   -1.000
 6059.00    4.06383   3.16185   -1.000
 6060.00    4.08260   3.16471   -1.000
 6061.00    3.99204   3.15869   -1.000
 6062.00    3.84010   3.14419   -1.000
 6063.00    3.21727   3.12648   10.279
 6064.00    2.37955   3.11397   -1.000
 6065.00    3.09909   3.11461   16.591
 6066.00    3.85280   3.13221   -1.000
 6067.00    4.08066   3.16377   -1.000
 6068.00    3.63297   3.20071   -1.000
 6069.00    2.01182   3.23402   -1.000
 6070.00    3.00800   3.25886   -1.000
 6071.00    4.08405   3.27429   -1.000
 6072.00    4.20921   3.28062   -1.000
 6073.00    4.17308   3.27827   -1.000
 6074.00    4.16666   3.26777   -1.000
 6075.00    4.14535   3.25000   -1.000
 6076.00    4.10294   3.22636   -1.000
 6077.00    4.05286   3.19941   -1.000
 6078.00    4.03307   3.17244   -1.000
 6079.00    4.01593   3.14871   -1.000
 6080.00    4.01337   3.13018   -1.000
 6081.00    4.00753   3.11739   -1.000
 6082.00    3.99811   3.11047   -1.000
 6083.00    3.99665   3.10978   -1.000
 6084.00    4.01713   3.11434   -1.000
 6085.00    4.03542   3.12140   -1.000
 6086.00    4.01654   3.12800   -1.000
 6087.00    4.02923   3.13137   -1.000
 6088.00    4.05507   3.12948   -1.000
 6089.00    4.00880   3.12285   -1.000
 6090.00    3.94285   3.11495   -1.000
 6091.00    3.95313   3.11132   -1.000
 6092.00    3.97312   3.11588   -1.000
 6093.00    4.01621   3.12866   -1.000
 6094.00    4.05552   3.14646   -1.000
 6095.00    4.06324   3.16442   -1.000
 6096.00    4.05527   3.17777   -1.000
 6097.00    4.07897   3.18315   -1.000
 6098.00    4.11020   3.17859   -1.000
 6099.00    4.09348   3.16218   -1.000
 6100.00    4.03857   3.13360   -1.000
 6101.00    3.91176   3.09830   -1.000
 6102.00    3.80688   3.06737   -1.000
 6103.00    3.83756   3.05363   -1.000
 6104.00    3.94096   3.06310   -1.000
 6105.00    4.01838   3.09040   -1.000
 6106.00    4.05497   3.12410   -1.000
 6107.00    4.06446   3.15471   -1.000
 6108.00    4.07008   3.17830   -1.000
 6109.00    4.04110   3.19499   -1.000
 6110.00    4.02661   3.20625   -1.000
 6111.00    4.06492   3.21424   -1.000
 6112.00    4.08004   3.22129   -1.000
 6113.00    4.06261   3.22750   -1.000
 6114.00    4.03815   3.23031   -1.000
 6115.00    4.02718   3.22628   -1.000
 6116.00    4.02521   3.21339   -1.000
 6117.00    4.01913   3.19168   -1.000
 6118.00    4.02869   3.16171   -1.000
 6119.00    4.01393   3.12535   -1.000
 6120.00    3.95114   3.08821   -1.000
 6121.00    3.87566   3.05922   -1.000
 6122.00    3.83534   3.04695   -1.000
 6123.00    3.91636   3.05434   -1.000
 6124.00    4.02859   3.07595   -1.000
 6125.00    4.04568   3.10126   -1.000
 6126.00    4.00677   3.12264   -1.000
 6127.00    3.98964   3.13959   -1.000
 6128.00    3.97845   3.15546   -1.000
 6129.00    3.97495   3.17274   -1.000
 6130.00    4.00603   3.18895   -1.000
 6131.00    4.04178   3.19616   -1.000
 6132.00    4.03906   3.18505   -1.000
 6133.00    3.99819   3.15049   -1.000
 6134.00    3.88103   3.09577   -1.000
 6135.00    3.75136   3.03407   -1.000
 6136.00    3.64380   2.98454   -1.000
 6137.00    3.62015   2.96440   -1.000
 6138.00    3.66158   2.97932   -1.000
 6139.00    3.80240   3.02024   -1.000
 6140.00    3.89930   3.07049   -1.000
 6141.00    3.89684   3.11653   -1.000
 6142.00    3.91821   3.15410   -1.000
 6143.00    3.97533   3.18383   -1.000
 6144.00    4.00008   3.20487   -1.000
 6145.00    4.00818   3.21458   -1.000
 6146.00    3.99608   3.21165   -1.000
 6147.00    3.98081   3.19815   -1.000
 6148.00    3.94663   3.17916   -1.000
 6149.00    3.92696   3.16097   -1.000
 6150.00    3.92273   3.14815   -1.000
 6151.00    3.92170   3.14167   -1.000
 6152.00    3.89578   3.13855   -1.000
 6153.00    3.90623   3.13379   -1.000
 6154.00    3.89735   3.12368   -1.000
 6155.00    3.86439   3.10675   -1.000
 6156.00    3.79410   3.08210   -1.000
 6157.00    3.76404   3.04685   -1.000
 6158.00    3.69875   2.99738   -1.000
 6159.00    3.58816   2.93371   -1.000
 6160.00    3.46130   2.86290   -1.000
 6161.00    3.34438   2.79932   -1.000
 6162.00    3.28119   2.75932   -1.000
 6163.00    3.34134   2.75267   -1.000
 6164.00    3.44202   2.77565   -1.000
 6165.00    3.53105   2.81331   -1.000
 6166.00    3.58144   2.84868   -1.000
 6167.00    3.58120   2.87110   -1.000
 6168.00    3.55010   2.88025   -1.000
 6169.00    3.50852   2.88431   -1.000
 6170.00    3.49280   2.89415   -1.000
 6171.00    3.55063   2.91528   -1.000
 6172.00    3.64337   2.94461   -1.000
 6173.00    3.65205   2.97401   -1.000
 6174.00    3.67566   2.99785   -1.000
 6175.00    3.68356   3.01557   -1.000
 6176.00    3.64425   3.02942   -1.000
 6177.00    3.65210   3.04250   -1.000
 6178.00    3.68294   3.05683   -1.000
 6179.00    3.70983   3.07203   -1.000
 6180.00    3.74698   3.08591   -1.000
 6181.00    3.76983   3.09604   -1.000
 6182.00    3.76476   3.09967   -1.000
 6183.00    3.72805   3.09394   -1.000
 6184.00    3.69028   3.07764   -1.000
 6185.00    3.66974   3.05193   -1.000
 6186.00    3.64372   3.01970   -1.000
 6187.00    3.58921   2.98475   -1.000
 6188.00    3.58319   2.95100   -1.000
 6189.00    3.54925   2.92250   -1.000
 6190.00    3.47477   2.90366   -1.000
 6191.00    3.45536   2.89965   -1.000
 6192.00    3.53031   2.91408   -1.000
 6193.00    3.62534   2.94447   -1.000
 6194.00    3.67954   2.98183   -1.000
 6195.00    3.72342   3.01503   -1.000
 6196.00    3.71331   3.03642   -1.000
 6197.00    3.65792   3.04457   -1.000
 6198.00    3.59241   3.04357   -1.000
 6199.00    3.54838   3.04118   -1.000
 6200.00    3.56060   3.04527   -1.000
 6201.00    3.61387   3.05931   -1.000
 6202.00    3.67768   3.08027   -1.000
 6203.00    3.72806   3.10244   -1.000
 6204.00    3.74546   3.12107   -1.000
 6205.00    3.74421   3.13384   -1.000
 6206.00    3.75626   3.14013   -1.000
 6207.00    3.75069   3.13919   -1.000
 6208.00    3.73745   3.12980   -1.000
 6209.00    3.73051   3.11035   -1.000
 6210.00    3.71646   3.08008   -1.000
 6211.00    3.66112   3.04030   -1.000
 6212.00    3.61082   2.99484   -1.000
 6213.00    3.56398   2.95008   -1.000
 6214.00    3.53657   2.91357   -1.000
 6215.00    3.59396   2.89070   -1.000
 6216.00    3.63190   2.88189   -1.000
 6217.00    3.67022   2.88280   -1.000
 6218.00    3.68517   2.88770   -1.000
 6219.00    3.59694   2.89298   -1.000
 6220.00    3.52350   2.89886   -1.000
 6221.00    3.54729   2.90733   -1.000
 6222.00    3.61894   2.91837   -1.000
 6223.00    3.70737   2.92983   -1.000
 6224.00    3.72871   2.93864   -1.000
 6225.00    3.72000   2.94174   -1.000
 6226.00    3.70007   2.93620   -1.000
 6227.00    3.66974   2.91994   -1.000
 6228.00    3.61900   2.89404   -1.000
 6229.00    3.54560   2.86455   -1.000
 6230.00    3.47284   2.84172   -1.000
 6231.00    3.45878   2.83619   -1.000
 6232.00    3.48448   2.85268   -1.000
 6233.00    3.52297   2.88654   -1.000
 6234.00    3.58303   2.92601   -1.000
 6235.00    3.65260   2.95753   -1.000
 6236.00    3.66817   2.97139   -1.000
 6237.00    3.64204   2.96547   -1.000
 6238.00    3.60755   2.94463   -1.000
 6239.00    3.55673   2.91666   -1.000
 6240.00    3.51028   2.88886   -1.000
 6241.00    3.50746   2.86588   -1.000
 6242.00    3.52274   2.85005   -1.000
 6243.00    3.48647   2.84286   -1.000
 6244.00    3.44447   2.84622   -1.000
 6245.00    3.46281   2.86103   -1.000
 6246.00    3.51092   2.88506   -1.000
 6247.00    3.58831   2.91261   -1.000
 6248.00    3.62781   2.93564   -1.000
 6249.00    3.62407   2.94619   -1.000
 6250.00    3.60217   2.94026   -1.000
 6251.00    3.53553   2.91955   -1.000
 6252.00    3.46707   2.88999   -1.000
 6253.00    3.44172   2.85900   -1.000
 6254.00    3.44200   2.83194   -1.000
 6255.00    3.42998   2.81103   -1.000
 6256.00    3.39472   2.79766   -1.000
 6257.00    3.39040   2.79463   -1.000
 6258.00    3.42583   2.80607   -1.000
 6259.00    3.44746   2.83382   -1.000
 6260.00    3.52151   2.87436   -1.000
 6261.00    3.61029   2.91975   -1.000
 6262.00    3.65389   2.96074   -1.000
 6263.00    3.67760   2.99083   -1.000
 6264.00    3.65345   3.00812   -1.000
 6265.00    3.61080   3.01538   -1.000
 6266.00    3.61980   3.01765   -1.000
 6267.00    3.63369   3.01918   -1.000
 6268.00    3.62684   3.02167   -1.000
 6269.00    3.60886   3.02537   -1.000
 6270.00    3.61012   3.03050   -1.000
 6271.00    3.61058   3.03614   -1.000
 6272.00    3.55125   3.03969   -1.000
 6273.00    3.46869   3.03773   -1.000
 6274.00    3.42705   3.02804   -1.000
 6275.00    3.38505   3.01075   -1.000
 6276.00    3.35847   2.98844   -1.000
 6277.00    3.31702   2.96508   -1.000
 6278.00    3.27392   2.94500   -1.000
 6279.00    3.23396   2.93259   -1.000
 6280.00    3.24466   2.93138   -1.000
 6281.00    3.32170   2.94325   -1.000
 6282.00    3.45089   2.96734   -1.000
 6283.00    3.58739   2.99971   -1.000
 6284.00    3.66251   3.03472   -1.000
 6285.00    3.69375   3.06739   -1.000
 6286.00    3.74775   3.09418   -1.000
 6287.00    3.80501   3.11280   -1.000
 6288.00    3.87041   3.12127   -1.000
 6289.00    3.87404   3.11867   -1.000
 6290.00    3.82838   3.10637   -1.000
 6291.00    3.80497   3.08811   -1.000
 6292.00    3.78655   3.06818   -1.000
 6293.00    3.75912   3.04910   -1.000
 6294.00    3.76987   3.03105   -1.000
 6295.00    3.74308   3.01351   -1.000
 6296.00    3.70506   2.99670   -1.000
 6297.00    3.68427   2.98259   -1.000
 6298.00    3.67252   2.97335   -1.000
 6299.00    3.70089   2.96911   -1.000
 6300.00    3.72832   2.96857   -1.000
 6301.00    3.71878   2.97160   -1.000
 6302.00    3.70836   2.98012   -1.000
 6303.00    3.73986   2.99631   -1.000
 6304.00    3.78820   3.01986   -1.000
 6305.00    3.81484   3.04814   -1.000
 6306.00    3.85721   3.07693   -1.000
 6307.00    3.92397   3.10161   -1.000
 6308.00    3.97109   3.11768   -1.000
 6309.00    3.97097   3.12224   -1.000
 6310.00    3.93612   3.11536   -1.000
 6311.00    3.88231   3.10020   -1.000
 6312.00    3.86039   3.08049   -1.000
 6313.00    3.84088   3.05889   -1.000
 6314.00    3.81806   3.03709   -1.000
 6315.00    3.80002   3.01683   -1.000
 6316.00    3.80156   3.00128   -1.000
 6317.00    3.80883   2.99389   -1.000
 6318.00    3.82623   2.99720   -1.000
 6319.00    3.84915   3.01229   -1.000
 6320.00    3.90927   3.03758   -1.000
 6321.00    3.96760   3.06820   -1.000
 6322.00    3.99637   3.09897   -1.000
 6323.00    4.03665   3.12676   -1.000
 6324.00    4.07260   3.14996   -1.000
 6325.00    4.06373   3.16780   -1.000
 6326.00    4.07541   3.18033   -1.000
 6327.00    4.10657   3.18872   -1.000
 6328.00    4.10037   3.19459   -1.000
 6329.00    4.12332   3.19865   -1.000
 6330.00    4.12812   3.20027   -1.000
 6331.00    4.10973   3.19772   -1.000
 6332.00    4.13314   3.18886   -1.000
 6333.00    4.13437   3.17198   -1.000
 6334.00    4.08054   3.14850   -1.000
 6335.00    4.01147   3.12450   -1.000
 6336.00    3.98730   3.10800   -1.000
 6337.00    3.99913   3.10465   -1.000
 6338.00    4.04195   3.11350   -1.000
 6339.00    4.11778   3.12818   -1.000
 6340.00    4.15760   3.14116   -1.000
 6341.00    4.12364   3.14722   -1.000
 6342.00    4.08666   3.14583   -1.000
 6343.00    4.06858   3.14169   -1.000
 6344.00    4.06380   3.14182   -1.000
 6345.00    4.05930   3.15140   -1.000
 6346.00    4.09411   3.17083   -1.000
 6347.00    4.15282   3.19550   -1.000
 6348.00    4.17818   3.21942   -1.000
 6349.00    4.17679   3.23735   -1.000
 6350.00    4.18687   3.24576   -1.000
 6351.00    4.18319   3.24314   -1.000
 6352.00    4.14280   3.22987   -1.000
 6353.00    4.10426   3.20789   -1.000
 6354.00    4.06269   3.18018   -1.000
 6355.00    4.00956   3.14976   -1.000
 6356.00    3.99416   3.11853   -1.000
 6357.00    3.96406   3.08676   -1.000
 6358.00    3.90141   3.05508   -1.000
 6359.00    3.88822   3.02618   -1.000
 6360.00    3.89177   3.00437   -1.000
 6361.00    3.90557   2.99370   -1.000
 6362.00    3.91636   2.99683   -1.000
 6363.00    3.93873   3.01464   -1.000
 6364.00    3.99770   3.04544   -1.000
 6365.00    4.05796   3.08491   -1.000
 6366.00    4.13195   3.12741   -1.000
 6367.00    4.20032   3.16788   -1.000
 6368.00    4.24871   3.20294   -1.000
 6369.00    4.27035   3.23121   -1.000
 6370.00    4.27075   3.25322   -1.000
 6371.00    4.28628   3.27080   -1.000
 6372.00    4.30077   3.28491   -1.000
 6373.00    4.29475   3.29500   -1.000
 6374.00    4.29065   3.29953   -1.000
 6375.00    4.29799   3.29764   -1.000
 6376.00    4.28662   3.28993   -1.000
 6377.00    4.25642   3.27800   -1.000
 6378.00    4.23293   3.26443   -1.000
 6379.00    4.20056   3.25280   -1.000
 6380.00    4.19006   3.24608   -1.000
 6381.00    4.20060   3.24516   -1.000
 6382.00    4.21207   3.24924   -1.000
 6383.00    4.21727   3.25649   -1.000
 6384.00    4.18897   3.26518   -1.000
 6385.00    4.18361   3.27404   -1.000
 6386.00    4.20058   3.28193   -1.000
 6387.00    4.20133   3.28676   -1.000
 6388.00    4.20270   3.28568   -1.000
 6389.00    4.17582   3.27656   -1.000
 6390.00    4.14087   3.25924   -1.000
 6391.00    4.09663   3.23638   -1.000
 6392.00    4.01068   3.21384   -1.000
 6393.00    3.94808   3.19889   -1.000
 6394.00    3.94782   3.19583   -1.000
 6395.00    3.99952   3.20293   -1.000
 6396.00    4.06057   3.21213   -1.000
 6397.00    4.08763   3.21543   -1.000
 6398.00    4.04264   3.21073   -1.000
 6399.00    3.95760   3.20368   -1.000
 6400.00    3.91081   3.20369   -1.000
 6401.00    3.94068   3.21704   -1.000
 6402.00    4.00543   3.24165   -1.000
 6403.00    4.05841   3.26758   -1.000
 6404.00    4.05176   3.28479   -1.000
 6405.00    3.99169   3.28866   -1.000
 6406.00    3.93000   3.28084   -1.000
 6407.00    3.85670   3.26703   -1.000
 6408.00    3.81708   3.25336   -1.000
 6409.00    3.81693   3.24331   -1.000
 6410.00    3.78762   3.23705   -1.000
 6411.00    3.74797   3.23393   -1.000
 6412.00    3.71332   3.23424   -1.000
 6413.00    3.68068   3.23854   -1.000
 6414.00    3.65668   3.24573   -1.000
 6415.00    3.64977   3.25207   -1.000
 6416.00    3.64699   3.25347   -1.000
 6417.00    3.60471   3.24738   -1.000
 6418.00    3.56763   3.23495   -1.000
 6419.00    3.49906   3.22165   -1.000
 6420.00    3.39894   3.21493   -1.000
 6421.00    3.36119   3.22066   -1.000
 6422.00    3.41252   3.23982   -1.000
 6423.00    3.48527   3.26754   -1.000
 6424.00    3.47632   3.29530   -1.000
 6425.00    3.42212   3.31574   -1.000
 6426.00    3.39678   3.32414   23.625
 6427.00    0.26855   3.31895   -1.000
 6428.00    0.00000   3.30192   -2.000
