###################################################################
## OUTPUT of StarlightChains_v04.for    [Cid@UFSC - 01/Apr/2007] ##
###################################################################

## Some input info
NGC6723_a_1.cxt                          [arq_obs]
Base.BC03.N                              [arq_base]
NGC6723_a_1.msk                          [arq_masks]
StCv04.C11.config                        [arq_config]
   45                                    [N_base]
    0                                    [N_YAV_components = # of components with extra extinction!]
    0                                    [i_FitPowerLaw (1/0 = Yes/No)]
-9.99                                    [alpha_PowerLaw]
CCM                                      [red_law_option]
 1.458241                                [q_norm = A(l_norm)/A(V)]

## (Re)Sampling Parameters
 3359.00                                 [l_ini (A)]
 6428.00                                 [l_fin (A)]
    1.00                                 [dl    (A)]     (OBS: dl_cushion =    50.00 A)

## Normalization info
 4020.00                                 [l_norm (A) - for base]
 4010.00                                 [llow_norm (A) - window for f_obs]
 4060.00                                 [lupp_norm (A) - window for f_obs]
2.195815E-14                             [fobs_norm (in input units)]

## S/N
 4730.00                                 [llow_SN (A) - window for S/N]
 4780.00                                 [lupp_SN (A) - window for S/N]
  66.760                                 [S/N in S/N window]
  58.282                                 [S/N in norm. window]
  95.225                                 [S/N_err in S/N window]
  83.132                                 [S/N_err in norm. window]
  1.0000                                 [fscale_chi2]

## etc...
  2147483590                             [idum_orig]
  3065                                   [NOl_eff]
  1735                                   [Nl_eff]
  1330    NSIGMA                         [Ntot_cliped & clip_method]
   627900                                [Nglobal_steps]
   7                                     [N_chains]
   8                                     [NEX0s_base = N_base in EX0s-fits]
 0   0   1      119   2.0   1.985E+02    [Clip-Bug, RC-Crash & Burn-In warning-flags, n_censored_weights, wei_nsig_threshold & wei_limit]
     8      8.639      8.627      0.012  [idt_all, wdt_TotTime, wdt_UsrTime & wdt_SysTime (sec)]

## Synthesis Results - Best model ##

 2.66864E+00                             [chi2/Nl_eff]
     1.93603                             [adev (%)]

   102.83945                             [sum-of-x (%)]
 2.87598E-14                             [Flux_tot (units of input spectrum!)]
 3.08882E-10                             [Mini_tot (???)]
 1.66893E-10                             [Mcor_tot (???)]

   6.30                                  [v0_min  (km/s)]
  52.92                                  [vd_min  (km/s)]
 0.1801                                  [AV_min  (mag)]
 0.0000                                  [YAV_min (mag)]

# j     x_j(%)      Mini_j(%)     Mcor_j(%)     age_j(yr)     Z_j      (L/M)_j    YAV?  Mstars   component_j        a/Fe...       SSP_chi2r SSP_adev(%)   SSP_AV   SSP_x(%)
  1      0.0000     0.0000E+00    0.0000E+00    1.000000E+06  0.00400  1.114E-02    0   1.0000   age020_m42            0.0000     1.3450E+02    12.5472   3.6172    81.6123
  2      4.7773     1.0620E-02    1.9652E-02    3.160000E+06  0.00400  4.073E-02    0   0.9999   age045_m42            0.0000     4.6246E+01     7.1667   2.7050    94.1130
  3      0.0000     0.0000E+00    0.0000E+00    5.010000E+06  0.00400  2.534E-02    0   0.9488   age055_m42            0.0000     7.9875E+01     9.9689   3.0864    88.5725
  4      3.5254     2.5113E-02    4.1189E-02    1.000000E+07  0.00400  1.271E-02    0   0.8862   age070_m42            0.0000     7.7475E+01    10.0329   2.3067    91.9653
  5      0.0004     8.0199E-06    1.2133E-05    2.512000E+07  0.00400  5.070E-03    0   0.8174   age090_m42            0.0000     6.9890E+01     9.5116   2.1833    93.2787
  6      0.0000     0.0000E+00    0.0000E+00    4.000000E+07  0.00400  3.505E-03    0   0.7851   age104_m42            0.0000     4.9258E+01     7.8122   1.8796    95.7789
  7      5.1224     2.0448E-01    2.7275E-01    1.015200E+08  0.00400  2.268E-03    0   0.7207   age116_m42            0.0000     9.2099E+01     6.6981   1.9527   102.6932
  8      0.0000     0.0000E+00    0.0000E+00    2.861200E+08  0.00400  1.079E-03    0   0.6613   age125_m42            0.0000     9.4764E+01     6.9006   1.4694   104.4625
  9      0.0000     0.0000E+00    0.0000E+00    6.405400E+08  0.00400  5.077E-04    0   0.6197   age132_m42            0.0000     9.6097E+01     7.3015   1.1072   108.4372
 10      3.3686     8.6276E-01    9.6190E-01    9.047900E+08  0.00400  3.535E-04    0   0.6024   age135_m42            0.0000     5.9054E+01     5.8973   0.8531   108.1331
 11      0.0000     0.0000E+00    0.0000E+00    1.434000E+09  0.00400  1.910E-04    0   0.5716   age139_m42            0.0000     2.0052E+01     3.7728   0.3016   107.4946
 12     71.7655     6.6180E+01    6.6913E+01    2.500000E+09  0.00400  9.818E-05    0   0.5463   age150_m42            0.0000     4.7187E+00     2.4850  -0.0007   103.6978
 13     12.9275     2.4808E+01    2.4004E+01    5.000000E+09  0.00400  4.718E-05    0   0.5228   age161_m42            0.0000     1.0653E+01     3.1304  -0.1806   100.7386
 14      0.0000     0.0000E+00    0.0000E+00    1.100000E+10  0.00400  2.205E-05    0   0.4980   age185_m42            0.0000     3.2713E+01     4.7963  -0.4520    98.8041
 15      0.0000     0.0000E+00    0.0000E+00    1.300000E+10  0.00400  1.883E-05    0   0.4927   age193_m42            0.0000     3.6879E+01     5.0356  -0.4702    98.6563
 16      0.0000     0.0000E+00    0.0000E+00    1.000000E+06  0.02000  1.989E-02    0   1.0000   age020_m62            0.0000     1.3773E+02    12.5189   3.5861    82.1505
 17      0.0000     0.0000E+00    0.0000E+00    3.160000E+06  0.02000  3.772E-02    0   0.9858   age045_m62            0.0000     1.2750E+02    12.2347   3.4501    84.2311
 18      0.0000     0.0000E+00    0.0000E+00    5.010000E+06  0.02000  3.227E-02    0   0.9342   age055_m62            0.0000     6.3293E+01     8.6577   2.9594    91.0121
 19      0.0000     0.0000E+00    0.0000E+00    1.000000E+07  0.02000  1.011E-02    0   0.8751   age070_m62            0.0000     1.5610E+02    14.1077   2.3177    88.6832
 20      0.0000     0.0000E+00    0.0000E+00    2.512000E+07  0.02000  4.206E-03    0   0.8099   age090_m62            0.0000     1.1676E+02    12.2458   2.2601    89.3282
 21      0.0000     0.0000E+00    0.0000E+00    4.000000E+07  0.02000  3.373E-03    0   0.7799   age104_m62            0.0000     5.6199E+01     7.7587   2.1130    96.7017
 22      0.0000     0.0000E+00    0.0000E+00    1.015200E+08  0.02000  1.878E-03    0   0.7221   age116_m62            0.0000     8.7481E+01     6.8382   1.9764   103.0336
 23      0.0000     0.0000E+00    0.0000E+00    2.861200E+08  0.02000  8.869E-04    0   0.6700   age125_m62            0.0000     1.5207E+02     8.5657   1.4950   108.6291
 24      0.0000     0.0000E+00    0.0000E+00    6.405400E+08  0.02000  3.657E-04    0   0.6322   age132_m62            0.0000     8.9271E+01     6.9343   0.7907   112.6801
 25      0.0000     0.0000E+00    0.0000E+00    9.047900E+08  0.02000  2.312E-04    0   0.6152   age135_m62            0.0000     4.4019E+01     5.2641   0.3953   112.3493
 26      0.0000     0.0000E+00    0.0000E+00    1.434000E+09  0.02000  1.168E-04    0   0.5865   age139_m62            0.0000     1.1646E+01     3.3978  -0.0505   107.4698
 27      0.0000     0.0000E+00    0.0000E+00    2.500000E+09  0.02000  5.505E-05    0   0.5610   age150_m62            0.0000     2.3741E+01     4.5376  -0.4401   104.9823
 28      0.0000     0.0000E+00    0.0000E+00    5.000000E+09  0.02000  2.596E-05    0   0.5353   age161_m62            0.0000     6.4084E+01     6.6426  -0.7790   105.0040
 29      0.0000     0.0000E+00    0.0000E+00    1.100000E+10  0.02000  1.169E-05    0   0.5103   age185_m62            0.0000     1.2345E+02     8.2713  -1.0000   102.5725
 30      0.0000     0.0000E+00    0.0000E+00    1.300000E+10  0.02000  9.691E-06    0   0.5047   age193_m62            0.0000     1.3900E+02     8.7159  -1.0000   101.5564
 31      0.0000     0.0000E+00    0.0000E+00    1.000000E+06  0.05000  2.651E-02    0   0.9998   age020_m72            0.0000     1.2866E+02    11.9875   3.5935    82.9174
 32      0.0000     0.0000E+00    0.0000E+00    3.160000E+06  0.05000  4.817E-02    0   0.9577   age045_m72            0.0000     9.5471E+01    10.5572   3.3208    87.1809
 33      0.0000     0.0000E+00    0.0000E+00    5.010000E+06  0.05000  3.101E-02    0   0.9147   age055_m72            0.0000     9.0519E+01    10.5002   2.9704    89.5602
 34      0.0000     0.0000E+00    0.0000E+00    1.000000E+07  0.05000  8.954E-03    0   0.8524   age070_m72            0.0000     9.2128E+01    10.2503   3.2136    88.0481
 35      0.0000     0.0000E+00    0.0000E+00    2.512000E+07  0.05000  4.207E-03    0   0.7902   age090_m72            0.0000     5.7347E+01     7.9261   2.8019    92.8639
 36      0.0000     0.0000E+00    0.0000E+00    4.000000E+07  0.05000  3.198E-03    0   0.7618   age104_m72            0.0000     6.0477E+01     5.9035   2.3332    99.4322
 37      0.0000     0.0000E+00    0.0000E+00    1.015200E+08  0.05000  1.716E-03    0   0.7092   age116_m72            0.0000     1.0118E+02     7.1672   2.0755   102.9230
 38      0.0000     0.0000E+00    0.0000E+00    2.861200E+08  0.05000  7.047E-04    0   0.6618   age125_m72            0.0000     1.3939E+02     8.0096   1.2825   109.2948
 39      0.0000     0.0000E+00    0.0000E+00    6.405400E+08  0.05000  2.633E-04    0   0.6253   age132_m72            0.0000     6.0276E+01     6.0103   0.3963   112.5483
 40      0.0000     0.0000E+00    0.0000E+00    9.047900E+08  0.05000  1.484E-04    0   0.6088   age135_m72            0.0000     2.2449E+01     4.5527  -0.1185   108.4594
 41      0.0000     0.0000E+00    0.0000E+00    1.434000E+09  0.05000  7.827E-05    0   0.5847   age139_m72            0.0000     3.6402E+01     5.5622  -0.5281   105.4412
 42      0.0000     0.0000E+00    0.0000E+00    2.500000E+09  0.05000  3.759E-05    0   0.5583   age150_m72            0.0000     7.0774E+01     7.0728  -0.8599   104.8093
 43      1.3523     7.9093E+00    7.7876E+00    5.000000E+09  0.05000  1.548E-05    0   0.5320   age161_m72            0.0000     1.4454E+02     9.3261  -1.0000    97.3986
 44      0.0000     0.0000E+00    0.0000E+00    1.100000E+10  0.05000  6.532E-06    0   0.5070   age185_m72            0.0000     3.1077E+02    14.5952  -1.0000    86.9995
 45      0.0000     0.0000E+00    0.0000E+00    1.300000E+10  0.05000  5.316E-06    0   0.5018   age193_m72            0.0000     3.8199E+02    16.3205  -1.0000    83.8578


## Synthesis Results - Average & Chains ##

# j      x_j: min, <> & last-chain-values for 1 ...  7 chains
  1      0.0000      0.0063      0.0000      0.0000      0.0284      0.0000      0.0000      0.0000      0.0000
  2      4.7773      3.5389      3.6450      3.8482      3.8041      3.7418      3.9866      3.9674      3.5252
  3      0.0000      0.0762      0.0854      0.0000      0.0000      0.0000      0.0267      0.0000      0.0000
  4      3.5254      3.2422      3.1975      3.4524      3.4682      3.5288      3.3201      3.3424      3.6647
  5      0.0004      0.6898      0.6272      0.7397      0.7131      0.7416      0.3647      0.7904      0.5236
  6      0.0000      0.0994      0.1420      0.0000      0.1382      0.0000      0.0000      0.0000      0.0433
  7      5.1224      2.9201      3.3735      3.0609      2.9693      3.4706      2.7641      3.2353      3.2918
  8      0.0000      0.0901      0.0221      0.0000      0.0000      0.0000      0.0000      0.0877      0.0000
  9      0.0000      0.1072      0.0000      0.0000      0.0000      0.0000      0.3691      0.0000      0.0000
 10      3.3686      5.6767      5.7467      6.1111      5.6962      5.5128      6.8935      5.6586      5.7840
 11      0.0000      0.3785      0.2953      0.0000      0.0000      0.2136      0.0000      0.1485      0.0000
 12     71.7655     70.4646     70.7850     71.0946     70.9813     70.7244     69.3264     70.7696     71.0159
 13     12.9275     12.6384     12.6855     12.1758     12.7049     13.1371     12.6270     12.6048     13.1283
 14      0.0000      0.1140      0.0000      0.0000      0.0000      0.0000      0.4554      0.0512      0.0000
 15      0.0000      0.0421      0.0000      0.0000      0.0000      0.0000      0.0078      0.0000      0.0000
 16      0.0000      0.0068      0.0000      0.0000      0.0000      0.0000      0.0000      0.0000      0.0000
 17      0.0000      0.0068      0.0000      0.0000      0.0000      0.0000      0.0000      0.0000      0.0000
 18      0.0000      0.3373      0.5456      0.4095      0.2900      0.3175      0.5717      0.2923      0.3255
 19      0.0000      0.0415      0.0000      0.0000      0.0000      0.0000      0.0000      0.0359      0.0000
 20      0.0000      0.0111      0.0000      0.0000      0.0000      0.0000      0.0000      0.0000      0.0000
 21      0.0000      0.0414      0.0000      0.0000      0.0000      0.0000      0.0000      0.0000      0.1813
 22      0.0000      0.1140      0.0000      0.0000      0.2977      0.0000      0.0000      0.0000      0.0000
 23      0.0000      0.0217      0.0000      0.0000      0.1782      0.0000      0.0000      0.0000      0.0000
 24      0.0000      0.0117      0.0066      0.0000      0.0000      0.0000      0.0000      0.0034      0.0000
 25      0.0000      0.0290      0.0000      0.0589      0.0000      0.0000      0.0239      0.0000      0.0000
 26      0.0000      0.0608      0.0000      0.1168      0.0194      0.0000      0.0000      0.0000      0.0371
 27      0.0000      0.0809      0.1679      0.0000      0.0000      0.0572      0.0102      0.0000      0.0000
 28      0.0000      0.0657      0.0000      0.0000      0.0000      0.0000      0.0000      0.0026      0.0000
 29      0.0000      0.0324      0.0000      0.0000      0.0000      0.0000      0.0000      0.0000      0.0000
 30      0.0000      0.0312      0.0000      0.0000      0.0000      0.0000      0.0000      0.0000      0.0786
 31      0.0000      0.0038      0.0000      0.0000      0.0000      0.0000      0.0000      0.0000      0.0000
 32      0.0000      0.0138      0.0000      0.0000      0.0000      0.0000      0.0000      0.0000      0.0000
 33      0.0000      0.0449      0.0559      0.0000      0.0000      0.0000      0.0443      0.0281      0.0000
 34      0.0000      0.0093      0.0000      0.0000      0.0000      0.0000      0.0000      0.0000      0.0000
 35      0.0000      0.0175      0.0000      0.0000      0.0000      0.0000      0.0122      0.0000      0.0000
 36      0.0000      0.0242      0.0000      0.0000      0.0000      0.0000      0.0647      0.0000      0.0620
 37      0.0000      0.1155      0.0000      0.0000      0.0340      0.0000      0.0000      0.0000      0.0000
 38      0.0000      0.0166      0.0000      0.0000      0.0000      0.0000      0.0000      0.0000      0.0000
 39      0.0000      0.0359      0.0000      0.0000      0.0000      0.0000      0.0000      0.0000      0.0000
 40      0.0000      0.0787      0.0000      0.0169      0.0000      0.0824      0.0959      0.0000      0.0000
 41      0.0000      0.1243      0.0000      0.1636      0.0000      0.0000      0.0000      0.3867      0.0000
 42      0.0000      0.0988      0.0974      0.0695      0.1301      0.0000      0.5976      0.0000      0.0599
 43      1.3523      0.5424      0.4901      0.6682      0.5813      0.6789      0.5811      0.6039      0.4266
 44      0.0000      0.3615      0.4312      0.4917      0.3746      0.2509      0.3503      0.3868      0.2054
 45      0.0000      0.5408      0.6245      0.4668      0.5270      0.4587      0.5312      0.5820      0.6157

# j      m_j: min, <> & last-chain-values for 1 ...  7 chains
  1  0.0000E+00  8.5782E-05  0.0000E+00  0.0000E+00  3.9301E-04  0.0000E+00  0.0000E+00  0.0000E+00  0.0000E+00
  2  1.9652E-02  1.3274E-02  1.3577E-02  1.4520E-02  1.4413E-02  1.4404E-02  1.4910E-02  1.4872E-02  1.3398E-02
  3  0.0000E+00  4.3567E-04  4.8488E-04  0.0000E+00  0.0000E+00  0.0000E+00  1.5247E-04  0.0000E+00  0.0000E+00
  4  4.1189E-02  3.4539E-02  3.3826E-02  3.6999E-02  3.7319E-02  3.8581E-02  3.5267E-02  3.5584E-02  3.9558E-02
  5  1.2133E-05  1.6992E-02  1.5341E-02  1.8329E-02  1.7741E-02  1.8747E-02  8.9577E-03  1.9458E-02  1.3070E-02
  6  0.0000E+00  3.4013E-03  4.8250E-03  0.0000E+00  4.7784E-03  0.0000E+00  0.0000E+00  0.0000E+00  1.5025E-03
  7  2.7275E-01  1.4177E-01  1.6264E-01  1.4950E-01  1.4561E-01  1.7293E-01  1.3381E-01  1.5698E-01  1.6194E-01
  8  0.0000E+00  8.4343E-03  2.0583E-03  0.0000E+00  0.0000E+00  0.0000E+00  0.0000E+00  8.2074E-03  0.0000E+00
  9  0.0000E+00  1.9994E-02  0.0000E+00  0.0000E+00  0.0000E+00  0.0000E+00  6.8643E-02  0.0000E+00  0.0000E+00
 10  9.6190E-01  1.4780E+00  1.4858E+00  1.6006E+00  1.4980E+00  1.4731E+00  1.7897E+00  1.4724E+00  1.5260E+00
 11  0.0000E+00  1.7306E-01  1.3407E-01  0.0000E+00  0.0000E+00  1.0024E-01  0.0000E+00  6.7859E-02  0.0000E+00
 12  6.6913E+01  5.9906E+01  5.9759E+01  6.0802E+01  6.0953E+01  6.1708E+01  5.8768E+01  6.0127E+01  6.1176E+01
 13  2.4004E+01  2.1397E+01  2.1327E+01  2.0737E+01  2.1726E+01  2.2827E+01  2.1316E+01  2.1327E+01  2.2522E+01
 14  0.0000E+00  3.9352E-01  0.0000E+00  0.0000E+00  0.0000E+00  0.0000E+00  1.5670E+00  1.7672E-01  0.0000E+00
 15  0.0000E+00  1.6815E-01  0.0000E+00  0.0000E+00  0.0000E+00  0.0000E+00  3.1189E-02  0.0000E+00  0.0000E+00
 16  0.0000E+00  5.1997E-05  0.0000E+00  0.0000E+00  0.0000E+00  0.0000E+00  0.0000E+00  0.0000E+00  0.0000E+00
 17  0.0000E+00  2.7352E-05  0.0000E+00  0.0000E+00  0.0000E+00  0.0000E+00  0.0000E+00  0.0000E+00  0.0000E+00
 18  0.0000E+00  1.4919E-03  2.3963E-03  1.8219E-03  1.2955E-03  1.4412E-03  2.5212E-03  1.2922E-03  1.4588E-03
 19  0.0000E+00  5.4850E-04  0.0000E+00  0.0000E+00  0.0000E+00  0.0000E+00  0.0000E+00  4.7385E-04  0.0000E+00
 20  0.0000E+00  3.2542E-04  0.0000E+00  0.0000E+00  0.0000E+00  0.0000E+00  0.0000E+00  0.0000E+00  0.0000E+00
 21  0.0000E+00  1.4641E-03  0.0000E+00  0.0000E+00  0.0000E+00  0.0000E+00  0.0000E+00  0.0000E+00  6.4882E-03
 22  0.0000E+00  6.6990E-03  0.0000E+00  0.0000E+00  1.7666E-02  0.0000E+00  0.0000E+00  0.0000E+00  0.0000E+00
 23  0.0000E+00  2.5056E-03  0.0000E+00  0.0000E+00  2.0779E-02  0.0000E+00  0.0000E+00  0.0000E+00  0.0000E+00
 24  0.0000E+00  3.0916E-03  1.7440E-03  0.0000E+00  0.0000E+00  0.0000E+00  0.0000E+00  9.0811E-04  0.0000E+00
 25  0.0000E+00  1.1802E-02  0.0000E+00  2.4069E-02  0.0000E+00  0.0000E+00  9.7006E-03  0.0000E+00  0.0000E+00
 26  0.0000E+00  4.6631E-02  0.0000E+00  9.0179E-02  1.5008E-02  0.0000E+00  0.0000E+00  0.0000E+00  2.8856E-02
 27  0.0000E+00  1.2596E-01  2.5952E-01  0.0000E+00  0.0000E+00  9.1423E-02  1.5815E-02  0.0000E+00  0.0000E+00
 28  0.0000E+00  2.0712E-01  0.0000E+00  0.0000E+00  0.0000E+00  0.0000E+00  0.0000E+00  8.1134E-03  0.0000E+00
 29  0.0000E+00  2.1616E-01  0.0000E+00  0.0000E+00  0.0000E+00  0.0000E+00  0.0000E+00  0.0000E+00  0.0000E+00
 30  0.0000E+00  2.4820E-01  0.0000E+00  0.0000E+00  0.0000E+00  0.0000E+00  0.0000E+00  0.0000E+00  6.3378E-01
 31  0.0000E+00  2.1741E-05  0.0000E+00  0.0000E+00  0.0000E+00  0.0000E+00  0.0000E+00  0.0000E+00  0.0000E+00
 32  0.0000E+00  4.1959E-05  0.0000E+00  0.0000E+00  0.0000E+00  0.0000E+00  0.0000E+00  0.0000E+00  0.0000E+00
 33  0.0000E+00  2.0256E-04  2.5016E-04  0.0000E+00  0.0000E+00  0.0000E+00  1.9888E-04  1.2657E-04  0.0000E+00
 34  0.0000E+00  1.3495E-04  0.0000E+00  0.0000E+00  0.0000E+00  0.0000E+00  0.0000E+00  0.0000E+00  0.0000E+00
 35  0.0000E+00  5.0218E-04  0.0000E+00  0.0000E+00  0.0000E+00  0.0000E+00  3.4776E-04  0.0000E+00  0.0000E+00
 36  0.0000E+00  8.7928E-04  0.0000E+00  0.0000E+00  0.0000E+00  0.0000E+00  2.3475E-03  0.0000E+00  2.2852E-03
 37  0.0000E+00  7.2959E-03  0.0000E+00  0.0000E+00  2.1659E-03  0.0000E+00  0.0000E+00  0.0000E+00  0.0000E+00
 38  0.0000E+00  2.3851E-03  0.0000E+00  0.0000E+00  0.0000E+00  0.0000E+00  0.0000E+00  0.0000E+00  0.0000E+00
 39  0.0000E+00  1.3044E-02  0.0000E+00  0.0000E+00  0.0000E+00  0.0000E+00  0.0000E+00  0.0000E+00  0.0000E+00
 40  0.0000E+00  4.9338E-02  0.0000E+00  1.0666E-02  0.0000E+00  5.3005E-02  5.9960E-02  0.0000E+00  0.0000E+00
 41  0.0000E+00  1.4182E-01  0.0000E+00  1.8785E-01  0.0000E+00  0.0000E+00  0.0000E+00  4.4108E-01  0.0000E+00
 42  0.0000E+00  2.2424E-01  2.1950E-01  1.5866E-01  2.9826E-01  0.0000E+00  1.3521E+00  0.0000E+00  1.3769E-01
 43  7.7876E+00  2.8480E+00  2.5556E+00  3.5294E+00  3.0829E+00  3.6587E+00  3.0425E+00  3.1692E+00  2.2698E+00
 44  0.0000E+00  4.2866E+00  5.0781E+00  5.8655E+00  4.4876E+00  3.0532E+00  4.1422E+00  4.5842E+00  2.4681E+00
 45  0.0000E+00  7.7989E+00  8.9442E+00  6.7723E+00  7.6770E+00  6.7900E+00  7.6389E+00  8.3886E+00  8.9979E+00

# AV, chi2 & Mass for <> & i_chain = 1 ...  7 solutions
AV       0.1801      0.1562      0.1577      0.1612      0.1641      0.1649      0.1591      0.1590      0.1621
chi2 2.6686E+00  2.7063E+00  2.6982E+00  2.6934E+00  2.6945E+00  2.6887E+00  2.6985E+00  2.6941E+00  2.6943E+00
Mass 1.6689E-10  1.7727E-10  1.7888E-10  1.7740E-10  1.7736E-10  1.7476E-10  1.7847E-10  1.7804E-10  1.7634E-10
   6.30                                  [v0_min (km/s) before EX0s...]
  52.92                                  [vd_min (km/s) before EX0s...]


## Synthetic spectrum (Best Model) ##l_obs f_obs f_syn wei
 3070    [Nl_obs]
 3359.00    0.00000   0.48518   -2.000
 3360.00    0.00000   0.45350   -2.000
 3361.00    0.17466   0.44669   -1.000
 3362.00    0.27792   0.47078   -1.000
 3363.00    0.29886   0.51100   -1.000
 3364.00    0.31380   0.54324   -1.000
 3365.00    0.30912   0.55161   -1.000
 3366.00    0.31307   0.53564   -1.000
 3367.00    0.32348   0.50695   -1.000
 3368.00    0.32087   0.48357   -1.000
 3369.00    0.31352   0.47202   -1.000
 3370.00    0.29704   0.46850   -1.000
 3371.00    0.29629   0.46444   -1.000
 3372.00    0.30661   0.46119   -1.000
 3373.00    0.31900   0.47217   -1.000
 3374.00    0.33359   0.49976   -1.000
 3375.00    0.35461   0.53684   -1.000
 3376.00    0.37977   0.56307   -1.000
 3377.00    0.37667   0.56126   -1.000
 3378.00    0.36212   0.53617   -1.000
 3379.00    0.36792   0.50440   -1.000
 3380.00    0.38975   0.48771   -1.000
 3381.00    0.39461   0.49291   -1.000
 3382.00    0.39021   0.51336   -1.000
 3383.00    0.38014   0.53329   -1.000
 3384.00    0.41363   0.54702   -1.000
 3385.00    0.39555   0.55971   -1.000
 3386.00    0.39417   0.56887   -1.000
 3387.00    0.42470   0.56927   -1.000
 3388.00    0.44855   0.56490   -1.000
 3389.00    0.44738   0.56094   -1.000
 3390.00    0.44218   0.55567   -1.000
 3391.00    0.44121   0.54455   -1.000
 3392.00    0.43691   0.52850   -1.000
 3393.00    0.42455   0.51919   -1.000
 3394.00    0.40414   0.52735   -1.000
 3395.00    0.44948   0.55010   -1.000
 3396.00    0.47291   0.57741   27.620
 3397.00    0.46976   0.60039   -1.000
 3398.00    0.49561   0.61468   25.180
 3399.00    0.52511   0.61708   24.420
 3400.00    0.52164   0.60713   23.556
 3401.00    0.50082   0.58885   23.052
 3402.00    0.50724   0.56753   23.091
 3403.00    0.50837   0.55072   23.833
 3404.00    0.49032   0.54439   24.358
 3405.00    0.48533   0.54288   24.721
 3406.00    0.48738   0.53746   25.168
 3407.00    0.46490   0.52694   25.595
 3408.00    0.44748   0.51961   25.813
 3409.00    0.45464   0.52480   26.125
 3410.00    0.47096   0.53853   26.364
 3411.00    0.47410   0.54761   26.301
 3412.00    0.47996   0.54377   25.711
 3413.00    0.47412   0.53159   25.310
 3414.00    0.47449   0.52405   25.962
 3415.00    0.47875   0.52697   26.674
 3416.00    0.47869   0.54012   26.796
 3417.00    0.47628   0.55867   26.328
 3418.00    0.49165   0.57904   25.349
 3419.00    0.50332   0.59601   24.182
 3420.00    0.50617   0.60322   22.985
 3421.00    0.51726   0.59731   22.524
 3422.00    0.51947   0.58577   22.398
 3423.00    0.51415   0.57524   22.433
 3424.00    0.51950   0.56929   22.913
 3425.00    0.51593   0.56843   23.489
 3426.00    0.50687   0.57250   23.224
 3427.00    0.50733   0.58411   22.586
 3428.00    0.54407   0.60611   22.301
 3429.00    0.55718   0.62536   -1.000
 3430.00    0.56174   0.62836   -1.000
 3431.00    0.54350   0.61280   -1.000
 3432.00    0.52030   0.59093   -1.000
 3433.00    0.51317   0.57844   -1.000
 3434.00    0.51805   0.57914   33.103
 3435.00    0.51978   0.58770   22.254
 3436.00    0.55160   0.59136   51.865
 3437.00    0.54942   0.58477   -1.000
 3438.00    0.52023   0.56640   32.933
 3439.00    0.50196   0.53860   22.851
 3440.00    0.49121   0.50540   24.120
 3441.00    0.47871   0.47921   25.871
 3442.00    0.46266   0.47033   27.290
 3443.00    0.45011   0.47751   27.707
 3444.00    0.46337   0.49210   27.643
 3445.00    0.48404   0.50979   26.885
 3446.00    0.50108   0.53241   25.548
 3447.00    0.52358   0.56080   24.138
 3448.00    0.54883   0.58838   23.124
 3449.00    0.55305   0.60596   52.514
 3450.00    0.55931   0.60522   -1.000
 3451.00    0.56214   0.58777   -1.000
 3452.00    0.55153   0.56291  198.451
 3453.00    0.53636   0.54818  198.451
 3454.00    0.53304   0.54969  198.451
 3455.00    0.54316   0.56047  198.451
 3456.00    0.54094   0.56732   -1.000
 3457.00    0.55543   0.56012  198.451
 3458.00    0.56273   0.54443   -1.000
 3459.00    0.54746   0.52822   -1.000
 3460.00    0.53463   0.51534   33.384
 3461.00    0.54311   0.51341   22.449
 3462.00    0.55733   0.52869   22.465
 3463.00    0.56072   0.54939   51.107
 3464.00    0.55843   0.56069  198.451
 3465.00    0.57146   0.56180   -1.000
 3466.00    0.57317   0.56075   -1.000
 3467.00    0.56660   0.56678  198.451
 3468.00    0.58062   0.57759  198.451
 3469.00    0.59643   0.58702   -1.000
 3470.00    0.60501   0.59097   -1.000
 3471.00    0.60727   0.58720   -1.000
 3472.00    0.60159   0.57461   -1.000
 3473.00    0.56823   0.55434   -1.000
 3474.00    0.54767   0.52803   -1.000
 3475.00    0.51823   0.50628   -1.000
 3476.00    0.50603   0.50181   33.932
 3477.00    0.51654   0.51715   22.967
 3478.00    0.53319   0.54126   22.967
 3479.00    0.55281   0.56258   50.963
 3480.00    0.56669   0.57373  198.451
 3481.00    0.59573   0.57386   -1.000
 3482.00    0.61157   0.56622   -1.000
 3483.00    0.60001   0.55666   -1.000
 3484.00    0.59060   0.55435   -1.000
 3485.00    0.60477   0.56565   -1.000
 3486.00    0.61827   0.58610   -1.000
 3487.00    0.62103   0.59489   -1.000
 3488.00    0.61346   0.58256   -1.000
 3489.00    0.60068   0.55725   -1.000
 3490.00    0.57654   0.53709   -1.000
 3491.00    0.55551   0.53445   -1.000
 3492.00    0.54927   0.54210   -1.000
 3493.00    0.55492   0.54760   -1.000
 3494.00    0.56182   0.54227   -1.000
 3495.00    0.56275   0.52914   -1.000
 3496.00    0.54362   0.52014   -1.000
 3497.00    0.53675   0.52866   -1.000
 3498.00    0.55320   0.55489  198.451
 3499.00    0.57009   0.57725  198.451
 3500.00    0.60576   0.58515   -1.000
 3501.00    0.62191   0.58597   -1.000
 3502.00    0.61886   0.58907   -1.000
 3503.00    0.62763   0.59464   -1.000
 3504.00    0.62390   0.59177   -1.000
 3505.00    0.61538   0.58051   -1.000
 3506.00    0.60699   0.57270   -1.000
 3507.00    0.59220   0.57238   -1.000
 3508.00    0.60064   0.57436   -1.000
 3509.00    0.61701   0.57080   -1.000
 3510.00    0.60677   0.56116   -1.000
 3511.00    0.59506   0.55131   -1.000
 3512.00    0.57251   0.54298   -1.000
 3513.00    0.56726   0.53396   -1.000
 3514.00    0.57296   0.53315   -1.000
 3515.00    0.58150   0.54804   -1.000
 3516.00    0.60277   0.57405   -1.000
 3517.00    0.61826   0.59872   -1.000
 3518.00    0.62713   0.60732   -1.000
 3519.00    0.61453   0.59776   -1.000
 3520.00    0.59639   0.57602   -1.000
 3521.00    0.59016   0.55481   -1.000
 3522.00    0.57667   0.53863   -1.000
 3523.00    0.56492   0.52134   -1.000
 3524.00    0.54168   0.50413   -1.000
 3525.00    0.51685   0.49468   34.591
 3526.00    0.51510   0.50288   22.729
 3527.00    0.53320   0.52957   22.960
 3528.00    0.57207   0.56126   49.418
 3529.00    0.61138   0.58361   -1.000
 3530.00    0.61933   0.58990   -1.000
 3531.00    0.61899   0.58638   -1.000
 3532.00    0.61620   0.58354   -1.000
 3533.00    0.61575   0.58782   -1.000
 3534.00    0.62672   0.59628   -1.000
 3535.00    0.63744   0.60259   -1.000
 3536.00    0.62450   0.60607   -1.000
 3537.00    0.61714   0.61086  179.037
 3538.00    0.63125   0.61919  178.574
 3539.00    0.62852   0.62630  177.813
 3540.00    0.63211   0.62446  175.642
 3541.00    0.64831   0.61797   -1.000
 3542.00    0.63573   0.61777   -1.000
 3543.00    0.62381   0.62397  180.603
 3544.00    0.63362   0.63147  180.507
 3545.00    0.63696   0.63274  178.372
 3546.00    0.62852   0.62797  176.962
 3547.00    0.62304   0.62393  178.730
 3548.00    0.61644   0.62453  182.553
 3549.00    0.60210   0.62908   -1.000
 3550.00    0.60023   0.63166   -1.000
 3551.00    0.60420   0.62901   -1.000
 3552.00    0.60156   0.61990  184.724
 3553.00    0.58450   0.60992   -1.000
 3554.00    0.57113   0.60530   -1.000
 3555.00    0.59162   0.60616  198.451
 3556.00    0.60404   0.60928  198.451
 3557.00    0.59107   0.60882  195.716
 3558.00    0.59038   0.60347  194.418
 3559.00    0.59397   0.59883  196.495
 3560.00    0.60107   0.60249  198.451
 3561.00    0.60673   0.61558  198.451
 3562.00    0.61642   0.62685  195.891
 3563.00    0.60912   0.61975  193.899
 3564.00    0.58353   0.58476  193.861
 3565.00    0.55464   0.54584   -1.000
 3566.00    0.52139   0.52696   35.631
 3567.00    0.51272   0.52509   23.010
 3568.00    0.51920   0.52465   23.236
 3569.00    0.51490   0.51319   23.044
 3570.00    0.51004   0.50032   23.452
 3571.00    0.51569   0.50231   24.042
 3572.00    0.52175   0.51538   23.767
 3573.00    0.53809   0.52809   22.824
 3574.00    0.54563   0.53393   46.858
 3575.00    0.55262   0.53571   -1.000
 3576.00    0.55799   0.53893   -1.000
 3577.00    0.55474   0.54162   -1.000
 3578.00    0.55179   0.53606   -1.000
 3579.00    0.55237   0.51655   -1.000
 3580.00    0.53703   0.49183   37.194
 3581.00    0.50044   0.47582   24.277
 3582.00    0.48936   0.47263   25.871
 3583.00    0.49578   0.47610   26.555
 3584.00    0.49453   0.47176   26.684
 3585.00    0.47716   0.45801   27.122
 3586.00    0.45792   0.44888   27.933
 3587.00    0.46620   0.45207   28.550
 3588.00    0.48338   0.46901   27.847
 3589.00    0.49467   0.49582   26.384
 3590.00    0.52484   0.52721   25.056
 3591.00    0.55935   0.55407   23.220
 3592.00    0.58347   0.56907   45.867
 3593.00    0.58991   0.57282   -1.000
 3594.00    0.58897   0.57496   -1.000
 3595.00    0.59868   0.58520   -1.000
 3596.00    0.61349   0.60118   -1.000
 3597.00    0.63015   0.61634  183.207
 3598.00    0.64366   0.62845   -1.000
 3599.00    0.65058   0.63431   -1.000
 3600.00    0.64653   0.62923   -1.000
 3601.00    0.63415   0.61031   -1.000
 3602.00    0.60138   0.58268   -1.000
 3603.00    0.57214   0.55828   -1.000
 3604.00    0.56611   0.54681   -1.000
 3605.00    0.57175   0.54974   -1.000
 3606.00    0.57443   0.55528   -1.000
 3607.00    0.57259   0.55228   -1.000
 3608.00    0.55992   0.53917   -1.000
 3609.00    0.55308   0.52807   -1.000
 3610.00    0.54909   0.53289   -1.000
 3611.00    0.55545   0.54603   -1.000
 3612.00    0.56566   0.55650  198.451
 3613.00    0.56699   0.56528  198.451
 3614.00    0.57164   0.57695  193.612
 3615.00    0.58704   0.59042  189.660
 3616.00    0.59628   0.58982  184.186
 3617.00    0.58242   0.56254   -1.000
 3618.00    0.56152   0.53171   -1.000
 3619.00    0.54662   0.52341   -1.000
 3620.00    0.54748   0.54138   36.361
 3621.00    0.56612   0.56894   44.627
 3622.00    0.58784   0.58971  197.156
 3623.00    0.61452   0.60122   -1.000
 3624.00    0.63095   0.61261   -1.000
 3625.00    0.63710   0.63369  173.380
 3626.00    0.65357   0.65955  168.759
 3627.00    0.66202   0.67811  161.982
 3628.00    0.64369   0.67520   -1.000
 3629.00    0.60989   0.64181   -1.000
 3630.00    0.57783   0.59247  165.137
 3631.00    0.56039   0.55238  180.602
 3632.00    0.55743   0.54053   -1.000
 3633.00    0.55911   0.55275  198.451
 3634.00    0.56405   0.57243  198.451
 3635.00    0.58047   0.58595  197.586
 3636.00    0.60556   0.59326   -1.000
 3637.00    0.61780   0.60452   -1.000
 3638.00    0.62684   0.62289  177.924
 3639.00    0.64530   0.64358  169.733
 3640.00    0.64854   0.65329  163.210
 3641.00    0.64789   0.64498  160.738
 3642.00    0.63311   0.62318  162.967
 3643.00    0.60439   0.59866  167.898
 3644.00    0.59345   0.58231  175.512
 3645.00    0.59067   0.57510   -1.000
 3646.00    0.58261   0.57003   -1.000
 3647.00    0.57249   0.56557  189.691
 3648.00    0.56868   0.56507  192.921
 3649.00    0.57432   0.57126  194.570
 3650.00    0.59841   0.58516   -1.000
 3651.00    0.62419   0.60601   -1.000
 3652.00    0.63729   0.62740  176.521
 3653.00    0.64629   0.64437  168.604
 3654.00    0.65339   0.65429  163.198
 3655.00    0.65886   0.66060  160.191
 3656.00    0.66537   0.66990  158.925
 3657.00    0.67346   0.67988  157.666
 3658.00    0.67575   0.68570  155.938
 3659.00    0.67688   0.68599  153.729
 3660.00    0.67457   0.68124  152.654
 3661.00    0.66591   0.67240  152.744
 3662.00    0.65553   0.66178  153.681
 3663.00    0.64454   0.65209  155.374
 3664.00    0.63265   0.64798  157.599
 3665.00    0.63711   0.64941  159.482
 3666.00    0.65691   0.65043  158.911
 3667.00    0.65803   0.64525  158.081
 3668.00    0.64481   0.63271  159.999
 3669.00    0.62923   0.62577  162.517
 3670.00    0.62761   0.63302  165.529
 3671.00    0.64616   0.64975  166.783
 3672.00    0.65944   0.66470  162.714
 3673.00    0.66163   0.66896  158.137
 3674.00    0.66309   0.66447  156.441
 3675.00    0.65861   0.65337  156.199
 3676.00    0.64132   0.63710  156.387
 3677.00    0.63461   0.61948  159.213
 3678.00    0.62529   0.60384   -1.000
 3679.00    0.61086   0.59500   -1.000
 3680.00    0.62020   0.59446   -1.000
 3681.00    0.62859   0.60118   -1.000
 3682.00    0.63036   0.61163   -1.000
 3683.00    0.63909   0.61835   -1.000
 3684.00    0.63493   0.61413   -1.000
 3685.00    0.61321   0.59624   -1.000
 3686.00    0.60230   0.57667   -1.000
 3687.00    0.60860   0.56965   -1.000
 3688.00    0.61751   0.58212   -1.000
 3689.00    0.62800   0.60892   -1.000
 3690.00    0.64429   0.63847  173.721
 3691.00    0.66619   0.65600  162.142
 3692.00    0.67458   0.65760  154.632
 3693.00    0.67011   0.65304  153.197
 3694.00    0.67049   0.64828   -1.000
 3695.00    0.67751   0.64322   -1.000
 3696.00    0.67743   0.63983   -1.000
 3697.00    0.68021   0.64586   -1.000
 3698.00    0.69582   0.66601   -1.000
 3699.00    0.71005   0.69220  153.298
 3700.00    0.72860   0.70655   -1.000
 3701.00    0.73050   0.69616   -1.000
 3702.00    0.69990   0.65785   -1.000
 3703.00    0.64894   0.60717   -1.000
 3704.00    0.60603   0.56268   -1.000
 3705.00    0.58403   0.54142   -1.000
 3706.00    0.57803   0.54491   -1.000
 3707.00    0.59520   0.55914   -1.000
 3708.00    0.60755   0.57235   -1.000
 3709.00    0.61267   0.57975   -1.000
 3710.00    0.62372   0.58367   -1.000
 3711.00    0.63534   0.59408   -1.000
 3712.00    0.64991   0.62078   -1.000
 3713.00    0.66935   0.65670  159.629
 3714.00    0.69815   0.68928  151.313
 3715.00    0.72405   0.70869  145.987
 3716.00    0.72908   0.70989  144.110
 3717.00    0.71521   0.69109   -1.000
 3718.00    0.67769   0.65023   -1.000
 3719.00    0.61965   0.58672   -1.000
 3720.00    0.55837   0.52454   -1.000
 3721.00    0.51840   0.49100   -1.000
 3722.00    0.53064   0.49939   39.413
 3723.00    0.57320   0.54424   42.401
 3724.00    0.62804   0.60389   -1.000
 3725.00    0.68345   0.64617   -1.000
 3726.00    0.69696   0.65821   -1.000
 3727.00    0.68857   0.65947   -1.000
 3728.00    0.69075   0.66518   -1.000
 3729.00    0.69373   0.67115   -1.000
 3730.00    0.68328   0.66242   -1.000
 3731.00    0.65847   0.62488   -1.000
 3732.00    0.61271   0.56396   -1.000
 3733.00    0.55063   0.49834   -1.000
 3734.00    0.49756   0.45038   38.644
 3735.00    0.47340   0.43583   23.496
 3736.00    0.49434   0.45885   25.338
 3737.00    0.54335   0.50952   25.089
 3738.00    0.59478   0.57547   23.216
 3739.00    0.64868   0.63801   40.918
 3740.00    0.69036   0.67930   -1.000
 3741.00    0.69914   0.69215  170.706
 3742.00    0.68719   0.68086  165.558
 3743.00    0.66718   0.65305   -1.000
 3744.00    0.64213   0.61980   -1.000
 3745.00    0.61806   0.58797   -1.000
 3746.00    0.59200   0.55624   -1.000
 3747.00    0.55778   0.51839   -1.000
 3748.00    0.51753   0.47449   39.836
 3749.00    0.49387   0.44787   23.219
 3750.00    0.51284   0.46028   24.083
 3751.00    0.57201   0.51041   -1.000
 3752.00    0.63752   0.57906   -1.000
 3753.00    0.68338   0.64674   -1.000
 3754.00    0.71825   0.69911   -1.000
 3755.00    0.75022   0.72465   -1.000
 3756.00    0.74664   0.71356   -1.000
 3757.00    0.69827   0.67639   -1.000
 3758.00    0.65997   0.64006   -1.000
 3759.00    0.65459   0.62618   -1.000
 3760.00    0.66388   0.63616   -1.000
 3761.00    0.69103   0.65265   -1.000
 3762.00    0.70942   0.66517   -1.000
 3763.00    0.70976   0.67292   -1.000
 3764.00    0.70874   0.67308   -1.000
 3765.00    0.69551   0.66149   -1.000
 3766.00    0.67204   0.63995   -1.000
 3767.00    0.65462   0.61322   -1.000
 3768.00    0.64764   0.58466   -1.000
 3769.00    0.63110   0.55834   -1.000
 3770.00    0.61885   0.54410   -1.000
 3771.00    0.63045   0.55464   -1.000
 3772.00    0.65866   0.59145   -1.000
 3773.00    0.69961   0.63452   -1.000
 3774.00    0.71666   0.66741   -1.000
 3775.00    0.72465   0.68992   -1.000
 3776.00    0.74421   0.70858   -1.000
 3777.00    0.75392   0.72958   -1.000
 3778.00    0.77278   0.75455   -1.000
 3779.00    0.79857   0.78023   -1.000
 3780.00    0.82185   0.80084   -1.000
 3781.00    0.83127   0.81356  143.742
 3782.00    0.82389   0.82009  141.631
 3783.00    0.82879   0.82038  140.750
 3784.00    0.82970   0.80892   -1.000
 3785.00    0.80316   0.78112   -1.000
 3786.00    0.77435   0.74528   -1.000
 3787.00    0.74939   0.71522   -1.000
 3788.00    0.72825   0.69851   -1.000
 3789.00    0.72632   0.69369   -1.000
 3790.00    0.72937   0.69481   -1.000
 3791.00    0.73558   0.69310   -1.000
 3792.00    0.73292   0.67914   -1.000
 3793.00    0.70171   0.65170   -1.000
 3794.00    0.67004   0.61504   -1.000
 3795.00    0.64449   0.57434   -1.000
 3796.00    0.60792   0.53227   -1.000
 3797.00    0.56905   0.49411   -1.000
 3798.00    0.55211   0.47930   -1.000
 3799.00    0.57758   0.50640   -1.000
 3800.00    0.62891   0.56462   -1.000
 3801.00    0.67801   0.63318   -1.000
 3802.00    0.72663   0.69188   -1.000
 3803.00    0.75632   0.73043   -1.000
 3804.00    0.76972   0.74797   -1.000
 3805.00    0.78107   0.74671   -1.000
 3806.00    0.77112   0.73636   -1.000
 3807.00    0.76029   0.73779   -1.000
 3808.00    0.77070   0.75964  166.341
 3809.00    0.79064   0.79062  165.686
 3810.00    0.81395   0.81143  160.169
 3811.00    0.81963   0.80703  156.136
 3812.00    0.79275   0.77802  156.832
 3813.00    0.75949   0.73646   -1.000
 3814.00    0.73458   0.70140   -1.000
 3815.00    0.72058   0.68872   -1.000
 3816.00    0.72674   0.70038   -1.000
 3817.00    0.74511   0.71623   -1.000
 3818.00    0.75224   0.71578   -1.000
 3819.00    0.73142   0.69522   -1.000
 3820.00    0.70348   0.67119   -1.000
 3821.00    0.69484   0.66585   -1.000
 3822.00    0.70796   0.67202   -1.000
 3823.00    0.71485   0.66713   -1.000
 3824.00    0.69116   0.64391   -1.000
 3825.00    0.65807   0.61390   -1.000
 3826.00    0.63774   0.59369   43.261
 3827.00    0.63000   0.58619   23.486
 3828.00    0.63168   0.58459   23.637
 3829.00    0.63123   0.57939   23.336
 3830.00    0.62049   0.56391   22.953
 3831.00    0.59802   0.53502   22.901
 3832.00    0.55619   0.49546   23.563
 3833.00    0.51024   0.45340   25.041
 3834.00    0.48646   0.42328   26.467
 3835.00    0.48478   0.41500   26.599
 3836.00    0.49419   0.42583   25.780
 3837.00    0.51123   0.44631   24.965
 3838.00    0.52845   0.46899   24.949
 3839.00    0.55348   0.49686   25.533
 3840.00    0.58538   0.53727   25.623
 3841.00    0.62001   0.58813   24.643
 3842.00    0.66383   0.64083   41.447
 3843.00    0.71374   0.68430   -1.000
 3844.00    0.75013   0.71204   -1.000
 3845.00    0.76639   0.72919   -1.000
 3846.00    0.77205   0.74447   -1.000
 3847.00    0.77594   0.75831   -1.000
 3848.00    0.78327   0.76228   -1.000
 3849.00    0.76886   0.75898  182.640
 3850.00    0.74482   0.75891  188.477
 3851.00    0.74965   0.76727  193.800
 3852.00    0.77081   0.78055  193.061
 3853.00    0.78323   0.78576  188.142
 3854.00    0.78302   0.77719  186.160
 3855.00    0.76398   0.76322  189.211
 3856.00    0.74723   0.74800  194.489
 3857.00    0.74291   0.73016   -1.000
 3858.00    0.72653   0.71148   -1.000
 3859.00    0.70041   0.70078   41.862
 3860.00    0.69026   0.71086   22.656
 3861.00    0.71840   0.73974   23.157
 3862.00    0.76695   0.77358   39.140
 3863.00    0.79610   0.79273  194.353
 3864.00    0.80184   0.79336  179.915
 3865.00    0.79856   0.78782  176.362
 3866.00    0.80223   0.78370   -1.000
 3867.00    0.80122   0.78278   -1.000
 3868.00    0.78670   0.78148  185.099
 3869.00    0.76910   0.77096  190.521
 3870.00    0.74549   0.74761  198.451
 3871.00    0.71897   0.71747  198.451
 3872.00    0.70974   0.69846   42.968
 3873.00    0.72367   0.70190   38.186
 3874.00    0.74977   0.72714   -1.000
 3875.00    0.76876   0.75007   -1.000
 3876.00    0.76409   0.74776   -1.000
 3877.00    0.73307   0.72382  174.012
 3878.00    0.69611   0.69966  183.867
 3879.00    0.68840   0.69035  198.137
 3880.00    0.69894   0.69043  198.451
 3881.00    0.69649   0.68802  198.451
 3882.00    0.68448   0.67988  198.451
 3883.00    0.68178   0.66701   -1.000
 3884.00    0.69082   0.64737   -1.000
 3885.00    0.66963   0.61345   -1.000
 3886.00    0.62019   0.56442   -1.000
 3887.00    0.58360   0.51779   -1.000
 3888.00    0.55413   0.49026   -1.000
 3889.00    0.55026   0.49515   -1.000
 3890.00    0.57519   0.53237   -1.000
 3891.00    0.63086   0.58831   -1.000
 3892.00    0.69138   0.63732   -1.000
 3893.00    0.71813   0.66525   -1.000
 3894.00    0.72844   0.67920   -1.000
 3895.00    0.73515   0.69371   -1.000
 3896.00    0.75222   0.71443   -1.000
 3897.00    0.77654   0.73208   -1.000
 3898.00    0.78651   0.74071   -1.000
 3899.00    0.77932   0.74722   -1.000
 3900.00    0.77835   0.75881   -1.000
 3901.00    0.79249   0.77176   -1.000
 3902.00    0.80392   0.77735   -1.000
 3903.00    0.78655   0.76979  146.320
 3904.00    0.76427   0.75474  150.011
 3905.00    0.75378   0.74630  155.274
 3906.00    0.76605   0.75452  159.430
 3907.00    0.79003   0.78062  161.428
 3908.00    0.80921   0.81663  156.099
 3909.00    0.83412   0.84601  146.156
 3910.00    0.84983   0.86270  139.251
 3911.00    0.85893   0.86984  136.979
 3912.00    0.85821   0.86874  135.739
 3913.00    0.83951   0.86083   -1.000
 3914.00    0.81550   0.85012   -1.000
 3915.00    0.80295   0.83977   -1.000
 3916.00    0.80973   0.83176   -1.000
 3917.00    0.81863   0.82356  142.832
 3918.00    0.82096   0.81110  144.664
 3919.00    0.80314   0.79526  147.645
 3920.00    0.77438   0.78078  153.015
 3921.00    0.76831   0.77582  160.097
 3922.00    0.77799   0.78211  165.804
 3923.00    0.78221   0.79100  166.890
 3924.00    0.77877   0.78936  164.576
 3925.00    0.75671   0.76997  163.477
 3926.00    0.72033   0.73445  167.907
 3927.00    0.68228   0.68523  179.844
 3928.00    0.62707   0.62790  198.451
 3929.00    0.55517   0.56502   48.630
 3930.00    0.48596   0.49453   26.327
 3931.00    0.42354   0.42081   30.841
 3932.00    0.36334   0.35268   36.249
 3933.00    0.31046   0.31024   42.704
 3934.00    0.30514   0.31133   48.539
 3935.00    0.34695   0.35695   50.013
 3936.00    0.40898   0.42977   45.695
 3937.00    0.48250   0.51199   38.703
 3938.00    0.55735   0.58835   31.882
 3939.00    0.62624   0.65138   26.481
 3940.00    0.67468   0.69694   39.398
 3941.00    0.69680   0.72213   -1.000
 3942.00    0.71532   0.73161  194.501
 3943.00    0.72425   0.73527  189.703
 3944.00    0.73542   0.74324  188.761
 3945.00    0.76213   0.76046  184.369
 3946.00    0.79233   0.77934  171.386
 3947.00    0.81116   0.78968   -1.000
 3948.00    0.80358   0.79483  152.454
 3949.00    0.79979   0.80232  151.132
 3950.00    0.81812   0.80912  148.015
 3951.00    0.82878   0.81088  142.778
 3952.00    0.82006   0.81163  140.468
 3953.00    0.81796   0.81612  141.817
 3954.00    0.83610   0.82022  141.877
 3955.00    0.83358   0.81380  138.829
 3956.00    0.80746   0.79924  137.523
 3957.00    0.80220   0.79088  140.641
 3958.00    0.81465   0.78915   -1.000
 3959.00    0.80396   0.77767   -1.000
 3960.00    0.75786   0.74465  144.681
 3961.00    0.70630   0.69439  153.188
 3962.00    0.67171   0.64551   -1.000
 3963.00    0.63446   0.60446   -1.000
 3964.00    0.57751   0.56095   -1.000
 3965.00    0.50922   0.50125   47.297
 3966.00    0.43587   0.41959   24.728
 3967.00    0.35581   0.33832   29.610
 3968.00    0.29026   0.28544   36.439
 3969.00    0.27724   0.27818   42.805
 3970.00    0.31867   0.31427   43.846
 3971.00    0.39519   0.37924   38.464
 3972.00    0.48293   0.45381   31.627
 3973.00    0.56021   0.52804   26.209
 3974.00    0.62961   0.59649   37.977
 3975.00    0.69343   0.65597   -1.000
 3976.00    0.73954   0.70742   -1.000
 3977.00    0.77289   0.75147   -1.000
 3978.00    0.81106   0.79302  146.547
 3979.00    0.84151   0.82751  138.373
 3980.00    0.86001   0.84659  131.035
 3981.00    0.86979   0.84909  126.355
 3982.00    0.86660   0.84557  125.952
 3983.00    0.86974   0.84895  127.542
 3984.00    0.88467   0.86073   -1.000
 3985.00    0.90242   0.87441   -1.000
 3986.00    0.90851   0.88741  124.214
 3987.00    0.91813   0.90075  121.958
 3988.00    0.93697   0.91398  119.831
 3989.00    0.94422   0.92473  118.019
 3990.00    0.94228   0.93343  117.578
 3991.00    0.95698   0.94419  117.532
 3992.00    0.96829   0.95594  115.899
 3993.00    0.96946   0.96042  113.115
 3994.00    0.95731   0.95324  112.112
 3995.00    0.94070   0.93691  114.116
 3996.00    0.93294   0.91950  116.851
 3997.00    0.91514   0.91196  119.351
 3998.00    0.91596   0.92049  121.087
 3999.00    0.93909   0.94030  120.461
 4000.00    0.96588   0.96381  116.435
 4001.00    0.98441   0.98104  111.634
 4002.00    0.99319   0.98329  108.733
 4003.00    0.98241   0.96694  107.107
 4004.00    0.95464   0.93641  107.112
 4005.00    0.92101   0.90664  111.435
 4006.00    0.91422   0.90221  118.414
 4007.00    0.94005   0.92658  121.513
 4008.00    0.98094   0.95977  117.768
 4009.00    0.99680   0.98420  111.766
 4010.00    0.99740   0.99477  108.635
 4011.00    1.00735   0.99684  107.365
 4012.00    1.00133   0.99712  106.547
 4013.00    0.98472   0.99973  106.678
 4014.00    0.97348   1.00365   -1.000
 4015.00    0.99273   1.00510  107.385
 4016.00    1.02604   1.00445  106.245
 4017.00    1.00096   1.00525  105.732
 4018.00    0.99528   1.01130  106.863
 4019.00    1.00206   1.01990  107.425
 4020.00    1.01105   1.02523  106.383
 4021.00    1.00502   1.02393  105.503
 4022.00    0.99453   1.01758   -1.000
 4023.00    0.99402   1.00939  107.538
 4024.00    0.98726   1.00349  108.180
 4025.00    0.99563   1.00694  108.949
 4026.00    1.01619   1.02159  108.302
 4027.00    1.02860   1.03729  105.040
 4028.00    1.02688   1.03472  101.943
 4029.00    1.00195   1.00760  101.142
 4030.00    0.96830   0.96924  103.445
 4031.00    0.94981   0.93655  108.942
 4032.00    0.94354   0.92255  115.341
 4033.00    0.94351   0.92772  118.719
 4034.00    0.94699   0.94793  118.858
 4035.00    0.98315   0.97900  116.289
 4036.00    1.02445   1.01721  111.602
 4037.00    1.04517   1.05184  106.043
 4038.00    1.05604   1.06784  101.439
 4039.00    1.04365   1.06103   99.206
 4040.00    1.02019   1.04644   -1.000
 4041.00    1.00961   1.03585   -1.000
 4042.00    1.01317   1.02408  104.105
 4043.00    0.99899   0.99560  104.955
 4044.00    0.95235   0.94657  107.272
 4045.00    0.89808   0.91013  114.649
 4046.00    0.90006   0.91357  125.134
 4047.00    0.95171   0.95103  128.597
 4048.00    1.00457   0.99919  119.919
 4049.00    1.02546   1.03364  109.961
 4050.00    1.02448   1.04685   -1.000
 4051.00    1.02973   1.04334  102.606
 4052.00    1.02412   1.02794  102.218
 4053.00    1.00567   1.00753  103.808
 4054.00    0.99291   0.99352  106.653
 4055.00    0.98568   0.98669  108.972
 4056.00    0.97836   0.98043  110.311
 4057.00    0.97336   0.97736  111.120
 4058.00    0.98083   0.98446  112.037
 4059.00    1.00000   1.00323  112.209
 4060.00    1.00811   1.01799  109.695
 4061.00    1.00042   1.00703  106.384
 4062.00    0.97158   0.97313  105.877
 4063.00    0.93438   0.93677  110.090
 4064.00    0.92784   0.92007  118.178
 4065.00    0.94988   0.92514  122.323
 4066.00    0.96946   0.93967  118.512
 4067.00    0.98584   0.95740  113.771
 4068.00    1.00252   0.97603  110.930
 4069.00    1.01249   0.98273  107.680
 4070.00    1.00440   0.96883   -1.000
 4071.00    0.97123   0.94654  105.874
 4072.00    0.95702   0.93675  110.463
 4073.00    0.97747   0.94532   -1.000
 4074.00    0.98709   0.95092   -1.000
 4075.00    0.96185   0.93400  108.140
 4076.00    0.91539   0.90240  109.882
 4077.00    0.89296   0.87804  116.916
 4078.00    0.89581   0.88075  124.541
 4079.00    0.92714   0.91077  124.997
 4080.00    0.97579   0.95224  118.869
 4081.00    1.00248   0.97880  110.590
 4082.00    1.00466   0.97866  104.669
 4083.00    0.98505   0.96084  103.497
 4084.00    0.96626   0.94478  106.058
 4085.00    0.96706   0.94592  108.968
 4086.00    0.98732   0.96470  109.290
 4087.00    1.02218   0.99108  106.762
 4088.00    1.03577   1.00916  102.900
 4089.00    1.02949   1.01009   99.184
 4090.00    1.01471   0.99620   97.421
 4091.00    0.99986   0.97883   98.552
 4092.00    0.98667   0.96563  100.560
 4093.00    0.98114   0.95308  102.149
 4094.00    0.96987   0.93409   -1.000
 4095.00    0.94189   0.90543   -1.000
 4096.00    0.91433   0.87325   -1.000
 4097.00    0.89327   0.84116   -1.000
 4098.00    0.87604   0.80312   -1.000
 4099.00    0.83564   0.75072   -1.000
 4100.00    0.75378   0.68719   -1.000
 4101.00    0.69251   0.63885   -1.000
 4102.00    0.68663   0.63418   -1.000
 4103.00    0.73666   0.67634   -1.000
 4104.00    0.81225   0.74598   -1.000
 4105.00    0.87457   0.81068   -1.000
 4106.00    0.91111   0.85392   -1.000
 4107.00    0.93001   0.87925   -1.000
 4108.00    0.94124   0.89258   -1.000
 4109.00    0.93528   0.90000   -1.000
 4110.00    0.92708   0.90849  109.970
 4111.00    0.93549   0.92115  111.955
 4112.00    0.95390   0.93758  112.427
 4113.00    0.96919   0.95686  110.511
 4114.00    0.98248   0.97829  108.214
 4115.00    0.99016   0.99476  106.443
 4116.00    0.99527   0.99922  105.039
 4117.00    0.99198   0.99104  104.613
 4118.00    0.98708   0.97789  105.813
 4119.00    0.97520   0.96851  108.618
 4120.00    0.96914   0.96701  111.436
 4121.00    0.97572   0.97115  111.652
 4122.00    0.97276   0.97677  110.283
 4123.00    0.97426   0.98437  109.621
 4124.00    0.98826   0.99436  109.272
 4125.00    0.99894   1.00075  107.770
 4126.00    1.00331   0.99669  106.419
 4127.00    0.99189   0.98604  106.769
 4128.00    0.98004   0.97787  108.581
 4129.00    0.97402   0.97490  110.415
 4130.00    0.97182   0.96882  111.161
 4131.00    0.96750   0.95294  112.026
 4132.00    0.94239   0.93605  114.250
 4133.00    0.92815   0.93279  117.924
 4134.00    0.94339   0.95035  120.385
 4135.00    0.97683   0.98148  118.989
 4136.00    1.00354   1.01409  114.159
 4137.00    1.02008   1.03866  109.108
 4138.00    1.03211   1.05538   -1.000
 4139.00    1.03771   1.06384   -1.000
 4140.00    1.02558   1.05500   -1.000
 4141.00    1.00648   1.02379  103.985
 4142.00    0.96468   0.98321  107.398
 4143.00    0.92710   0.95252   -1.000
 4144.00    0.92742   0.95092   -1.000
 4145.00    0.96189   0.97665  125.156
 4146.00    0.99686   1.00542  119.193
 4147.00    1.00737   1.01943  112.963
 4148.00    1.00933   1.01805  109.933
 4149.00    1.00084   1.01339  110.037
 4150.00    0.98787   1.01402   -1.000
 4151.00    0.98540   1.01589   -1.000
 4152.00    0.98973   1.01128   -1.000
 4153.00    0.98614   0.99854  114.853
 4154.00    0.97124   0.98494  114.829
 4155.00    0.95875   0.98031  116.250
 4156.00    0.96023   0.98809   -1.000
 4157.00    0.96673   1.00355   -1.000
 4158.00    1.00272   1.02110  114.041
 4159.00    1.16210   1.03558   -1.000
 4160.00    1.27952   1.04433   -1.000
 4161.00    0.97975   1.05060   -1.000
 4162.00    0.73395   1.05795   -1.000
 4163.00    0.98351   1.06520   -1.000
 4164.00    1.07944   1.06784  105.973
 4165.00    1.00914   1.06138   -1.000
 4166.00    0.99375   1.04857   -1.000
 4167.00    0.99278   1.03721   -1.000
 4168.00    0.99997   1.03227   -1.000
 4169.00    0.99752   1.02665   -1.000
 4170.00    0.98280   1.00686   -1.000
 4171.00    0.95038   0.97252   -1.000
 4172.00    0.91483   0.93757   -1.000
 4173.00    0.90385   0.92445  121.770
 4174.00    0.92117   0.93890  126.691
 4175.00    0.94236   0.96369   -1.000
 4176.00    0.95597   0.97949   -1.000
 4177.00    0.95325   0.98501   -1.000
 4178.00    0.95328   0.99172   -1.000
 4179.00    0.97386   1.00369   -1.000
 4180.00    0.98238   1.01205   -1.000
 4181.00    0.97421   1.01004   -1.000
 4182.00    0.97466   1.00377   -1.000
 4183.00    0.98351   1.00527   -1.000
 4184.00    0.99108   1.01415   -1.000
 4185.00    0.98777   1.01693   -1.000
 4186.00    0.97363   1.00857   -1.000
 4187.00    0.96110   0.99705   -1.000
 4188.00    0.96297   0.99391   -1.000
 4189.00    0.97953   1.00164   -1.000
 4190.00    0.98994   1.01258   -1.000
 4191.00    0.98753   1.02391   -1.000
 4192.00    0.99570   1.03685   -1.000
 4193.00    1.01020   1.04422   -1.000
 4194.00    1.01430   1.03728   -1.000
 4195.00    0.99024   1.01580   -1.000
 4196.00    0.95941   0.98679   -1.000
 4197.00    0.94637   0.96130  117.350
 4198.00    0.93693   0.94520  120.539
 4199.00    0.92799   0.93913  121.962
 4200.00    0.93593   0.94192  121.609
 4201.00    0.94245   0.94921  120.007
 4202.00    0.94852   0.95658  118.618
 4203.00    0.96129   0.96654  118.190
 4204.00    0.96948   0.98248  117.022
 4205.00    0.96848   1.00216   -1.000
 4206.00    0.97655   1.02225   -1.000
 4207.00    0.98925   1.03814   -1.000
 4208.00    0.99621   1.04580   -1.000
 4209.00    0.99705   1.04596   -1.000
 4210.00    0.98577   1.04540   -1.000
 4211.00    0.99023   1.04985   -1.000
 4212.00    0.99683   1.05407   -1.000
 4213.00    0.99138   1.04606   -1.000
 4214.00    0.96942   1.02331   -1.000
 4215.00    0.94402   0.99944   -1.000
 4216.00    0.92901   0.99019   -1.000
 4217.00    0.95867   1.00166   -1.000
 4218.00    0.98827   1.02753   -1.000
 4219.00    1.00985   1.05142   -1.000
 4220.00    1.02024   1.06257   -1.000
 4221.00    1.02994   1.05762   -1.000
 4222.00    1.01308   1.03381   99.339
 4223.00    0.97597   0.98871  101.366
 4224.00    0.93508   0.92907  106.631
 4225.00    0.87515   0.87093  115.234
 4226.00    0.81772   0.83909  128.093
 4227.00    0.81997   0.85308   -1.000
 4228.00    0.88369   0.91042   -1.000
 4229.00    0.96790   0.97454  133.792
 4230.00    1.02213   1.01442  117.035
 4231.00    1.01894   1.02387  107.206
 4232.00    0.99852   1.01254  103.374
 4233.00    0.98059   0.99514  103.749
 4234.00    0.96981   0.98111  106.327
 4235.00    0.97221   0.97214  108.559
 4236.00    0.96303   0.96733  110.065
 4237.00    0.95463   0.96857  112.519
 4238.00    0.96087   0.97867  113.571
 4239.00    0.96859   0.99405   -1.000
 4240.00    0.98520   1.00952   -1.000
 4241.00    0.99122   1.02138   -1.000
 4242.00    0.99599   1.03006   -1.000
 4243.00    1.00039   1.03748   -1.000
 4244.00    1.00966   1.04177   -1.000
 4245.00    1.00039   1.03681   -1.000
 4246.00    0.97674   1.01842   -1.000
 4247.00    0.94882   0.99309   -1.000
 4248.00    0.93955   0.97387   -1.000
 4249.00    0.94022   0.96813   -1.000
 4250.00    0.94024   0.97605   -1.000
 4251.00    0.95239   0.99027   -1.000
 4252.00    0.97978   1.00153   -1.000
 4253.00    0.98846   0.99990  109.859
 4254.00    0.97786   0.99005  107.983
 4255.00    0.96730   0.99004  109.494
 4256.00    0.99202   1.00188  111.125
 4257.00    1.00306   1.00848  108.543
 4258.00    0.98167   0.99487  105.288
 4259.00    0.94276   0.96736   -1.000
 4260.00    0.92226   0.95136   -1.000
 4261.00    0.93970   0.96326   -1.000
 4262.00    0.97585   0.99786   -1.000
 4263.00    1.00460   1.03375   -1.000
 4264.00    1.02284   1.05619   -1.000
 4265.00    1.02991   1.06180   -1.000
 4266.00    1.03029   1.05501   98.878
 4267.00    1.01357   1.04058   -1.000
 4268.00    0.99791   1.01857  101.540
 4269.00    0.98228   0.98710  104.896
 4270.00    0.93823   0.95030  108.343
 4271.00    0.90592   0.91740  113.483
 4272.00    0.89715   0.90060  120.983
 4273.00    0.90621   0.90361  126.467
 4274.00    0.91450   0.92033  126.210
 4275.00    0.93401   0.94767  123.121
 4276.00    0.96846   0.98424  119.217
 4277.00    0.99932   1.01712  112.973
 4278.00    1.00294   1.03061   -1.000
 4279.00    0.97689   1.02137   -1.000
 4280.00    0.95735   1.00410   -1.000
 4281.00    0.94848   0.99375   -1.000
 4282.00    0.94899   0.99369   -1.000
 4283.00    0.96476   0.99409   -1.000
 4284.00    0.96372   0.98699  109.760
 4285.00    0.94431   0.97526   -1.000
 4286.00    0.92885   0.95999   -1.000
 4287.00    0.91934   0.94059  114.854
 4288.00    0.89432   0.91565  117.333
 4289.00    0.87196   0.89073  119.831
 4290.00    0.86597   0.88268  125.008
 4291.00    0.87684   0.89942   -1.000
 4292.00    0.91478   0.92648  127.293
 4293.00    0.93236   0.94497  120.088
 4294.00    0.93123   0.94565  114.059
 4295.00    0.92259   0.93286  113.084
 4296.00    0.91194   0.91206  114.504
 4297.00    0.88639   0.88248  116.655
 4298.00    0.84835   0.84283  120.334
 4299.00    0.80283   0.80523  127.879
 4300.00    0.77916   0.78326  138.763
 4301.00    0.78542   0.78019  146.399
 4302.00    0.79487   0.78903  145.945
 4303.00    0.80779   0.80293  142.042
 4304.00    0.82244   0.81768  139.967
 4305.00    0.83081   0.82398  137.972
 4306.00    0.82060   0.81383  137.015
 4307.00    0.80197   0.79314  138.954
 4308.00    0.77995   0.77757  144.770
 4309.00    0.77780   0.78157  151.465
 4310.00    0.80734   0.80511  152.956
 4311.00    0.83289   0.83368  147.996
 4312.00    0.84504   0.85950  139.269
 4313.00    0.86298   0.88952   -1.000
 4314.00    0.89337   0.93058   -1.000
 4315.00    0.94594   0.98449   -1.000
 4316.00    1.00036   1.03799   -1.000
 4317.00    1.03770   1.07433   -1.000
 4318.00    1.04545   1.08519   -1.000
 4319.00    1.03590   1.07625   -1.000
 4320.00    1.01452   1.05752   -1.000
 4321.00    0.99426   1.03030   -1.000
 4322.00    0.97755   0.99002   97.751
 4323.00    0.93708   0.93863  101.562
 4324.00    0.89188   0.89181  107.376
 4325.00    0.86703   0.87105  115.952
 4326.00    0.88492   0.88788  124.827
 4327.00    0.94123   0.93542  125.497
 4328.00    0.99099   0.98313  115.243
 4329.00    1.01157   1.00888  104.059
 4330.00    1.00161   1.01328   98.390
 4331.00    0.98907   1.00997   97.401
 4332.00    0.99072   1.00944   97.624
 4333.00    0.99466   1.00828   96.680
 4334.00    0.98731   0.99763   95.142
 4335.00    0.96651   0.96841   94.433
 4336.00    0.93241   0.91377   94.800
 4337.00    0.87288   0.83574   -1.000
 4338.00    0.80455   0.75450   -1.000
 4339.00    0.74092   0.69344   -1.000
 4340.00    0.69596   0.67320  125.933
 4341.00    0.71303   0.70171  134.167
 4342.00    0.78096   0.76539  133.005
 4343.00    0.85324   0.83265  121.634
 4344.00    0.90856   0.88559  110.879
 4345.00    0.94140   0.92619  105.235
 4346.00    0.96316   0.95993  102.181
 4347.00    0.97980   0.98847   99.727
 4348.00    0.99250   1.00718   98.272
 4349.00    0.99973   1.00637   97.091
 4350.00    0.97518   0.98187   96.007
 4351.00    0.93238   0.94882   97.795
 4352.00    0.91807   0.93430  104.040
 4353.00    0.93950   0.94875  110.143
 4354.00    0.98211   0.98173  109.562
 4355.00    1.01006   1.01306  104.676
 4356.00    1.01369   1.03210  100.360
 4357.00    1.02146   1.03976   97.633
 4358.00    1.02056   1.04051   96.242
 4359.00    1.00741   1.04128   -1.000
 4360.00    1.01793   1.04982   -1.000
 4361.00    1.03543   1.06643   -1.000
 4362.00    1.05189   1.08198   -1.000
 4363.00    1.06060   1.09284   -1.000
 4364.00    1.05277   1.10022   -1.000
 4365.00    1.05911   1.09881   -1.000
 4366.00    1.04615   1.08426   -1.000
 4367.00    1.01298   1.06395   -1.000
 4368.00    1.00589   1.04751   -1.000
 4369.00    1.00940   1.03806   -1.000
 4370.00    1.01351   1.03286   99.432
 4371.00    1.01564   1.02605   98.460
 4372.00    1.01183   1.01207   98.022
 4373.00    0.99638   0.99032   98.262
 4374.00    0.95790   0.96986  100.141
 4375.00    0.94872   0.96587  104.383
 4376.00    0.97185   0.98611  107.376
 4377.00    1.01544   1.01729  105.932
 4378.00    1.03414   1.04183  101.068
 4379.00    1.04033   1.05016   96.882
 4380.00    1.03276   1.03647   95.964
 4381.00    1.02366   0.99637   96.963
 4382.00    0.97039   0.93679   99.531
 4383.00    0.90077   0.87960  106.061
 4384.00    0.87467   0.85898  118.317
 4385.00    0.90758   0.88604  128.391
 4386.00    0.95987   0.93350  125.188
 4387.00    0.99173   0.96984  113.024
 4388.00    0.99644   0.98429  104.320
 4389.00    1.00193   0.98669  102.192
 4390.00    0.99452   0.98940  102.702
 4391.00    1.00250   0.99754  103.656
 4392.00    1.01757   1.00771  103.287
 4393.00    1.02383   1.01069  101.074
 4394.00    1.00621   1.00736   99.593
 4395.00    0.99373   1.01048  100.844
 4396.00    1.01658   1.02591  102.451
 4397.00    1.04028   1.04099  100.705
 4398.00    1.04343   1.03923   96.345
 4399.00    1.01871   1.02381   94.759
 4400.00    0.99130   1.01017   96.889
 4401.00    1.00465   1.00766  100.417
 4402.00    1.02005   1.00921  102.215
 4403.00    1.01404   0.99977  100.622
 4404.00    0.98887   0.98119  100.193
 4405.00    0.98202   0.96980  104.644
 4406.00    0.99894   0.97282  109.505
 4407.00    1.00213   0.98486  108.840
 4408.00    0.99729   0.99978  105.523
 4409.00    1.01042   1.02214  104.266
 4410.00    1.02490   1.05435   -1.000
 4411.00    1.05276   1.08137   -1.000
 4412.00    1.07934   1.08729   94.300
 4413.00    1.06543   1.06911   91.707
 4414.00    1.04034   1.03438   91.665
 4415.00    1.00641   1.00152   95.074
 4416.00    0.98807   0.99175  100.209
 4417.00    1.01548   1.01149  102.583
 4418.00    1.04417   1.04722  100.960
 4419.00    1.06976   1.08126   97.099
 4420.00    1.07036   1.09658   -1.000
 4421.00    1.05564   1.09035   -1.000
 4422.00    1.05447   1.07639   92.844
 4423.00    1.05774   1.06795   95.210
 4424.00    1.05845   1.06707   96.285
 4425.00    1.04807   1.06691   95.642
 4426.00    1.04044   1.06430   95.399
 4427.00    1.03957   1.06445   95.828
 4428.00    1.04800   1.06819   95.988
 4429.00    1.04705   1.07202   95.335
 4430.00    1.03444   1.07450   -1.000
 4431.00    1.03723   1.07442   -1.000
 4432.00    1.04999   1.06881   96.090
 4433.00    1.03579   1.05347   94.977
 4434.00    1.00838   1.03186   95.244
 4435.00    1.00063   1.02164   99.023
 4436.00    1.01703   1.03691  103.013
 4437.00    1.05589   1.07135  102.548
 4438.00    1.09280   1.10388   97.588
 4439.00    1.09651   1.11618   91.968
 4440.00    1.07782   1.10256   89.123
 4441.00    1.04041   1.06979   -1.000
 4442.00    1.00635   1.03886   -1.000
 4443.00    0.99672   1.02973   -1.000
 4444.00    1.00818   1.04790   -1.000
 4445.00    1.03541   1.07920   -1.000
 4446.00    1.05652   1.10409   -1.000
 4447.00    1.06707   1.11425   -1.000
 4448.00    1.07062   1.11396   -1.000
 4449.00    1.07355   1.11045   -1.000
 4450.00    1.06506   1.10676   -1.000
 4451.00    1.06336   1.10155   -1.000
 4452.00    1.06335   1.08917   -1.000
 4453.00    1.04910   1.06341   92.700
 4454.00    1.01788   1.03073   94.094
 4455.00    0.99658   1.00744   97.959
 4456.00    1.00984   1.00402  101.927
 4457.00    1.02393   1.01387  102.924
 4458.00    1.02652   1.02332  100.961
 4459.00    1.02151   1.02727   99.627
 4460.00    1.02343   1.02911   99.903
 4461.00    1.01360   1.03332  100.574
 4462.00    1.02374   1.04347  101.622
 4463.00    1.04396   1.06030  101.789
 4464.00    1.05821   1.07654   99.109
 4465.00    1.06894   1.08457   95.490
 4466.00    1.06610   1.08227   93.846
 4467.00    1.05714   1.07259   93.868
 4468.00    1.04251   1.06173   94.182
 4469.00    1.02717   1.05858   -1.000
 4470.00    1.02875   1.06904   -1.000
 4471.00    1.05516   1.09028   -1.000
 4472.00    1.08136   1.11472   -1.000
 4473.00    1.10978   1.13499   -1.000
 4474.00    1.11348   1.14636   -1.000
 4475.00    1.11471   1.15017   -1.000
 4476.00    1.11334   1.15099   -1.000
 4477.00    1.11659   1.14952   -1.000
 4478.00    1.12145   1.14028   85.860
 4479.00    1.09453   1.11836   85.679
 4480.00    1.06160   1.08672   87.086
 4481.00    1.03697   1.06182   90.635
 4482.00    1.03503   1.05914   94.442
 4483.00    1.06197   1.07906   96.125
 4484.00    1.09513   1.11133   94.117
 4485.00    1.11546   1.13981   90.090
 4486.00    1.11894   1.15163   -1.000
 4487.00    1.10528   1.14369   -1.000
 4488.00    1.08391   1.12396   -1.000
 4489.00    1.05666   1.10492   -1.000
 4490.00    1.06040   1.09875   -1.000
 4491.00    1.07651   1.10714   -1.000
 4492.00    1.08658   1.12023   -1.000
 4493.00    1.08316   1.12590   -1.000
 4494.00    1.07123   1.12033   -1.000
 4495.00    1.07026   1.11425   -1.000
 4496.00    1.07306   1.11674   -1.000
 4497.00    1.09028   1.12605   -1.000
 4498.00    1.11917   1.13554   92.725
 4499.00    1.12289   1.13981   89.545
 4500.00    1.10838   1.13802   -1.000
 4501.00    1.08959   1.13769   -1.000
 4502.00    1.09310   1.14893   -1.000
 4503.00    1.11672   1.16956   -1.000
 4504.00    1.13388   1.19009   -1.000
 4505.00    1.13564   1.20103   -1.000
 4506.00    1.13646   1.19969   -1.000
 4507.00    1.12913   1.19090   -1.000
 4508.00    1.12569   1.18339   -1.000
 4509.00    1.13275   1.18265   -1.000
 4510.00    1.13875   1.18540   -1.000
 4511.00    1.13976   1.18446   -1.000
 4512.00    1.12310   1.17613   -1.000
 4513.00    1.11090   1.16365   -1.000
 4514.00    1.11221   1.15202   -1.000
 4515.00    1.10904   1.14430   -1.000
 4516.00    1.11028   1.14182   -1.000
 4517.00    1.10384   1.14056   -1.000
 4518.00    1.08683   1.13687   -1.000
 4519.00    1.09506   1.13472   -1.000
 4520.00    1.11021   1.13737   88.810
 4521.00    1.09796   1.14088   -1.000
 4522.00    1.08257   1.13829   -1.000
 4523.00    1.07287   1.12787   -1.000
 4524.00    1.07079   1.11486   -1.000
 4525.00    1.07304   1.10159   -1.000
 4526.00    1.05728   1.08466   91.119
 4527.00    1.04350   1.06304   92.967
 4528.00    1.04010   1.04309   95.848
 4529.00    1.03345   1.03494   98.205
 4530.00    1.03802   1.04009   98.883
 4531.00    1.05762   1.05098   97.841
 4532.00    1.06450   1.05515   96.054
 4533.00    1.04327   1.04720   94.574
 4534.00    1.01648   1.03647   94.837
 4535.00    1.02320   1.03828   97.796
 4536.00    1.06333   1.06168  100.155
 4537.00    1.09770   1.09975   97.617
 4538.00    1.12273   1.13505   91.793
 4539.00    1.12221   1.15184   -1.000
 4540.00    1.11230   1.15004   -1.000
 4541.00    1.10589   1.14225   -1.000
 4542.00    1.10530   1.13847   -1.000
 4543.00    1.10468   1.13852   -1.000
 4544.00    1.08968   1.13534   -1.000
 4545.00    1.07523   1.12665   -1.000
 4546.00    1.09001   1.11674   88.983
 4547.00    1.07554   1.10586   45.230
 4548.00    0.72706   1.09099   -1.000
 4549.00    0.03157   1.07639   -1.000
 4550.00    0.02391   1.07262   -1.000
 4551.00    0.38742   1.08201   -1.000
 4552.00    0.84957   1.09276   -1.000
 4553.00    0.38281   1.09283   -1.000
 4554.00    0.97901   1.08525   -1.000
 4555.00    1.06837   1.08189   93.187
 4556.00    1.07588   1.09205   93.544
 4557.00    1.09879   1.11513   91.599
 4558.00    1.10481   1.14008   -1.000
 4559.00    1.11386   1.15872   -1.000
 4560.00    1.13130   1.16950   -1.000
 4561.00    1.13168   1.17214   -1.000
 4562.00    1.11876   1.16562   -1.000
 4563.00    1.10316   1.15022   -1.000
 4564.00    1.09070   1.13265   -1.000
 4565.00    1.08892   1.12383   -1.000
 4566.00    1.10132   1.12962   89.876
 4567.00    1.11893   1.14650   88.498
 4568.00    1.13392   1.16175   86.168
 4569.00    1.13156   1.16485   -1.000
 4570.00    1.11215   1.15376   -1.000
 4571.00    1.08208   1.13635   -1.000
 4572.00    1.07743   1.12639   -1.000
 4573.00    1.10354   1.13248   88.951
 4574.00    1.11887   1.14900   87.744
 4575.00    1.12082   1.16200   -1.000
 4576.00    1.11452   1.16550   -1.000
 4577.00    1.10839   1.16112   -1.000
 4578.00    1.10382   1.14997   -1.000
 4579.00    1.09308   1.13174   -1.000
 4580.00    1.07776   1.11042   -1.000
 4581.00    1.07176   1.09288   89.919
 4582.00    1.07568   1.08485   91.322
 4583.00    1.07590   1.08609   90.762
 4584.00    1.07921   1.09161   89.549
 4585.00    1.08477   1.09699   89.098
 4586.00    1.09467   1.10346   89.466
 4587.00    1.10772   1.11382   89.696
 4588.00    1.12339   1.12716   88.146
 4589.00    1.11888   1.13812   85.863
 4590.00    1.10953   1.14039   -1.000
 4591.00    1.10035   1.13303   -1.000
 4592.00    1.09246   1.12237   85.970
 4593.00    1.09482   1.11640   87.575
 4594.00    1.09078   1.11814   88.832
 4595.00    1.10819   1.12445   88.684
 4596.00    1.12488   1.13143   87.900
 4597.00    1.11945   1.13716   87.298
 4598.00    1.11975   1.14020   87.098
 4599.00    1.11675   1.13851   86.914
 4600.00    1.10990   1.13242   86.896
 4601.00    1.10225   1.12527   87.714
 4602.00    1.10048   1.12153   88.402
 4603.00    1.10542   1.12257   88.402
 4604.00    1.11422   1.12687   87.395
 4605.00    1.12013   1.13267   86.618
 4606.00    1.12078   1.13950   86.766
 4607.00    1.13860   1.14854   86.456
 4608.00    1.14025   1.16014   85.332
 4609.00    1.14358   1.17124   83.580
 4610.00    1.14655   1.17604   81.930
 4611.00    1.13970   1.17122   81.245
 4612.00    1.13235   1.16287   81.810
 4613.00    1.13142   1.15703   82.938
 4614.00    1.13717   1.15493   83.779
 4615.00    1.13488   1.15480   84.129
 4616.00    1.13060   1.15361   83.605
 4617.00    1.12193   1.14960   82.917
 4618.00    1.11845   1.14429   82.764
 4619.00    1.12098   1.14261   83.375
 4620.00    1.12890   1.14812   83.873
 4621.00    1.13608   1.15949   83.629
 4622.00    1.14428   1.17038   82.697
 4623.00    1.14362   1.17413   81.581
 4624.00    1.14158   1.17188   81.664
 4625.00    1.14186   1.16826   81.872
 4626.00    1.12838   1.16433   -1.000
 4627.00    1.13600   1.16090   82.826
 4628.00    1.13411   1.15810   82.955
 4629.00    1.12288   1.15638   -1.000
 4630.00    1.12942   1.15722   83.508
 4631.00    1.14014   1.16145   83.562
 4632.00    1.14490   1.16546   83.016
 4633.00    1.13645   1.16329   82.256
 4634.00    1.12891   1.15548   82.838
 4635.00    1.12542   1.14748   84.045
 4636.00    1.12278   1.14210   84.783
 4637.00    1.12352   1.13822   84.784
 4638.00    1.11664   1.13655   85.589
 4639.00    1.12125   1.13891   86.617
 4640.00    1.13308   1.14627   86.848
 4641.00    1.15426   1.15733   86.470
 4642.00    1.16113   1.16776   84.819
 4643.00    1.16017   1.17050   82.862
 4644.00    1.14556   1.16226   82.020
 4645.00    1.13616   1.14619   82.627
 4646.00    1.12341   1.12618   84.364
 4647.00    1.10573   1.10905   86.785
 4648.00    1.11382   1.10510   88.848
 4649.00    1.12345   1.11621   88.790
 4650.00    1.12901   1.13364   87.034
 4651.00    1.12820   1.14691   85.112
 4652.00    1.12629   1.15106   84.157
 4653.00    1.12578   1.14750   84.058
 4654.00    1.11243   1.13877   84.071
 4655.00    1.10019   1.12935   85.290
 4656.00    1.09647   1.12633   87.167
 4657.00    1.10725   1.13577   87.826
 4658.00    1.13433   1.15719   86.643
 4659.00    1.16289   1.18192   83.683
 4660.00    1.17627   1.19651   80.663
 4661.00    1.16793   1.19571   79.198
 4662.00    1.15264   1.18376   79.376
 4663.00    1.14544   1.16742   80.572
 4664.00    1.15056   1.15018   82.549
 4665.00    1.14045   1.13077   83.925
 4666.00    1.10490   1.10664   84.228
 4667.00    1.08180   1.08186   86.028
 4668.00    1.07797   1.06797   89.851
 4669.00    1.08330   1.07381   93.010
 4670.00    1.11019   1.09523   92.432
 4671.00    1.13751   1.12048   89.276
 4672.00    1.14336   1.13890   85.694
 4673.00    1.14529   1.14860   83.729
 4674.00    1.14063   1.15442   83.412
 4675.00    1.14600   1.16129   83.480
 4676.00    1.16240   1.16751   83.226
 4677.00    1.15949   1.16514   82.062
 4678.00    1.14310   1.15174   81.068
 4679.00    1.13337   1.13355   81.773
 4680.00    1.12759   1.11942   83.605
 4681.00    1.12504   1.11340   85.207
 4682.00    1.12630   1.11455   86.512
 4683.00    1.13160   1.12151   87.023
 4684.00    1.15037   1.13125   85.662
 4685.00    1.15238   1.13922   83.598
 4686.00    1.15585   1.14312   82.767
 4687.00    1.14930   1.14422   83.086
 4688.00    1.14064   1.14412   83.167
 4689.00    1.14212   1.14325   83.600
 4690.00    1.13444   1.14167   83.577
 4691.00    1.12754   1.13922   83.675
 4692.00    1.12849   1.13877   84.250
 4693.00    1.14915   1.14312   84.224
 4694.00    1.15892   1.15003   83.122
 4695.00    1.17382   1.15532   81.778
 4696.00    1.17346   1.15655   80.034
 4697.00    1.15578   1.15106   79.263
 4698.00    1.14474   1.13797   80.002
 4699.00    1.13720   1.12218   82.441
 4700.00    1.12834   1.10837   84.720
 4701.00    1.12382   1.09758   85.377
 4702.00    1.11412   1.08873   84.789
 4703.00    1.10767   1.08443   85.627
 4704.00    1.10542   1.08906   87.043
 4705.00    1.11967   1.09927   87.128
 4706.00    1.13116   1.10449   85.412
 4707.00    1.11927   1.10007   84.519
 4708.00    1.10574   1.09250   85.911
 4709.00    1.10497   1.09178   87.541
 4710.00    1.11652   1.10062   88.150
 4711.00    1.13907   1.11437   87.309
 4712.00    1.15969   1.12688   84.647
 4713.00    1.14980   1.13144   82.546
 4714.00    1.13584   1.12833   82.030
 4715.00    1.13897   1.12610   83.010
 4716.00    1.14812   1.13207   84.413
 4717.00    1.16762   1.14532   84.090
 4718.00    1.17076   1.15789   82.335
 4719.00    1.16367   1.16478   80.905
 4720.00    1.15949   1.16605   80.493
 4721.00    1.15241   1.16458   80.219
 4722.00    1.15400   1.16341   80.074
 4723.00    1.15615   1.16423   80.798
 4724.00    1.16441   1.16627   81.222
 4725.00    1.17049   1.16551   80.632
 4726.00    1.15370   1.15753   79.869
 4727.00    1.13310   1.14114   80.287
 4728.00    1.11825   1.12220   82.491
 4729.00    1.12497   1.10940   85.535
 4730.00    1.13273   1.10565   87.078
 4731.00    1.13177   1.10774   86.558
 4732.00    1.12835   1.11360   85.671
 4733.00    1.12875   1.12129   84.962
 4734.00    1.13500   1.12666   83.954
 4735.00    1.13976   1.12760   83.275
 4736.00    1.12833   1.12592   82.817
 4737.00    1.12968   1.12483   82.529
 4738.00    1.13774   1.12711   83.396
 4739.00    1.14407   1.13285   83.301
 4740.00    1.13852   1.13809   82.297
 4741.00    1.14523   1.14026   82.455
 4742.00    1.14175   1.14226   82.913
 4743.00    1.15612   1.14633   82.900
 4744.00    1.15980   1.15070   82.161
 4745.00    1.14914   1.15315   81.384
 4746.00    1.15857   1.15437   81.598
 4747.00    1.16674   1.15733   81.577
 4748.00    1.16793   1.16314   80.900
 4749.00    1.16989   1.16966   80.150
 4750.00    1.16730   1.17532   80.054
 4751.00    1.15729   1.17746   80.184
 4752.00    1.15800   1.17282   80.297
 4753.00    1.15363   1.16160   80.954
 4754.00    1.14710   1.14886   81.864
 4755.00    1.14551   1.14102   82.521
 4756.00    1.15245   1.14029   82.994
 4757.00    1.14082   1.14476   82.863
 4758.00    1.13451   1.15155   83.250
 4759.00    1.14896   1.15836   83.823
 4760.00    1.15584   1.16089   83.789
 4761.00    1.13469   1.15406   83.113
 4762.00    1.10836   1.13680   83.165
 4763.00    1.09792   1.11545   84.640
 4764.00    1.10356   1.10049   86.690
 4765.00    1.11311   1.09533   87.629
 4766.00    1.12417   1.09845   87.670
 4767.00    1.14001   1.10914   87.422
 4768.00    1.14965   1.12660   86.713
 4769.00    1.15890   1.14486   85.388
 4770.00    1.16035   1.15557   83.491
 4771.00    1.14820   1.15622   82.524
 4772.00    1.14490   1.15317   82.798
 4773.00    1.15394   1.15404   83.534
 4774.00    1.16582   1.16185   84.081
 4775.00    1.16846   1.17227   82.916
 4776.00    1.16900   1.17892   81.233
 4777.00    1.16857   1.17932   80.815
 4778.00    1.15757   1.17446   80.930
 4779.00    1.15318   1.16774   81.209
 4780.00    1.14702   1.16227   81.800
 4781.00    1.15085   1.15867   82.696
 4782.00    1.14909   1.15456   83.127
 4783.00    1.14245   1.14913   83.342
 4784.00    1.14008   1.14383   83.791
 4785.00    1.13831   1.13897   84.407
 4786.00    1.12167   1.13436   84.365
 4787.00    1.10733   1.13115   84.730
 4788.00    1.11881   1.13128   85.569
 4789.00    1.12188   1.13459   85.979
 4790.00    1.12888   1.14057   85.825
 4791.00    1.13983   1.14961   85.374
 4792.00    1.15428   1.16195   84.802
 4793.00    1.15864   1.17646   83.843
 4794.00    1.16724   1.19022   82.386
 4795.00    1.16815   1.19953   80.565
 4796.00    1.15946   1.20023   -1.000
 4797.00    1.15322   1.19209   -1.000
 4798.00    1.14731   1.17976   80.138
 4799.00    1.13390   1.16880   -1.000
 4800.00    1.13480   1.16469   83.261
 4801.00    1.14627   1.16950   84.044
 4802.00    1.16384   1.17871   83.114
 4803.00    1.16999   1.18446   81.430
 4804.00    1.15582   1.18294   80.418
 4805.00    1.14559   1.17583   80.701
 4806.00    1.13723   1.16842   81.831
 4807.00    1.14267   1.16425   82.845
 4808.00    1.15117   1.16368   83.505
 4809.00    1.14897   1.16680   83.423
 4810.00    1.14867   1.17183   83.188
 4811.00    1.15899   1.17548   82.767
 4812.00    1.16050   1.17779   82.010
 4813.00    1.16261   1.18108   81.449
 4814.00    1.17626   1.18577   81.073
 4815.00    1.17383   1.19141   81.000
 4816.00    1.17128   1.19723   80.786
 4817.00    1.17894   1.20155   80.470
 4818.00    1.18100   1.20313   79.951
 4819.00    1.18080   1.20300   79.472
 4820.00    1.17130   1.20179   79.186
 4821.00    1.16390   1.19566   79.176
 4822.00    1.15832   1.18065   79.245
 4823.00    1.14009   1.15966   80.109
 4824.00    1.12733   1.14329   82.258
 4825.00    1.14024   1.14206   83.633
 4826.00    1.15851   1.15350   83.261
 4827.00    1.15245   1.16518   81.736
 4828.00    1.15668   1.16910   80.628
 4829.00    1.16324   1.16642   81.104
 4830.00    1.15260   1.16177   82.057
 4831.00    1.14501   1.15561   82.495
 4832.00    1.14161   1.14876   82.514
 4833.00    1.15043   1.14549   83.270
 4834.00    1.16187   1.14795   83.244
 4835.00    1.16095   1.15400   81.853
 4836.00    1.16541   1.15890   80.848
 4837.00    1.15697   1.15880   80.627
 4838.00    1.14725   1.15288   80.803
 4839.00    1.14337   1.14246   81.264
 4840.00    1.14335   1.13128   82.445
 4841.00    1.13589   1.12395   83.824
 4842.00    1.13933   1.12297   83.778
 4843.00    1.14691   1.12606   83.570
 4844.00    1.14754   1.13025   83.120
 4845.00    1.15424   1.13623   82.471
 4846.00    1.15737   1.14184   81.596
 4847.00    1.14498   1.14042   80.359
 4848.00    1.12601   1.13205   80.155
 4849.00    1.12245   1.12483   81.859
 4850.00    1.13503   1.12362   82.957
 4851.00    1.13940   1.12516   82.793
 4852.00    1.13491   1.12217   81.649
 4853.00    1.11678   1.10972   81.561
 4854.00    1.09394   1.08644   82.077
 4855.00    1.07133   1.05715   82.922
 4856.00    1.05616   1.03131   85.493
 4857.00    1.05572   1.01154   -1.000
 4858.00    1.03861   0.98605   -1.000
 4859.00    0.96559   0.93599   86.651
 4860.00    0.86090   0.86392   89.556
 4861.00    0.78657   0.80159   97.777
 4862.00    0.80250   0.78421  109.012
 4863.00    0.90763   0.82040   -1.000
 4864.00    0.99603   0.88509   -1.000
 4865.00    1.03470   0.94862   -1.000
 4866.00    1.05855   0.99742   -1.000
 4867.00    1.07135   1.03154   -1.000
 4868.00    1.08637   1.05295   85.922
 4869.00    1.09286   1.06039   85.215
 4870.00    1.07339   1.05287   84.945
 4871.00    1.05590   1.03590   85.853
 4872.00    1.05419   1.02431   88.342
 4873.00    1.07226   1.03214   -1.000
 4874.00    1.09920   1.05596   -1.000
 4875.00    1.11032   1.07962   86.691
 4876.00    1.10901   1.09135   85.291
 4877.00    1.10546   1.09489   84.679
 4878.00    1.11279   1.10189   84.237
 4879.00    1.11717   1.11626   83.899
 4880.00    1.12742   1.13140   82.652
 4881.00    1.12559   1.13836   81.894
 4882.00    1.11796   1.13501   82.736
 4883.00    1.11477   1.12811   84.081
 4884.00    1.11530   1.12125   84.491
 4885.00    1.11889   1.11305   84.217
 4886.00    1.10581   1.10464   84.760
 4887.00    1.09685   1.09911   86.060
 4888.00    1.10998   1.09599   86.422
 4889.00    1.10424   1.08941   85.942
 4890.00    1.08416   1.07671   85.926
 4891.00    1.07812   1.06703   87.302
 4892.00    1.10162   1.07480   89.119
 4893.00    1.13842   1.10614   88.229
 4894.00    1.16203   1.14895   84.532
 4895.00    1.16976   1.18295   80.655
 4896.00    1.17993   1.20073   78.386
 4897.00    1.16792   1.20520   77.012
 4898.00    1.16220   1.20032   76.716
 4899.00    1.14918   1.18975   -1.000
 4900.00    1.13657   1.17859   -1.000
 4901.00    1.13316   1.17047   -1.000
 4902.00    1.14544   1.16467   81.332
 4903.00    1.14177   1.15857   80.911
 4904.00    1.13014   1.15564   81.097
 4905.00    1.14998   1.16277   82.033
 4906.00    1.15492   1.17639   81.016
 4907.00    1.15382   1.18401   79.300
 4908.00    1.15464   1.17814   78.801
 4909.00    1.13267   1.15998   79.647
 4910.00    1.11696   1.13858   81.647
 4911.00    1.11521   1.12551   83.964
 4912.00    1.13788   1.12784   84.862
 4913.00    1.15370   1.14225   83.639
 4914.00    1.15258   1.15995   82.125
 4915.00    1.15513   1.17375   81.016
 4916.00    1.16131   1.17633   79.980
 4917.00    1.15050   1.15939   79.340
 4918.00    1.10506   1.12255   79.878
 4919.00    1.05720   1.07760   82.853
 4920.00    1.04571   1.04328   87.455
 4921.00    1.06644   1.03339   -1.000
 4922.00    1.08756   1.04631   -1.000
 4923.00    1.09625   1.06778   89.028
 4924.00    1.09785   1.08576   85.871
 4925.00    1.10695   1.10136   84.720
 4926.00    1.12386   1.12012   84.633
 4927.00    1.13894   1.14247   83.462
 4928.00    1.15621   1.16405   81.265
 4929.00    1.16457   1.17946   79.869
 4930.00    1.15483   1.18652   79.151
 4931.00    1.16600   1.18321   78.619
 4932.00    1.15062   1.16714   78.202
 4933.00    1.11403   1.14258   79.078
 4934.00    1.10195   1.12237   81.325
 4935.00    1.10373   1.11614   84.206
 4936.00    1.12177   1.11955   84.241
 4937.00    1.11954   1.11688   82.724
 4938.00    1.09644   1.10288   82.824
 4939.00    1.08538   1.09192   85.363
 4940.00    1.10588   1.09838   87.588
 4941.00    1.14096   1.12285   86.626
 4942.00    1.15676   1.15246   83.596
 4943.00    1.16169   1.17280   80.966
 4944.00    1.17070   1.17976   79.537
 4945.00    1.15679   1.17753   78.865
 4946.00    1.14413   1.17278   78.969
 4947.00    1.15611   1.17176   79.538
 4948.00    1.16914   1.17802   79.662
 4949.00    1.15879   1.18794   78.903
 4950.00    1.16285   1.19389   77.983
 4951.00    1.17129   1.19255   77.769
 4952.00    1.16530   1.18703   77.464
 4953.00    1.15546   1.18121   77.899
 4954.00    1.16436   1.17461   78.453
 4955.00    1.15633   1.16036   79.379
 4956.00    1.11425   1.12987   80.411
 4957.00    1.07035   1.09075   82.675
 4958.00    1.07716   1.06853   87.005
 4959.00    1.12557   1.08033   -1.000
 4960.00    1.15693   1.11686   -1.000
 4961.00    1.16496   1.15211   83.095
 4962.00    1.16376   1.17099   80.365
 4963.00    1.15675   1.17521   79.846
 4964.00    1.15169   1.16984   80.260
 4965.00    1.14740   1.15810   80.920
 4966.00    1.14502   1.14418   81.915
 4967.00    1.14139   1.13301   83.667
 4968.00    1.14250   1.12692   84.699
 4969.00    1.14940   1.12614   84.677
 4970.00    1.14582   1.13091   84.410
 4971.00    1.14601   1.14019   83.764
 4972.00    1.14896   1.15134   82.857
 4973.00    1.15947   1.16190   81.966
 4974.00    1.16812   1.17008   80.987
 4975.00    1.16685   1.17345   80.242
 4976.00    1.15908   1.17122   79.952
 4977.00    1.15418   1.16422   80.547
 4978.00    1.14793   1.15396   81.412
 4979.00    1.13443   1.14192   82.535
 4980.00    1.12465   1.12658   83.883
 4981.00    1.10723   1.10343   84.910
 4982.00    1.08274   1.07199   86.156
 4983.00    1.06416   1.04250   89.057
 4984.00    1.07394   1.03090   -1.000
 4985.00    1.09241   1.04444   -1.000
 4986.00    1.11672   1.07414   -1.000
 4987.00    1.13997   1.10479   -1.000
 4988.00    1.14974   1.12565   84.618
 4989.00    1.14365   1.13152   82.584
 4990.00    1.12802   1.12521   82.745
 4991.00    1.11429   1.11584   83.999
 4992.00    1.11504   1.11139   84.836
 4993.00    1.12922   1.11340   84.832
 4994.00    1.13381   1.11915   84.055
 4995.00    1.12613   1.12593   83.719
 4996.00    1.13965   1.13200   83.683
 4997.00    1.14836   1.13464   83.238
 4998.00    1.12915   1.12950   82.840
 4999.00    1.11778   1.11458   83.384
 5000.00    1.11051   1.09449   84.532
 5001.00    1.11047   1.07827   86.255
 5002.00    1.11701   1.07306   -1.000
 5003.00    1.12559   1.07692   -1.000
 5004.00    1.12180   1.07889   -1.000
 5005.00    1.10142   1.06990   85.925
 5006.00    1.08331   1.05506   87.232
 5007.00    1.09184   1.05099   -1.000
 5008.00    1.12080   1.06544   -1.000
 5009.00    1.14482   1.08836   -1.000
 5010.00    1.14810   1.10265   -1.000
 5011.00    1.12132   1.09740   84.091
 5012.00    1.08403   1.07539   85.272
 5013.00    1.06443   1.04949   87.898
 5014.00    1.06391   1.03373   91.214
 5015.00    1.07904   1.03224   -1.000
 5016.00    1.10223   1.03868   -1.000
 5017.00    1.10863   1.04449   -1.000
 5018.00    1.09703   1.04762   -1.000
 5019.00    1.10503   1.05351   -1.000
 5020.00    1.11609   1.06400   -1.000
 5021.00    1.11309   1.07346   -1.000
 5022.00    1.11634   1.07774   -1.000
 5023.00    1.11867   1.08007   -1.000
 5024.00    1.12661   1.08752   -1.000
 5025.00    1.13234   1.09838   86.780
 5026.00    1.13101   1.10289   85.848
 5027.00    1.11561   1.09971   85.288
 5028.00    1.12532   1.09685   85.729
 5029.00    1.14343   1.09987   -1.000
 5030.00    1.15198   1.10919   -1.000
 5031.00    1.14688   1.12237   83.666
 5032.00    1.15335   1.13573   82.486
 5033.00    1.16271   1.14386   81.139
 5034.00    1.14523   1.13983   80.220
 5035.00    1.12392   1.12218   80.394
 5036.00    1.10147   1.10009   83.067
 5037.00    1.10112   1.08388   86.397
 5038.00    1.10249   1.07314   87.762
 5039.00    1.07824   1.05553   88.034
 5040.00    1.04134   1.02724   89.154
 5041.00    1.02954   1.00511   92.756
 5042.00    1.05445   1.00826   -1.000
 5043.00    1.09710   1.03970   -1.000
 5044.00    1.13234   1.08421   -1.000
 5045.00    1.15017   1.12217   85.925
 5046.00    1.16117   1.14405   82.480
 5047.00    1.15627   1.14768   80.799
 5048.00    1.13103   1.13452   77.646
 5049.00    1.17841   1.11090   -1.000
 5050.00    0.56381   1.08786   -1.000
 5051.00    0.10277   1.07551   -1.000
 5052.00    0.00713   1.07867   -1.000
 5053.00    0.60889   1.09537   -1.000
 5054.00    1.27043   1.11672   -1.000
 5055.00    1.16294   1.13253   82.489
 5056.00    1.17145   1.14147   81.004
 5057.00    1.16765   1.14767   80.255
 5058.00    1.16588   1.15329   80.012
 5059.00    1.16433   1.15818   80.171
 5060.00    1.16169   1.16133   80.320
 5061.00    1.16039   1.16222   80.283
 5062.00    1.15924   1.15932   79.719
 5063.00    1.14680   1.14734   79.782
 5064.00    1.12177   1.12540   80.891
 5065.00    1.10853   1.10362   83.294
 5066.00    1.11782   1.09255   86.292
 5067.00    1.13320   1.09326   -1.000
 5068.00    1.13213   1.09822   -1.000
 5069.00    1.14101   1.10203   -1.000
 5070.00    1.14297   1.10480   -1.000
 5071.00    1.14401   1.10529   -1.000
 5072.00    1.13517   1.10141   83.586
 5073.00    1.13081   1.09641   -1.000
 5074.00    1.13805   1.09612   -1.000
 5075.00    1.14778   1.10094   -1.000
 5076.00    1.13666   1.10528   83.226
 5077.00    1.13630   1.10233   83.130
 5078.00    1.12044   1.08783   83.065
 5079.00    1.07944   1.06431   83.898
 5080.00    1.05823   1.04400   86.892
 5081.00    1.08039   1.03786   -1.000
 5082.00    1.09723   1.04505   -1.000
 5083.00    1.10516   1.05813   -1.000
 5084.00    1.12426   1.07220   -1.000
 5085.00    1.14215   1.08778   -1.000
 5086.00    1.15362   1.10360   -1.000
 5087.00    1.14909   1.11513   83.828
 5088.00    1.14199   1.12136   83.250
 5089.00    1.14862   1.12484   83.147
 5090.00    1.15423   1.12801   82.720
 5091.00    1.16107   1.13240   82.116
 5092.00    1.16442   1.13879   81.667
 5093.00    1.17105   1.14589   81.245
 5094.00    1.17789   1.14894   80.293
 5095.00    1.17111   1.14195   79.576
 5096.00    1.14092   1.12322   80.337
 5097.00    1.16982   1.09807   -1.000
 5098.00    1.16045   1.07568   -1.000
 5099.00    1.09454   1.06438   85.856
 5100.00    1.10681   1.06813   -1.000
 5101.00    1.13951   1.08460   -1.000
 5102.00    1.16581   1.10374   -1.000
 5103.00    1.16835   1.11473   -1.000
 5104.00    1.15452   1.11508   -1.000
 5105.00    1.14761   1.10746   -1.000
 5106.00    1.12721   1.09481   84.117
 5107.00    1.11078   1.08069   85.181
 5108.00    1.11457   1.07010   -1.000
 5109.00    1.10248   1.06692   -1.000
 5110.00    1.10739   1.07184   -1.000
 5111.00    1.12545   1.08364   -1.000
 5112.00    1.14264   1.09919   -1.000
 5113.00    1.14846   1.11346   -1.000
 5114.00    1.15968   1.12415   -1.000
 5115.00    1.16234   1.13222   82.657
 5116.00    1.15883   1.13937   81.916
 5117.00    1.16300   1.14546   81.483
 5118.00    1.17117   1.14823   80.613
 5119.00    1.16501   1.14527   79.942
 5120.00    1.15093   1.13567   80.194
 5121.00    1.14534   1.12134   81.259
 5122.00    1.12248   1.10507   82.487
 5123.00    1.10624   1.08829   83.853
 5124.00    1.09841   1.07281   86.027
 5125.00    1.10029   1.06277   -1.000
 5126.00    1.10744   1.06006   -1.000
 5127.00    1.12178   1.06151   -1.000
 5128.00    1.11644   1.06279   -1.000
 5129.00    1.10746   1.06360   -1.000
 5130.00    1.11124   1.06679   -1.000
 5131.00    1.12181   1.07392   -1.000
 5132.00    1.12588   1.08310   -1.000
 5133.00    1.13044   1.09153   -1.000
 5134.00    1.13432   1.09816   -1.000
 5135.00    1.14042   1.10216   -1.000
 5136.00    1.13650   1.10088   -1.000
 5137.00    1.11367   1.09196   82.446
 5138.00    1.08595   1.07762   83.954
 5139.00    1.08101   1.06404   86.011
 5140.00    1.09674   1.05696   -1.000
 5141.00    1.09457   1.05631   -1.000
 5142.00    1.09442   1.05796   -1.000
 5143.00    1.10244   1.06050   -1.000
 5144.00    1.10923   1.06515   -1.000
 5145.00    1.11815   1.07060   -1.000
 5146.00    1.11300   1.07186   -1.000
 5147.00    1.11509   1.06769   -1.000
 5148.00    1.11969   1.06528   -1.000
 5149.00    1.12792   1.06872   -1.000
 5150.00    1.12441   1.07145   -1.000
 5151.00    1.10440   1.06791   -1.000
 5152.00    1.09343   1.06052   -1.000
 5153.00    1.09574   1.05474   -1.000
 5154.00    1.10569   1.05527   -1.000
 5155.00    1.12466   1.06476   -1.000
 5156.00    1.14359   1.08194   -1.000
 5157.00    1.16553   1.10123   -1.000
 5158.00    1.15762   1.11696   -1.000
 5159.00    1.16854   1.12615   -1.000
 5160.00    1.16040   1.12867   80.498
 5161.00    1.15225   1.12535   80.489
 5162.00    1.14280   1.11661   80.761
 5163.00    1.14795   1.10261   -1.000
 5164.00    1.13905   1.08049   -1.000
 5165.00    1.08838   1.04210   -1.000
 5166.00    1.02746   0.98548   -1.000
 5167.00    0.96670   0.92647   -1.000
 5168.00    0.96364   0.89231   -1.000
 5169.00    1.00279   0.89733   -1.000
 5170.00    1.03762   0.91861   -1.000
 5171.00    1.01237   0.92145   -1.000
 5172.00    0.95209   0.90307   -1.000
 5173.00    0.95394   0.89319   -1.000
 5174.00    1.02362   0.92144   -1.000
 5175.00    1.09563   0.98081   -1.000
 5176.00    1.13550   1.03936   -1.000
 5177.00    1.15202   1.07736   -1.000
 5178.00    1.15879   1.09376   -1.000
 5179.00    1.16158   1.09480   -1.000
 5180.00    1.14332   1.08012   -1.000
 5181.00    1.10395   1.04247   -1.000
 5182.00    1.02510   0.98288   -1.000
 5183.00    0.94878   0.92167   95.657
 5184.00    0.95121   0.89231   -1.000
 5185.00    1.02513   0.91230   -1.000
 5186.00    1.09347   0.96698   -1.000
 5187.00    1.11848   1.02250   -1.000
 5188.00    1.12140   1.05508   -1.000
 5189.00    1.11309   1.06745   -1.000
 5190.00    1.11008   1.06895   -1.000
 5191.00    1.09637   1.06063   -1.000
 5192.00    1.08081   1.04594   -1.000
 5193.00    1.08265   1.03489   -1.000
 5194.00    1.09862   1.03399   -1.000
 5195.00    1.10682   1.04126   -1.000
 5196.00    1.11425   1.05087   -1.000
 5197.00    1.12332   1.06210   -1.000
 5198.00    1.13031   1.07746   -1.000
 5199.00    1.13756   1.09462   -1.000
 5200.00    1.15276   1.10760   -1.000
 5201.00    1.15075   1.11149   -1.000
 5202.00    1.13443   1.10353   82.536
 5203.00    1.11964   1.08386   -1.000
 5204.00    1.09692   1.05619   -1.000
 5205.00    1.07448   1.02754   -1.000
 5206.00    1.07683   1.00579   -1.000
 5207.00    1.08657   0.99500   -1.000
 5208.00    1.08527   0.99368   -1.000
 5209.00    1.08723   1.00036   -1.000
 5210.00    1.10091   1.01706   -1.000
 5211.00    1.13499   1.04519   -1.000
 5212.00    1.16851   1.07941   -1.000
 5213.00    1.17538   1.10718   -1.000
 5214.00    1.16602   1.11729   -1.000
 5215.00    1.14060   1.10823   80.527
 5216.00    1.11933   1.09155   81.402
 5217.00    1.13022   1.08366   -1.000
 5218.00    1.14825   1.09247   -1.000
 5219.00    1.15924   1.11311   -1.000
 5220.00    1.17123   1.13423   -1.000
 5221.00    1.17547   1.14766   80.617
 5222.00    1.16979   1.14993   79.994
 5223.00    1.15548   1.13973   79.670
 5224.00    1.13596   1.11510   80.690
 5225.00    1.10092   1.07557   83.146
 5226.00    1.06175   1.03234   86.581
 5227.00    1.05900   1.00716   -1.000
 5228.00    1.09069   1.01432   -1.000
 5229.00    1.12741   1.04659   -1.000
 5230.00    1.14711   1.08054   -1.000
 5231.00    1.14626   1.09817   -1.000
 5232.00    1.13574   1.09666   -1.000
 5233.00    1.12234   1.08407   -1.000
 5234.00    1.11605   1.07447   -1.000
 5235.00    1.12261   1.07933   -1.000
 5236.00    1.14968   1.09834   -1.000
 5237.00    1.16638   1.12162   -1.000
 5238.00    1.16923   1.13953   80.080
 5239.00    1.16919   1.14818   79.165
 5240.00    1.17964   1.14961   79.084
 5241.00    1.18490   1.14751   -1.000
 5242.00    1.17980   1.14481   -1.000
 5243.00    1.17607   1.14477   78.733
 5244.00    1.18095   1.14826   78.845
 5245.00    1.17371   1.14940   78.688
 5246.00    1.15414   1.14118   78.561
 5247.00    1.13818   1.12474   80.114
 5248.00    1.13800   1.10808   82.623
 5249.00    1.12947   1.09752   -1.000
 5250.00    1.12620   1.09310   -1.000
 5251.00    1.12555   1.09313   -1.000
 5252.00    1.13190   1.09721   -1.000
 5253.00    1.14678   1.10266   -1.000
 5254.00    1.13567   1.10557   83.941
 5255.00    1.14726   1.10807   -1.000
 5256.00    1.16585   1.11666   -1.000
 5257.00    1.17450   1.13237   -1.000
 5258.00    1.18923   1.14816   -1.000
 5259.00    1.18722   1.15409   78.430
 5260.00    1.16155   1.14389   77.708
 5261.00    1.13967   1.11733   78.411
 5262.00    1.09915   1.07955   80.540
 5263.00    1.06656   1.03933   83.942
 5264.00    1.06013   1.00566   -1.000
 5265.00    1.05194   0.98637   -1.000
 5266.00    1.06237   0.98458   -1.000
 5267.00    1.08854   0.99192   -1.000
 5268.00    1.08097   0.99339   -1.000
 5269.00    1.04642   0.98240   -1.000
 5270.00    1.04431   0.97096   -1.000
 5271.00    1.08301   0.97933   -1.000
 5272.00    1.11982   1.00834   -1.000
 5273.00    1.12831   1.03898   -1.000
 5274.00    1.12060   1.05774   -1.000
 5275.00    1.12449   1.06709   -1.000
 5276.00    1.13888   1.07847   -1.000
 5277.00    1.16791   1.09865   -1.000
 5278.00    1.18816   1.12269   -1.000
 5279.00    1.17965   1.13764   -1.000
 5280.00    1.16418   1.13434   77.731
 5281.00    1.15311   1.11655   -1.000
 5282.00    1.13319   1.09541   -1.000
 5283.00    1.11973   1.08077   -1.000
 5284.00    1.13331   1.08029   -1.000
 5285.00    1.15685   1.09741   -1.000
 5286.00    1.18210   1.12574   -1.000
 5287.00    1.18695   1.15202   -1.000
 5288.00    1.19104   1.16695   77.387
 5289.00    1.21859   1.17222   -1.000
 5290.00    1.19970   1.17410   77.132
 5291.00    1.18120   1.17430   77.137
 5292.00    1.18575   1.17266   76.696
 5293.00    1.18656   1.16997   76.523
 5294.00    1.18373   1.16436   76.955
 5295.00    1.17643   1.15133   77.678
 5296.00    1.15216   1.12810   78.702
 5297.00    1.12212   1.09977   80.807
 5298.00    1.10869   1.08007   83.894
 5299.00    1.12611   1.07816   -1.000
 5300.00    1.15126   1.08979   -1.000
 5301.00    1.15105   1.10434   -1.000
 5302.00    1.15229   1.11608   -1.000
 5303.00    1.16052   1.12858   -1.000
 5304.00    1.17684   1.14400   -1.000
 5305.00    1.18948   1.15625   -1.000
 5306.00    1.18193   1.16008   76.883
 5307.00    1.17093   1.15740   76.642
 5308.00    1.17312   1.15533   77.362
 5309.00    1.18337   1.15954   78.041
 5310.00    1.18777   1.16827   77.575
 5311.00    1.18986   1.17557   76.765
 5312.00    1.18974   1.17706   76.262
 5313.00    1.18929   1.17203   76.318
 5314.00    1.18818   1.16195   76.738
 5315.00    1.16893   1.14817   77.074
 5316.00    1.15044   1.13386   77.626
 5317.00    1.15518   1.12601   78.389
 5318.00    1.16758   1.12989   -1.000
 5319.00    1.17183   1.14194   79.140
 5320.00    1.17387   1.15125   78.574
 5321.00    1.17052   1.15013   78.227
 5322.00    1.16237   1.13890   78.491
 5323.00    1.15129   1.12162   79.036
 5324.00    1.13954   1.10358   -1.000
 5325.00    1.13911   1.08797   -1.000
 5326.00    1.12490   1.07105   -1.000
 5327.00    1.08525   1.04546   -1.000
 5328.00    1.05146   1.01715   -1.000
 5329.00    1.06589   1.00684   -1.000
 5330.00    1.12448   1.02621   -1.000
 5331.00    1.15966   1.06416   -1.000
 5332.00    1.16392   1.09760   -1.000
 5333.00    1.16901   1.11596   -1.000
 5334.00    1.17323   1.12603   -1.000
 5335.00    1.17844   1.13360   -1.000
 5336.00    1.17294   1.13692   -1.000
 5337.00    1.15535   1.13409   78.221
 5338.00    1.15278   1.12493   78.689
 5339.00    1.14404   1.10954   -1.000
 5340.00    1.13988   1.09191   -1.000
 5341.00    1.13268   1.08186   -1.000
 5342.00    1.15334   1.08745   -1.000
 5343.00    1.17113   1.10515   -1.000
 5344.00    1.17283   1.12081   -1.000
 5345.00    1.16645   1.12466   -1.000
 5346.00    1.16389   1.11864   -1.000
 5347.00    1.16170   1.10988   -1.000
 5348.00    1.15505   1.10390   -1.000
 5349.00    1.15209   1.10281   -1.000
 5350.00    1.16417   1.10783   -1.000
 5351.00    1.17297   1.11926   -1.000
 5352.00    1.17851   1.13352   -1.000
 5353.00    1.17943   1.14512   -1.000
 5354.00    1.18098   1.15339   77.463
 5355.00    1.18503   1.16165   77.184
 5356.00    1.18907   1.17047   76.597
 5357.00    1.19692   1.17708   75.632
 5358.00    1.20004   1.17937   75.042
 5359.00    1.20281   1.17786   75.079
 5360.00    1.19536   1.17291   75.195
 5361.00    1.17839   1.16307   75.462
 5362.00    1.16372   1.14859   76.318
 5363.00    1.15801   1.13278   77.584
 5364.00    1.14818   1.11958   78.733
 5365.00    1.14365   1.11161   -1.000
 5366.00    1.14456   1.10909   -1.000
 5367.00    1.15547   1.10876   -1.000
 5368.00    1.15468   1.10463   -1.000
 5369.00    1.13222   1.09187   -1.000
 5370.00    1.10990   1.07147   -1.000
 5371.00    1.10555   1.05333   -1.000
 5372.00    1.12978   1.05087   -1.000
 5373.00    1.16904   1.07028   -1.000
 5374.00    1.18775   1.10346   -1.000
 5375.00    1.20033   1.13384   -1.000
 5376.00    1.19636   1.15136   -1.000
 5377.00    1.19106   1.15662   -1.000
 5378.00    1.18701   1.15453   -1.000
 5379.00    1.18559   1.14893   -1.000
 5380.00    1.17415   1.14163   -1.000
 5381.00    1.15564   1.13361   77.041
 5382.00    1.16403   1.12597   -1.000
 5383.00    1.16656   1.12103   -1.000
 5384.00    1.16449   1.12227   -1.000
 5385.00    1.17723   1.13094   -1.000
 5386.00    1.18292   1.14271   -1.000
 5387.00    1.18344   1.15032   -1.000
 5388.00    1.17220   1.15001   77.561
 5389.00    1.17171   1.14255   77.887
 5390.00    1.16991   1.13114   -1.000
 5391.00    1.15916   1.11941   -1.000
 5392.00    1.15559   1.10940   -1.000
 5393.00    1.15055   1.10228   -1.000
 5394.00    1.14438   1.09787   -1.000
 5395.00    1.13786   1.09177   -1.000
 5396.00    1.12289   1.08043   -1.000
 5397.00    1.11319   1.06785   -1.000
 5398.00    1.12856   1.06382   -1.000
 5399.00    1.15219   1.07434   -1.000
 5400.00    1.16587   1.09293   -1.000
 5401.00    1.16754   1.10753   -1.000
 5402.00    1.15563   1.11073   -1.000
 5403.00    1.14009   1.09919   -1.000
 5404.00    1.11978   1.07527   -1.000
 5405.00    1.10124   1.05091   -1.000
 5406.00    1.10180   1.03972   -1.000
 5407.00    1.12496   1.04549   -1.000
 5408.00    1.14393   1.05911   -1.000
 5409.00    1.12977   1.06736   -1.000
 5410.00    1.12885   1.06941   -1.000
 5411.00    1.13812   1.07508   -1.000
 5412.00    1.16061   1.08887   -1.000
 5413.00    1.16650   1.10470   -1.000
 5414.00    1.15714   1.11399   -1.000
 5415.00    1.15656   1.11749   -1.000
 5416.00    1.15955   1.12239   -1.000
 5417.00    1.17014   1.13039   -1.000
 5418.00    1.16439   1.13726   78.143
 5419.00    1.16447   1.13928   77.637
 5420.00    1.16346   1.13705   77.904
 5421.00    1.16188   1.13358   78.657
 5422.00    1.16721   1.12855   -1.000
 5423.00    1.15296   1.12035   -1.000
 5424.00    1.14276   1.11188   -1.000
 5425.00    1.14530   1.11016   -1.000
 5426.00    1.16299   1.11881   -1.000
 5427.00    1.16216   1.12805   -1.000
 5428.00    1.15019   1.12338   78.251
 5429.00    1.14522   1.10494   -1.000
 5430.00    1.12992   1.08700   -1.000
 5431.00    1.13014   1.08212   -1.000
 5432.00    1.14156   1.08684   -1.000
 5433.00    1.12854   1.08795   -1.000
 5434.00    1.11380   1.08191   -1.000
 5435.00    1.11768   1.07735   -1.000
 5436.00    1.13626   1.08436   -1.000
 5437.00    1.16008   1.10450   -1.000
 5438.00    1.17491   1.12949   -1.000
 5439.00    1.18808   1.14926   -1.000
 5440.00    1.18968   1.15990   78.124
 5441.00    1.18124   1.16462   76.999
 5442.00    1.17596   1.16570   76.332
 5443.00    1.17602   1.16044   76.169
 5444.00    1.16630   1.14445   76.160
 5445.00    1.13144   1.11756   76.907
 5446.00    1.10906   1.08861   78.876
 5447.00    1.10816   1.07143   -1.000
 5448.00    1.13637   1.07546   -1.000
 5449.00    1.17587   1.09700   -1.000
 5450.00    1.19352   1.12188   -1.000
 5451.00    1.18134   1.13871   -1.000
 5452.00    1.17307   1.14290   78.680
 5453.00    1.16473   1.13344   78.646
 5454.00    1.13939   1.11315   79.275
 5455.00    1.11865   1.09069   81.042
 5456.00    1.12655   1.07988   -1.000
 5457.00    1.15605   1.08971   -1.000
 5458.00    1.17791   1.11317   -1.000
 5459.00    1.17943   1.13425   -1.000
 5460.00    1.17265   1.14190   79.111
 5461.00    1.16067   1.13499   78.537
 5462.00    1.15155   1.11982   -1.000
 5463.00    1.14508   1.10614   -1.000
 5464.00    1.15757   1.10212   -1.000
 5465.00    1.16865   1.10894   -1.000
 5466.00    1.16714   1.12066   -1.000
 5467.00    1.16615   1.13066   -1.000
 5468.00    1.17884   1.13722   -1.000
 5469.00    1.18077   1.14076   -1.000
 5470.00    1.17128   1.14044   78.928
 5471.00    1.16465   1.13646   79.591
 5472.00    1.16976   1.13024   -1.000
 5473.00    1.16403   1.12203   -1.000
 5474.00    1.15248   1.11054   -1.000
 5475.00    1.13724   1.09420   -1.000
 5476.00    1.11570   1.07610   -1.000
 5477.00    1.10813   1.06552   -1.000
 5478.00    1.12739   1.06998   -1.000
 5479.00    1.15167   1.08663   -1.000
 5480.00    1.15309   1.10262   -1.000
 5481.00    1.14760   1.10881   -1.000
 5482.00    1.15007   1.10943   -1.000
 5483.00    1.15216   1.11310   -1.000
 5484.00    1.15837   1.12283   -1.000
 5485.00    1.17143   1.13354   -1.000
 5486.00    1.17115   1.13746   -1.000
 5487.00    1.16174   1.13278   79.031
 5488.00    1.15455   1.12516   79.682
 5489.00    1.15276   1.12188   -1.000
 5490.00    1.16435   1.12455   -1.000
 5491.00    1.16078   1.12939   -1.000
 5492.00    1.15561   1.13290   80.868
 5493.00    1.16350   1.13420   80.275
 5494.00    1.17169   1.13401   -1.000
 5495.00    1.16693   1.13210   -1.000
 5496.00    1.15459   1.12745   80.141
 5497.00    1.14287   1.12156   80.130
 5498.00    1.14192   1.11787   80.664
 5499.00    1.15788   1.11789   -1.000
 5500.00    1.16253   1.11781   -1.000
 5501.00    1.14446   1.11253   -1.000
 5502.00    1.13892   1.10524   -1.000
 5503.00    1.14682   1.10309   -1.000
 5504.00    1.15703   1.10496   -1.000
 5505.00    1.15063   1.10431   -1.000
 5506.00    1.13310   1.09852   -1.000
 5507.00    1.13685   1.09302   -1.000
 5508.00    1.15646   1.09507   -1.000
 5509.00    1.16601   1.10346   -1.000
 5510.00    1.16105   1.11030   -1.000
 5511.00    1.15171   1.10915   -1.000
 5512.00    1.13192   1.09995   -1.000
 5513.00    1.12444   1.08934   -1.000
 5514.00    1.13298   1.08543   -1.000
 5515.00    1.14170   1.09121   -1.000
 5516.00    1.15584   1.10338   -1.000
 5517.00    1.17171   1.11720   -1.000
 5518.00    1.17995   1.12971   -1.000
 5519.00    1.18258   1.13899   -1.000
 5520.00    1.18508   1.14381   -1.000
 5521.00    1.19441   1.14470   -1.000
 5522.00    1.19606   1.14366   -1.000
 5523.00    1.18892   1.14195   -1.000
 5524.00    1.17282   1.13780   -1.000
 5525.00    1.15889   1.12769   -1.000
 5526.00    1.15472   1.11034   -1.000
 5527.00    1.13049   1.08955   -1.000
 5528.00    1.10834   1.07426   -1.000
 5529.00    1.12883   1.07345   -1.000
 5530.00    1.15575   1.08864   -1.000
 5531.00    1.16562   1.10981   -1.000
 5532.00    1.17692   1.12364   -1.000
 5533.00    1.17303   1.12545   -1.000
 5534.00    1.15723   1.11968   -1.000
 5535.00    1.15947   1.11402   -1.000
 5536.00    1.15914   1.11403   -1.000
 5537.00    1.16416   1.11944   -1.000
 5538.00    1.17525   1.12578   -1.000
 5539.00    1.18287   1.13070   -1.000
 5540.00    1.18694   1.13555   -1.000
 5541.00    1.18375   1.13947   -1.000
 5542.00    1.17339   1.13869   -1.000
 5543.00    1.17067   1.13295   -1.000
 5544.00    1.17585   1.12690   -1.000
 5545.00    1.17629   1.12503   -1.000
 5546.00    1.16649   1.12750   -1.000
 5547.00    1.17054   1.13220   -1.000
 5548.00    1.18325   1.13857   -1.000
 5549.00    1.18845   1.14572   -1.000
 5550.00    1.18265   1.15054   -1.000
 5551.00    1.18701   1.15120   -1.000
 5552.00    1.18009   1.14797   -1.000
 5553.00    1.17213   1.14211   -1.000
 5554.00    1.16775   1.13642   -1.000
 5555.00    1.17228   1.13400   -1.000
 5556.00    1.18067   1.13520   -1.000
 5557.00    1.18335   1.13772   -1.000
 5558.00    1.18271   1.13991   -1.000
 5559.00    1.18686   1.14152   -1.000
 5560.00    1.18543   1.14145   -1.000
 5561.00    1.17796   1.13796   -1.000
 5562.00    1.16711   1.13114   -1.000
 5563.00    1.16037   1.12352   -1.000
 5564.00    1.14811   1.11784   -1.000
 5565.00    1.14543   1.11459   -1.000
 5566.00    1.15131   1.11271   -1.000
 5567.00    1.15468   1.11124   -1.000
 5568.00    1.15354   1.10962   -1.000
 5569.00    1.15077   1.10779   -1.000
 5570.00    1.14986   1.10597   -1.000
 5571.00    1.14394   1.10383   -1.000
 5572.00    1.13581   1.10095   -1.000
 5573.00    1.13943   1.09895   -1.000
 5574.00    1.15452   1.10094   -1.000
 5575.00    1.12856   1.10633   81.408
 5576.00    0.96115   1.11151   -1.000
 5577.00    0.37670   1.11621   -1.000
 5578.00   -0.81632   1.12200    0.000
 5579.00   -1.81775   1.12753    0.000
 5580.00   -1.42430   1.13030    0.000
 5581.00    0.10451   1.13003   -1.000
 5582.00    1.15411   1.12860   82.231
 5583.00    1.18515   1.12717   -1.000
 5584.00    1.15729   1.12420   -1.000
 5585.00    1.13329   1.11522   80.277
 5586.00    1.11693   1.09592   80.674
 5587.00    1.10549   1.07030   -1.000
 5588.00    1.08884   1.04994   -1.000
 5589.00    1.08994   1.04328   -1.000
 5590.00    1.10350   1.05087   -1.000
 5591.00    1.12442   1.06677   -1.000
 5592.00    1.13829   1.08174   -1.000
 5593.00    1.13922   1.08944   -1.000
 5594.00    1.13414   1.09151   -1.000
 5595.00    1.13553   1.09404   -1.000
 5596.00    1.15219   1.09909   -1.000
 5597.00    1.14798   1.10184   -1.000
 5598.00    1.13263   1.09725   -1.000
 5599.00    1.13170   1.08876   -1.000
 5600.00    1.13155   1.08186   -1.000
 5601.00    1.11908   1.07572   -1.000
 5602.00    1.11076   1.07119   -1.000
 5603.00    1.12817   1.07493   -1.000
 5604.00    1.14860   1.09049   -1.000
 5605.00    1.16479   1.11356   -1.000
 5606.00    1.17930   1.13536   -1.000
 5607.00    1.18760   1.14961   -1.000
 5608.00    1.18181   1.15638   78.640
 5609.00    1.18563   1.15866   78.386
 5610.00    1.18037   1.15929   78.480
 5611.00    1.16946   1.15943   78.640
 5612.00    1.17813   1.15628   78.593
 5613.00    1.17569   1.14419   -1.000
 5614.00    1.14510   1.12130   78.651
 5615.00    1.11450   1.09460   80.125
 5616.00    1.11373   1.07789   -1.000
 5617.00    1.13921   1.08036   -1.000
 5618.00    1.16372   1.09589   -1.000
 5619.00    1.16905   1.11201   -1.000
 5620.00    1.16627   1.12307   -1.000
 5621.00    1.16379   1.12896   -1.000
 5622.00    1.15935   1.12972   -1.000
 5623.00    1.15337   1.12401   80.307
 5624.00    1.13603   1.11349   80.552
 5625.00    1.13361   1.10544   -1.000
 5626.00    1.14862   1.10625   -1.000
 5627.00    1.15805   1.11555   -1.000
 5628.00    1.15988   1.12806   -1.000
 5629.00    1.16535   1.13874   80.913
 5630.00    1.16666   1.14610   79.950
 5631.00    1.17905   1.14982   79.319
 5632.00    1.17731   1.14889   79.053
 5633.00    1.17411   1.14416   -1.000
 5634.00    1.17127   1.13782   -1.000
 5635.00    1.16273   1.13106   -1.000
 5636.00    1.15566   1.12474   -1.000
 5637.00    1.14960   1.11987   -1.000
 5638.00    1.14084   1.11728   81.012
 5639.00    1.14466   1.11704   81.571
 5640.00    1.15012   1.11722   -1.000
 5641.00    1.15052   1.11627   -1.000
 5642.00    1.15300   1.11577   -1.000
 5643.00    1.15184   1.11746   -1.000
 5644.00    1.15806   1.12055   -1.000
 5645.00    1.15917   1.12405   -1.000
 5646.00    1.15478   1.12741   81.054
 5647.00    1.15672   1.12942   80.551
 5648.00    1.16454   1.12929   -1.000
 5649.00    1.17625   1.12767   -1.000
 5650.00    1.17032   1.12639   -1.000
 5651.00    1.17340   1.12681   -1.000
 5652.00    1.16837   1.12774   -1.000
 5653.00    1.16669   1.12676   -1.000
 5654.00    1.16831   1.12270   -1.000
 5655.00    1.15059   1.11543   -1.000
 5656.00    1.13721   1.10464   -1.000
 5657.00    1.11637   1.08998   80.884
 5658.00    1.10198   1.07520   82.330
 5659.00    1.10050   1.06835   -1.000
 5660.00    1.11664   1.07253   -1.000
 5661.00    1.13739   1.08206   -1.000
 5662.00    1.13703   1.09026   -1.000
 5663.00    1.13408   1.09601   -1.000
 5664.00    1.14256   1.10291   -1.000
 5665.00    1.15375   1.11189   -1.000
 5666.00    1.15624   1.11801   -1.000
 5667.00    1.14717   1.11813   -1.000
 5668.00    1.14128   1.11529   81.125
 5669.00    1.14521   1.11402   -1.000
 5670.00    1.14768   1.11630   -1.000
 5671.00    1.15386   1.12138   -1.000
 5672.00    1.16254   1.12731   -1.000
 5673.00    1.16126   1.13233   -1.000
 5674.00    1.15902   1.13533   79.632
 5675.00    1.15839   1.13614   78.858
 5676.00    1.15594   1.13614   78.763
 5677.00    1.16161   1.13658   79.009
 5678.00    1.16213   1.13660   78.839
 5679.00    1.15412   1.13434   78.683
 5680.00    1.15723   1.12849   79.011
 5681.00    1.15546   1.11908   -1.000
 5682.00    1.15334   1.10806   -1.000
 5683.00    1.14683   1.09902   -1.000
 5684.00    1.13643   1.09534   -1.000
 5685.00    1.13990   1.09719   -1.000
 5686.00    1.13399   1.10009   -1.000
 5687.00    1.13027   1.09945   -1.000
 5688.00    1.13044   1.09625   -1.000
 5689.00    1.13872   1.09554   -1.000
 5690.00    1.14364   1.10099   -1.000
 5691.00    1.14707   1.11110   -1.000
 5692.00    1.15406   1.12098   -1.000
 5693.00    1.15890   1.12750   -1.000
 5694.00    1.15929   1.13091   -1.000
 5695.00    1.15696   1.13245   78.892
 5696.00    1.15046   1.13242   78.961
 5697.00    1.14771   1.13028   79.032
 5698.00    1.14488   1.12536   79.232
 5699.00    1.14284   1.11808   79.935
 5700.00    1.13664   1.11038   80.857
 5701.00    1.13154   1.10443   81.607
 5702.00    1.13326   1.10182   -1.000
 5703.00    1.13969   1.10284   -1.000
 5704.00    1.14394   1.10543   -1.000
 5705.00    1.13760   1.10558   -1.000
 5706.00    1.12549   1.10062   81.286
 5707.00    1.11115   1.09107   81.733
 5708.00    1.10547   1.07859   82.815
 5709.00    1.09815   1.06633   -1.000
 5710.00    1.09365   1.05928   -1.000
 5711.00    1.10743   1.06070   -1.000
 5712.00    1.11539   1.07051   -1.000
 5713.00    1.12682   1.08637   -1.000
 5714.00    1.14268   1.10346   -1.000
 5715.00    1.14481   1.11612   -1.000
 5716.00    1.14995   1.12252   -1.000
 5717.00    1.14665   1.12579   79.920
 5718.00    1.14388   1.12925   79.749
 5719.00    1.15884   1.13363   79.511
 5720.00    1.16768   1.13859   -1.000
 5721.00    1.16595   1.14347   78.644
 5722.00    1.16932   1.14737   78.251
 5723.00    1.17182   1.14949   78.039
 5724.00    1.16828   1.14943   77.912
 5725.00    1.16270   1.14665   77.815
 5726.00    1.15625   1.14095   77.957
 5727.00    1.15054   1.13449   78.546
 5728.00    1.14828   1.13071   79.364
 5729.00    1.15662   1.13075   80.033
 5730.00    1.15089   1.13244   79.770
 5731.00    1.15276   1.13285   79.272
 5732.00    1.14782   1.13231   79.377
 5733.00    1.15109   1.13370   79.772
 5734.00    1.15868   1.13801   79.591
 5735.00    1.16369   1.14297   78.872
 5736.00    1.15896   1.14552   78.318
 5737.00    1.15657   1.14528   78.303
 5738.00    1.16005   1.14420   78.406
 5739.00    1.15861   1.14376   78.619
 5740.00    1.15128   1.14361   78.711
 5741.00    1.15359   1.14239   78.859
 5742.00    1.15641   1.14020   78.989
 5743.00    1.16377   1.13904   79.156
 5744.00    1.16445   1.14018   79.032
 5745.00    1.15981   1.14212   78.928
 5746.00    1.15709   1.14216   78.434
 5747.00    1.15283   1.13977   77.971
 5748.00    1.14561   1.13749   78.258
 5749.00    1.14739   1.13755   79.004
 5750.00    1.15393   1.13830   79.396
 5751.00    1.15443   1.13522   79.045
 5752.00    1.14195   1.12672   78.745
 5753.00    1.12831   1.11675   79.225
 5754.00    1.12637   1.11156   80.156
 5755.00    1.13759   1.11509   80.997
 5756.00    1.14949   1.12557   81.119
 5757.00    1.15649   1.13727   80.237
 5758.00    1.15924   1.14490   78.799
 5759.00    1.15522   1.14602   77.766
 5760.00    1.15258   1.14116   77.814
 5761.00    1.15366   1.13223   78.607
 5762.00    1.14442   1.12298   79.628
 5763.00    1.13826   1.11903   80.714
 5764.00    1.14920   1.12378   -1.000
 5765.00    1.15518   1.13485   80.575
 5766.00    1.15151   1.14592   79.201
 5767.00    1.15440   1.15196   78.141
 5768.00    1.16452   1.15292   77.783
 5769.00    1.16420   1.15127   77.692
 5770.00    1.15790   1.14859   77.571
 5771.00    1.15515   1.14521   77.675
 5772.00    1.14986   1.14102   77.924
 5773.00    1.14966   1.13665   78.328
 5774.00    1.15063   1.13353   78.811
 5775.00    1.15243   1.13261   79.062
 5776.00    1.15928   1.13401   79.169
 5777.00    1.15136   1.13605   79.051
 5778.00    1.13933   1.13477   78.688
 5779.00    1.12767   1.12747   78.548
 5780.00    1.11537   1.11592   78.745
 5781.00    1.11267   1.10467   79.730
 5782.00    1.11498   1.09771   81.442
 5783.00    1.11777   1.09614   82.670
 5784.00    1.13199   1.09798   -1.000
 5785.00    1.13799   1.10093   -1.000
 5786.00    1.13601   1.10520   -1.000
 5787.00    1.14719   1.11233   -1.000
 5788.00    1.15105   1.12037   -1.000
 5789.00    1.15374   1.12472   -1.000
 5790.00    1.14839   1.12392   79.252
 5791.00    1.14531   1.12130   79.216
 5792.00    1.14116   1.12166   79.540
 5793.00    1.13624   1.12649   79.521
 5794.00    1.14052   1.13341   78.954
 5795.00    1.14548   1.13937   78.379
 5796.00    1.14530   1.14190   77.898
 5797.00    1.14302   1.14011   77.762
 5798.00    1.13588   1.13692   78.135
 5799.00    1.14237   1.13692   78.644
 5800.00    1.16092   1.14091   78.446
 5801.00    1.17207   1.14575   -1.000
 5802.00    1.16259   1.14832   76.478
 5803.00    1.14645   1.14703   76.121
 5804.00    1.13883   1.14232   76.618
 5805.00    1.14435   1.13689   77.246
 5806.00    1.14495   1.13410   77.868
 5807.00    1.13595   1.13494   78.276
 5808.00    1.14061   1.13760   78.197
 5809.00    1.15091   1.14026   77.912
 5810.00    1.15567   1.14283   77.665
 5811.00    1.15566   1.14535   77.616
 5812.00    1.15541   1.14648   77.562
 5813.00    1.16132   1.14509   77.311
 5814.00    1.15754   1.14137   77.064
 5815.00    1.14934   1.13628   77.141
 5816.00    1.15463   1.13231   77.693
 5817.00    1.15799   1.13283   78.126
 5818.00    1.15820   1.13816   77.876
 5819.00    1.16225   1.14447   77.347
 5820.00    1.16349   1.14815   76.900
 5821.00    1.16400   1.14908   76.515
 5822.00    1.15967   1.14921   76.235
 5823.00    1.15659   1.14962   76.281
 5824.00    1.15904   1.14985   76.532
 5825.00    1.16080   1.14951   76.485
 5826.00    1.16803   1.14933   76.355
 5827.00    1.16892   1.15009   76.220
 5828.00    1.16718   1.15136   76.132
 5829.00    1.16685   1.15209   76.135
 5830.00    1.15730   1.15200   76.263
 5831.00    1.15678   1.15148   76.180
 5832.00    1.15961   1.15041   76.154
 5833.00    1.16237   1.14844   76.082
 5834.00    1.16517   1.14595   76.175
 5835.00    1.15973   1.14434   76.618
 5836.00    1.15440   1.14491   76.838
 5837.00    1.15441   1.14715   76.651
 5838.00    1.15682   1.14915   76.468
 5839.00    1.16283   1.14995   76.634
 5840.00    1.16625   1.15040   76.837
 5841.00    1.16601   1.15122   76.680
 5842.00    1.16461   1.15175   76.169
 5843.00    1.17066   1.15101   75.728
 5844.00    1.16615   1.14895   75.661
 5845.00    1.16033   1.14567   75.874
 5846.00    1.15826   1.14135   76.166
 5847.00    1.16086   1.13753   76.630
 5848.00    1.15916   1.13606   77.048
 5849.00    1.15428   1.13649   77.425
 5850.00    1.15294   1.13590   77.442
 5851.00    1.14872   1.13187   77.506
 5852.00    1.14145   1.12464   77.888
 5853.00    1.14086   1.11661   78.376
 5854.00    1.13004   1.11003   79.089
 5855.00    1.12301   1.10447   79.567
 5856.00    1.12605   1.09700   -1.000
 5857.00    1.12260   1.08677   -1.000
 5858.00    1.12623   1.07965   -1.000
 5859.00    1.13658   1.08207   -1.000
 5860.00    1.14668   1.09212   -1.000
 5861.00    1.15093   1.10319   -1.000
 5862.00    1.14831   1.11133   -1.000
 5863.00    1.14339   1.11684   78.967
 5864.00    1.14307   1.12084   78.657
 5865.00    1.14690   1.12183   78.494
 5866.00    1.14358   1.11904   78.645
 5867.00    1.14302   1.11562   -1.000
 5868.00    1.15367   1.11581   -1.000
 5869.00    1.16531   1.12123   -1.000
 5870.00    1.17097   1.12920   -1.000
 5871.00    1.16872   1.13493   -1.000
 5872.00    1.17087   1.13613   -1.000
 5873.00    1.16899   1.13398   -1.000
 5874.00    1.15542   1.13093   77.673
 5875.00    1.15617   1.12837   -1.000
 5876.00    1.15946   1.12623   -1.000
 5877.00    1.15226   1.12398   -1.000
 5878.00    1.14560   1.12115   78.109
 5879.00    1.14438   1.11762   78.276
 5880.00    1.14797   1.11381   -1.000
 5881.00    1.14408   1.10995   -1.000
 5882.00    1.14333   1.10562   -1.000
 5883.00    1.13629   1.10039   -1.000
 5884.00    1.13484   1.09495   -1.000
 5885.00    1.13963   1.08978   -1.000
 5886.00    1.13813   1.08101   -1.000
 5887.00    1.11411   1.05912   -1.000
 5888.00    1.03192   1.01740   80.643
 5889.00    0.89692   0.96433   -1.000
 5890.00    0.69226   0.92450   -1.000
 5891.00    0.46634   0.91863   -1.000
 5892.00    0.39922   0.93985   -1.000
 5893.00    0.57392   0.96172   -1.000
 5894.00    0.82627   0.96596   -1.000
 5895.00    0.92102   0.95331   88.904
 5896.00    0.85186   0.94048   -1.000
 5897.00    0.74208   0.94563   -1.000
 5898.00    0.72187   0.97220   -1.000
 5899.00    0.83547   1.00675   -1.000
 5900.00    0.99935   1.03628   86.703
 5901.00    1.10146   1.05956   -1.000
 5902.00    1.13325   1.07761   -1.000
 5903.00    1.13069   1.08941   -1.000
 5904.00    1.13407   1.09534   -1.000
 5905.00    1.13793   1.09788   -1.000
 5906.00    1.14234   1.09977   -1.000
 5907.00    1.14807   1.10241   -1.000
 5908.00    1.14709   1.10541   -1.000
 5909.00    1.14340   1.10801   -1.000
 5910.00    1.14011   1.10969   -1.000
 5911.00    1.13425   1.10984   79.698
 5912.00    1.13069   1.10708   79.871
 5913.00    1.13071   1.10061   -1.000
 5914.00    1.12422   1.09263   -1.000
 5915.00    1.12160   1.08724   -1.000
 5916.00    1.12604   1.08660   -1.000
 5917.00    1.12573   1.09036   -1.000
 5918.00    1.13548   1.09666   -1.000
 5919.00    1.14733   1.10282   -1.000
 5920.00    1.14114   1.10650   -1.000
 5921.00    1.13070   1.10737   80.622
 5922.00    1.12691   1.10685   80.353
 5923.00    1.12670   1.10652   80.296
 5924.00    1.13165   1.10756   80.376
 5925.00    1.13644   1.11017   80.147
 5926.00    1.13400   1.11289   79.862
 5927.00    1.13520   1.11287   79.697
 5928.00    1.14179   1.10857   -1.000
 5929.00    1.13576   1.10187   -1.000
 5930.00    1.12584   1.09706   -1.000
 5931.00    1.12796   1.09725   -1.000
 5932.00    1.13351   1.10132   -1.000
 5933.00    1.13795   1.10467   -1.000
 5934.00    1.13695   1.10506   -1.000
 5935.00    1.13093   1.10529   80.166
 5936.00    1.12993   1.10787   80.770
 5937.00    1.13630   1.11178   80.994
 5938.00    1.13518   1.11431   80.619
 5939.00    1.13543   1.11348   79.952
 5940.00    1.13929   1.10960   -1.000
 5941.00    1.13077   1.10511   79.717
 5942.00    1.12832   1.10279   80.435
 5943.00    1.13369   1.10354   -1.000
 5944.00    1.12784   1.10605   81.043
 5945.00    1.12411   1.10826   80.652
 5946.00    1.13031   1.10814   80.164
 5947.00    1.12477   1.10511   79.813
 5948.00    1.11504   1.10084   79.911
 5949.00    1.11510   1.09831   80.530
 5950.00    1.12067   1.09886   81.371
 5951.00    1.12298   1.10044   81.724
 5952.00    1.11980   1.10003   81.426
 5953.00    1.11742   1.09819   81.075
 5954.00    1.11714   1.09782   81.165
 5955.00    1.12097   1.09830   81.188
 5956.00    1.12491   1.09732   -1.000
 5957.00    1.13205   1.09608   -1.000
 5958.00    1.13511   1.09737   -1.000
 5959.00    1.13221   1.10198   -1.000
 5960.00    1.13639   1.10828   -1.000
 5961.00    1.13383   1.11352   80.444
 5962.00    1.13402   1.11629   79.608
 5963.00    1.13515   1.11666   79.191
 5964.00    1.12992   1.11502   79.064
 5965.00    1.12977   1.11221   79.187
 5966.00    1.13093   1.10973   79.573
 5967.00    1.12860   1.10894   79.894
 5968.00    1.12995   1.11005   80.169
 5969.00    1.12940   1.11232   80.108
 5970.00    1.12837   1.11515   79.582
 5971.00    1.12780   1.11789   79.267
 5972.00    1.12908   1.11923   79.224
 5973.00    1.13092   1.11809   79.092
 5974.00    1.12829   1.11392   78.975
 5975.00    1.12372   1.10715   79.277
 5976.00    1.12039   1.09985   79.880
 5977.00    1.11573   1.09520   80.502
 5978.00    1.11046   1.09548   81.085
 5979.00    1.12013   1.10000   81.503
 5980.00    1.13549   1.10560   -1.000
 5981.00    1.13240   1.10858   80.676
 5982.00    1.12556   1.10628   80.260
 5983.00    1.11798   1.09928   80.341
 5984.00    1.11189   1.09165   80.896
 5985.00    1.11437   1.08809   -1.000
 5986.00    1.11506   1.09014   -1.000
 5987.00    1.11436   1.09562   81.976
 5988.00    1.11805   1.10115   81.235
 5989.00    1.12929   1.10466   80.631
 5990.00    1.13205   1.10590   -1.000
 5991.00    1.12041   1.10610   79.971
 5992.00    1.11762   1.10763   79.951
 5993.00    1.12492   1.11156   80.146
 5994.00    1.12735   1.11560   79.904
 5995.00    1.12396   1.11616   79.282
 5996.00    1.12007   1.11290   78.932
 5997.00    1.11766   1.10846   79.295
 5998.00    1.11775   1.10540   79.880
 5999.00    1.11948   1.10462   80.281
 6000.00    1.12309   1.10490   80.490
 6001.00    1.12287   1.10441   80.424
 6002.00    1.12012   1.10224   80.428
 6003.00    1.11539   1.09955   80.812
 6004.00    1.11495   1.09823   81.155
 6005.00    1.11477   1.09772   81.194
 6006.00    1.10437   1.09483   81.013
 6007.00    1.09986   1.08861   80.984
 6008.00    1.10415   1.08332   81.438
 6009.00    1.10745   1.08400   -1.000
 6010.00    1.11061   1.09056   82.452
 6011.00    1.11501   1.09747   81.720
 6012.00    1.10930   1.09957   80.812
 6013.00    1.10447   1.09748   80.615
 6014.00    1.10696   1.09482   81.114
 6015.00    1.11202   1.09341   81.618
 6016.00    1.11231   1.09296   81.431
 6017.00    1.10822   1.09231   81.272
 6018.00    1.10400   1.09080   81.552
 6019.00    1.10159   1.08788   81.781
 6020.00    1.09069   1.08366   81.661
 6021.00    1.09067   1.08037   81.765
 6022.00    1.09696   1.08020   82.237
 6023.00    1.09660   1.08233   82.168
 6024.00    1.09432   1.08545   81.636
 6025.00    1.09836   1.09049   81.348
 6026.00    1.10791   1.09724   81.243
 6027.00    1.11277   1.10329   80.863
 6028.00    1.11366   1.10794   80.534
 6029.00    1.11407   1.11216   80.115
 6030.00    1.11296   1.11561   79.706
 6031.00    1.11583   1.11745   79.539
 6032.00    1.11816   1.11829   79.532
 6033.00    1.11874   1.11932   79.676
 6034.00    1.12069   1.12080   79.634
 6035.00    1.11908   1.12196   79.321
 6036.00    1.11830   1.12208   79.068
 6037.00    1.11163   1.12114   78.995
 6038.00    1.10451   1.11914   78.886
 6039.00    1.10371   1.11598   78.898
 6040.00    1.10635   1.11233   79.257
 6041.00    1.10690   1.10944   79.519
 6042.00    1.10385   1.10837   79.728
 6043.00    1.10907   1.10953   79.689
 6044.00    1.11675   1.11242   79.540
 6045.00    1.11603   1.11564   79.226
 6046.00    1.11414   1.11816   78.642
 6047.00    1.11591   1.12049   78.481
 6048.00    1.11760   1.12303   78.543
 6049.00    1.11770   1.12488   78.450
 6050.00    1.11450   1.12543   78.460
 6051.00    1.11301   1.12479   78.689
 6052.00    1.11098   1.12287   78.903
 6053.00    1.10609   1.11912   78.999
 6054.00    1.10468   1.11364   79.123
 6055.00    1.10176   1.10815   79.401
 6056.00    1.10037   1.10501   79.676
 6057.00    1.10091   1.10566   80.054
 6058.00    1.09738   1.10924   80.369
 6059.00    1.10249   1.11343   80.335
 6060.00    1.11340   1.11620   79.978
 6061.00    1.11046   1.11639   79.551
 6062.00    1.10025   1.11298   79.495
 6063.00    1.09299   1.10545   79.675
 6064.00    1.08659   1.09529   80.523
 6065.00    1.07352   1.08724   82.025
 6066.00    1.06125   1.08668   80.611
 6067.00    1.10637   1.09399  106.481
 6068.00    0.90690   1.10411   -1.000
 6069.00    0.63855   1.11263   -1.000
 6070.00    0.94026   1.11816   -1.000
 6071.00    1.12706   1.12093   79.661
 6072.00    1.07116   1.12235   78.254
 6073.00    1.08600   1.12351   76.785
 6074.00    0.88402   1.12420   -1.000
 6075.00    0.48948   1.12335   -1.000
 6076.00    0.79025   1.12024   -1.000
 6077.00    1.10297   1.11490   79.032
 6078.00    1.08847   1.10843   79.410
 6079.00    1.08744   1.10342   79.857
 6080.00    1.08787   1.10148   80.428
 6081.00    1.08760   1.10072   80.971
 6082.00    1.08923   1.09900   81.150
 6083.00    1.08970   1.09679   81.193
 6084.00    1.09106   1.09519   81.381
 6085.00    1.08968   1.09501   81.460
 6086.00    1.08767   1.09708   81.404
 6087.00    1.08886   1.10071   81.325
 6088.00    1.09006   1.10335   81.136
 6089.00    1.08669   1.10305   80.830
 6090.00    1.08031   1.10059   80.828
 6091.00    1.07822   1.09829   81.238
 6092.00    1.08689   1.09794   81.645
 6093.00    1.08882   1.09986   81.719
 6094.00    1.08776   1.10316   81.332
 6095.00    1.09051   1.10681   80.867
 6096.00    1.09582   1.11007   80.436
 6097.00    1.09487   1.11257   80.048
 6098.00    1.08947   1.11350   79.960
 6099.00    1.08856   1.11082   80.122
 6100.00    1.08468   1.10185   80.229
 6101.00    1.06823   1.08593   80.241
 6102.00    1.05167   1.06812   80.883
 6103.00    1.05152   1.05802   82.582
 6104.00    1.06597   1.06175   84.194
 6105.00    1.07922   1.07508   84.192
 6106.00    1.08886   1.08876   82.821
 6107.00    1.09600   1.09836   81.425
 6108.00    1.09180   1.10448   80.849
 6109.00    1.08286   1.10869   81.005
 6110.00    1.08435   1.11116   81.265
 6111.00    1.08132   1.11175   81.301
 6112.00    1.07574   1.11165   81.162
 6113.00    1.07909   1.11210   80.859
 6114.00    1.07926   1.11309   80.720
 6115.00    1.07347   1.11361   80.447
 6116.00    1.07426   1.11308   80.150
 6117.00    1.07386   1.11186   80.305
 6118.00    1.06868   1.10936   80.787
 6119.00    1.06535   1.10296   81.052
 6120.00    1.05681   1.09048   81.327
 6121.00    1.04529   1.07381   82.257
 6122.00    1.04674   1.05964   83.409
 6123.00    1.05787   1.05515   84.290
 6124.00    1.06516   1.06142   84.597
 6125.00    1.06945   1.07325   83.678
 6126.00    1.06784   1.08415   82.438
 6127.00    1.06083   1.09080   82.079
 6128.00    1.06280   1.09429   82.434
 6129.00    1.06908   1.09741   82.551
 6130.00    1.07192   1.10199   82.364
 6131.00    1.07246   1.10747   81.861
 6132.00    1.07186   1.11190   81.097
 6133.00    1.06938   1.11193   80.720
 6134.00    1.05846   1.10310   80.794
 6135.00    1.03673   1.08357   81.360
 6136.00    1.01629   1.05878   82.858
 6137.00    1.01143   1.04037   85.171
 6138.00    1.02776   1.03652   87.475
 6139.00    1.04732   1.04305   88.390
 6140.00    1.05158   1.05083   86.931
 6141.00    1.04927   1.05830   84.455
 6142.00    1.04308   1.06851   83.010
 6143.00    1.04077   1.08106   82.856
 6144.00    1.05378   1.09224   83.041
 6145.00    1.06308   1.09840   82.536
 6146.00    1.06215   1.09907   81.549
 6147.00    1.06383   1.09622   81.123
 6148.00    1.06107   1.09191   81.367
 6149.00    1.05669   1.08785   81.855
 6150.00    1.06097   1.08543   82.428
 6151.00    1.06546   1.08572   82.954
 6152.00    1.06127   1.08825   83.123
 6153.00    1.05727   1.09019   82.903
 6154.00    1.05939   1.08885   82.406
 6155.00    1.05778   1.08516   82.123
 6156.00    1.05273   1.08205   82.565
 6157.00    1.05284   1.08027   83.129
 6158.00    1.05580   1.07709   83.298
 6159.00    1.05266   1.06785   83.526
 6160.00    1.03532   1.04924   84.239
 6161.00    1.01081   1.02382   85.620
 6162.00    1.00112   1.00149   87.909
 6163.00    1.01252   0.99270   90.558
 6164.00    1.02668   0.99961   -1.000
 6165.00    1.03702   1.01509   -1.000
 6166.00    1.04096   1.02972   89.174
 6167.00    1.03944   1.03671   87.368
 6168.00    1.03356   1.03393   86.713
 6169.00    1.02593   1.02700   86.766
 6170.00    1.02882   1.02546   87.599
 6171.00    1.03982   1.03324   88.629
 6172.00    1.04692   1.04568   88.512
 6173.00    1.05244   1.05730   87.090
 6174.00    1.05293   1.06570   85.656
 6175.00    1.05077   1.07068   85.309
 6176.00    1.04861   1.07342   85.449
 6177.00    1.05004   1.07551   85.328
 6178.00    1.05414   1.07771   85.134
 6179.00    1.05643   1.07960   84.933
 6180.00    1.04852   1.08137   84.576
 6181.00    1.04911   1.08399   84.219
 6182.00    1.05795   1.08737   83.946
 6183.00    1.06050   1.08964   83.599
 6184.00    1.05449   1.08910   83.316
 6185.00    1.05158   1.08586   83.358
 6186.00    1.05228   1.08101   83.626
 6187.00    1.05093   1.07547   84.163
 6188.00    1.04685   1.06952   85.018
 6189.00    1.03871   1.06169   85.928
 6190.00    1.02871   1.05098   86.766
 6191.00    1.01914   1.04152   87.462
 6192.00    1.02539   1.04045   88.410
 6193.00    1.04136   1.04907   89.229
 6194.00    1.05391   1.06137   88.761
 6195.00    1.05935   1.07202   86.904
 6196.00    1.05474   1.07922   85.158
 6197.00    1.04840   1.08212   84.372
 6198.00    1.04435   1.08053   84.145
 6199.00    1.04157   1.07601   84.463
 6200.00    1.03988   1.07227   85.328
 6201.00    1.04372   1.07255   86.155
 6202.00    1.04628   1.07688   86.340
 6203.00    1.04386   1.08298   85.710
 6204.00    1.04550   1.08880   84.667
 6205.00    1.04330   1.09302   -1.000
 6206.00    1.04400   1.09536   -1.000
 6207.00    1.04662   1.09633   -1.000
 6208.00    1.04670   1.09631   -1.000
 6209.00    1.04573   1.09472   -1.000
 6210.00    1.04448   1.09048   84.293
 6211.00    1.04161   1.08273   84.500
 6212.00    1.03140   1.07199   85.156
 6213.00    1.02222   1.06093   85.886
 6214.00    1.01714   1.05292   86.652
 6215.00    1.01867   1.04953   87.814
 6216.00    1.02435   1.04946   88.899
 6217.00    1.02300   1.04982   89.345
 6218.00    1.01897   1.04865   88.658
 6219.00    1.01801   1.04689   87.875
 6220.00    1.01651   1.04740   88.196
 6221.00    1.02119   1.05133   88.303
 6222.00    1.03094   1.05670   87.697
 6223.00    1.04038   1.06076   87.782
 6224.00    1.04461   1.06296   92.054
 6225.00    1.04697   1.06403   93.103
 6226.00    1.03617   1.06376   88.577
 6227.00    1.01922   1.06080   86.890
 6228.00    1.02077   1.05314   87.081
 6229.00    1.02156   1.04088   87.383
 6230.00    1.00994   1.02819   88.341
 6231.00    1.00408   1.02119   89.752
 6232.00    1.00905   1.02349   91.042
 6233.00    1.01955   1.03342   91.224
 6234.00    1.03169   1.04544   90.171
 6235.00    1.04032   1.05391   88.576
 6236.00    1.03297   1.05629   87.028
 6237.00    1.01752   1.05371   86.252
 6238.00    1.01184   1.04910   86.512
 6239.00    1.01102   1.04507   87.326
 6240.00    1.01757   1.04235   88.224
 6241.00    1.02168   1.04011   89.146
 6242.00    1.01388   1.03667   89.747
 6243.00    1.01163   1.03099   89.834
 6244.00    1.01276   1.02392   90.202
 6245.00    1.00912   1.01817   90.872
 6246.00    1.00815   1.01716   91.059
 6247.00    1.00930   1.02309   90.643
 6248.00    1.01012   1.03424   89.843
 6249.00    1.01321   1.04483   88.781
 6250.00    1.01109   1.04885   87.761
 6251.00    0.99900   1.04415   87.360
 6252.00    0.98684   1.03373   -1.000
 6253.00    0.98304   1.02318   89.216
 6254.00    0.98671   1.01683   90.584
 6255.00    0.98681   1.01490   91.359
 6256.00    0.98272   1.01500   91.737
 6257.00    0.98569   1.01533   91.797
 6258.00    0.98740   1.01637   92.266
 6259.00    0.98404   1.01997   93.154
 6260.00    0.98868   1.02689   93.240
 6261.00    0.99973   1.03621   92.164
 6262.00    1.01034   1.04559   90.728
 6263.00    1.01562   1.05231   89.453
 6264.00    1.01090   1.05520   88.142
 6265.00    1.00318   1.05603   -1.000
 6266.00    1.00163   1.05748   -1.000
 6267.00    1.00733   1.05990   -1.000
 6268.00    1.01087   1.06120   -1.000
 6269.00    1.01304   1.05993   -1.000
 6270.00    1.01390   1.05776   87.600
 6271.00    1.01074   1.05715   88.048
 6272.00    1.01144   1.05798   88.163
 6273.00    1.01239   1.05735   87.902
 6274.00    1.01057   1.05240   87.649
 6275.00    1.01110   1.04313   87.706
 6276.00    1.01022   1.03225   88.202
 6277.00    1.00711   1.02245   88.907
 6278.00    0.99536   1.01521   90.039
 6279.00    0.97401   1.01113   92.019
 6280.00    0.95712   1.01132   -1.000
 6281.00    0.95144   1.01687   -1.000
 6282.00    0.96070   1.02673   -1.000
 6283.00    0.97114   1.03812   -1.000
 6284.00    0.97655   1.04822   -1.000
 6285.00    0.97728   1.05531   -1.000
 6286.00    0.98093   1.05952   -1.000
 6287.00    0.99579   1.06162   -1.000
 6288.00    1.00394   1.06162   -1.000
 6289.00    1.00715   1.05917   -1.000
 6290.00    1.01110   1.05522   86.922
 6291.00    1.00719   1.05181   87.141
 6292.00    1.00147   1.05006   -1.000
 6293.00    0.99402   1.04962   -1.000
 6294.00    0.99157   1.04918   -1.000
 6295.00    0.98821   1.04696   -1.000
 6296.00    0.97821   1.04211   -1.000
 6297.00    0.97506   1.03610   -1.000
 6298.00    0.96362   1.03143   -1.000
 6299.00    0.92280   1.02852   -1.000
 6300.00    0.85638   1.02573   -1.000
 6301.00    0.76375   1.02301   -1.000
 6302.00    0.68171   1.02368   -1.000
 6303.00    0.69261   1.03047   -1.000
 6304.00    0.80436   1.04131   -1.000
 6305.00    0.93023   1.05153   -1.000
 6306.00    0.99562   1.05847   -1.000
 6307.00    1.01022   1.06195   -1.000
 6308.00    1.01152   1.06286   -1.000
 6309.00    1.00801   1.06244   -1.000
 6310.00    1.00358   1.06153   -1.000
 6311.00    0.99370   1.06005   -1.000
 6312.00    0.98477   1.05743   -1.000
 6313.00    0.98676   1.05318   -1.000
 6314.00    0.98264   1.04760   -1.000
 6315.00    0.97287   1.04194   -1.000
 6316.00    0.96874   1.03713   -1.000
 6317.00    0.96861   1.03375   -1.000
 6318.00    0.97238   1.03316   -1.000
 6319.00    0.97676   1.03683   -1.000
 6320.00    0.98014   1.04391   -1.000
 6321.00    0.98418   1.05107   -1.000
 6322.00    0.99304   1.05659   -1.000
 6323.00    0.99747   1.06184   -1.000
 6324.00    0.99883   1.06737   -1.000
 6325.00    1.00778   1.07146   -1.000
 6326.00    1.00394   1.07292   -1.000
 6327.00    0.99715   1.07250   -1.000
 6328.00    0.99733   1.07162   -1.000
 6329.00    0.99921   1.07119   -1.000
 6330.00    1.00043   1.07132   -1.000
 6331.00    1.00372   1.07179   -1.000
 6332.00    1.01321   1.07135   -1.000
 6333.00    1.01124   1.06753   -1.000
 6334.00    0.99425   1.05911   -1.000
 6335.00    0.97926   1.04862   -1.000
 6336.00    0.97117   1.04125   -1.000
 6337.00    0.97345   1.04049   -1.000
 6338.00    0.99326   1.04545   -1.000
 6339.00    1.00701   1.05314   87.244
 6340.00    1.00294   1.06110   -1.000
 6341.00    0.99441   1.06688   -1.000
 6342.00    0.99345   1.06849   -1.000
 6343.00    1.00082   1.06631   -1.000
 6344.00    1.00270   1.06271   -1.000
 6345.00    1.00154   1.06028   -1.000
 6346.00    1.00739   1.06072   -1.000
 6347.00    1.01993   1.06456   85.077
 6348.00    1.02453   1.07087   84.703
 6349.00    1.01453   1.07728   -1.000
 6350.00    1.00892   1.08147   -1.000
 6351.00    1.00882   1.08247   -1.000
 6352.00    1.00542   1.08033   -1.000
 6353.00    0.99596   1.07575   -1.000
 6354.00    0.98816   1.07040   -1.000
 6355.00    0.99357   1.06610   -1.000
 6356.00    0.99986   1.06315   -1.000
 6357.00    1.00191   1.06018   -1.000
 6358.00    1.00455   1.05661   -1.000
 6359.00    1.00166   1.05340   -1.000
 6360.00    0.99731   1.05084   -1.000
 6361.00    0.99564   1.04826   -1.000
 6362.00    0.98602   1.04603   -1.000
 6363.00    0.96710   1.04560   -1.000
 6364.00    0.94045   1.04767   -1.000
 6365.00    0.91810   1.05158   -1.000
 6366.00    0.91053   1.05626   -1.000
 6367.00    0.93262   1.06066   -1.000
 6368.00    0.98206   1.06342   -1.000
 6369.00    1.00447   1.06381   -1.000
 6370.00    0.99600   1.06320   -1.000
 6371.00    0.99143   1.06389   -1.000
 6372.00    0.99575   1.06667   -1.000
 6373.00    1.00342   1.07022   -1.000
 6374.00    0.99997   1.07251   -1.000
 6375.00    0.99719   1.07251   -1.000
 6376.00    0.99556   1.07046   -1.000
 6377.00    0.99393   1.06735   -1.000
 6378.00    0.99050   1.06426   -1.000
 6379.00    0.98971   1.06171   -1.000
 6380.00    0.99228   1.05966   -1.000
 6381.00    0.98800   1.05801   -1.000
 6382.00    0.98261   1.05690   -1.000
 6383.00    0.97811   1.05674   -1.000
 6384.00    0.98057   1.05798   -1.000
 6385.00    0.98024   1.06063   -1.000
 6386.00    0.97746   1.06365   -1.000
 6387.00    0.97652   1.06559   -1.000
 6388.00    0.97701   1.06597   -1.000
 6389.00    0.97412   1.06509   -1.000
 6390.00    0.96117   1.06237   -1.000
 6391.00    0.95396   1.05652   -1.000
 6392.00    0.94494   1.04831   -1.000
 6393.00    0.93566   1.04180   -1.000
 6394.00    0.93381   1.04114   -1.000
 6395.00    0.93582   1.04650   -1.000
 6396.00    0.93530   1.05333   -1.000
 6397.00    0.93285   1.05574   -1.000
 6398.00    0.92519   1.05121   -1.000
 6399.00    0.90903   1.04295   -1.000
 6400.00    0.90132   1.03768   -1.000
 6401.00    0.90666   1.03981   -1.000
 6402.00    0.91767   1.04821   -1.000
 6403.00    0.92134   1.05806   -1.000
 6404.00    0.91665   1.06463   -1.000
 6405.00    0.91200   1.06541   -1.000
 6406.00    0.90513   1.06096   -1.000
 6407.00    0.89567   1.05492   -1.000
 6408.00    0.88958   1.05131   -1.000
 6409.00    0.88263   1.05067   -1.000
 6410.00    0.86842   1.05051   -1.000
 6411.00    0.86206   1.04975   -1.000
 6412.00    0.86749   1.05012   -1.000
 6413.00    0.86506   1.05255   -1.000
 6414.00    0.86187   1.05566   -1.000
 6415.00    0.86722   1.05804   -1.000
 6416.00    0.86341   1.05939   -1.000
 6417.00    0.85201   1.05911   -1.000
 6418.00    0.84355   1.05592   -1.000
 6419.00    0.83546   1.04983   -1.000
 6420.00    0.82834   1.04368   -1.000
 6421.00    0.82308   1.04197   -1.000
 6422.00    0.82596   1.04713   -1.000
 6423.00    0.82516   1.05675   -1.000
 6424.00    0.81763   1.06618   -1.000
 6425.00    0.80899   1.07320   -1.000
 6426.00    0.80338   1.07748   -1.000
 6427.00    0.80176   1.07813   -1.000
 6428.00    0.79243   1.07372   -1.000
