###################################################################
## OUTPUT of StarlightChains_v04.for    [Cid@UFSC - 01/Apr/2007] ##
###################################################################

## Some input info
NGC6171_a_1.cxt                          [arq_obs]
Base.BC03.N                              [arq_base]
NGC6171_a_1.msk                          [arq_masks]
StCv04.C11.config                        [arq_config]
   45                                    [N_base]
    0                                    [N_YAV_components = # of components with extra extinction!]
    0                                    [i_FitPowerLaw (1/0 = Yes/No)]
-9.99                                    [alpha_PowerLaw]
CCM                                      [red_law_option]
 1.458241                                [q_norm = A(l_norm)/A(V)]

## (Re)Sampling Parameters
 3359.00                                 [l_ini (A)]
 6428.00                                 [l_fin (A)]
    1.00                                 [dl    (A)]     (OBS: dl_cushion =    50.00 A)

## Normalization info
 4020.00                                 [l_norm (A) - for base]
 4010.00                                 [llow_norm (A) - window for f_obs]
 4060.00                                 [lupp_norm (A) - window for f_obs]
4.369149E-15                             [fobs_norm (in input units)]

## S/N
 4730.00                                 [llow_SN (A) - window for S/N]
 4780.00                                 [lupp_SN (A) - window for S/N]
  52.314                                 [S/N in S/N window]
  35.378                                 [S/N in norm. window]
 244.302                                 [S/N_err in S/N window]
 165.214                                 [S/N_err in norm. window]
  1.0000                                 [fscale_chi2]

## etc...
  2147483627                             [idum_orig]
  3069                                   [NOl_eff]
   672                                   [Nl_eff]
  2397    NSIGMA                         [Ntot_cliped & clip_method]
  1185380                                [Nglobal_steps]
   7                                     [N_chains]
  14                                     [NEX0s_base = N_base in EX0s-fits]
 0   0   1      258   2.0   3.468E+02    [Clip-Bug, RC-Crash & Burn-In warning-flags, n_censored_weights, wei_nsig_threshold & wei_limit]
    11     11.181     11.181      0.000  [idt_all, wdt_TotTime, wdt_UsrTime & wdt_SysTime (sec)]

## Synthesis Results - Best model ##

 2.72550E+00                             [chi2/Nl_eff]
     1.16408                             [adev (%)]

   101.38374                             [sum-of-x (%)]
 2.89496E-14                             [Flux_tot (units of input spectrum!)]
 5.82563E-10                             [Mini_tot (???)]
 3.03383E-10                             [Mcor_tot (???)]

  -6.69                                  [v0_min  (km/s)]
  61.09                                  [vd_min  (km/s)]
 1.3977                                  [AV_min  (mag)]
 0.0000                                  [YAV_min (mag)]

# j     x_j(%)      Mini_j(%)     Mcor_j(%)     age_j(yr)     Z_j      (L/M)_j    YAV?  Mstars   component_j        a/Fe...       SSP_chi2r SSP_adev(%)   SSP_AV   SSP_x(%)
  1      2.6956     1.1861E-02    2.2775E-02    1.000000E+06  0.00400  1.114E-02    0   1.0000   age020_m42            0.0000     1.9573E+03    22.6312   4.0000    94.3226
  2      2.3066     2.7758E-03    5.3297E-03    3.160000E+06  0.00400  4.073E-02    0   0.9999   age045_m42            0.0000     2.1143E+02     6.4365   3.8515    95.1199
  3      1.3969     2.7020E-03    4.9228E-03    5.010000E+06  0.00400  2.534E-02    0   0.9488   age055_m42            0.0000     4.0120E+02    10.9725   4.0000    94.1544
  4      7.5950     2.9290E-02    4.9842E-02    1.000000E+07  0.00400  1.271E-02    0   0.8862   age070_m42            0.0000     2.8071E+02     8.3615   3.4619    93.3915
  5      1.0509     1.0160E-02    1.5947E-02    2.512000E+07  0.00400  5.070E-03    0   0.8174   age090_m42            0.0000     2.3568E+02     7.6401   3.3326    95.1072
  6      0.0000     0.0000E+00    0.0000E+00    4.000000E+07  0.00400  3.505E-03    0   0.7851   age104_m42            0.0000     1.7252E+02     6.0770   3.0207    98.0249
  7      0.0000     0.0000E+00    0.0000E+00    1.015200E+08  0.00400  2.268E-03    0   0.7207   age116_m42            0.0000     8.0021E+02    11.7054   3.0700   105.0939
  8      0.0000     0.0000E+00    0.0000E+00    2.861200E+08  0.00400  1.079E-03    0   0.6613   age125_m42            0.0000     8.6792E+02    12.5383   2.5735   107.1810
  9      0.0000     0.0000E+00    0.0000E+00    6.405400E+08  0.00400  5.077E-04    0   0.6197   age132_m42            0.0000     9.1184E+02    13.1544   2.2181   111.0207
 10      0.0000     0.0000E+00    0.0000E+00    9.047900E+08  0.00400  3.535E-04    0   0.6024   age135_m42            0.0000     6.4351E+02    11.2329   1.9719   110.5526
 11      0.0000     0.0000E+00    0.0000E+00    1.434000E+09  0.00400  1.910E-04    0   0.5716   age139_m42            0.0000     3.6288E+02     8.9179   1.4347   109.9175
 12     34.5476     1.7247E+01    1.8093E+01    2.500000E+09  0.00400  9.818E-05    0   0.5463   age150_m42            0.0000     1.4487E+02     6.1015   1.1396   106.0176
 13     30.5484     3.1737E+01    3.1860E+01    5.000000E+09  0.00400  4.718E-05    0   0.5228   age161_m42            0.0000     9.0396E+01     5.0544   0.9632   103.1914
 14      0.0000     0.0000E+00    0.0000E+00    1.100000E+10  0.00400  2.205E-05    0   0.4980   age185_m42            0.0000     1.6702E+02     6.3043   0.6950   101.4793
 15      0.0000     0.0000E+00    0.0000E+00    1.300000E+10  0.00400  1.883E-05    0   0.4927   age193_m42            0.0000     1.8060E+02     6.5113   0.6758   101.4370
 16      1.4598     3.5973E-03    6.9077E-03    1.000000E+06  0.02000  1.989E-02    0   1.0000   age020_m62            0.0000     1.8197E+03    21.7485   4.0000    94.7664
 17      1.0203     1.3258E-03    2.5097E-03    3.160000E+06  0.02000  3.772E-02    0   0.9858   age045_m62            0.0000     1.3459E+03    19.3099   4.0000    95.4764
 18      3.1834     4.8353E-03    8.6739E-03    5.010000E+06  0.02000  3.227E-02    0   0.9342   age055_m62            0.0000     2.7967E+02     8.2858   4.0000    94.3085
 19      0.1816     8.8033E-04    1.4793E-03    1.000000E+07  0.02000  1.011E-02    0   0.8751   age070_m62            0.0000     5.1806E+02    12.2300   3.4952    90.6972
 20      0.0000     0.0000E+00    0.0000E+00    2.512000E+07  0.02000  4.206E-03    0   0.8099   age090_m62            0.0000     3.4068E+02    10.1183   3.4153    91.7267
 21      0.0000     0.0000E+00    0.0000E+00    4.000000E+07  0.02000  3.373E-03    0   0.7799   age104_m62            0.0000     2.3268E+02     6.2601   3.2536    99.2341
 22      0.0000     0.0000E+00    0.0000E+00    1.015200E+08  0.02000  1.878E-03    0   0.7221   age116_m62            0.0000     7.0332E+02    10.8686   3.0930   105.9831
 23      0.0000     0.0000E+00    0.0000E+00    2.861200E+08  0.02000  8.869E-04    0   0.6700   age125_m62            0.0000     1.3088E+03    15.3772   2.5935   112.1628
 24      0.0000     0.0000E+00    0.0000E+00    6.405400E+08  0.02000  3.657E-04    0   0.6322   age132_m62            0.0000     9.4570E+02    13.7465   1.9002   115.7749
 25      0.0000     0.0000E+00    0.0000E+00    9.047900E+08  0.02000  2.312E-04    0   0.6152   age135_m62            0.0000     5.9188E+02    11.1857   1.5202   115.0907
 26      0.0000     0.0000E+00    0.0000E+00    1.434000E+09  0.02000  1.168E-04    0   0.5865   age139_m62            0.0000     2.3510E+02     7.4237   1.0894   110.2094
 27      0.0000     0.0000E+00    0.0000E+00    2.500000E+09  0.02000  5.505E-05    0   0.5610   age150_m62            0.0000     2.1094E+02     7.3430   0.7102   107.8789
 28      0.0000     0.0000E+00    0.0000E+00    5.000000E+09  0.02000  2.596E-05    0   0.5353   age161_m62            0.0000     3.8753E+02     9.5149   0.3660   108.5176
 29     12.1499     5.0944E+01    4.9919E+01    1.100000E+10  0.02000  1.169E-05    0   0.5103   age185_m62            0.0000     6.6207E+02    12.0534  -0.0062   110.6405
 30      0.0000     0.0000E+00    0.0000E+00    1.300000E+10  0.02000  9.691E-06    0   0.5047   age193_m62            0.0000     7.1793E+02    12.4879  -0.0535   111.0033
 31      1.8955     3.5046E-03    6.7283E-03    1.000000E+06  0.05000  2.651E-02    0   0.9998   age020_m72            0.0000     1.7814E+03    21.3106   4.0000    95.7684
 32      1.3522     1.3759E-03    2.5303E-03    3.160000E+06  0.05000  4.817E-02    0   0.9577   age045_m72            0.0000     8.6635E+02    15.4493   4.0000    96.7020
 33      0.0000     0.0000E+00    0.0000E+00    5.010000E+06  0.05000  3.101E-02    0   0.9147   age055_m72            0.0000     3.3556E+02     9.9695   4.0000    93.4644
 34      0.0000     0.0000E+00    0.0000E+00    1.000000E+07  0.05000  8.954E-03    0   0.8524   age070_m72            0.0000     5.9732E+02    12.9801   4.0000    96.4289
 35      0.0000     0.0000E+00    0.0000E+00    2.512000E+07  0.05000  4.207E-03    0   0.7902   age090_m72            0.0000     1.9317E+02     6.4031   3.9320    95.1124
 36      0.0000     0.0000E+00    0.0000E+00    4.000000E+07  0.05000  3.198E-03    0   0.7618   age104_m72            0.0000     4.5927E+02     8.6465   3.4664   102.0464
 37      0.0000     0.0000E+00    0.0000E+00    1.015200E+08  0.05000  1.716E-03    0   0.7092   age116_m72            0.0000     8.2637E+02    11.8489   3.2059   105.7539
 38      0.0000     0.0000E+00    0.0000E+00    2.861200E+08  0.05000  7.047E-04    0   0.6618   age125_m72            0.0000     1.2674E+03    15.3109   2.3999   112.5313
 39      0.0000     0.0000E+00    0.0000E+00    6.405400E+08  0.05000  2.633E-04    0   0.6253   age132_m72            0.0000     7.5467E+02    12.5263   1.5338   115.2022
 40      0.0000     0.0000E+00    0.0000E+00    9.047900E+08  0.05000  1.484E-04    0   0.6088   age135_m72            0.0000     3.8268E+02     9.5224   1.0301   110.9462
 41      0.0000     0.0000E+00    0.0000E+00    1.434000E+09  0.05000  7.827E-05    0   0.5847   age139_m72            0.0000     3.3500E+02     9.2518   0.6284   108.2227
 42      0.0000     0.0000E+00    0.0000E+00    2.500000E+09  0.05000  3.759E-05    0   0.5583   age150_m72            0.0000     4.4628E+02    10.2474   0.2964   108.1380
 43      0.0000     0.0000E+00    0.0000E+00    5.000000E+09  0.05000  1.548E-05    0   0.5320   age161_m72            0.0000     7.1136E+02    12.2400  -0.0990   108.1903
 44      0.0000     0.0000E+00    0.0000E+00    1.100000E+10  0.05000  6.532E-06    0   0.5070   age185_m72            0.0000     1.0969E+03    14.7345  -0.4869   108.6665
 45      0.0000     0.0000E+00    0.0000E+00    1.300000E+10  0.05000  5.316E-06    0   0.5018   age193_m72            0.0000     1.2672E+03    15.7835  -0.6096   109.0047


## Synthesis Results - Average & Chains ##

# j      x_j: min, <> & last-chain-values for 1 ...  7 chains
  1      2.6956      2.9431      2.9847      2.9308      2.9246      3.0520      3.0141      2.8643      2.9565
  2      2.3066      1.8510      1.7416      1.9274      1.8680      1.7787      1.7893      1.7883      1.8080
  3      1.3969      1.3008      1.2442      1.3763      1.2410      1.2990      1.2803      1.3386      1.3297
  4      7.5950      7.6381      7.7049      7.6926      7.6662      7.6440      7.6451      7.6397      7.7607
  5      1.0509      1.0775      1.1659      1.0896      0.7742      0.8521      1.2038      1.1737      1.0141
  6      0.0000      0.0337      0.0000      0.0604      0.0000      0.0605      0.0000      0.0000      0.0000
  7      0.0000      0.0317      0.0000      0.0407      0.0446      0.0000      0.0367      0.0000      0.0000
  8      0.0000      0.0391      0.0000      0.0000      0.0051      0.2344      0.0000      0.0000      0.0409
  9      0.0000      0.1573      0.5335      0.1906      0.2021      0.1890      0.0000      0.3122      0.0000
 10      0.0000      0.3220      0.4118      0.4710      0.5329      0.6311      0.3123      0.3137      0.4416
 11      0.0000      0.4454      0.4402      0.6615      0.3618      0.2304      0.8043      0.1537      0.5998
 12     34.5476     32.1151     32.2183     32.1598     32.0709     32.0653     32.3826     32.6529     32.3436
 13     30.5484     30.8214     30.7769     30.8283     31.3624     30.9745     31.1342     30.9591     31.1342
 14      0.0000      0.1507      0.0717      0.0000      0.0000      0.1448      0.0023      0.0582      0.0000
 15      0.0000      0.0529      0.0000      0.0000      0.0780      0.0000      0.0124      0.0000      0.0000
 16      1.4598      1.6176      1.4666      1.6186      1.6278      1.6276      1.6504      1.5921      1.8694
 17      1.0203      1.1445      1.1966      1.1075      1.2680      1.1534      1.1753      1.1792      1.0432
 18      3.1834      3.0001      2.9720      3.1543      3.3853      2.9829      3.1135      3.0945      2.9418
 19      0.1816      0.1183      0.6029      0.0000      0.0310      0.1867      0.0444      0.2047      0.0327
 20      0.0000      0.0436      0.0000      0.0000      0.0000      0.0348      0.0124      0.0101      0.0000
 21      0.0000      0.0359      0.0000      0.0000      0.0896      0.0000      0.1006      0.0000      0.0000
 22      0.0000      0.0652      0.0000      0.0684      0.0000      0.0749      0.0000      0.0794      0.0000
 23      0.0000      0.0187      0.0000      0.0000      0.0000      0.0000      0.0000      0.0000      0.0000
 24      0.0000      0.0281      0.0000      0.0000      0.0000      0.0000      0.0000      0.0000      0.0791
 25      0.0000      0.0513      0.0000      0.0000      0.0000      0.0011      0.0000      0.0000      0.0000
 26      0.0000      0.0671      0.0000      0.0000      0.0000      0.0000      0.0000      0.0000      0.0000
 27      0.0000      0.0683      0.0000      0.0641      0.0000      0.0000      0.0000      0.0000      0.0000
 28      0.0000      0.4098      0.3664      0.3020      0.1642      0.4887      0.2854      0.3247      0.3737
 29     12.1499     12.4245     12.5080     12.5629     12.6277     12.5062     12.5261     12.3878     12.4784
 30      0.0000      0.0362      0.1594      0.0000      0.0000      0.0777      0.0000      0.0000      0.0000
 31      1.8955      1.8781      1.7394      1.8733      1.7490      1.8947      1.7242      1.8244      1.7211
 32      1.3522      1.0410      1.1465      1.0973      1.0630      1.0910      1.0117      1.1219      1.2154
 33      0.0000      0.0377      0.0000      0.0765      0.0000      0.0630      0.1042      0.0000      0.0000
 34      0.0000      0.0307      0.0000      0.0000      0.1750      0.0000      0.0000      0.0912      0.1088
 35      0.0000      0.0818      0.0000      0.0000      0.0000      0.0469      0.0685      0.0000      0.0000
 36      0.0000      0.0249      0.0000      0.0000      0.0000      0.0095      0.0000      0.0000      0.0000
 37      0.0000      0.0468      0.0198      0.0000      0.0000      0.0000      0.0000      0.1378      0.1275
 38      0.0000      0.0185      0.0000      0.0000      0.0342      0.0562      0.0000      0.0245      0.0000
 39      0.0000      0.0275      0.0000      0.0000      0.0000      0.0000      0.0000      0.0000      0.0000
 40      0.0000      0.0388      0.0000      0.0000      0.0000      0.0000      0.0000      0.0460      0.0000
 41      0.0000      0.0362      0.0000      0.0000      0.0523      0.0000      0.0000      0.0000      0.0000
 42      0.0000      0.0318      0.0094      0.0000      0.0000      0.0012      0.0000      0.0560      0.0000
 43      0.0000      0.0184      0.0000      0.0000      0.0477      0.0000      0.0000      0.0289      0.0000
 44      0.0000      0.0457      0.0000      0.0119      0.0000      0.0000      0.0000      0.0000      0.0176
 45      0.0000      0.0116      0.0000      0.1106      0.0000      0.0000      0.0000      0.0000      0.0000

# j      m_j: min, <> & last-chain-values for 1 ...  7 chains
  1  2.2775E-02  2.4265E-02  2.4625E-02  2.4100E-02  2.4123E-02  2.5167E-02  2.4992E-02  2.3842E-02  2.4508E-02
  2  5.3297E-03  4.1737E-03  3.9297E-03  4.3344E-03  4.2136E-03  4.0112E-03  4.0575E-03  4.0710E-03  4.0989E-03
  3  4.9228E-03  4.4733E-03  4.2817E-03  4.7205E-03  4.2698E-03  4.4679E-03  4.4281E-03  4.6477E-03  4.5975E-03
  4  4.9842E-02  4.8915E-02  4.9376E-02  4.9134E-02  4.9115E-02  4.8960E-02  4.9238E-02  4.9395E-02  4.9969E-02
  5  1.5947E-02  1.5956E-02  1.7276E-02  1.6092E-02  1.1469E-02  1.2619E-02  1.7926E-02  1.7546E-02  1.5098E-02
  6  0.0000E+00  6.9368E-04  0.0000E+00  1.2385E-03  0.0000E+00  1.2445E-03  0.0000E+00  0.0000E+00  0.0000E+00
  7  0.0000E+00  9.2499E-04  0.0000E+00  1.1835E-03  1.3030E-03  0.0000E+00  1.0772E-03  0.0000E+00  0.0000E+00
  8  0.0000E+00  2.2037E-03  0.0000E+00  0.0000E+00  2.8653E-04  1.3197E-02  0.0000E+00  0.0000E+00  2.3150E-03
  9  0.0000E+00  1.7640E-02  5.9849E-02  2.1310E-02  2.2662E-02  2.1198E-02  0.0000E+00  3.5333E-02  0.0000E+00
 10  0.0000E+00  5.0401E-02  6.4494E-02  7.3526E-02  8.3435E-02  9.8795E-02  4.9153E-02  4.9577E-02  6.9492E-02
 11  0.0000E+00  1.2241E-01  1.2107E-01  1.8134E-01  9.9483E-02  6.3335E-02  2.2233E-01  4.2664E-02  1.6577E-01
 12  1.8093E+01  1.6413E+01  1.6477E+01  1.6392E+01  1.6397E+01  1.6390E+01  1.6644E+01  1.6848E+01  1.6619E+01
 13  3.1860E+01  3.1369E+01  3.1345E+01  3.1293E+01  3.1933E+01  3.1530E+01  3.1867E+01  3.1811E+01  3.1859E+01
 14  0.0000E+00  3.1263E-01  1.4889E-01  0.0000E+00  0.0000E+00  3.0049E-01  4.7321E-03  1.2192E-01  0.0000E+00
 15  0.0000E+00  1.2711E-01  0.0000E+00  0.0000E+00  1.8752E-01  0.0000E+00  3.0031E-02  0.0000E+00  0.0000E+00
 16  6.9077E-03  7.4699E-03  6.7771E-03  7.4545E-03  7.5199E-03  7.5173E-03  7.6643E-03  7.4224E-03  8.6794E-03
 17  2.5097E-03  2.7472E-03  2.8743E-03  2.6515E-03  3.0450E-03  2.7690E-03  2.8372E-03  2.8578E-03  2.5178E-03
 18  8.6739E-03  7.9771E-03  7.9076E-03  8.3651E-03  9.0052E-03  7.9326E-03  8.3256E-03  8.3071E-03  7.8645E-03
 19  1.4793E-03  9.4041E-04  4.7960E-03  0.0000E+00  2.4639E-04  1.4843E-03  3.5490E-04  1.6426E-03  2.6176E-04
 20  0.0000E+00  7.7056E-04  0.0000E+00  0.0000E+00  0.0000E+00  6.1542E-04  2.2060E-04  1.7986E-04  0.0000E+00
 21  0.0000E+00  7.6286E-04  0.0000E+00  0.0000E+00  1.9040E-03  0.0000E+00  2.1477E-03  0.0000E+00  0.0000E+00
 22  0.0000E+00  2.3013E-03  0.0000E+00  2.4081E-03  0.0000E+00  2.6451E-03  0.0000E+00  2.8319E-03  0.0000E+00
 23  0.0000E+00  1.2994E-03  0.0000E+00  0.0000E+00  0.0000E+00  0.0000E+00  0.0000E+00  0.0000E+00  0.0000E+00
 24  0.0000E+00  4.4605E-03  0.0000E+00  0.0000E+00  0.0000E+00  0.0000E+00  0.0000E+00  0.0000E+00  1.2636E-02
 25  0.0000E+00  1.2538E-02  0.0000E+00  0.0000E+00  0.0000E+00  2.7831E-04  0.0000E+00  0.0000E+00  0.0000E+00
 26  0.0000E+00  3.0931E-02  0.0000E+00  0.0000E+00  0.0000E+00  0.0000E+00  0.0000E+00  0.0000E+00  0.0000E+00
 27  0.0000E+00  6.3901E-02  0.0000E+00  5.9865E-02  0.0000E+00  0.0000E+00  0.0000E+00  0.0000E+00  0.0000E+00
 28  0.0000E+00  7.7620E-01  6.9444E-01  5.7051E-01  3.1118E-01  9.2561E-01  5.4359E-01  6.2083E-01  7.1156E-01
 29  4.9919E+01  4.9814E+01  5.0183E+01  5.0237E+01  5.0651E+01  5.0150E+01  5.0507E+01  5.0144E+01  5.0302E+01
 30  0.0000E+00  1.7325E-01  7.6309E-01  0.0000E+00  0.0000E+00  3.7153E-01  0.0000E+00  0.0000E+00  0.0000E+00
 31  6.7283E-03  6.5055E-03  6.0294E-03  6.4720E-03  6.0609E-03  6.5643E-03  6.0064E-03  6.3802E-03  5.9940E-03
 32  2.5303E-03  1.9010E-03  2.0950E-03  1.9986E-03  1.9419E-03  1.9926E-03  1.8579E-03  2.0684E-03  2.2314E-03
 33  0.0000E+00  1.0209E-04  0.0000E+00  2.0665E-04  0.0000E+00  1.7080E-04  2.8397E-04  0.0000E+00  0.0000E+00
 34  0.0000E+00  2.6804E-04  0.0000E+00  0.0000E+00  1.5304E-03  0.0000E+00  0.0000E+00  8.0469E-04  9.5631E-04
 35  0.0000E+00  1.4108E-03  0.0000E+00  0.0000E+00  0.0000E+00  8.0883E-04  1.1887E-03  0.0000E+00  0.0000E+00
 36  0.0000E+00  5.4568E-04  0.0000E+00  0.0000E+00  0.0000E+00  2.0828E-04  0.0000E+00  0.0000E+00  0.0000E+00
 37  0.0000E+00  1.7775E-03  7.5177E-04  0.0000E+00  0.0000E+00  0.0000E+00  0.0000E+00  5.2801E-03  4.8679E-03
 38  0.0000E+00  1.5994E-03  0.0000E+00  0.0000E+00  2.9500E-03  4.8486E-03  0.0000E+00  2.1353E-03  0.0000E+00
 39  0.0000E+00  5.9977E-03  0.0000E+00  0.0000E+00  0.0000E+00  0.0000E+00  0.0000E+00  0.0000E+00  0.0000E+00
 40  0.0000E+00  1.4617E-02  0.0000E+00  0.0000E+00  0.0000E+00  0.0000E+00  0.0000E+00  1.7507E-02  0.0000E+00
 41  0.0000E+00  2.4826E-02  0.0000E+00  0.0000E+00  3.5872E-02  0.0000E+00  0.0000E+00  0.0000E+00  0.0000E+00
 42  0.0000E+00  4.3442E-02  1.2898E-02  0.0000E+00  0.0000E+00  1.6643E-03  0.0000E+00  7.7077E-02  0.0000E+00
 43  0.0000E+00  5.7993E-02  0.0000E+00  0.0000E+00  1.5047E-01  0.0000E+00  0.0000E+00  9.2157E-02  0.0000E+00
 44  0.0000E+00  3.2547E-01  0.0000E+00  8.4570E-02  0.0000E+00  0.0000E+00  0.0000E+00  0.0000E+00  1.2583E-01
 45  0.0000E+00  1.0028E-01  0.0000E+00  9.5621E-01  0.0000E+00  0.0000E+00  0.0000E+00  0.0000E+00  0.0000E+00

# AV, chi2 & Mass for <> & i_chain = 1 ...  7 solutions
AV       1.3977      1.3886      1.3906      1.3912      1.3898      1.3908      1.3899      1.3935      1.3910
chi2 2.7255E+00  2.7498E+00  2.7322E+00  2.7352E+00  2.7337E+00  2.7392E+00  2.7365E+00  2.7322E+00  2.7366E+00
Mass 3.0338E-10  3.0711E-10  3.0772E-10  3.0898E-10  3.0746E-10  3.0798E-10  3.0590E-10  3.0621E-10  3.0644E-10
  -6.69                                  [v0_min (km/s) before EX0s...]
  61.09                                  [vd_min (km/s) before EX0s...]


## Synthetic spectrum (Best Model) ##l_obs f_obs f_syn wei
 3070    [Nl_obs]
 3359.00    0.00000   0.50156   -2.000
 3360.00    0.18497   0.48148   -1.000
 3361.00    0.33427   0.48151   -1.000
 3362.00    0.31776   0.50298   -1.000
 3363.00    0.33493   0.53260   -1.000
 3364.00    0.40209   0.55284   -1.000
 3365.00    0.41233   0.55384   -1.000
 3366.00    0.41269   0.53795   -1.000
 3367.00    0.43417   0.51605   -1.000
 3368.00    0.42013   0.49965   -1.000
 3369.00    0.36935   0.49292   -1.000
 3370.00    0.36401   0.49146   -1.000
 3371.00    0.43275   0.48901   -1.000
 3372.00    0.43515   0.48887   -1.000
 3373.00    0.36761   0.49979   -1.000
 3374.00    0.37076   0.52271   -1.000
 3375.00    0.40921   0.55044   -1.000
 3376.00    0.37945   0.56697   -1.000
 3377.00    0.39481   0.56207   -1.000
 3378.00    0.45811   0.54228   -1.000
 3379.00    0.44425   0.52141   -1.000
 3380.00    0.41148   0.51296   -1.000
 3381.00    0.40718   0.52027   -1.000
 3382.00    0.39000   0.53644   -1.000
 3383.00    0.41554   0.55133   -1.000
 3384.00    0.43775   0.56225   -1.000
 3385.00    0.43474   0.57169   -1.000
 3386.00    0.46403   0.57674   -1.000
 3387.00    0.46944   0.57543   -1.000
 3388.00    0.44270   0.57178   -1.000
 3389.00    0.44087   0.56878   -1.000
 3390.00    0.45124   0.56429   -1.000
 3391.00    0.49065   0.55537   -1.000
 3392.00    0.49223   0.54491   -1.000
 3393.00    0.45609   0.54180   -1.000
 3394.00    0.46329   0.55157   -1.000
 3395.00    0.47237   0.56993   -1.000
 3396.00    0.44955   0.58864   -1.000
 3397.00    0.46858   0.60294   -1.000
 3398.00    0.54036   0.60998   -1.000
 3399.00    0.54490   0.60813   -1.000
 3400.00    0.52107   0.59977   -1.000
 3401.00    0.53927   0.58742   45.909
 3402.00    0.49317   0.57263   -1.000
 3403.00    0.46466   0.56084   -1.000
 3404.00    0.50607   0.55550   49.116
 3405.00    0.49539   0.55271   50.002
 3406.00    0.48525   0.54770   -1.000
 3407.00    0.50074   0.54157   51.343
 3408.00    0.47380   0.53973   -1.000
 3409.00    0.46547   0.54569   -1.000
 3410.00    0.48827   0.55455   -1.000
 3411.00    0.49175   0.55695   -1.000
 3412.00    0.51099   0.55057   50.390
 3413.00    0.51808   0.54125   51.473
 3414.00    0.44003   0.53757   -1.000
 3415.00    0.42938   0.54303   -1.000
 3416.00    0.50014   0.55561   52.495
 3417.00    0.49985   0.57148   -1.000
 3418.00    0.49822   0.58748   -1.000
 3419.00    0.54352   0.60001   45.924
 3420.00    0.55426   0.60428   44.830
 3421.00    0.57990   0.59887   44.591
 3422.00    0.59646   0.58906   44.615
 3423.00    0.55592   0.58130   45.484
 3424.00    0.56276   0.57825   46.657
 3425.00    0.59981   0.57930   46.318
 3426.00    0.57598   0.58411   45.033
 3427.00    0.55294   0.59445   44.391
 3428.00    0.55035   0.61073   -1.000
 3429.00    0.51738   0.62342   -1.000
 3430.00    0.51880   0.62279   -1.000
 3431.00    0.54573   0.60966   -1.000
 3432.00    0.54439   0.59382   -1.000
 3433.00    0.52653   0.58611   -1.000
 3434.00    0.55947   0.58859   44.304
 3435.00    0.58779   0.59477   89.061
 3436.00    0.61087   0.59561   -1.000
 3437.00    0.59920   0.58717   72.792
 3438.00    0.57260   0.56925   45.310
 3439.00    0.53011   0.54435   47.782
 3440.00    0.49838   0.51806   51.180
 3441.00    0.51722   0.50017   54.143
 3442.00    0.52554   0.49713   55.125
 3443.00    0.53405   0.50577   55.020
 3444.00    0.50627   0.51859   53.656
 3445.00    0.48376   0.53252   51.044
 3446.00    0.53430   0.54979   48.226
 3447.00    0.55339   0.57080   46.128
 3448.00    0.54593   0.59144   -1.000
 3449.00    0.58253   0.60344   -1.000
 3450.00    0.59147   0.60015   -1.000
 3451.00    0.58033   0.58504  346.770
 3452.00    0.59196   0.56813   -1.000
 3453.00    0.56772   0.56053  346.770
 3454.00    0.54028   0.56424   -1.000
 3455.00    0.58805   0.57203   -1.000
 3456.00    0.64647   0.57438   -1.000
 3457.00    0.59217   0.56624   -1.000
 3458.00    0.54539   0.55234  346.770
 3459.00    0.58136   0.53943   -1.000
 3460.00    0.60453   0.53096   -1.000
 3461.00    0.55892   0.53266   44.722
 3462.00    0.55022   0.54683   89.221
 3463.00    0.57464   0.56312   -1.000
 3464.00    0.58151   0.57026   -1.000
 3465.00    0.58904   0.57037   -1.000
 3466.00    0.57985   0.57065   -1.000
 3467.00    0.58273   0.57640  346.770
 3468.00    0.61586   0.58545   -1.000
 3469.00    0.63256   0.59284   -1.000
 3470.00    0.60952   0.59513   -1.000
 3471.00    0.60017   0.58978   -1.000
 3472.00    0.57665   0.57714  346.770
 3473.00    0.57475   0.55922   -1.000
 3474.00    0.57967   0.53912   -1.000
 3475.00    0.54714   0.52506   74.019
 3476.00    0.53018   0.52513   45.588
 3477.00    0.54689   0.53799   45.767
 3478.00    0.57140   0.55546   89.920
 3479.00    0.60780   0.56994   -1.000
 3480.00    0.64255   0.57726   -1.000
 3481.00    0.63257   0.57652   -1.000
 3482.00    0.61928   0.56954   -1.000
 3483.00    0.64916   0.56244   -1.000
 3484.00    0.66342   0.56335   -1.000
 3485.00    0.63469   0.57558   -1.000
 3486.00    0.62639   0.59177   -1.000
 3487.00    0.62951   0.59744   -1.000
 3488.00    0.63691   0.58691   -1.000
 3489.00    0.63903   0.56724   -1.000
 3490.00    0.58194   0.55247   -1.000
 3491.00    0.55207   0.55112  346.770
 3492.00    0.56741   0.55835   -1.000
 3493.00    0.58182   0.56372   -1.000
 3494.00    0.60088   0.56064   -1.000
 3495.00    0.59676   0.55154   -1.000
 3496.00    0.56294   0.54629   -1.000
 3497.00    0.54389   0.55461   -1.000
 3498.00    0.52161   0.57411   -1.000
 3499.00    0.54630   0.58947   -1.000
 3500.00    0.61170   0.59416   -1.000
 3501.00    0.63634   0.59571   -1.000
 3502.00    0.64946   0.59999   -1.000
 3503.00    0.65472   0.60371   -1.000
 3504.00    0.63568   0.59970   -1.000
 3505.00    0.62531   0.59043   -1.000
 3506.00    0.60660   0.58451   -1.000
 3507.00    0.57037   0.58422   -1.000
 3508.00    0.58908   0.58460  346.770
 3509.00    0.61399   0.58016   -1.000
 3510.00    0.58224   0.57171   -1.000
 3511.00    0.53210   0.56299   -1.000
 3512.00    0.53510   0.55477   -1.000
 3513.00    0.57535   0.54781   -1.000
 3514.00    0.59994   0.54961   -1.000
 3515.00    0.60109   0.56468   -1.000
 3516.00    0.60376   0.58759   -1.000
 3517.00    0.60620   0.60662  346.770
 3518.00    0.61407   0.61182  346.770
 3519.00    0.63043   0.60214   -1.000
 3520.00    0.60298   0.58372   -1.000
 3521.00    0.58105   0.56544   -1.000
 3522.00    0.59019   0.55058   -1.000
 3523.00    0.56933   0.53632   -1.000
 3524.00    0.54567   0.52432   74.180
 3525.00    0.54838   0.52043   45.142
 3526.00    0.55805   0.53042   45.702
 3527.00    0.57462   0.55287   89.523
 3528.00    0.56439   0.57780   -1.000
 3529.00    0.58839   0.59451  346.770
 3530.00    0.62385   0.59918   -1.000
 3531.00    0.63417   0.59704   -1.000
 3532.00    0.63532   0.59658   -1.000
 3533.00    0.61037   0.60130  346.770
 3534.00    0.58429   0.60858   -1.000
 3535.00    0.60869   0.61383  346.770
 3536.00    0.63059   0.61636   -1.000
 3537.00    0.61869   0.62005  346.770
 3538.00    0.61762   0.62634   -1.000
 3539.00    0.63095   0.63033  346.770
 3540.00    0.64364   0.62774   -1.000
 3541.00    0.63631   0.62311   -1.000
 3542.00    0.62772   0.62416  346.770
 3543.00    0.62283   0.63072   -1.000
 3544.00    0.61155   0.63695   -1.000
 3545.00    0.60831   0.63729   -1.000
 3546.00    0.63595   0.63305  346.770
 3547.00    0.66190   0.62992   -1.000
 3548.00    0.65031   0.63054   -1.000
 3549.00    0.61571   0.63327   -1.000
 3550.00    0.60244   0.63404   -1.000
 3551.00    0.59199   0.63019   -1.000
 3552.00    0.58538   0.62177   -1.000
 3553.00    0.59273   0.61339   -1.000
 3554.00    0.58326   0.60991   -1.000
 3555.00    0.58741   0.61153   -1.000
 3556.00    0.62572   0.61434   -1.000
 3557.00    0.61514   0.61379  346.770
 3558.00    0.57758   0.60983   -1.000
 3559.00    0.58077   0.60775   -1.000
 3560.00    0.58194   0.61271   -1.000
 3561.00    0.57086   0.62329   -1.000
 3562.00    0.58978   0.62934   -1.000
 3563.00    0.60634   0.61788   -1.000
 3564.00    0.58035   0.58767  346.770
 3565.00    0.55976   0.55840   75.229
 3566.00    0.53690   0.54583   45.709
 3567.00    0.52208   0.54494   46.256
 3568.00    0.51847   0.54260   45.863
 3569.00    0.49369   0.53238   46.601
 3570.00    0.48607   0.52306   47.805
 3571.00    0.52726   0.52497   47.350
 3572.00    0.52905   0.53537   45.495
 3573.00    0.52476   0.54557   86.948
 3574.00    0.56318   0.55137   -1.000
 3575.00    0.55408   0.55447  346.770
 3576.00    0.55143   0.55687  346.770
 3577.00    0.57093   0.55548   -1.000
 3578.00    0.55918   0.54538   -1.000
 3579.00    0.52925   0.52615   78.102
 3580.00    0.51554   0.50662   48.168
 3581.00    0.50926   0.49597   51.377
 3582.00    0.49715   0.49550   52.827
 3583.00    0.48933   0.49786   53.087
 3584.00    0.49238   0.49351   53.918
 3585.00    0.48754   0.48395   55.517
 3586.00    0.46912   0.47915   56.781
 3587.00    0.45440   0.48462   55.511
 3588.00    0.47223   0.50086   52.598
 3589.00    0.51022   0.52501   49.940
 3590.00    0.54185   0.55116   46.348
 3591.00    0.54126   0.57137   85.961
 3592.00    0.55921   0.58101   -1.000
 3593.00    0.60559   0.58363   -1.000
 3594.00    0.60778   0.58772   -1.000
 3595.00    0.62209   0.59848   -1.000
 3596.00    0.65226   0.61240   -1.000
 3597.00    0.66270   0.62484   -1.000
 3598.00    0.64307   0.63478  341.624
 3599.00    0.62507   0.63954   -1.000
 3600.00    0.61769   0.63440   -1.000
 3601.00    0.61099   0.61769  344.873
 3602.00    0.59733   0.59508  346.770
 3603.00    0.57084   0.57565  346.770
 3604.00    0.55576   0.56672   -1.000
 3605.00    0.56161   0.56748  346.770
 3606.00    0.56779   0.56881  346.770
 3607.00    0.57459   0.56332   -1.000
 3608.00    0.57609   0.55247   -1.000
 3609.00    0.56017   0.54714   -1.000
 3610.00    0.55026   0.55453  346.770
 3611.00    0.56291   0.56736  346.770
 3612.00    0.58406   0.57747  346.770
 3613.00    0.59583   0.58604   -1.000
 3614.00    0.59006   0.59610  346.770
 3615.00    0.57361   0.60419   -1.000
 3616.00    0.57421   0.59776   -1.000
 3617.00    0.58774   0.57284   -1.000
 3618.00    0.55307   0.54934  346.770
 3619.00    0.51891   0.54700   75.277
 3620.00    0.53620   0.56505   84.843
 3621.00    0.58494   0.58994  346.770
 3622.00    0.61508   0.60927  346.770
 3623.00    0.61967   0.62128  346.770
 3624.00    0.63186   0.63398  345.090
 3625.00    0.64889   0.65356  336.104
 3626.00    0.66489   0.67473   -1.000
 3627.00    0.66793   0.68676   -1.000
 3628.00    0.63997   0.67806   -1.000
 3629.00    0.61759   0.64543   -1.000
 3630.00    0.59733   0.60340  346.770
 3631.00    0.55806   0.57347   -1.000
 3632.00    0.53373   0.56669   -1.000
 3633.00    0.55471   0.57781   -1.000
 3634.00    0.57338   0.59331   -1.000
 3635.00    0.57987   0.60366   -1.000
 3636.00    0.59078   0.61064   -1.000
 3637.00    0.60061   0.62253   -1.000
 3638.00    0.65116   0.64022   -1.000
 3639.00    0.66811   0.65689   -1.000
 3640.00    0.65970   0.66284  319.835
 3641.00    0.66272   0.65437  324.099
 3642.00    0.62810   0.63607   -1.000
 3643.00    0.59100   0.61652   -1.000
 3644.00    0.58515   0.60259   -1.000
 3645.00    0.58678   0.59402  346.770
 3646.00    0.57704   0.58665   -1.000
 3647.00    0.56872   0.58128   -1.000
 3648.00    0.58286   0.58186  346.770
 3649.00    0.61520   0.59023   -1.000
 3650.00    0.62356   0.60617   -1.000
 3651.00    0.62439   0.62663  346.770
 3652.00    0.64801   0.64595  335.726
 3653.00    0.64833   0.65958   -1.000
 3654.00    0.65263   0.66740   -1.000
 3655.00    0.68163   0.67370  316.239
 3656.00    0.69950   0.68261   -1.000
 3657.00    0.71990   0.69154   -1.000
 3658.00    0.73938   0.69642   -1.000
 3659.00    0.68861   0.69655   -1.000
 3660.00    0.64026   0.69241   -1.000
 3661.00    0.65040   0.68459   -1.000
 3662.00    0.66539   0.67483   -1.000
 3663.00    0.66802   0.66664  313.508
 3664.00    0.66286   0.66321  317.299
 3665.00    0.67306   0.66384  316.251
 3666.00    0.66430   0.66363  314.540
 3667.00    0.64516   0.65759   -1.000
 3668.00    0.64834   0.64727  323.325
 3669.00    0.64706   0.64307  329.259
 3670.00    0.62335   0.65099   -1.000
 3671.00    0.62499   0.66583   -1.000
 3672.00    0.65408   0.67734   -1.000
 3673.00    0.67398   0.67985  311.293
 3674.00    0.66899   0.67474  310.800
 3675.00    0.66931   0.66375  311.164
 3676.00    0.65813   0.64875  316.688
 3677.00    0.62382   0.63250   -1.000
 3678.00    0.61399   0.61841  336.687
 3679.00    0.61596   0.61088  346.021
 3680.00    0.61074   0.61197  346.770
 3681.00    0.62198   0.62030  343.967
 3682.00    0.63918   0.63047  334.349
 3683.00    0.63835   0.63555  328.234
 3684.00    0.64241   0.62955   -1.000
 3685.00    0.63454   0.61242   -1.000
 3686.00    0.59793   0.59510  346.770
 3687.00    0.57022   0.59087   -1.000
 3688.00    0.58762   0.60467   -1.000
 3689.00    0.63261   0.63063  345.840
 3690.00    0.67274   0.65627   -1.000
 3691.00    0.68350   0.66973   -1.000
 3692.00    0.66496   0.66950  304.808
 3693.00    0.66703   0.66378  310.551
 3694.00    0.66524   0.65834  316.912
 3695.00    0.64905   0.65407  318.098
 3696.00    0.65274   0.65377  315.861
 3697.00    0.67502   0.66268   -1.000
 3698.00    0.68168   0.68152  305.078
 3699.00    0.68508   0.70175   -1.000
 3700.00    0.71437   0.71019  290.664
 3701.00    0.71794   0.69659   -1.000
 3702.00    0.66906   0.66000  301.740
 3703.00    0.62658   0.61331   -1.000
 3704.00    0.61324   0.57449   -1.000
 3705.00    0.58043   0.55714   -1.000
 3706.00    0.56645   0.56152  346.770
 3707.00    0.60144   0.57517   -1.000
 3708.00    0.61738   0.58750   -1.000
 3709.00    0.63800   0.59547   -1.000
 3710.00    0.65420   0.60253   -1.000
 3711.00    0.64326   0.61599   -1.000
 3712.00    0.66366   0.64065   -1.000
 3713.00    0.69200   0.67020   -1.000
 3714.00    0.69630   0.69491  290.484
 3715.00    0.73610   0.70738   -1.000
 3716.00    0.75316   0.70294   -1.000
 3717.00    0.71035   0.68028   -1.000
 3718.00    0.64274   0.63870  322.595
 3719.00    0.57354   0.58252  346.770
 3720.00    0.52785   0.53270  346.770
 3721.00    0.51444   0.51145   78.272
 3722.00    0.51624   0.52579   84.576
 3723.00    0.56032   0.56781  346.770
 3724.00    0.61148   0.61682  346.770
 3725.00    0.60105   0.64830   -1.000
 3726.00    0.56885   0.65670   -1.000
 3727.00    0.54093   0.65827   -1.000
 3728.00    0.51041   0.66318   -1.000
 3729.00    0.49620   0.66605   -1.000
 3730.00    0.53153   0.65405   -1.000
 3731.00    0.59454   0.61807   -1.000
 3732.00    0.58857   0.56432   -1.000
 3733.00    0.52490   0.50964   76.345
 3734.00    0.52350   0.47171   46.777
 3735.00    0.53118   0.46398   -1.000
 3736.00    0.54915   0.48838   -1.000
 3737.00    0.58950   0.53558   46.168
 3738.00    0.59649   0.59269   82.206
 3739.00    0.62914   0.64423   -1.000
 3740.00    0.66588   0.67554  339.533
 3741.00    0.66086   0.68204   -1.000
 3742.00    0.64640   0.66802   -1.000
 3743.00    0.64603   0.64187  346.770
 3744.00    0.64650   0.61339   -1.000
 3745.00    0.63026   0.58757   -1.000
 3746.00    0.59161   0.56089   -1.000
 3747.00    0.55182   0.52790   78.234
 3748.00    0.51843   0.49297   46.225
 3749.00    0.49022   0.47586   47.923
 3750.00    0.50148   0.49292   89.802
 3751.00    0.55718   0.53989   -1.000
 3752.00    0.62903   0.59898   -1.000
 3753.00    0.67507   0.65456   -1.000
 3754.00    0.69432   0.69454  307.009
 3755.00    0.71344   0.70776  296.325
 3756.00    0.70381   0.69081   -1.000
 3757.00    0.67147   0.65641   -1.000
 3758.00    0.65527   0.62720   -1.000
 3759.00    0.64621   0.61872   -1.000
 3760.00    0.62523   0.62808  346.770
 3761.00    0.64015   0.64205  346.770
 3762.00    0.68536   0.65281   -1.000
 3763.00    0.69366   0.65875   -1.000
 3764.00    0.68115   0.65790   -1.000
 3765.00    0.67626   0.64800   -1.000
 3766.00    0.66326   0.63114   -1.000
 3767.00    0.66313   0.61130   -1.000
 3768.00    0.63992   0.59024   -1.000
 3769.00    0.60687   0.57134   -1.000
 3770.00    0.62147   0.56355   -1.000
 3771.00    0.64165   0.57696   -1.000
 3772.00    0.65714   0.60988   -1.000
 3773.00    0.66655   0.64567   -1.000
 3774.00    0.68468   0.67193   -1.000
 3775.00    0.71045   0.68964   -1.000
 3776.00    0.71735   0.70436   -1.000
 3777.00    0.73922   0.72062   -1.000
 3778.00    0.76193   0.73938   -1.000
 3779.00    0.76304   0.75806  294.246
 3780.00    0.75851   0.77301   -1.000
 3781.00    0.76108   0.78237   -1.000
 3782.00    0.80243   0.78681   -1.000
 3783.00    0.82994   0.78464   -1.000
 3784.00    0.80724   0.77096   -1.000
 3785.00    0.76591   0.74496   -1.000
 3786.00    0.73592   0.71489   -1.000
 3787.00    0.71145   0.69095   -1.000
 3788.00    0.68989   0.67818   -1.000
 3789.00    0.67861   0.67526  346.473
 3790.00    0.67689   0.67691  342.979
 3791.00    0.69119   0.67525   -1.000
 3792.00    0.69190   0.66341   -1.000
 3793.00    0.66583   0.64089   -1.000
 3794.00    0.63519   0.61116   -1.000
 3795.00    0.60877   0.57714   -1.000
 3796.00    0.57029   0.54074   -1.000
 3797.00    0.53340   0.50916   -1.000
 3798.00    0.51905   0.50134   -1.000
 3799.00    0.55089   0.52990   -1.000
 3800.00    0.62057   0.58375   -1.000
 3801.00    0.68145   0.64237   -1.000
 3802.00    0.69966   0.68961   -1.000
 3803.00    0.70074   0.71823   -1.000
 3804.00    0.71398   0.72858   -1.000
 3805.00    0.72553   0.72402  313.236
 3806.00    0.72953   0.71503   -1.000
 3807.00    0.71991   0.71712  331.132
 3808.00    0.72571   0.73458  329.450
 3809.00    0.75461   0.75688  318.376
 3810.00    0.77188   0.76826  310.591
 3811.00    0.75754   0.75913  312.219
 3812.00    0.73771   0.73214  324.044
 3813.00    0.70771   0.69818   -1.000
 3814.00    0.65446   0.67117   -1.000
 3815.00    0.62408   0.66211   -1.000
 3816.00    0.62676   0.66916   -1.000
 3817.00    0.66094   0.67581   -1.000
 3818.00    0.67386   0.66784   -1.000
 3819.00    0.63340   0.64690   -1.000
 3820.00    0.62521   0.63031  346.770
 3821.00    0.65504   0.63148   -1.000
 3822.00    0.67171   0.64002   -1.000
 3823.00    0.67257   0.63685   -1.000
 3824.00    0.62094   0.61860  346.770
 3825.00    0.58759   0.59709   82.048
 3826.00    0.59920   0.58371   46.761
 3827.00    0.58404   0.57991   47.019
 3828.00    0.56565   0.57984   46.411
 3829.00    0.57808   0.57591   45.649
 3830.00    0.59544   0.56268   45.585
 3831.00    0.57907   0.53832   46.951
 3832.00    0.53525   0.50538   49.949
 3833.00    0.50315   0.47088   52.710
 3834.00    0.50636   0.44664   -1.000
 3835.00    0.51942   0.44099   -1.000
 3836.00    0.52417   0.45149   -1.000
 3837.00    0.51756   0.46983   49.679
 3838.00    0.51880   0.49095   50.845
 3839.00    0.53214   0.51741   50.951
 3840.00    0.55602   0.55370   48.936
 3841.00    0.61290   0.59753   86.992
 3842.00    0.67293   0.64086   -1.000
 3843.00    0.69969   0.67524   -1.000
 3844.00    0.70887   0.69632   -1.000
 3845.00    0.71128   0.70881  346.770
 3846.00    0.72058   0.71903  346.770
 3847.00    0.72319   0.72613  346.770
 3848.00    0.70574   0.72572   -1.000
 3849.00    0.70346   0.72174   -1.000
 3850.00    0.70457   0.72232   -1.000
 3851.00    0.70066   0.73017   -1.000
 3852.00    0.71022   0.73930   -1.000
 3853.00    0.72701   0.73959   -1.000
 3854.00    0.74157   0.72911   -1.000
 3855.00    0.71324   0.71490  346.770
 3856.00    0.68108   0.70017   -1.000
 3857.00    0.66751   0.68407   -1.000
 3858.00    0.63249   0.66893   78.203
 3859.00    0.62350   0.66353   45.187
 3860.00    0.64059   0.67591   46.033
 3861.00    0.67316   0.70224   82.799
 3862.00    0.71392   0.72861   -1.000
 3863.00    0.72894   0.74129   -1.000
 3864.00    0.73739   0.74081  346.770
 3865.00    0.74997   0.73646   -1.000
 3866.00    0.76545   0.73345   -1.000
 3867.00    0.76950   0.73242   -1.000
 3868.00    0.74540   0.72936   -1.000
 3869.00    0.71990   0.71812  346.770
 3870.00    0.68226   0.69785   -1.000
 3871.00    0.63464   0.67665   -1.000
 3872.00    0.64359   0.66786   81.219
 3873.00    0.67472   0.67869  346.770
 3874.00    0.69639   0.70295  346.770
 3875.00    0.71973   0.71968  346.770
 3876.00    0.71586   0.71414  346.731
 3877.00    0.69043   0.69392  346.770
 3878.00    0.65091   0.67711   -1.000
 3879.00    0.63035   0.67208   -1.000
 3880.00    0.65067   0.67295   -1.000
 3881.00    0.66482   0.67164  346.770
 3882.00    0.65676   0.66706  346.770
 3883.00    0.65516   0.65965  346.770
 3884.00    0.66874   0.64399   -1.000
 3885.00    0.66019   0.61274   -1.000
 3886.00    0.61578   0.56944   -1.000
 3887.00    0.57380   0.53010   -1.000
 3888.00    0.55080   0.51095   -1.000
 3889.00    0.54600   0.52259   -1.000
 3890.00    0.58240   0.56261   -1.000
 3891.00    0.64511   0.61534   -1.000
 3892.00    0.68170   0.65841   -1.000
 3893.00    0.68638   0.68134  298.440
 3894.00    0.69603   0.69214  301.816
 3895.00    0.72586   0.70355   -1.000
 3896.00    0.74051   0.71873   -1.000
 3897.00    0.74308   0.73072   -1.000
 3898.00    0.74550   0.73603   -1.000
 3899.00    0.74620   0.74021  294.861
 3900.00    0.74750   0.74801  294.687
 3901.00    0.76339   0.75588  291.129
 3902.00    0.76853   0.75690   -1.000
 3903.00    0.74540   0.74804  299.137
 3904.00    0.74502   0.73533   -1.000
 3905.00    0.74571   0.73013   -1.000
 3906.00    0.73694   0.73969  321.048
 3907.00    0.75151   0.76390   -1.000
 3908.00    0.77665   0.79388   -1.000
 3909.00    0.82165   0.81713  276.745
 3910.00    0.85600   0.83021   -1.000
 3911.00    0.83650   0.83610  269.952
 3912.00    0.83661   0.83574  267.875
 3913.00    0.83887   0.82979  268.742
 3914.00    0.81158   0.82087  273.229
 3915.00    0.79028   0.81163   -1.000
 3916.00    0.77514   0.80329   -1.000
 3917.00    0.78009   0.79335   -1.000
 3918.00    0.78023   0.77878  294.247
 3919.00    0.75465   0.76144  305.195
 3920.00    0.74583   0.74729  319.377
 3921.00    0.75578   0.74247   -1.000
 3922.00    0.77140   0.74681   -1.000
 3923.00    0.76558   0.75213   -1.000
 3924.00    0.75643   0.74819   -1.000
 3925.00    0.73516   0.72986  335.036
 3926.00    0.67494   0.69806   -1.000
 3927.00    0.61902   0.65635   -1.000
 3928.00    0.56175   0.60947   -1.000
 3929.00    0.51157   0.55930   52.860
 3930.00    0.46087   0.50463   61.919
 3931.00    0.40350   0.44775   72.832
 3932.00    0.33835   0.39610   -1.000
 3933.00    0.29154   0.36672   -1.000
 3934.00    0.29989   0.37477   -1.000
 3935.00    0.34046   0.41760   -1.000
 3936.00    0.39740   0.47897   -1.000
 3937.00    0.47011   0.54475   -1.000
 3938.00    0.53891   0.60487   -1.000
 3939.00    0.59476   0.65383   -1.000
 3940.00    0.64746   0.68858   -1.000
 3941.00    0.68397   0.70706   -1.000
 3942.00    0.68099   0.71339   -1.000
 3943.00    0.67440   0.71627   -1.000
 3944.00    0.70395   0.72494   -1.000
 3945.00    0.74933   0.74166   -1.000
 3946.00    0.78278   0.75853   -1.000
 3947.00    0.78158   0.76916   -1.000
 3948.00    0.76726   0.77710  300.581
 3949.00    0.77858   0.78680  293.808
 3950.00    0.80310   0.79457  283.501
 3951.00    0.80201   0.79684  279.595
 3952.00    0.78006   0.79809   -1.000
 3953.00    0.79458   0.80219  281.964
 3954.00    0.81865   0.80456   -1.000
 3955.00    0.80838   0.79857  273.845
 3956.00    0.79227   0.78820  280.507
 3957.00    0.77940   0.78305  288.041
 3958.00    0.78001   0.78024  287.637
 3959.00    0.78020   0.76536   -1.000
 3960.00    0.73281   0.73120  306.887
 3961.00    0.66549   0.68640   -1.000
 3962.00    0.63410   0.64535  346.770
 3963.00    0.61084   0.61075  346.770
 3964.00    0.56624   0.57246   83.925
 3965.00    0.50158   0.51881   49.733
 3966.00    0.43026   0.44872   59.749
 3967.00    0.36475   0.38062   73.484
 3968.00    0.30294   0.33787   85.737
 3969.00    0.27369   0.33423   -1.000
 3970.00    0.32608   0.36864   -1.000
 3971.00    0.41262   0.42906   62.086
 3972.00    0.46938   0.49919   51.511
 3973.00    0.54840   0.56826   83.778
 3974.00    0.63180   0.63066  346.770
 3975.00    0.68782   0.68407  341.712
 3976.00    0.74516   0.72947   -1.000
 3977.00    0.79859   0.76895   -1.000
 3978.00    0.82317   0.80486   -1.000
 3979.00    0.84258   0.83305  259.704
 3980.00    0.86194   0.84710   -1.000
 3981.00    0.86127   0.84795   -1.000
 3982.00    0.85602   0.84491  254.134
 3983.00    0.85524   0.84769  255.690
 3984.00    0.86805   0.85730  251.963
 3985.00    0.88518   0.86930   -1.000
 3986.00    0.89517   0.88185   -1.000
 3987.00    0.90333   0.89484  238.097
 3988.00    0.91517   0.90644  234.668
 3989.00    0.92412   0.91452  234.023
 3990.00    0.91901   0.92120  233.745
 3991.00    0.93481   0.93001  230.202
 3992.00    0.96226   0.93873   -1.000
 3993.00    0.96103   0.94052   -1.000
 3994.00    0.95068   0.93243   -1.000
 3995.00    0.93544   0.91788   -1.000
 3996.00    0.93164   0.90457   -1.000
 3997.00    0.94095   0.90179   -1.000
 3998.00    0.93279   0.91271   -1.000
 3999.00    0.93342   0.93205  230.830
 4000.00    0.96982   0.95224   -1.000
 4001.00    0.99321   0.96545   -1.000
 4002.00    1.00239   0.96476   -1.000
 4003.00    0.97777   0.94708   -1.000
 4004.00    0.94420   0.91784   -1.000
 4005.00    0.92638   0.89417   -1.000
 4006.00    0.90466   0.89476  241.602
 4007.00    0.92856   0.91818  233.201
 4008.00    0.95920   0.94691  221.692
 4009.00    0.94884   0.96690   -1.000
 4010.00    0.97747   0.97632  213.447
 4011.00    0.99181   0.98030  211.950
 4012.00    0.96965   0.98324   -1.000
 4013.00    0.98286   0.98715  213.773
 4014.00    1.00011   0.99090  213.534
 4015.00    1.00376   0.99220  211.153
 4016.00    0.98989   0.99182  210.542
 4017.00    0.98977   0.99356  212.846
 4018.00    1.01268   0.99968  213.657
 4019.00    1.03037   1.00689   -1.000
 4020.00    1.03459   1.01033   -1.000
 4021.00    1.02633   1.00784   -1.000
 4022.00    0.98766   1.00094   -1.000
 4023.00    0.97833   0.99166   -1.000
 4024.00    0.99366   0.98444  216.925
 4025.00    1.00000   0.98649  215.025
 4026.00    1.02345   0.99979   -1.000
 4027.00    1.04991   1.01407   -1.000
 4028.00    1.04042   1.01190   -1.000
 4029.00    0.98580   0.98761  206.554
 4030.00    0.93777   0.95267   -1.000
 4031.00    0.93091   0.92375  230.288
 4032.00    0.94952   0.91132   -1.000
 4033.00    0.96140   0.91671   -1.000
 4034.00    0.96699   0.93801   -1.000
 4035.00    0.99944   0.97156   -1.000
 4036.00    1.02674   1.01045   -1.000
 4037.00    1.04198   1.04231  201.221
 4038.00    1.05901   1.05425  197.349
 4039.00    1.06382   1.04690   -1.000
 4040.00    1.06547   1.03454   -1.000
 4041.00    1.05440   1.02452   -1.000
 4042.00    1.03373   1.00834   -1.000
 4043.00    1.01830   0.97330   -1.000
 4044.00    0.97084   0.92509   -1.000
 4045.00    0.92240   0.89508   -1.000
 4046.00    0.92001   0.90492   -1.000
 4047.00    0.96027   0.94590   -1.000
 4048.00    0.99911   0.99325  217.593
 4049.00    1.01670   1.02671  208.028
 4050.00    1.04028   1.04013  203.958
 4051.00    1.04358   1.03706  203.527
 4052.00    1.02521   1.02282  207.076
 4053.00    1.00098   1.00512  212.707
 4054.00    0.98700   0.99225  217.127
 4055.00    0.99051   0.98391  219.647
 4056.00    0.98594   0.97655  221.238
 4057.00    0.98863   0.97400   -1.000
 4058.00    1.00646   0.98260   -1.000
 4059.00    1.01599   0.99978   -1.000
 4060.00    1.03572   1.00824   -1.000
 4061.00    1.03787   0.99198   -1.000
 4062.00    0.98179   0.95733   -1.000
 4063.00    0.92221   0.92579  236.617
 4064.00    0.92056   0.91373  242.975
 4065.00    0.95535   0.92067   -1.000
 4066.00    0.98938   0.93786   -1.000
 4067.00    0.99602   0.95826   -1.000
 4068.00    1.00218   0.97507   -1.000
 4069.00    1.02387   0.97718   -1.000
 4070.00    1.01490   0.96134   -1.000
 4071.00    0.99169   0.94240   -1.000
 4072.00    0.98060   0.93864   -1.000
 4073.00    0.98669   0.94896   -1.000
 4074.00    0.99451   0.95227   -1.000
 4075.00    0.96881   0.93456   -1.000
 4076.00    0.91336   0.90650  234.519
 4077.00    0.87047   0.89063   -1.000
 4078.00    0.88661   0.90169   -1.000
 4079.00    0.94152   0.93603  234.840
 4080.00    1.00192   0.97511   -1.000
 4081.00    1.04539   0.99698   -1.000
 4082.00    1.04172   0.99435   -1.000
 4083.00    1.00023   0.97809   -1.000
 4084.00    0.99423   0.96691   -1.000
 4085.00    1.01632   0.97290   -1.000
 4086.00    1.01860   0.99410   -1.000
 4087.00    1.03819   1.01907   -1.000
 4088.00    1.07325   1.03437   -1.000
 4089.00    1.08851   1.03368   -1.000
 4090.00    1.08529   1.02135   -1.000
 4091.00    1.06086   1.00775   -1.000
 4092.00    1.03922   0.99750   -1.000
 4093.00    1.03811   0.98576   -1.000
 4094.00    1.02599   0.96604   -1.000
 4095.00    1.00005   0.93747   -1.000
 4096.00    0.97875   0.90641   -1.000
 4097.00    0.94842   0.87552   -1.000
 4098.00    0.92216   0.83815   -1.000
 4099.00    0.88105   0.78691   -1.000
 4100.00    0.79138   0.72877   -1.000
 4101.00    0.71524   0.69012   -1.000
 4102.00    0.71292   0.69481   -1.000
 4103.00    0.77496   0.74273   -1.000
 4104.00    0.87001   0.81149   -1.000
 4105.00    0.94104   0.87233   -1.000
 4106.00    0.97612   0.91208   -1.000
 4107.00    0.98727   0.93372   -1.000
 4108.00    0.97695   0.94311   -1.000
 4109.00    0.97954   0.94694   -1.000
 4110.00    0.97976   0.95228   -1.000
 4111.00    0.97875   0.96247   -1.000
 4112.00    1.00416   0.97707   -1.000
 4113.00    1.01839   0.99472   -1.000
 4114.00    1.03769   1.01278   -1.000
 4115.00    1.06727   1.02447   -1.000
 4116.00    1.06277   1.02444   -1.000
 4117.00    1.02746   1.01398  211.037
 4118.00    0.98725   1.00070   -1.000
 4119.00    0.99628   0.99232  221.991
 4120.00    1.03631   0.99186   -1.000
 4121.00    1.03041   0.99673   -1.000
 4122.00    1.00158   1.00360  218.154
 4123.00    1.00501   1.01225  217.157
 4124.00    1.02672   1.02153  214.008
 4125.00    1.04517   1.02582   -1.000
 4126.00    1.03336   1.02076  212.774
 4127.00    1.01428   1.01058  216.573
 4128.00    1.02467   1.00254   -1.000
 4129.00    1.01286   0.99689   -1.000
 4130.00    0.99997   0.98647  223.225
 4131.00    0.98348   0.96924   -1.000
 4132.00    0.95346   0.95498  235.462
 4133.00    0.97215   0.95679   -1.000
 4134.00    1.01231   0.97822   -1.000
 4135.00    1.01742   1.01023  225.791
 4136.00    1.02826   1.04095  216.303
 4137.00    1.06581   1.06315  211.082
 4138.00    1.08757   1.07698  207.792
 4139.00    1.09146   1.08046  205.731
 4140.00    1.07487   1.06566  207.408
 4141.00    1.02177   1.03092  214.983
 4142.00    0.95080   0.99007   -1.000
 4143.00    0.92871   0.96424   -1.000
 4144.00    0.95534   0.96868   -1.000
 4145.00    0.99829   0.99656  235.427
 4146.00    1.04652   1.02496   -1.000
 4147.00    1.05766   1.03803   -1.000
 4148.00    1.03888   1.03696  219.457
 4149.00    1.02853   1.03316  224.744
 4150.00    1.02211   1.03314  229.405
 4151.00    1.02577   1.03309  229.971
 4152.00    1.02895   1.02734  228.377
 4153.00    1.05888   1.01607   -1.000
 4154.00    1.28085   1.00617   -1.000
 4155.00    1.33629   1.00531   -1.000
 4156.00    0.86111   1.01496   -1.000
 4157.00    0.71819   1.03117   -1.000
 4158.00    1.06140   1.04940  223.925
 4159.00    1.11448   1.06483   -1.000
 4160.00    1.05191   1.07533   -1.000
 4161.00    1.07166   1.08346  216.214
 4162.00    1.07599   1.09114   -1.000
 4163.00    1.06364   1.09645   -1.000
 4164.00    1.06040   1.09513   -1.000
 4165.00    1.06144   1.08502   -1.000
 4166.00    1.06074   1.07065  220.900
 4167.00    1.06583   1.06009  225.165
 4168.00    1.06372   1.05627  226.063
 4169.00    1.06620   1.05074   -1.000
 4170.00    1.05847   1.03187   -1.000
 4171.00    1.01494   1.00069   -1.000
 4172.00    0.95235   0.97250   -1.000
 4173.00    0.92251   0.96500   -1.000
 4174.00    0.95771   0.97961   -1.000
 4175.00    1.00524   1.00065  238.536
 4176.00    1.01983   1.01408  233.991
 4177.00    1.00103   1.02127   -1.000
 4178.00    0.99318   1.03015   -1.000
 4179.00    1.02038   1.04034   -1.000
 4180.00    1.04010   1.04434  229.580
 4181.00    1.02356   1.04063   -1.000
 4182.00    1.00950   1.03813   -1.000
 4183.00    1.02916   1.04454   -1.000
 4184.00    1.05488   1.05358  219.656
 4185.00    1.05391   1.05313  217.818
 4186.00    1.03241   1.04220  221.617
 4187.00    1.01256   1.03141   -1.000
 4188.00    1.00509   1.03073   -1.000
 4189.00    1.01722   1.03950   -1.000
 4190.00    1.04318   1.05098  223.908
 4191.00    1.04871   1.06291   -1.000
 4192.00    1.05589   1.07444   -1.000
 4193.00    1.08098   1.07847  214.040
 4194.00    1.07544   1.06767  215.594
 4195.00    1.03733   1.04311  224.554
 4196.00    1.00470   1.01396  234.459
 4197.00    0.97757   0.99012   -1.000
 4198.00    0.96369   0.97573  242.722
 4199.00    0.98590   0.97084   -1.000
 4200.00    0.99683   0.97424   -1.000
 4201.00    0.99778   0.98260   -1.000
 4202.00    1.01075   0.99391   -1.000
 4203.00    1.01608   1.00992  232.346
 4204.00    1.01991   1.03094  229.600
 4205.00    1.01885   1.05367   -1.000
 4206.00    1.04741   1.07426   -1.000
 4207.00    1.07311   1.08857   -1.000
 4208.00    1.07383   1.09405   -1.000
 4209.00    1.05365   1.09322   -1.000
 4210.00    1.04457   1.09301   -1.000
 4211.00    1.05089   1.09683   -1.000
 4212.00    1.04867   1.09743   -1.000
 4213.00    1.04228   1.08445   -1.000
 4214.00    1.00345   1.06023   -1.000
 4215.00    0.95485   1.04076   -1.000
 4216.00    0.97270   1.04059   -1.000
 4217.00    1.02971   1.06164   -1.000
 4218.00    1.07940   1.09202  209.468
 4219.00    1.11382   1.11564  201.970
 4220.00    1.12838   1.12321  198.096
 4221.00    1.11860   1.11187  197.928
 4222.00    1.08293   1.07951  202.849
 4223.00    1.03060   1.02604  214.172
 4224.00    0.96552   0.96063  232.287
 4225.00    0.89088   0.90340   -1.000
 4226.00    0.83368   0.87923   -1.000
 4227.00    0.84946   0.90407   -1.000
 4228.00    0.94470   0.96747   -1.000
 4229.00    1.03440   1.03292  229.436
 4230.00    1.08318   1.07159  211.803
 4231.00    1.09690   1.07955   -1.000
 4232.00    1.07007   1.06793  207.116
 4233.00    1.05467   1.05075  212.340
 4234.00    1.05139   1.03680  216.278
 4235.00    1.02513   1.02850  219.736
 4236.00    0.99221   1.02581   -1.000
 4237.00    0.98999   1.03054   -1.000
 4238.00    1.00042   1.04361   -1.000
 4239.00    1.02803   1.06095   -1.000
 4240.00    1.05746   1.07772   -1.000
 4241.00    1.05341   1.09150   -1.000
 4242.00    1.07375   1.10315   -1.000
 4243.00    1.09569   1.11402   -1.000
 4244.00    1.09168   1.12045   -1.000
 4245.00    1.08571   1.11456   -1.000
 4246.00    1.05921   1.09354   -1.000
 4247.00    1.02370   1.06545   -1.000
 4248.00    1.01012   1.04284   -1.000
 4249.00    0.99813   1.03434   -1.000
 4250.00    0.99032   1.04051   -1.000
 4251.00    1.03317   1.05356   -1.000
 4252.00    1.06613   1.06187  217.692
 4253.00    1.05112   1.05779  215.093
 4254.00    1.02974   1.05018   -1.000
 4255.00    1.04395   1.05513  220.627
 4256.00    1.07540   1.07006  214.668
 4257.00    1.08624   1.07499  209.298
 4258.00    1.06185   1.05784  212.386
 4259.00    1.02919   1.03081  222.574
 4260.00    1.00094   1.01982   -1.000
 4261.00    0.99054   1.03904   -1.000
 4262.00    1.04427   1.07942   -1.000
 4263.00    1.09405   1.11875   -1.000
 4264.00    1.10859   1.14155   -1.000
 4265.00    1.13918   1.14551  196.702
 4266.00    1.13242   1.13564  198.099
 4267.00    1.10609   1.11590  203.048
 4268.00    1.08382   1.08655  209.640
 4269.00    1.05361   1.04811  216.800
 4270.00    1.01551   1.00677  228.014
 4271.00    0.97717   0.97419  242.873
 4272.00    0.96003   0.96074  251.935
 4273.00    0.94963   0.96768   -1.000
 4274.00    0.95845   0.98982   -1.000
 4275.00    0.99684   1.02412   -1.000
 4276.00    1.03903   1.06557   -1.000
 4277.00    1.07788   1.09958   -1.000
 4278.00    1.09600   1.11112   -1.000
 4279.00    1.07922   1.10072   -1.000
 4280.00    1.04775   1.08442   -1.000
 4281.00    1.02946   1.07643   -1.000
 4282.00    1.04802   1.07729   -1.000
 4283.00    1.06101   1.07663   -1.000
 4284.00    1.04417   1.06868   -1.000
 4285.00    1.01684   1.05603   -1.000
 4286.00    1.00324   1.04039   -1.000
 4287.00    0.99617   1.02016   -1.000
 4288.00    0.96479   0.99385   -1.000
 4289.00    0.91635   0.96960   -1.000
 4290.00    0.91245   0.96447   -1.000
 4291.00    0.96021   0.98388   -1.000
 4292.00    1.00457   1.01238  236.460
 4293.00    1.02162   1.03035  226.359
 4294.00    1.01326   1.03004   -1.000
 4295.00    0.99226   1.01568   -1.000
 4296.00    0.97165   0.99145   -1.000
 4297.00    0.93379   0.95681   -1.000
 4298.00    0.89215   0.91467   -1.000
 4299.00    0.86134   0.87833   -1.000
 4300.00    0.83189   0.86009   -1.000
 4301.00    0.81790   0.86042   -1.000
 4302.00    0.82493   0.87098   -1.000
 4303.00    0.85002   0.88462   -1.000
 4304.00    0.87157   0.89580   -1.000
 4305.00    0.87623   0.89584   -1.000
 4306.00    0.85493   0.88033   -1.000
 4307.00    0.82404   0.85822   -1.000
 4308.00    0.80942   0.84626   -1.000
 4309.00    0.81593   0.85645   -1.000
 4310.00    0.84399   0.88588   -1.000
 4311.00    0.88031   0.92173   -1.000
 4312.00    0.91182   0.95826   -1.000
 4313.00    0.94282   1.00077   -1.000
 4314.00    0.99007   1.05433   -1.000
 4315.00    1.06063   1.11635   -1.000
 4316.00    1.12714   1.17256   -1.000
 4317.00    1.17620   1.20672   -1.000
 4318.00    1.19617   1.21368   -1.000
 4319.00    1.18625   1.20160   -1.000
 4320.00    1.16842   1.17882  190.206
 4321.00    1.12539   1.14438   -1.000
 4322.00    1.08316   1.09471  203.700
 4323.00    1.04136   1.03559  216.186
 4324.00    0.98044   0.98728  234.013
 4325.00    0.95055   0.97315   -1.000
 4326.00    0.98956   1.00283   -1.000
 4327.00    1.06496   1.06208  224.947
 4328.00    1.12308   1.11814  204.576
 4329.00    1.14033   1.14863  195.243
 4330.00    1.12756   1.15604   -1.000
 4331.00    1.12636   1.15621   -1.000
 4332.00    1.14416   1.15903   -1.000
 4333.00    1.15792   1.16038  189.004
 4334.00    1.16561   1.14939  187.846
 4335.00    1.14775   1.11471   -1.000
 4336.00    1.09829   1.04978   -1.000
 4337.00    1.01221   0.96162   -1.000
 4338.00    0.91276   0.87405   -1.000
 4339.00    0.82142   0.81514  253.886
 4340.00    0.75460   0.80499   -1.000
 4341.00    0.77487   0.84627   -1.000
 4342.00    0.87245   0.91908   -1.000
 4343.00    0.98432   0.99175  218.345
 4344.00    1.06664   1.04762   -1.000
 4345.00    1.10340   1.08909  202.374
 4346.00    1.11549   1.12235  197.880
 4347.00    1.12738   1.14938   -1.000
 4348.00    1.14871   1.16414   -1.000
 4349.00    1.14473   1.15544  191.164
 4350.00    1.10698   1.12254   -1.000
 4351.00    1.05668   1.08605   -1.000
 4352.00    1.03538   1.07265   -1.000
 4353.00    1.05185   1.09060   -1.000
 4354.00    1.09840   1.12628   -1.000
 4355.00    1.13489   1.15896   -1.000
 4356.00    1.16031   1.17797   -1.000
 4357.00    1.17547   1.18406  191.559
 4358.00    1.15464   1.18322   -1.000
 4359.00    1.13249   1.18459   -1.000
 4360.00    1.13584   1.19568   -1.000
 4361.00    1.16048   1.21435   -1.000
 4362.00    1.19209   1.23192   -1.000
 4363.00    1.21941   1.24473   -1.000
 4364.00    1.21963   1.25182   -1.000
 4365.00    1.21548   1.24729   -1.000
 4366.00    1.20715   1.22860   -1.000
 4367.00    1.16970   1.20503   -1.000
 4368.00    1.14850   1.18744   -1.000
 4369.00    1.14984   1.17801   -1.000
 4370.00    1.15799   1.17194   -1.000
 4371.00    1.14590   1.16223   -1.000
 4372.00    1.13378   1.14401  195.887
 4373.00    1.11822   1.11932  200.745
 4374.00    1.08901   1.09966  209.128
 4375.00    1.08079   1.10040   -1.000
 4376.00    1.09711   1.12513   -1.000
 4377.00    1.13687   1.15830   -1.000
 4378.00    1.16624   1.18081   -1.000
 4379.00    1.16978   1.18187  191.200
 4380.00    1.16697   1.15574  193.569
 4381.00    1.14848   1.10161   -1.000
 4382.00    1.08495   1.03250   -1.000
 4383.00    1.00322   0.97749   -1.000
 4384.00    0.96414   0.96777  255.639
 4385.00    1.00598   1.00553  244.438
 4386.00    1.08532   1.05906   -1.000
 4387.00    1.13038   1.09632   -1.000
 4388.00    1.12199   1.11044  203.437
 4389.00    1.11946   1.11418  204.780
 4390.00    1.13591   1.12016  206.348
 4391.00    1.14331   1.13188  204.724
 4392.00    1.15543   1.14392  200.272
 4393.00    1.15835   1.14893  198.487
 4394.00    1.13913   1.15065  201.503
 4395.00    1.12017   1.16095   -1.000
 4396.00    1.14367   1.18132   -1.000
 4397.00    1.16784   1.19630   -1.000
 4398.00    1.17166   1.19230   -1.000
 4399.00    1.16637   1.17522  194.132
 4400.00    1.13593   1.16063   -1.000
 4401.00    1.14073   1.15456   -1.000
 4402.00    1.16502   1.14717   -1.000
 4403.00    1.14685   1.12704   -1.000
 4404.00    1.10433   1.10199  210.473
 4405.00    1.10477   1.09074  218.072
 4406.00    1.12576   1.09917   -1.000
 4407.00    1.11892   1.11892  209.453
 4408.00    1.12393   1.14395   -1.000
 4409.00    1.16109   1.17755   -1.000
 4410.00    1.20134   1.21736   -1.000
 4411.00    1.23919   1.24560  186.444
 4412.00    1.24446   1.24601  182.123
 4413.00    1.21942   1.21879  183.402
 4414.00    1.17936   1.17849  191.243
 4415.00    1.13314   1.14834   -1.000
 4416.00    1.12353   1.14843   -1.000
 4417.00    1.14277   1.17900   -1.000
 4418.00    1.19056   1.22144   -1.000
 4419.00    1.22728   1.25423   -1.000
 4420.00    1.23226   1.26325   -1.000
 4421.00    1.23477   1.25118   -1.000
 4422.00    1.22507   1.23408  190.063
 4423.00    1.20333   1.22501   -1.000
 4424.00    1.19454   1.22460   -1.000
 4425.00    1.20127   1.22549   -1.000
 4426.00    1.18677   1.22506   -1.000
 4427.00    1.17232   1.22702   -1.000
 4428.00    1.16724   1.23114   -1.000
 4429.00    1.16340   1.23422   -1.000
 4430.00    1.18284   1.23548   -1.000
 4431.00    1.20058   1.23438   -1.000
 4432.00    1.18894   1.22681   -1.000
 4433.00    1.17145   1.20799   -1.000
 4434.00    1.14352   1.18527   -1.000
 4435.00    1.12776   1.17935   -1.000
 4436.00    1.16283   1.20313   -1.000
 4437.00    1.22019   1.24595   -1.000
 4438.00    1.26223   1.28208   -1.000
 4439.00    1.25831   1.29190   -1.000
 4440.00    1.23181   1.27201   -1.000
 4441.00    1.20663   1.23568   -1.000
 4442.00    1.17644   1.20773   -1.000
 4443.00    1.15696   1.20768   -1.000
 4444.00    1.17323   1.23522   -1.000
 4445.00    1.22196   1.27125   -1.000
 4446.00    1.25992   1.29653   -1.000
 4447.00    1.27443   1.30581   -1.000
 4448.00    1.27207   1.30549   -1.000
 4449.00    1.25243   1.30237   -1.000
 4450.00    1.24582   1.29758   -1.000
 4451.00    1.25839   1.28809   -1.000
 4452.00    1.25654   1.26804  184.740
 4453.00    1.22255   1.23454  188.654
 4454.00    1.19255   1.19762  196.684
 4455.00    1.17458   1.17485  203.563
 4456.00    1.16984   1.17337  203.991
 4457.00    1.19085   1.18372  200.168
 4458.00    1.19968   1.19228  198.311
 4459.00    1.19130   1.19497  199.001
 4460.00    1.17889   1.19678   -1.000
 4461.00    1.16375   1.20405   -1.000
 4462.00    1.17353   1.22061   -1.000
 4463.00    1.21900   1.24394   -1.000
 4464.00    1.25095   1.26428  189.136
 4465.00    1.25286   1.27323   -1.000
 4466.00    1.24490   1.26983   -1.000
 4467.00    1.23983   1.25905   -1.000
 4468.00    1.21600   1.24835   -1.000
 4469.00    1.20685   1.24611   -1.000
 4470.00    1.22382   1.25840   -1.000
 4471.00    1.25564   1.28364   -1.000
 4472.00    1.28882   1.31363   -1.000
 4473.00    1.33085   1.33932  176.196
 4474.00    1.34648   1.35541  172.979
 4475.00    1.32837   1.36350   -1.000
 4476.00    1.33510   1.36773   -1.000
 4477.00    1.34852   1.36599   -1.000
 4478.00    1.33449   1.35075   -1.000
 4479.00    1.29128   1.31917   -1.000
 4480.00    1.25683   1.28160   -1.000
 4481.00    1.23023   1.25901   -1.000
 4482.00    1.22282   1.26522   -1.000
 4483.00    1.26384   1.29628   -1.000
 4484.00    1.30552   1.33639   -1.000
 4485.00    1.33419   1.36682   -1.000
 4486.00    1.33560   1.37459   -1.000
 4487.00    1.32255   1.35913   -1.000
 4488.00    1.29972   1.33254   -1.000
 4489.00    1.26483   1.31219   -1.000
 4490.00    1.25088   1.30961   -1.000
 4491.00    1.28774   1.32182   -1.000
 4492.00    1.32566   1.33430  177.406
 4493.00    1.31929   1.33435   -1.000
 4494.00    1.28420   1.32389   -1.000
 4495.00    1.25862   1.31745   -1.000
 4496.00    1.26973   1.32442   -1.000
 4497.00    1.29515   1.34051   -1.000
 4498.00    1.31850   1.35552   -1.000
 4499.00    1.33142   1.36261   -1.000
 4500.00    1.31902   1.36313   -1.000
 4501.00    1.30344   1.36712   -1.000
 4502.00    1.31135   1.38312   -1.000
 4503.00    1.34466   1.40803   -1.000
 4504.00    1.38729   1.43116   -1.000
 4505.00    1.40037   1.44216   -1.000
 4506.00    1.37522   1.43896   -1.000
 4507.00    1.36115   1.42902   -1.000
 4508.00    1.37889   1.42212   -1.000
 4509.00    1.39959   1.42191   -1.000
 4510.00    1.39651   1.42347   -1.000
 4511.00    1.38542   1.41937   -1.000
 4512.00    1.36877   1.40735   -1.000
 4513.00    1.34321   1.39202   -1.000
 4514.00    1.33544   1.37920   -1.000
 4515.00    1.33841   1.37208   -1.000
 4516.00    1.34285   1.37025   -1.000
 4517.00    1.34927   1.36948   -1.000
 4518.00    1.34206   1.36846   -1.000
 4519.00    1.34124   1.37129   -1.000
 4520.00    1.35171   1.37833   -1.000
 4521.00    1.35102   1.38280   -1.000
 4522.00    1.32398   1.37763   -1.000
 4523.00    1.31013   1.36303   -1.000
 4524.00    1.31806   1.34449   -1.000
 4525.00    1.30955   1.32355  181.988
 4526.00    1.28044   1.29784   -1.000
 4527.00    1.24266   1.26944   -1.000
 4528.00    1.22224   1.24764   -1.000
 4529.00    1.23111   1.24162  196.385
 4530.00    1.25243   1.25090  193.893
 4531.00    1.27806   1.26517  190.347
 4532.00    1.29165   1.27120   -1.000
 4533.00    1.27288   1.26480  189.943
 4534.00    1.23652   1.25670   -1.000
 4535.00    1.22110   1.26401   -1.000
 4536.00    1.26344   1.29518   -1.000
 4537.00    1.32958   1.34025  180.179
 4538.00    1.36988   1.37757  172.164
 4539.00    1.37151   1.39161   -1.000
 4540.00    1.34666   1.38583   -1.000
 4541.00    1.36474   1.37604  175.861
 4542.00    1.28098   1.37302   -1.000
 4543.00    0.67869   1.37438   -1.000
 4544.00    0.07128   1.37187   -1.000
 4545.00    0.17549   1.36358   -1.000
 4546.00    0.73863   1.35339   -1.000
 4547.00    0.87620   1.34169   -1.000
 4548.00    0.73342   1.32712   -1.000
 4549.00    1.25741   1.31524   -1.000
 4550.00    1.28560   1.31515   -1.000
 4551.00    1.29181   1.32596   -1.000
 4552.00    1.30449   1.33485   -1.000
 4553.00    1.28730   1.33290   -1.000
 4554.00    1.25894   1.32620   -1.000
 4555.00    1.27754   1.32806   -1.000
 4556.00    1.31197   1.34676   -1.000
 4557.00    1.35704   1.37793   -1.000
 4558.00    1.39099   1.40830   -1.000
 4559.00    1.39352   1.42893   -1.000
 4560.00    1.38106   1.43869   -1.000
 4561.00    1.38316   1.43843   -1.000
 4562.00    1.38431   1.42774   -1.000
 4563.00    1.35654   1.40810   -1.000
 4564.00    1.31873   1.38803   -1.000
 4565.00    1.32144   1.37992   -1.000
 4566.00    1.34852   1.38994   -1.000
 4567.00    1.37423   1.41156   -1.000
 4568.00    1.40089   1.42918   -1.000
 4569.00    1.41911   1.43089  167.099
 4570.00    1.39674   1.41689   -1.000
 4571.00    1.34621   1.39890   -1.000
 4572.00    1.34082   1.39222   -1.000
 4573.00    1.36953   1.40302   -1.000
 4574.00    1.39208   1.42204   -1.000
 4575.00    1.40574   1.43503   -1.000
 4576.00    1.40781   1.43678   -1.000
 4577.00    1.37767   1.42885   -1.000
 4578.00    1.34582   1.41201   -1.000
 4579.00    1.34617   1.38792   -1.000
 4580.00    1.34185   1.36355   -1.000
 4581.00    1.32547   1.34768   -1.000
 4582.00    1.32417   1.34418   -1.000
 4583.00    1.33199   1.34904   -1.000
 4584.00    1.33551   1.35511   -1.000
 4585.00    1.33560   1.36014   -1.000
 4586.00    1.33591   1.36882   -1.000
 4587.00    1.35715   1.38474   -1.000
 4588.00    1.38274   1.40397   -1.000
 4589.00    1.39253   1.41740   -1.000
 4590.00    1.39060   1.41792   -1.000
 4591.00    1.37290   1.40674   -1.000
 4592.00    1.35689   1.39271   -1.000
 4593.00    1.34346   1.38484   -1.000
 4594.00    1.33886   1.38558   -1.000
 4595.00    1.35729   1.39143   -1.000
 4596.00    1.37036   1.39863   -1.000
 4597.00    1.37488   1.40519   -1.000
 4598.00    1.38297   1.40897   -1.000
 4599.00    1.39763   1.40772  173.290
 4600.00    1.39383   1.40219  174.902
 4601.00    1.35838   1.39635   -1.000
 4602.00    1.34685   1.39416   -1.000
 4603.00    1.37112   1.39619   -1.000
 4604.00    1.39319   1.40097  172.451
 4605.00    1.39061   1.40825   -1.000
 4606.00    1.37658   1.41969   -1.000
 4607.00    1.39092   1.43646   -1.000
 4608.00    1.41713   1.45601   -1.000
 4609.00    1.44824   1.47147   -1.000
 4610.00    1.45701   1.47545   -1.000
 4611.00    1.43592   1.46775   -1.000
 4612.00    1.42533   1.45706   -1.000
 4613.00    1.40713   1.45084   -1.000
 4614.00    1.40635   1.45041   -1.000
 4615.00    1.41931   1.45288   -1.000
 4616.00    1.42472   1.45402   -1.000
 4617.00    1.42138   1.45185   -1.000
 4618.00    1.41613   1.44852   -1.000
 4619.00    1.41294   1.44877   -1.000
 4620.00    1.42961   1.45576   -1.000
 4621.00    1.44348   1.46761   -1.000
 4622.00    1.44903   1.47742   -1.000
 4623.00    1.45304   1.47975   -1.000
 4624.00    1.43921   1.47649   -1.000
 4625.00    1.44045   1.47194   -1.000
 4626.00    1.45551   1.46773  164.885
 4627.00    1.44957   1.46477   -1.000
 4628.00    1.43575   1.46336   -1.000
 4629.00    1.42990   1.46364   -1.000
 4630.00    1.43571   1.46660   -1.000
 4631.00    1.43427   1.47164   -1.000
 4632.00    1.43508   1.47375   -1.000
 4633.00    1.43586   1.46826   -1.000
 4634.00    1.44384   1.45796  167.672
 4635.00    1.43885   1.44857  168.629
 4636.00    1.42996   1.44131  169.062
 4637.00    1.40687   1.43477   -1.000
 4638.00    1.38855   1.43046   -1.000
 4639.00    1.38985   1.43188   -1.000
 4640.00    1.41313   1.44094   -1.000
 4641.00    1.43659   1.45520   -1.000
 4642.00    1.45239   1.46733  164.335
 4643.00    1.46655   1.46838  163.409
 4644.00    1.43926   1.45512  165.204
 4645.00    1.39330   1.43170   -1.000
 4646.00    1.37223   1.40553   -1.000
 4647.00    1.36642   1.38764   -1.000
 4648.00    1.38948   1.38833  175.818
 4649.00    1.41853   1.40662  172.128
 4650.00    1.41848   1.43090  168.791
 4651.00    1.41529   1.44908   -1.000
 4652.00    1.42019   1.45576   -1.000
 4653.00    1.42227   1.45196   -1.000
 4654.00    1.40424   1.44170   -1.000
 4655.00    1.37676   1.43265   -1.000
 4656.00    1.38145   1.43459   -1.000
 4657.00    1.41751   1.45311   -1.000
 4658.00    1.45648   1.48427   -1.000
 4659.00    1.49159   1.51462   -1.000
 4660.00    1.50489   1.52932   -1.000
 4661.00    1.49843   1.52405   -1.000
 4662.00    1.47393   1.50511   -1.000
 4663.00    1.45085   1.48113   -1.000
 4664.00    1.44762   1.45597  167.043
 4665.00    1.42989   1.42759  168.333
 4666.00    1.39360   1.39497  173.089
 4667.00    1.34841   1.36628   -1.000
 4668.00    1.32593   1.35590   -1.000
 4669.00    1.34800   1.37102   -1.000
 4670.00    1.39965   1.40317  175.642
 4671.00    1.44096   1.43580  169.349
 4672.00    1.44653   1.45735  166.401
 4673.00    1.44011   1.46799   -1.000
 4674.00    1.43570   1.47523   -1.000
 4675.00    1.43941   1.48402   -1.000
 4676.00    1.46746   1.49022   -1.000
 4677.00    1.48169   1.48511  161.571
 4678.00    1.45567   1.46741  163.660
 4679.00    1.42169   1.44529   -1.000
 4680.00    1.41770   1.42861  170.253
 4681.00    1.40898   1.42211  172.550
 4682.00    1.40062   1.42541   -1.000
 4683.00    1.42324   1.43576  169.274
 4684.00    1.44222   1.44779  165.802
 4685.00    1.44393   1.45612  164.877
 4686.00    1.45036   1.45950  165.327
 4687.00    1.45480   1.46035  165.746
 4688.00    1.45218   1.46084  166.329
 4689.00    1.45278   1.46122  166.303
 4690.00    1.45111   1.46082  166.827
 4691.00    1.45334   1.45987  167.713
 4692.00    1.45984   1.46167  167.019
 4693.00    1.47394   1.46875  164.730
 4694.00    1.48528   1.47859  161.729
 4695.00    1.50269   1.48621  158.737
 4696.00    1.51743   1.48707   -1.000
 4697.00    1.49913   1.47752   -1.000
 4698.00    1.46611   1.45882  165.329
 4699.00    1.44381   1.43814  169.036
 4700.00    1.44255   1.42135   -1.000
 4701.00    1.44406   1.40915   -1.000
 4702.00    1.43031   1.40088   -1.000
 4703.00    1.42628   1.39984   -1.000
 4704.00    1.42966   1.40865   -1.000
 4705.00    1.43162   1.42066  169.293
 4706.00    1.43468   1.42466  168.877
 4707.00    1.41408   1.41840  171.865
 4708.00    1.39118   1.41137   -1.000
 4709.00    1.40015   1.41396  175.107
 4710.00    1.42110   1.42735  172.257
 4711.00    1.45352   1.44476  167.177
 4712.00    1.48146   1.45746   -1.000
 4713.00    1.47768   1.46000  163.691
 4714.00    1.44668   1.45680  166.030
 4715.00    1.43030   1.45906   -1.000
 4716.00    1.46138   1.47293  166.354
 4717.00    1.48203   1.49386  162.973
 4718.00    1.49399   1.51219   -1.000
 4719.00    1.51740   1.52273  160.015
 4720.00    1.52345   1.52591  159.470
 4721.00    1.50539   1.52491   -1.000
 4722.00    1.48442   1.52363   -1.000
 4723.00    1.48119   1.52480   -1.000
 4724.00    1.49647   1.52664   -1.000
 4725.00    1.50619   1.52258  159.022
 4726.00    1.48676   1.50660   -1.000
 4727.00    1.45041   1.47992   -1.000
 4728.00    1.42275   1.45299   -1.000
 4729.00    1.41795   1.43733   -1.000
 4730.00    1.42090   1.43576  171.727
 4731.00    1.44560   1.44383  170.105
 4732.00    1.46549   1.45649  168.480
 4733.00    1.45588   1.46886  166.660
 4734.00    1.46328   1.47619  165.448
 4735.00    1.48331   1.47770  164.533
 4736.00    1.48100   1.47689  164.743
 4737.00    1.47543   1.47805  165.967
 4738.00    1.47422   1.48371  165.110
 4739.00    1.48772   1.49211  163.812
 4740.00    1.48307   1.49818  164.343
 4741.00    1.46172   1.50073   -1.000
 4742.00    1.48173   1.50390   -1.000
 4743.00    1.49329   1.50961   -1.000
 4744.00    1.49722   1.51560   -1.000
 4745.00    1.50438   1.52018  162.396
 4746.00    1.50497   1.52476   -1.000
 4747.00    1.50746   1.53175   -1.000
 4748.00    1.50960   1.54096   -1.000
 4749.00    1.50866   1.54986   -1.000
 4750.00    1.50997   1.55565   -1.000
 4751.00    1.50909   1.55473   -1.000
 4752.00    1.49172   1.54501   -1.000
 4753.00    1.48525   1.52917   -1.000
 4754.00    1.48902   1.51411   -1.000
 4755.00    1.48918   1.50625   -1.000
 4756.00    1.47554   1.50704   -1.000
 4757.00    1.45928   1.51402   -1.000
 4758.00    1.45282   1.52401   -1.000
 4759.00    1.46778   1.53290   -1.000
 4760.00    1.47973   1.53434   -1.000
 4761.00    1.46393   1.52290   -1.000
 4762.00    1.43420   1.49955   -1.000
 4763.00    1.41220   1.47369   -1.000
 4764.00    1.41198   1.45596   -1.000
 4765.00    1.42270   1.44918   -1.000
 4766.00    1.42953   1.45252   -1.000
 4767.00    1.44449   1.46732   -1.000
 4768.00    1.47261   1.49251   -1.000
 4769.00    1.49349   1.51854   -1.000
 4770.00    1.49845   1.53356   -1.000
 4771.00    1.48883   1.53526   -1.000
 4772.00    1.47710   1.53291   -1.000
 4773.00    1.49391   1.53731   -1.000
 4774.00    1.50460   1.55078   -1.000
 4775.00    1.50842   1.56627   -1.000
 4776.00    1.51753   1.57582   -1.000
 4777.00    1.51801   1.57721   -1.000
 4778.00    1.52374   1.57251   -1.000
 4779.00    1.50347   1.56480   -1.000
 4780.00    1.48044   1.55667   -1.000
 4781.00    1.47579   1.54894   -1.000
 4782.00    1.46818   1.54023   -1.000
 4783.00    1.46619   1.53066   -1.000
 4784.00    1.47925   1.52264   -1.000
 4785.00    1.47743   1.51701   -1.000
 4786.00    1.46224   1.51301   -1.000
 4787.00    1.46536   1.51109   -1.000
 4788.00    1.45642   1.51248   -1.000
 4789.00    1.45905   1.51740   -1.000
 4790.00    1.47231   1.52622   -1.000
 4791.00    1.48293   1.54037   -1.000
 4792.00    1.49871   1.56036   -1.000
 4793.00    1.52683   1.58357   -1.000
 4794.00    1.54530   1.60478   -1.000
 4795.00    1.54899   1.61762   -1.000
 4796.00    1.53980   1.61717   -1.000
 4797.00    1.52771   1.60432   -1.000
 4798.00    1.50446   1.58589   -1.000
 4799.00    1.48212   1.57081   -1.000
 4800.00    1.47974   1.56698   -1.000
 4801.00    1.51380   1.57638   -1.000
 4802.00    1.53909   1.59151   -1.000
 4803.00    1.52719   1.60081   -1.000
 4804.00    1.50242   1.59844   -1.000
 4805.00    1.48690   1.58758   -1.000
 4806.00    1.48495   1.57592   -1.000
 4807.00    1.48690   1.56886   -1.000
 4808.00    1.50370   1.56814   -1.000
 4809.00    1.51468   1.57358   -1.000
 4810.00    1.50666   1.58216   -1.000
 4811.00    1.51054   1.58959   -1.000
 4812.00    1.51845   1.59474   -1.000
 4813.00    1.52903   1.59960   -1.000
 4814.00    1.53466   1.60599   -1.000
 4815.00    1.52330   1.61445   -1.000
 4816.00    1.53274   1.62396   -1.000
 4817.00    1.55432   1.63214   -1.000
 4818.00    1.56604   1.63727   -1.000
 4819.00    1.55950   1.63932   -1.000
 4820.00    1.54408   1.63686   -1.000
 4821.00    1.54786   1.62535   -1.000
 4822.00    1.54643   1.60256   -1.000
 4823.00    1.51615   1.57496   -1.000
 4824.00    1.49697   1.55681   -1.000
 4825.00    1.50164   1.55843   -1.000
 4826.00    1.51914   1.57381   -1.000
 4827.00    1.52383   1.58730   -1.000
 4828.00    1.51761   1.59055   -1.000
 4829.00    1.51200   1.58646   -1.000
 4830.00    1.50624   1.57977   -1.000
 4831.00    1.51894   1.57112   -1.000
 4832.00    1.52197   1.56311   -1.000
 4833.00    1.52691   1.56165   -1.000
 4834.00    1.53241   1.56877   -1.000
 4835.00    1.53544   1.57984   -1.000
 4836.00    1.52836   1.58744   -1.000
 4837.00    1.52964   1.58694   -1.000
 4838.00    1.52941   1.57798   -1.000
 4839.00    1.51771   1.56354   -1.000
 4840.00    1.49474   1.54964   -1.000
 4841.00    1.49114   1.54213   -1.000
 4842.00    1.49824   1.54241   -1.000
 4843.00    1.50804   1.54760   -1.000
 4844.00    1.52192   1.55607   -1.000
 4845.00    1.53914   1.56770   -1.000
 4846.00    1.55677   1.57681   -1.000
 4847.00    1.54147   1.57539   -1.000
 4848.00    1.51939   1.56543   -1.000
 4849.00    1.51661   1.55761   -1.000
 4850.00    1.52266   1.55775   -1.000
 4851.00    1.52375   1.56067   -1.000
 4852.00    1.51233   1.55643   -1.000
 4853.00    1.50406   1.53821   -1.000
 4854.00    1.47079   1.50598   -1.000
 4855.00    1.41777   1.46872   -1.000
 4856.00    1.40693   1.43802   -1.000
 4857.00    1.42900   1.41321  173.190
 4858.00    1.39460   1.37511   -1.000
 4859.00    1.28171   1.30409   -1.000
 4860.00    1.10124   1.21114   -1.000
 4861.00    0.93874   1.13948   -1.000
 4862.00    0.95165   1.12968   -1.000
 4863.00    1.13242   1.18458   -1.000
 4864.00    1.31009   1.27059   -1.000
 4865.00    1.39435   1.35245   -1.000
 4866.00    1.42358   1.41468  173.273
 4867.00    1.43872   1.45646   -1.000
 4868.00    1.45163   1.47918   -1.000
 4869.00    1.46881   1.48153  169.509
 4870.00    1.46184   1.46423  172.353
 4871.00    1.42520   1.43806  177.090
 4872.00    1.41950   1.42463  179.077
 4873.00    1.44184   1.43929  175.925
 4874.00    1.45127   1.47353   -1.000
 4875.00    1.46538   1.50540   -1.000
 4876.00    1.48032   1.52315   -1.000
 4877.00    1.49071   1.53328   -1.000
 4878.00    1.50464   1.54739   -1.000
 4879.00    1.52133   1.56682   -1.000
 4880.00    1.52318   1.58253   -1.000
 4881.00    1.50084   1.58570   -1.000
 4882.00    1.48576   1.57793   -1.000
 4883.00    1.47766   1.56748   -1.000
 4884.00    1.47214   1.55641   -1.000
 4885.00    1.47020   1.54268   -1.000
 4886.00    1.47008   1.52935   -1.000
 4887.00    1.47422   1.52131   -1.000
 4888.00    1.48392   1.51606   -1.000
 4889.00    1.47393   1.50496   -1.000
 4890.00    1.43925   1.48739   -1.000
 4891.00    1.42902   1.47864   -1.000
 4892.00    1.47175   1.49805   -1.000
 4893.00    1.51908   1.54930   -1.000
 4894.00    1.55722   1.61213   -1.000
 4895.00    1.59550   1.66042   -1.000
 4896.00    1.61259   1.68460   -1.000
 4897.00    1.61534   1.68896   -1.000
 4898.00    1.60503   1.68018   -1.000
 4899.00    1.58027   1.66459   -1.000
 4900.00    1.54147   1.64879   -1.000
 4901.00    1.53376   1.63675   -1.000
 4902.00    1.55080   1.62754   -1.000
 4903.00    1.53989   1.62021   -1.000
 4904.00    1.53565   1.62058   -1.000
 4905.00    1.56084   1.63425   -1.000
 4906.00    1.59124   1.65269   -1.000
 4907.00    1.60708   1.65890   -1.000
 4908.00    1.59263   1.64439   -1.000
 4909.00    1.54157   1.61504   -1.000
 4910.00    1.49980   1.58634   -1.000
 4911.00    1.50496   1.57384   -1.000
 4912.00    1.52618   1.58332   -1.000
 4913.00    1.55056   1.60733   -1.000
 4914.00    1.57128   1.63329   -1.000
 4915.00    1.57908   1.65062   -1.000
 4916.00    1.58941   1.64799   -1.000
 4917.00    1.57211   1.61532   -1.000
 4918.00    1.52089   1.55558   -1.000
 4919.00    1.46320   1.48925   -1.000
 4920.00    1.42711   1.44419   -1.000
 4921.00    1.44253   1.43733  181.355
 4922.00    1.47499   1.46262  174.994
 4923.00    1.49534   1.49834  170.076
 4924.00    1.52408   1.52864  168.549
 4925.00    1.54175   1.55517  167.669
 4926.00    1.54598   1.58546   -1.000
 4927.00    1.56982   1.61984   -1.000
 4928.00    1.60718   1.65163   -1.000
 4929.00    1.62524   1.67412   -1.000
 4930.00    1.63729   1.68349   -1.000
 4931.00    1.62626   1.67608   -1.000
 4932.00    1.59376   1.65094   -1.000
 4933.00    1.54960   1.61749   -1.000
 4934.00    1.52724   1.59257   -1.000
 4935.00    1.53840   1.58484   -1.000
 4936.00    1.55853   1.58427   -1.000
 4937.00    1.54580   1.57303   -1.000
 4938.00    1.50924   1.55126   -1.000
 4939.00    1.48497   1.54015   -1.000
 4940.00    1.51726   1.55687   -1.000
 4941.00    1.57083   1.59722   -1.000
 4942.00    1.60217   1.64059   -1.000
 4943.00    1.60513   1.66900   -1.000
 4944.00    1.61747   1.67874   -1.000
 4945.00    1.62951   1.67625   -1.000
 4946.00    1.62101   1.67131   -1.000
 4947.00    1.61159   1.67289   -1.000
 4948.00    1.62376   1.68375   -1.000
 4949.00    1.63118   1.69743   -1.000
 4950.00    1.64196   1.70506   -1.000
 4951.00    1.65619   1.70384   -1.000
 4952.00    1.64934   1.69693   -1.000
 4953.00    1.63017   1.68723   -1.000
 4954.00    1.61357   1.67194   -1.000
 4955.00    1.58788   1.64134   -1.000
 4956.00    1.53248   1.58995   -1.000
 4957.00    1.47840   1.53607   -1.000
 4958.00    1.47741   1.51458   -1.000
 4959.00    1.52403   1.54189   -1.000
 4960.00    1.58070   1.59798   -1.000
 4961.00    1.59656   1.64770   -1.000
 4962.00    1.58730   1.67267   -1.000
 4963.00    1.58818   1.67525   -1.000
 4964.00    1.58491   1.66289   -1.000
 4965.00    1.57132   1.64222   -1.000
 4966.00    1.55234   1.62127   -1.000
 4967.00    1.55475   1.60712   -1.000
 4968.00    1.56297   1.60210   -1.000
 4969.00    1.54895   1.60568   -1.000
 4970.00    1.54374   1.61686   -1.000
 4971.00    1.57005   1.63354   -1.000
 4972.00    1.59936   1.65211   -1.000
 4973.00    1.62494   1.66861   -1.000
 4974.00    1.62523   1.67936   -1.000
 4975.00    1.62699   1.68186   -1.000
 4976.00    1.61585   1.67575   -1.000
 4977.00    1.58977   1.66234   -1.000
 4978.00    1.57029   1.64441   -1.000
 4979.00    1.55946   1.62386   -1.000
 4980.00    1.54184   1.59798   -1.000
 4981.00    1.52116   1.56153   -1.000
 4982.00    1.48737   1.51725   -1.000
 4983.00    1.46564   1.48173   -1.000
 4984.00    1.47435   1.47456  181.344
 4985.00    1.49979   1.50044  177.220
 4986.00    1.52851   1.54540   -1.000
 4987.00    1.56305   1.58951   -1.000
 4988.00    1.58262   1.61766   -1.000
 4989.00    1.57669   1.62410   -1.000
 4990.00    1.55738   1.61544   -1.000
 4991.00    1.56056   1.60529   -1.000
 4992.00    1.59375   1.60291  168.255
 4993.00    1.59777   1.60820  167.016
 4994.00    1.58737   1.61664   -1.000
 4995.00    1.59512   1.62561   -1.000
 4996.00    1.60283   1.63328   -1.000
 4997.00    1.59487   1.63429   -1.000
 4998.00    1.57295   1.62216   -1.000
 4999.00    1.54397   1.59691   -1.000
 5000.00    1.52263   1.56788   -1.000
 5001.00    1.53218   1.54784  173.725
 5002.00    1.54220   1.54296  173.141
 5003.00    1.54036   1.54642  171.648
 5004.00    1.54274   1.54382  171.854
 5005.00    1.52793   1.52814  175.110
 5006.00    1.49984   1.51098  178.340
 5007.00    1.50260   1.51279  177.237
 5008.00    1.53940   1.53861  172.381
 5009.00    1.57993   1.57121  168.374
 5010.00    1.58369   1.58693  168.122
 5011.00    1.54337   1.57419   -1.000
 5012.00    1.50762   1.53992   -1.000
 5013.00    1.48342   1.50345   -1.000
 5014.00    1.45940   1.48290   -1.000
 5015.00    1.47122   1.48253  183.015
 5016.00    1.49990   1.49335  178.978
 5017.00    1.51157   1.50451  176.346
 5018.00    1.52432   1.51392  175.952
 5019.00    1.53428   1.52613  175.243
 5020.00    1.54971   1.54059  173.412
 5021.00    1.55617   1.55108  172.815
 5022.00    1.55743   1.55611  173.486
 5023.00    1.57114   1.56281  173.349
 5024.00    1.58106   1.57739  172.012
 5025.00    1.59056   1.59305  170.418
 5026.00    1.58777   1.59803  170.011
 5027.00    1.57536   1.59341   -1.000
 5028.00    1.57459   1.59092  170.801
 5029.00    1.58541   1.59917  168.565
 5030.00    1.60083   1.61825   -1.000
 5031.00    1.62615   1.64252  163.168
 5032.00    1.64682   1.66417  160.793
 5033.00    1.65136   1.67380   -1.000
 5034.00    1.62534   1.66290   -1.000
 5035.00    1.58964   1.63368   -1.000
 5036.00    1.54964   1.60074   -1.000
 5037.00    1.54053   1.57638   -1.000
 5038.00    1.53754   1.55600   -1.000
 5039.00    1.49792   1.52486   -1.000
 5040.00    1.44385   1.48451   -1.000
 5041.00    1.41790   1.45991   -1.000
 5042.00    1.45577   1.47494   -1.000
 5043.00    1.55831   1.52920   -1.000
 5044.00    1.34648   1.59811   -1.000
 5045.00    0.51303   1.65384   -1.000
 5046.00    0.00653   1.68184   -1.000
 5047.00    0.25057   1.67967   -1.000
 5048.00    1.14113   1.65300   -1.000
 5049.00    1.66667   1.61545   -1.000
 5050.00    1.56022   1.58459   -1.000
 5051.00    1.55256   1.57296   -1.000
 5052.00    1.57194   1.58377  170.942
 5053.00    1.60413   1.61140  166.845
 5054.00    1.63919   1.64297  163.055
 5055.00    1.66685   1.66692  160.635
 5056.00    1.66751   1.68183  159.510
 5057.00    1.66611   1.69209   -1.000
 5058.00    1.67378   1.70109   -1.000
 5059.00    1.66519   1.70958   -1.000
 5060.00    1.67556   1.71640   -1.000
 5061.00    1.68404   1.71913   -1.000
 5062.00    1.65993   1.71197   -1.000
 5063.00    1.64143   1.68817   -1.000
 5064.00    1.60340   1.65214   -1.000
 5065.00    1.56716   1.62021   -1.000
 5066.00    1.56651   1.60549   -1.000
 5067.00    1.58384   1.60710   -1.000
 5068.00    1.60953   1.61517  168.529
 5069.00    1.61362   1.62321  167.947
 5070.00    1.62317   1.62929  167.025
 5071.00    1.63086   1.63021  166.812
 5072.00    1.61733   1.62478  168.218
 5073.00    1.62446   1.61948  168.290
 5074.00    1.64390   1.62152   -1.000
 5075.00    1.63899   1.62934  165.521
 5076.00    1.62894   1.63401  165.361
 5077.00    1.62484   1.62608  165.866
 5078.00    1.59991   1.60064  169.034
 5079.00    1.56925   1.56415  175.843
 5080.00    1.53731   1.53526  181.997
 5081.00    1.53704   1.52831  181.723
 5082.00    1.56251   1.54127   -1.000
 5083.00    1.57787   1.56323  174.442
 5084.00    1.59872   1.58751  171.781
 5085.00    1.62078   1.61322  168.616
 5086.00    1.63907   1.63723  166.353
 5087.00    1.66034   1.65455  165.561
 5088.00    1.66268   1.66467  165.136
 5089.00    1.66527   1.67123  164.152
 5090.00    1.67804   1.67789  163.057
 5091.00    1.68952   1.68705  162.186
 5092.00    1.70108   1.69915  160.965
 5093.00    1.70793   1.71017  159.227
 5094.00    1.71217   1.71148  158.857
 5095.00    1.70745   1.69557  161.068
 5096.00    1.66312   1.66333  164.537
 5097.00    1.62086   1.62442  168.256
 5098.00    1.61146   1.59245   -1.000
 5099.00    1.59933   1.57956   -1.000
 5100.00    1.60891   1.59081   -1.000
 5101.00    1.64136   1.61922   -1.000
 5102.00    1.67086   1.64732   -1.000
 5103.00    1.66594   1.66081  164.490
 5104.00    1.65391   1.65804  165.964
 5105.00    1.64234   1.64435  168.160
 5106.00    1.62875   1.62507  170.261
 5107.00    1.60749   1.60539  172.363
 5108.00    1.57947   1.59146  173.646
 5109.00    1.58661   1.58829  172.999
 5110.00    1.61566   1.59767   -1.000
 5111.00    1.64310   1.61787   -1.000
 5112.00    1.66527   1.64282   -1.000
 5113.00    1.66766   1.66539  165.730
 5114.00    1.67647   1.68315  163.901
 5115.00    1.69191   1.69796  162.658
 5116.00    1.70364   1.71122  161.493
 5117.00    1.71279   1.72113  159.888
 5118.00    1.71904   1.72415  159.219
 5119.00    1.70803   1.71745  160.329
 5120.00    1.68899   1.70074  162.597
 5121.00    1.66590   1.67650  165.143
 5122.00    1.63279   1.64831  168.429
 5123.00    1.60519   1.61953  173.090
 5124.00    1.59170   1.59567  176.893
 5125.00    1.58802   1.58290  176.973
 5126.00    1.61241   1.58153   -1.000
 5127.00    1.61674   1.58530   -1.000
 5128.00    1.61427   1.58891   -1.000
 5129.00    1.61555   1.59333   -1.000
 5130.00    1.61916   1.60230  173.287
 5131.00    1.63740   1.61652   -1.000
 5132.00    1.66620   1.63243   -1.000
 5133.00    1.68422   1.64652   -1.000
 5134.00    1.68958   1.65738   -1.000
 5135.00    1.69403   1.66291   -1.000
 5136.00    1.67499   1.65815  165.102
 5137.00    1.64352   1.64065  168.571
 5138.00    1.63109   1.61685  172.209
 5139.00    1.62077   1.59823   -1.000
 5140.00    1.61247   1.59106   -1.000
 5141.00    1.61807   1.59178   -1.000
 5142.00    1.61320   1.59451   -1.000
 5143.00    1.61085   1.59877  176.351
 5144.00    1.61491   1.60586  174.480
 5145.00    1.61766   1.61150  172.321
 5146.00    1.62246   1.60958  172.599
 5147.00    1.63238   1.60312   -1.000
 5148.00    1.63866   1.60225   -1.000
 5149.00    1.64588   1.60815   -1.000
 5150.00    1.63865   1.61100   -1.000
 5151.00    1.61668   1.60530  174.301
 5152.00    1.59434   1.59560  176.794
 5153.00    1.60831   1.59014   -1.000
 5154.00    1.62819   1.59552   -1.000
 5155.00    1.66156   1.61480   -1.000
 5156.00    1.70485   1.64453   -1.000
 5157.00    1.72711   1.67582   -1.000
 5158.00    1.73969   1.70002   -1.000
 5159.00    1.74331   1.71297   -1.000
 5160.00    1.75446   1.71470   -1.000
 5161.00    1.73117   1.70614   -1.000
 5162.00    1.70714   1.68742   -1.000
 5163.00    1.71258   1.65789   -1.000
 5164.00    1.68414   1.61265   -1.000
 5165.00    1.60408   1.54276   -1.000
 5166.00    1.49747   1.45205   -1.000
 5167.00    1.40751   1.36944   -1.000
 5168.00    1.37074   1.33250   -1.000
 5169.00    1.41103   1.34708   -1.000
 5170.00    1.46531   1.37188   -1.000
 5171.00    1.44298   1.36629   -1.000
 5172.00    1.37863   1.33859   -1.000
 5173.00    1.37194   1.33608   -1.000
 5174.00    1.45357   1.39155   -1.000
 5175.00    1.56345   1.48548   -1.000
 5176.00    1.63829   1.57277   -1.000
 5177.00    1.68001   1.62734   -1.000
 5178.00    1.70018   1.64935   -1.000
 5179.00    1.70241   1.64581   -1.000
 5180.00    1.67383   1.61302   -1.000
 5181.00    1.59899   1.54355   -1.000
 5182.00    1.48377   1.44730   -1.000
 5183.00    1.37375   1.36282  219.220
 5184.00    1.36100   1.33727   -1.000
 5185.00    1.45707   1.38606   -1.000
 5186.00    1.57473   1.47853   -1.000
 5187.00    1.64136   1.56424   -1.000
 5188.00    1.66558   1.61515   -1.000
 5189.00    1.67744   1.63488   -1.000
 5190.00    1.66946   1.63282   -1.000
 5191.00    1.62659   1.61326  173.369
 5192.00    1.58990   1.58739  178.785
 5193.00    1.60307   1.57216   -1.000
 5194.00    1.62352   1.57490   -1.000
 5195.00    1.62993   1.58970   -1.000
 5196.00    1.64468   1.60914   -1.000
 5197.00    1.65549   1.63269   -1.000
 5198.00    1.66421   1.66050  167.447
 5199.00    1.65552   1.68677   -1.000
 5200.00    1.65037   1.70321   -1.000
 5201.00    1.65529   1.70373   -1.000
 5202.00    1.67262   1.68557  166.673
 5203.00    1.67590   1.64962   -1.000
 5204.00    1.65101   1.60222   -1.000
 5205.00    1.60573   1.55527   -1.000
 5206.00    1.58286   1.52137   -1.000
 5207.00    1.57228   1.50599   -1.000
 5208.00    1.59250   1.50710   -1.000
 5209.00    1.61887   1.52383   -1.000
 5210.00    1.63358   1.55871   -1.000
 5211.00    1.68301   1.61019   -1.000
 5212.00    1.74504   1.66545   -1.000
 5213.00    1.76454   1.70472   -1.000
 5214.00    1.75486   1.71429   -1.000
 5215.00    1.72861   1.69786   -1.000
 5216.00    1.69916   1.67674   -1.000
 5217.00    1.70487   1.67321   -1.000
 5218.00    1.73958   1.69395   -1.000
 5219.00    1.75542   1.72792   -1.000
 5220.00    1.76364   1.75873  159.855
 5221.00    1.79094   1.77501  158.884
 5222.00    1.79676   1.77113   -1.000
 5223.00    1.77001   1.74468   -1.000
 5224.00    1.72229   1.69517   -1.000
 5225.00    1.64232   1.62973  175.440
 5226.00    1.59271   1.57136   -1.000
 5227.00    1.60132   1.54889   -1.000
 5228.00    1.64636   1.57455   -1.000
 5229.00    1.72488   1.63046   -1.000
 5230.00    1.76742   1.68138   -1.000
 5231.00    1.76380   1.70303   -1.000
 5232.00    1.75504   1.69509   -1.000
 5233.00    1.73794   1.67569   -1.000
 5234.00    1.72836   1.66805   -1.000
 5235.00    1.74556   1.68465   -1.000
 5236.00    1.77070   1.71953   -1.000
 5237.00    1.79929   1.75656   -1.000
 5238.00    1.80950   1.78232   -1.000
 5239.00    1.80350   1.79326  157.535
 5240.00    1.80762   1.79377  157.785
 5241.00    1.80937   1.78993   -1.000
 5242.00    1.80988   1.78708   -1.000
 5243.00    1.80903   1.78910   -1.000
 5244.00    1.80930   1.79332  156.461
 5245.00    1.79628   1.78921  157.403
 5246.00    1.75867   1.76973  161.352
 5247.00    1.73140   1.74069  166.047
 5248.00    1.73230   1.71516  168.630
 5249.00    1.73696   1.70065   -1.000
 5250.00    1.72313   1.69628   -1.000
 5251.00    1.69770   1.69971  169.908
 5252.00    1.70837   1.70857  168.456
 5253.00    1.74679   1.71740   -1.000
 5254.00    1.75306   1.72286   -1.000
 5255.00    1.75099   1.73135   -1.000
 5256.00    1.78161   1.75176   -1.000
 5257.00    1.81413   1.78189   -1.000
 5258.00    1.83561   1.80726   -1.000
 5259.00    1.84042   1.81196   -1.000
 5260.00    1.81298   1.78830   -1.000
 5261.00    1.75892   1.73866   -1.000
 5262.00    1.70012   1.67362   -1.000
 5263.00    1.64615   1.60781   -1.000
 5264.00    1.60161   1.55566   -1.000
 5265.00    1.58658   1.52829   -1.000
 5266.00    1.61658   1.52632   -1.000
 5267.00    1.65435   1.53392   -1.000
 5268.00    1.65031   1.53015   -1.000
 5269.00    1.60568   1.51156   -1.000
 5270.00    1.57727   1.50212   -1.000
 5271.00    1.61636   1.52789   -1.000
 5272.00    1.69782   1.58171   -1.000
 5273.00    1.74080   1.63254   -1.000
 5274.00    1.74158   1.66277   -1.000
 5275.00    1.73823   1.68146   -1.000
 5276.00    1.76154   1.70689   -1.000
 5277.00    1.80773   1.74452   -1.000
 5278.00    1.85132   1.78139   -1.000
 5279.00    1.85216   1.79767   -1.000
 5280.00    1.82972   1.78521   -1.000
 5281.00    1.80215   1.75355   -1.000
 5282.00    1.77029   1.72029   -1.000
 5283.00    1.75290   1.70200   -1.000
 5284.00    1.75671   1.71087   -1.000
 5285.00    1.80114   1.74761   -1.000
 5286.00    1.84998   1.79657   -1.000
 5287.00    1.87619   1.83621   -1.000
 5288.00    1.87478   1.85687  152.930
 5289.00    1.87745   1.86467  153.538
 5290.00    1.88571   1.86815  153.161
 5291.00    1.89432   1.86883   -1.000
 5292.00    1.88136   1.86574  152.554
 5293.00    1.86085   1.85855  153.701
 5294.00    1.84675   1.84404  155.386
 5295.00    1.83752   1.81584   -1.000
 5296.00    1.79485   1.77239   -1.000
 5297.00    1.72847   1.72647  168.977
 5298.00    1.70775   1.69994  171.452
 5299.00    1.74848   1.70302   -1.000
 5300.00    1.77720   1.72593   -1.000
 5301.00    1.78429   1.75218   -1.000
 5302.00    1.80013   1.77612   -1.000
 5303.00    1.82964   1.80290   -1.000
 5304.00    1.86194   1.83188   -1.000
 5305.00    1.88851   1.85272   -1.000
 5306.00    1.89392   1.85885   -1.000
 5307.00    1.87800   1.85565   -1.000
 5308.00    1.87824   1.85540   -1.000
 5309.00    1.89233   1.86455   -1.000
 5310.00    1.90009   1.87808   -1.000
 5311.00    1.90672   1.88651   -1.000
 5312.00    1.89648   1.88478  152.171
 5313.00    1.88317   1.87384  152.994
 5314.00    1.88289   1.85677   -1.000
 5315.00    1.87578   1.83634   -1.000
 5316.00    1.85720   1.81815   -1.000
 5317.00    1.84918   1.81085   -1.000
 5318.00    1.85680   1.81839   -1.000
 5319.00    1.86968   1.83308   -1.000
 5320.00    1.87097   1.84128   -1.000
 5321.00    1.87293   1.83524   -1.000
 5322.00    1.85956   1.81503   -1.000
 5323.00    1.83652   1.78600   -1.000
 5324.00    1.81409   1.75554   -1.000
 5325.00    1.81095   1.72601   -1.000
 5326.00    1.78777   1.68974   -1.000
 5327.00    1.71162   1.64193   -1.000
 5328.00    1.65674   1.60150   -1.000
 5329.00    1.66665   1.59948   -1.000
 5330.00    1.73858   1.64460   -1.000
 5331.00    1.82748   1.71066   -1.000
 5332.00    1.85844   1.76410   -1.000
 5333.00    1.86240   1.79556   -1.000
 5334.00    1.86249   1.81561   -1.000
 5335.00    1.88093   1.83048   -1.000
 5336.00    1.86738   1.83664   -1.000
 5337.00    1.85185   1.83003   -1.000
 5338.00    1.84537   1.80972   -1.000
 5339.00    1.83906   1.77866   -1.000
 5340.00    1.80161   1.74871   -1.000
 5341.00    1.80092   1.73737   -1.000
 5342.00    1.84010   1.75271   -1.000
 5343.00    1.87245   1.78225   -1.000
 5344.00    1.87334   1.80412   -1.000
 5345.00    1.84645   1.80765   -1.000
 5346.00    1.84417   1.79768   -1.000
 5347.00    1.85049   1.78467   -1.000
 5348.00    1.84879   1.77606   -1.000
 5349.00    1.85042   1.77660   -1.000
 5350.00    1.85971   1.78950   -1.000
 5351.00    1.87711   1.81339   -1.000
 5352.00    1.89233   1.84019   -1.000
 5353.00    1.89262   1.86198   -1.000
 5354.00    1.89538   1.87907  153.122
 5355.00    1.92764   1.89519   -1.000
 5356.00    1.96094   1.90970   -1.000
 5357.00    1.96425   1.91873   -1.000
 5358.00    1.95946   1.92060   -1.000
 5359.00    1.94944   1.91609   -1.000
 5360.00    1.93065   1.90481   -1.000
 5361.00    1.91173   1.88611   -1.000
 5362.00    1.89123   1.86244   -1.000
 5363.00    1.88854   1.83850   -1.000
 5364.00    1.87548   1.81879   -1.000
 5365.00    1.85400   1.80607   -1.000
 5366.00    1.85170   1.80042   -1.000
 5367.00    1.85999   1.79653   -1.000
 5368.00    1.85573   1.78425   -1.000
 5369.00    1.84086   1.75676   -1.000
 5370.00    1.79447   1.72046   -1.000
 5371.00    1.76468   1.69602   -1.000
 5372.00    1.79114   1.70389   -1.000
 5373.00    1.84622   1.74674   -1.000
 5374.00    1.90674   1.80450   -1.000
 5375.00    1.94155   1.85153   -1.000
 5376.00    1.95127   1.87601   -1.000
 5377.00    1.95845   1.88231   -1.000
 5378.00    1.95126   1.87973   -1.000
 5379.00    1.93711   1.87336   -1.000
 5380.00    1.91450   1.86367   -1.000
 5381.00    1.88840   1.85100   -1.000
 5382.00    1.87151   1.83848   -1.000
 5383.00    1.87236   1.83199   -1.000
 5384.00    1.89172   1.83663   -1.000
 5385.00    1.91807   1.85156   -1.000
 5386.00    1.91772   1.86791   -1.000
 5387.00    1.92211   1.87511   -1.000
 5388.00    1.92519   1.86867   -1.000
 5389.00    1.90202   1.85144   -1.000
 5390.00    1.87491   1.83025   -1.000
 5391.00    1.86817   1.81132   -1.000
 5392.00    1.86505   1.79752   -1.000
 5393.00    1.86045   1.78905   -1.000
 5394.00    1.85056   1.78185   -1.000
 5395.00    1.83815   1.76874   -1.000
 5396.00    1.82037   1.74869   -1.000
 5397.00    1.80683   1.73213   -1.000
 5398.00    1.83523   1.73424   -1.000
 5399.00    1.88001   1.75805   -1.000
 5400.00    1.91632   1.78936   -1.000
 5401.00    1.91290   1.81019   -1.000
 5402.00    1.87938   1.80952   -1.000
 5403.00    1.84822   1.78363   -1.000
 5404.00    1.80173   1.74015   -1.000
 5405.00    1.76767   1.70086   -1.000
 5406.00    1.77700   1.68701   -1.000
 5407.00    1.80245   1.70057   -1.000
 5408.00    1.83109   1.72260   -1.000
 5409.00    1.82945   1.73529   -1.000
 5410.00    1.82366   1.74207   -1.000
 5411.00    1.84319   1.75764   -1.000
 5412.00    1.89394   1.78521   -1.000
 5413.00    1.91255   1.81278   -1.000
 5414.00    1.91548   1.83016   -1.000
 5415.00    1.91143   1.84145   -1.000
 5416.00    1.90767   1.85500   -1.000
 5417.00    1.91587   1.87009   -1.000
 5418.00    1.91191   1.87931   -1.000
 5419.00    1.90281   1.87898   -1.000
 5420.00    1.89683   1.87282   -1.000
 5421.00    1.90231   1.86542   -1.000
 5422.00    1.90443   1.85604   -1.000
 5423.00    1.89687   1.84373   -1.000
 5424.00    1.88160   1.83467   -1.000
 5425.00    1.87236   1.83902   -1.000
 5426.00    1.90079   1.85563   -1.000
 5427.00    1.92453   1.86451   -1.000
 5428.00    1.89665   1.84797   -1.000
 5429.00    1.84735   1.81313   -1.000
 5430.00    1.82448   1.78539   -1.000
 5431.00    1.84038   1.77975   -1.000
 5432.00    1.86808   1.78534   -1.000
 5433.00    1.85839   1.78376   -1.000
 5434.00    1.82692   1.77385   -1.000
 5435.00    1.82055   1.77112   -1.000
 5436.00    1.84835   1.78974   -1.000
 5437.00    1.88109   1.82837   -1.000
 5438.00    1.92081   1.87288   -1.000
 5439.00    1.97041   1.90799   -1.000
 5440.00    2.00059   1.92869   -1.000
 5441.00    1.98969   1.93831   -1.000
 5442.00    1.97090   1.93852   -1.000
 5443.00    1.96807   1.92482   -1.000
 5444.00    1.93640   1.89137   -1.000
 5445.00    1.88284   1.84157   -1.000
 5446.00    1.81961   1.79342   -1.000
 5447.00    1.79507   1.77040   -1.000
 5448.00    1.84423   1.78426   -1.000
 5449.00    1.89883   1.82343   -1.000
 5450.00    1.93341   1.86345   -1.000
 5451.00    1.93692   1.88613   -1.000
 5452.00    1.91696   1.88550   -1.000
 5453.00    1.88999   1.86263   -1.000
 5454.00    1.86689   1.82546   -1.000
 5455.00    1.82678   1.79166   -1.000
 5456.00    1.83134   1.78392   -1.000
 5457.00    1.86610   1.81028   -1.000
 5458.00    1.90825   1.85339   -1.000
 5459.00    1.94734   1.88581   -1.000
 5460.00    1.92761   1.89215   -1.000
 5461.00    1.90851   1.87513   -1.000
 5462.00    1.90716   1.84905   -1.000
 5463.00    1.88165   1.83079   -1.000
 5464.00    1.88079   1.83031   -1.000
 5465.00    1.90286   1.84534   -1.000
 5466.00    1.91775   1.86533   -1.000
 5467.00    1.92348   1.88165   -1.000
 5468.00    1.92687   1.89166   -1.000
 5469.00    1.91908   1.89481   -1.000
 5470.00    1.91741   1.89100   -1.000
 5471.00    1.92753   1.88217   -1.000
 5472.00    1.90972   1.87058   -1.000
 5473.00    1.88966   1.85558   -1.000
 5474.00    1.87706   1.83382   -1.000
 5475.00    1.84272   1.80470   -1.000
 5476.00    1.81458   1.77746   -1.000
 5477.00    1.81865   1.76799   -1.000
 5478.00    1.83481   1.78362   -1.000
 5479.00    1.87561   1.81233   -1.000
 5480.00    1.89725   1.83284   -1.000
 5481.00    1.87255   1.83802   -1.000
 5482.00    1.86852   1.83993   -1.000
 5483.00    1.88741   1.85231   -1.000
 5484.00    1.91563   1.87446   -1.000
 5485.00    1.93765   1.89288   -1.000
 5486.00    1.93498   1.89592   -1.000
 5487.00    1.89820   1.88512  159.571
 5488.00    1.87494   1.87279  161.456
 5489.00    1.88227   1.86998  161.988
 5490.00    1.89404   1.87702  161.570
 5491.00    1.91632   1.88658   -1.000
 5492.00    1.93989   1.89257   -1.000
 5493.00    1.93745   1.89427   -1.000
 5494.00    1.93648   1.89350   -1.000
 5495.00    1.93166   1.89008   -1.000
 5496.00    1.93315   1.88325   -1.000
 5497.00    1.90907   1.87606   -1.000
 5498.00    1.90977   1.87363   -1.000
 5499.00    1.92970   1.87555   -1.000
 5500.00    1.92432   1.87363   -1.000
 5501.00    1.90595   1.86281   -1.000
 5502.00    1.90613   1.85075   -1.000
 5503.00    1.93574   1.84633   -1.000
 5504.00    1.93525   1.84661   -1.000
 5505.00    1.89912   1.84276   -1.000
 5506.00    1.87656   1.83405   -1.000
 5507.00    1.88567   1.83064   -1.000
 5508.00    1.90992   1.83988   -1.000
 5509.00    1.92503   1.85508   -1.000
 5510.00    1.92286   1.86206   -1.000
 5511.00    1.90395   1.85327   -1.000
 5512.00    1.87588   1.83408   -1.000
 5513.00    1.87144   1.81793   -1.000
 5514.00    1.87005   1.81592   -1.000
 5515.00    1.89818   1.82949   -1.000
 5516.00    1.93825   1.85277   -1.000
 5517.00    1.95778   1.87901   -1.000
 5518.00    1.96537   1.90329   -1.000
 5519.00    1.98580   1.92125   -1.000
 5520.00    1.98934   1.93025   -1.000
 5521.00    1.97954   1.93187   -1.000
 5522.00    1.98417   1.93033   -1.000
 5523.00    1.98037   1.92713   -1.000
 5524.00    1.95731   1.91824   -1.000
 5525.00    1.93178   1.89812   -1.000
 5526.00    1.90455   1.86612   -1.000
 5527.00    1.86263   1.83122   -1.000
 5528.00    1.84026   1.80991   -1.000
 5529.00    1.86413   1.81558   -1.000
 5530.00    1.91261   1.84518   -1.000
 5531.00    1.94331   1.87919   -1.000
 5532.00    1.95755   1.89882   -1.000
 5533.00    1.93608   1.90005   -1.000
 5534.00    1.90749   1.89159  160.880
 5535.00    1.91025   1.88470   -1.000
 5536.00    1.92424   1.88596   -1.000
 5537.00    1.92892   1.89435   -1.000
 5538.00    1.94496   1.90497   -1.000
 5539.00    1.96452   1.91570   -1.000
 5540.00    1.99637   1.92623   -1.000
 5541.00    2.00817   1.93250   -1.000
 5542.00    1.98762   1.92988   -1.000
 5543.00    1.96882   1.92044   -1.000
 5544.00    1.96640   1.91203   -1.000
 5545.00    1.96862   1.91051   -1.000
 5546.00    1.96035   1.91592   -1.000
 5547.00    1.97004   1.92636   -1.000
 5548.00    1.98739   1.94033   -1.000
 5549.00    2.01109   1.95394   -1.000
 5550.00    2.00927   1.96196   -1.000
 5551.00    2.00405   1.96180   -1.000
 5552.00    1.99867   1.95412   -1.000
 5553.00    1.96163   1.94245   -1.000
 5554.00    1.94688   1.93268  158.565
 5555.00    1.96668   1.92931   -1.000
 5556.00    1.99034   1.93159   -1.000
 5557.00    1.98863   1.93549   -1.000
 5558.00    1.98646   1.93872   -1.000
 5559.00    1.98825   1.94068   -1.000
 5560.00    1.99106   1.93923   -1.000
 5561.00    1.98207   1.93191   -1.000
 5562.00    1.97444   1.92004   -1.000
 5563.00    1.96429   1.90845   -1.000
 5564.00    1.94260   1.90039   -1.000
 5565.00    1.92813   1.89523   -1.000
 5566.00    1.93682   1.89112   -1.000
 5567.00    1.95371   1.88764   -1.000
 5568.00    1.94204   1.88529   -1.000
 5569.00    1.93855   1.88421   -1.000
 5570.00    1.94887   1.88343   -1.000
 5571.00    1.93398   1.88135   -1.000
 5572.00    1.91665   1.87775   -1.000
 5573.00    1.92975   1.87636   -1.000
 5574.00    1.92291   1.88190   -1.000
 5575.00    1.85541   1.89283   -1.000
 5576.00    1.82012   1.90362   -1.000
 5577.00    1.62055   1.91289   -1.000
 5578.00    1.33765   1.92235   -1.000
 5579.00    2.59688   1.93082   -1.000
 5580.00    4.79809   1.93518   -1.000
 5581.00    5.00792   1.93472   -1.000
 5582.00    3.20377   1.93148   -1.000
 5583.00    2.10405   1.92650   -1.000
 5584.00    1.99525   1.91599   -1.000
 5585.00    1.96076   1.89235   -1.000
 5586.00    1.93080   1.85329   -1.000
 5587.00    1.89163   1.81045   -1.000
 5588.00    1.85019   1.78203   -1.000
 5589.00    1.85485   1.77835   -1.000
 5590.00    1.87518   1.79634   -1.000
 5591.00    1.91321   1.82353   -1.000
 5592.00    1.92844   1.84627   -1.000
 5593.00    1.92577   1.85924   -1.000
 5594.00    1.91636   1.86778   -1.000
 5595.00    1.93402   1.87879   -1.000
 5596.00    1.94283   1.89033   -1.000
 5597.00    1.94457   1.89267   -1.000
 5598.00    1.92710   1.88140   -1.000
 5599.00    1.90749   1.86381   -1.000
 5600.00    1.89425   1.84786   -1.000
 5601.00    1.89006   1.83598   -1.000
 5602.00    1.89536   1.83326   -1.000
 5603.00    1.90913   1.84838   -1.000
 5604.00    1.94210   1.88272   -1.000
 5605.00    1.98565   1.92571   -1.000
 5606.00    2.02339   1.96254   -1.000
 5607.00    2.03117   1.98509   -1.000
 5608.00    2.02635   1.99467   -1.000
 5609.00    2.01848   1.99742   -1.000
 5610.00    2.01720   1.99876   -1.000
 5611.00    2.01422   1.99877  156.181
 5612.00    2.02038   1.98986   -1.000
 5613.00    2.01488   1.96244   -1.000
 5614.00    1.96836   1.91712   -1.000
 5615.00    1.91478   1.87102   -1.000
 5616.00    1.90566   1.84836   -1.000
 5617.00    1.94140   1.85827   -1.000
 5618.00    1.96576   1.88647   -1.000
 5619.00    1.96887   1.91345   -1.000
 5620.00    1.97804   1.93169   -1.000
 5621.00    1.99898   1.94130   -1.000
 5622.00    1.98524   1.94020   -1.000
 5623.00    1.95276   1.92618   -1.000
 5624.00    1.92871   1.90592   -1.000
 5625.00    1.95252   1.89405   -1.000
 5626.00    1.96346   1.90025   -1.000
 5627.00    1.98329   1.92129   -1.000
 5628.00    2.01258   1.94667   -1.000
 5629.00    2.02485   1.96828   -1.000
 5630.00    2.03928   1.98260   -1.000
 5631.00    2.02480   1.98775   -1.000
 5632.00    2.02011   1.98365   -1.000
 5633.00    2.01094   1.97338   -1.000
 5634.00    2.01347   1.96072   -1.000
 5635.00    2.00524   1.94794   -1.000
 5636.00    1.98312   1.93671   -1.000
 5637.00    1.97148   1.92896   -1.000
 5638.00    1.98292   1.92609   -1.000
 5639.00    1.98519   1.92666   -1.000
 5640.00    1.97653   1.92666   -1.000
 5641.00    1.96978   1.92485   -1.000
 5642.00    1.98065   1.92474   -1.000
 5643.00    1.98919   1.92890   -1.000
 5644.00    1.99852   1.93598   -1.000
 5645.00    2.01704   1.94365   -1.000
 5646.00    2.02245   1.95016   -1.000
 5647.00    2.01215   1.95373   -1.000
 5648.00    2.00227   1.95360   -1.000
 5649.00    2.01754   1.95158   -1.000
 5650.00    2.01516   1.95141   -1.000
 5651.00    2.00513   1.95459   -1.000
 5652.00    2.03326   1.95754   -1.000
 5653.00    2.03965   1.95518   -1.000
 5654.00    2.02450   1.94608   -1.000
 5655.00    2.01308   1.93144   -1.000
 5656.00    1.99443   1.91100   -1.000
 5657.00    1.95353   1.88509   -1.000
 5658.00    1.90920   1.86155   -1.000
 5659.00    1.89093   1.85284   -1.000
 5660.00    1.91993   1.86196   -1.000
 5661.00    1.95618   1.87870   -1.000
 5662.00    1.95108   1.89314   -1.000
 5663.00    1.95604   1.90587   -1.000
 5664.00    1.97595   1.92133   -1.000
 5665.00    1.99253   1.93680   -1.000
 5666.00    1.99155   1.94461   -1.000
 5667.00    1.98546   1.94317   -1.000
 5668.00    1.98564   1.93899   -1.000
 5669.00    1.98811   1.93903   -1.000
 5670.00    1.98886   1.94553   -1.000
 5671.00    2.01015   1.95701   -1.000
 5672.00    2.03267   1.97036   -1.000
 5673.00    2.05114   1.98181   -1.000
 5674.00    2.04430   1.98847   -1.000
 5675.00    2.02629   1.99050   -1.000
 5676.00    2.03601   1.99077   -1.000
 5677.00    2.04229   1.99100   -1.000
 5678.00    2.03350   1.98931   -1.000
 5679.00    2.02934   1.98273   -1.000
 5680.00    2.03673   1.97000   -1.000
 5681.00    2.03595   1.95208   -1.000
 5682.00    2.00086   1.93313   -1.000
 5683.00    1.98925   1.92012   -1.000
 5684.00    2.00359   1.91756   -1.000
 5685.00    2.00233   1.92191   -1.000
 5686.00    2.01073   1.92459   -1.000
 5687.00    2.00080   1.92182   -1.000
 5688.00    1.98391   1.91866   -1.000
 5689.00    1.99856   1.92305   -1.000
 5690.00    2.02236   1.93770   -1.000
 5691.00    2.04886   1.95767   -1.000
 5692.00    2.05176   1.97523   -1.000
 5693.00    2.04835   1.98618   -1.000
 5694.00    2.04326   1.99101   -1.000
 5695.00    2.03978   1.99175   -1.000
 5696.00    2.03309   1.98907   -1.000
 5697.00    2.03651   1.98206   -1.000
 5698.00    2.01802   1.97019   -1.000
 5699.00    1.99890   1.95514   -1.000
 5700.00    1.99749   1.94047   -1.000
 5701.00    1.99380   1.93031   -1.000
 5702.00    2.00334   1.92788   -1.000
 5703.00    2.00262   1.93243   -1.000
 5704.00    2.00542   1.93761   -1.000
 5705.00    2.00448   1.93546   -1.000
 5706.00    1.99026   1.92273   -1.000
 5707.00    1.96830   1.90222   -1.000
 5708.00    1.93628   1.87952   -1.000
 5709.00    1.92493   1.86130   -1.000
 5710.00    1.91763   1.85431   -1.000
 5711.00    1.92377   1.86238   -1.000
 5712.00    1.95108   1.88487   -1.000
 5713.00    1.99413   1.91638   -1.000
 5714.00    2.01984   1.94746   -1.000
 5715.00    2.03290   1.97000   -1.000
 5716.00    2.04899   1.98307   -1.000
 5717.00    2.05192   1.99132   -1.000
 5718.00    2.05702   1.99913   -1.000
 5719.00    2.06101   2.00831   -1.000
 5720.00    2.06366   2.01873   -1.000
 5721.00    2.07849   2.02885   -1.000
 5722.00    2.06760   2.03668   -1.000
 5723.00    2.05480   2.04055  154.917
 5724.00    2.08450   2.03897   -1.000
 5725.00    2.09100   2.03093   -1.000
 5726.00    2.07416   2.01848   -1.000
 5727.00    2.05462   2.00783   -1.000
 5728.00    2.06080   2.00434   -1.000
 5729.00    2.07043   2.00665   -1.000
 5730.00    2.06307   2.00867   -1.000
 5731.00    2.06069   2.00765   -1.000
 5732.00    2.05799   2.00775   -1.000
 5733.00    2.06582   2.01390   -1.000
 5734.00    2.05491   2.02453   -1.000
 5735.00    2.05488   2.03310   -1.000
 5736.00    2.05093   2.03544  155.931
 5737.00    2.04907   2.03332  156.195
 5738.00    2.05324   2.03101   -1.000
 5739.00    2.07770   2.03047   -1.000
 5740.00    2.09405   2.03014   -1.000
 5741.00    2.09876   2.02819   -1.000
 5742.00    2.09043   2.02585   -1.000
 5743.00    2.08421   2.02655   -1.000
 5744.00    2.07890   2.03112   -1.000
 5745.00    2.07285   2.03545   -1.000
 5746.00    2.07104   2.03439   -1.000
 5747.00    2.06373   2.02838   -1.000
 5748.00    2.04926   2.02374   -1.000
 5749.00    2.05952   2.02437   -1.000
 5750.00    2.07307   2.02536   -1.000
 5751.00    2.06500   2.01799   -1.000
 5752.00    2.04362   2.00071   -1.000
 5753.00    2.02929   1.98287   -1.000
 5754.00    2.03436   1.97737   -1.000
 5755.00    2.05267   1.98977   -1.000
 5756.00    2.07019   2.01349   -1.000
 5757.00    2.08990   2.03562   -1.000
 5758.00    2.10304   2.04612   -1.000
 5759.00    2.09279   2.04216   -1.000
 5760.00    2.06433   2.02674   -1.000
 5761.00    2.04315   2.00683   -1.000
 5762.00    2.03788   1.99245   -1.000
 5763.00    2.04120   1.99292   -1.000
 5764.00    2.05989   2.00972   -1.000
 5765.00    2.09005   2.03423   -1.000
 5766.00    2.10634   2.05459   -1.000
 5767.00    2.09786   2.06480   -1.000
 5768.00    2.10013   2.06631   -1.000
 5769.00    2.09256   2.06310   -1.000
 5770.00    2.08607   2.05774   -1.000
 5771.00    2.09044   2.05082   -1.000
 5772.00    2.08106   2.04257   -1.000
 5773.00    2.07742   2.03474   -1.000
 5774.00    2.06774   2.03010   -1.000
 5775.00    2.05415   2.03037   -1.000
 5776.00    2.06939   2.03427   -1.000
 5777.00    2.07070   2.03612   -1.000
 5778.00    2.05615   2.02846   -1.000
 5779.00    2.01450   2.00855  157.513
 5780.00    1.96577   1.98160  160.374
 5781.00    1.93249   1.95755   -1.000
 5782.00    1.93229   1.94430  164.890
 5783.00    1.97077   1.94231   -1.000
 5784.00    2.01353   1.94653   -1.000
 5785.00    2.02911   1.95409   -1.000
 5786.00    2.04051   1.96706   -1.000
 5787.00    2.06614   1.98569   -1.000
 5788.00    2.07569   2.00346   -1.000
 5789.00    2.07313   2.01280   -1.000
 5790.00    2.06453   2.01325   -1.000
 5791.00    2.06051   2.01206   -1.000
 5792.00    2.08994   2.01717   -1.000
 5793.00    2.09628   2.02992   -1.000
 5794.00    2.09258   2.04478   -1.000
 5795.00    2.09080   2.05460   -1.000
 5796.00    2.07843   2.05530   -1.000
 5797.00    2.07423   2.04953   -1.000
 5798.00    2.06184   2.04599  156.523
 5799.00    2.08405   2.05161   -1.000
 5800.00    2.11812   2.06431   -1.000
 5801.00    2.11844   2.07573   -1.000
 5802.00    2.11257   2.07901   -1.000
 5803.00    2.11064   2.07277   -1.000
 5804.00    2.10782   2.06102   -1.000
 5805.00    2.10488   2.05072   -1.000
 5806.00    2.10589   2.04699   -1.000
 5807.00    2.09696   2.04974   -1.000
 5808.00    2.10844   2.05549   -1.000
 5809.00    2.13525   2.06168   -1.000
 5810.00    2.12640   2.06759   -1.000
 5811.00    2.12266   2.07196   -1.000
 5812.00    2.13518   2.07248   -1.000
 5813.00    2.13447   2.06775   -1.000
 5814.00    2.11949   2.05840   -1.000
 5815.00    2.11095   2.04798   -1.000
 5816.00    2.10587   2.04316   -1.000
 5817.00    2.12291   2.04912   -1.000
 5818.00    2.14348   2.06351   -1.000
 5819.00    2.14383   2.07788   -1.000
 5820.00    2.15155   2.08571   -1.000
 5821.00    2.15311   2.08705   -1.000
 5822.00    2.14766   2.08585   -1.000
 5823.00    2.15478   2.08513   -1.000
 5824.00    2.14954   2.08533   -1.000
 5825.00    2.15912   2.08608   -1.000
 5826.00    2.15403   2.08758   -1.000
 5827.00    2.15644   2.08996   -1.000
 5828.00    2.15579   2.09250   -1.000
 5829.00    2.15921   2.09418   -1.000
 5830.00    2.15003   2.09451   -1.000
 5831.00    2.15548   2.09345   -1.000
 5832.00    2.16447   2.09068   -1.000
 5833.00    2.16780   2.08618   -1.000
 5834.00    2.15834   2.08145   -1.000
 5835.00    2.15675   2.07924   -1.000
 5836.00    2.16441   2.08071   -1.000
 5837.00    2.15391   2.08410   -1.000
 5838.00    2.16955   2.08731   -1.000
 5839.00    2.16424   2.09061   -1.000
 5840.00    2.18356   2.09513   -1.000
 5841.00    2.19978   2.09996   -1.000
 5842.00    2.17779   2.10231   -1.000
 5843.00    2.17587   2.10034   -1.000
 5844.00    2.17314   2.09419   -1.000
 5845.00    2.14827   2.08498   -1.000
 5846.00    2.13180   2.07489   -1.000
 5847.00    2.13101   2.06739   -1.000
 5848.00    2.12576   2.06472   -1.000
 5849.00    2.12745   2.06469   -1.000
 5850.00    2.13223   2.06189   -1.000
 5851.00    2.12358   2.05278   -1.000
 5852.00    2.11778   2.03901   -1.000
 5853.00    2.10840   2.02550   -1.000
 5854.00    2.10129   2.01486   -1.000
 5855.00    2.09924   2.00394   -1.000
 5856.00    2.09018   1.98796   -1.000
 5857.00    2.07207   1.97001   -1.000
 5858.00    2.06815   1.96210   -1.000
 5859.00    2.09248   1.97170   -1.000
 5860.00    2.11233   1.99278   -1.000
 5861.00    2.12065   2.01354   -1.000
 5862.00    2.11639   2.02780   -1.000
 5863.00    2.12178   2.03660   -1.000
 5864.00    2.13203   2.04130   -1.000
 5865.00    2.12935   2.04048   -1.000
 5866.00    2.12525   2.03532   -1.000
 5867.00    2.13672   2.03240   -1.000
 5868.00    2.14146   2.03795   -1.000
 5869.00    2.13760   2.05133   -1.000
 5870.00    2.15511   2.06536   -1.000
 5871.00    2.15951   2.07287   -1.000
 5872.00    2.16786   2.07214   -1.000
 5873.00    2.15609   2.06662   -1.000
 5874.00    2.16581   2.06059   -1.000
 5875.00    2.16718   2.05568   -1.000
 5876.00    2.14577   2.05104   -1.000
 5877.00    2.14688   2.04552   -1.000
 5878.00    2.14533   2.03874   -1.000
 5879.00    2.11093   2.03145   -1.000
 5880.00    2.10462   2.02506   -1.000
 5881.00    2.10873   2.01997   -1.000
 5882.00    2.12854   2.01453   -1.000
 5883.00    2.11995   2.00717   -1.000
 5884.00    2.10424   1.99811   -1.000
 5885.00    2.10026   1.98511   -1.000
 5886.00    2.08480   1.95668   -1.000
 5887.00    2.02824   1.89617   -1.000
 5888.00    1.90396   1.80067   -1.000
 5889.00    1.76130   1.69752   -1.000
 5890.00    1.68544   1.63366   -1.000
 5891.00    1.80033   1.63522   -1.000
 5892.00    1.96607   1.67955   -1.000
 5893.00    2.03840   1.71826   -1.000
 5894.00    1.97133   1.72168   -1.000
 5895.00    1.84488   1.69953   -1.000
 5896.00    1.78345   1.68801   -1.000
 5897.00    1.84310   1.71544   -1.000
 5898.00    1.99264   1.77729   -1.000
 5899.00    2.05886   1.84702   -1.000
 5900.00    2.07243   1.90567   -1.000
 5901.00    2.07836   1.94994   -1.000
 5902.00    2.08944   1.98122   -1.000
 5903.00    2.10414   2.00042   -1.000
 5904.00    2.10083   2.01006   -1.000
 5905.00    2.11502   2.01463   -1.000
 5906.00    2.11028   2.01870   -1.000
 5907.00    2.10899   2.02435   -1.000
 5908.00    2.11653   2.03094   -1.000
 5909.00    2.12791   2.03693   -1.000
 5910.00    2.12429   2.04082   -1.000
 5911.00    2.10443   2.04035   -1.000
 5912.00    2.09817   2.03272   -1.000
 5913.00    2.09155   2.01812   -1.000
 5914.00    2.07434   2.00250   -1.000
 5915.00    2.07073   1.99377   -1.000
 5916.00    2.09620   1.99568   -1.000
 5917.00    2.10718   2.00633   -1.000
 5918.00    2.10462   2.02068   -1.000
 5919.00    2.10164   2.03305   -1.000
 5920.00    2.09696   2.03981   -1.000
 5921.00    2.09660   2.04115   -1.000
 5922.00    2.09208   2.04018   -1.000
 5923.00    2.08625   2.04069   -1.000
 5924.00    2.09625   2.04484   -1.000
 5925.00    2.11059   2.05128   -1.000
 5926.00    2.12159   2.05539   -1.000
 5927.00    2.13526   2.05239   -1.000
 5928.00    2.13370   2.04199   -1.000
 5929.00    2.10473   2.03011   -1.000
 5930.00    2.08454   2.02461   -1.000
 5931.00    2.10438   2.02832   -1.000
 5932.00    2.12436   2.03605   -1.000
 5933.00    2.13346   2.04030   -1.000
 5934.00    2.13723   2.04049   -1.000
 5935.00    2.12631   2.04247   -1.000
 5936.00    2.11550   2.04955   -1.000
 5937.00    2.12229   2.05821   -1.000
 5938.00    2.13394   2.06250   -1.000
 5939.00    2.14030   2.05950   -1.000
 5940.00    2.13157   2.05096   -1.000
 5941.00    2.12423   2.04221   -1.000
 5942.00    2.11490   2.03870   -1.000
 5943.00    2.09325   2.04204   -1.000
 5944.00    2.10278   2.04915   -1.000
 5945.00    2.12260   2.05470   -1.000
 5946.00    2.11996   2.05434   -1.000
 5947.00    2.10616   2.04771   -1.000
 5948.00    2.08015   2.03946   -1.000
 5949.00    2.07581   2.03557   -1.000
 5950.00    2.08862   2.03709   -1.000
 5951.00    2.11456   2.03918   -1.000
 5952.00    2.09865   2.03792   -1.000
 5953.00    2.08808   2.03561   -1.000
 5954.00    2.11827   2.03567   -1.000
 5955.00    2.14510   2.03621   -1.000
 5956.00    2.13197   2.03450   -1.000
 5957.00    2.11305   2.03332   -1.000
 5958.00    2.10962   2.03784   -1.000
 5959.00    2.12530   2.04921   -1.000
 5960.00    2.15045   2.06327   -1.000
 5961.00    2.17259   2.07439   -1.000
 5962.00    2.16549   2.07961   -1.000
 5963.00    2.16788   2.07902   -1.000
 5964.00    2.16385   2.07439   -1.000
 5965.00    2.14892   2.06873   -1.000
 5966.00    2.12854   2.06557   -1.000
 5967.00    2.13073   2.06691   -1.000
 5968.00    2.13477   2.07195   -1.000
 5969.00    2.14337   2.07876   -1.000
 5970.00    2.16858   2.08571   -1.000
 5971.00    2.17014   2.09088   -1.000
 5972.00    2.15811   2.09206   -1.000
 5973.00    2.15845   2.08755   -1.000
 5974.00    2.16485   2.07677   -1.000
 5975.00    2.14112   2.06154   -1.000
 5976.00    2.11802   2.04699   -1.000
 5977.00    2.10520   2.03943   -1.000
 5978.00    2.10459   2.04206   -1.000
 5979.00    2.11853   2.05242   -1.000
 5980.00    2.12301   2.06341   -1.000
 5981.00    2.13160   2.06689   -1.000
 5982.00    2.13867   2.05888   -1.000
 5983.00    2.12258   2.04329   -1.000
 5984.00    2.10938   2.03007   -1.000
 5985.00    2.12462   2.02748   -1.000
 5986.00    2.13700   2.03564   -1.000
 5987.00    2.13226   2.04836   -1.000
 5988.00    2.14443   2.05972   -1.000
 5989.00    2.15306   2.06703   -1.000
 5990.00    2.15229   2.07047   -1.000
 5991.00    2.16458   2.07295   -1.000
 5992.00    2.18314   2.07846   -1.000
 5993.00    2.19188   2.08729   -1.000
 5994.00    2.17827   2.09389   -1.000
 5995.00    2.16531   2.09249   -1.000
 5996.00    2.14550   2.08362   -1.000
 5997.00    2.14389   2.07329   -1.000
 5998.00    2.14891   2.06755   -1.000
 5999.00    2.15655   2.06769   -1.000
 6000.00    2.15132   2.06998   -1.000
 6001.00    2.15806   2.06971   -1.000
 6002.00    2.15391   2.06591   -1.000
 6003.00    2.15584   2.06178   -1.000
 6004.00    2.14529   2.05970   -1.000
 6005.00    2.13759   2.05652   -1.000
 6006.00    2.12677   2.04769   -1.000
 6007.00    2.12774   2.03569   -1.000
 6008.00    2.13272   2.02997   -1.000
 6009.00    2.13657   2.03677   -1.000
 6010.00    2.14848   2.05111   -1.000
 6011.00    2.15743   2.06147   -1.000
 6012.00    2.14143   2.06208   -1.000
 6013.00    2.13272   2.05698   -1.000
 6014.00    2.14522   2.05256   -1.000
 6015.00    2.14821   2.05085   -1.000
 6016.00    2.16118   2.05021   -1.000
 6017.00    2.15416   2.04899   -1.000
 6018.00    2.14431   2.04595   -1.000
 6019.00    2.15120   2.04005   -1.000
 6020.00    2.12965   2.03310   -1.000
 6021.00    2.13297   2.02975   -1.000
 6022.00    2.14398   2.03245   -1.000
 6023.00    2.14780   2.03958   -1.000
 6024.00    2.15005   2.04948   -1.000
 6025.00    2.15381   2.06194   -1.000
 6026.00    2.17179   2.07519   -1.000
 6027.00    2.19458   2.08687   -1.000
 6028.00    2.17952   2.09688   -1.000
 6029.00    2.16009   2.10568   -1.000
 6030.00    2.16942   2.11241   -1.000
 6031.00    2.16717   2.11692   -1.000
 6032.00    2.16532   2.12098   -1.000
 6033.00    2.18517   2.12630   -1.000
 6034.00    2.20223   2.13215   -1.000
 6035.00    2.20925   2.13578   -1.000
 6036.00    2.20618   2.13531   -1.000
 6037.00    2.17946   2.13116   -1.000
 6038.00    2.18188   2.12470   -1.000
 6039.00    2.18878   2.11746   -1.000
 6040.00    2.18162   2.11162   -1.000
 6041.00    2.18792   2.10936   -1.000
 6042.00    2.18262   2.11153   -1.000
 6043.00    2.19080   2.11706   -1.000
 6044.00    2.20619   2.12364   -1.000
 6045.00    2.20115   2.12928   -1.000
 6046.00    2.20961   2.13378   -1.000
 6047.00    2.21769   2.13800   -1.000
 6048.00    2.20538   2.14194   -1.000
 6049.00    2.20813   2.14453   -1.000
 6050.00    2.20630   2.14467   -1.000
 6051.00    2.19175   2.14172   -1.000
 6052.00    2.20085   2.13526   -1.000
 6053.00    2.20618   2.12550   -1.000
 6054.00    2.19896   2.11412   -1.000
 6055.00    2.19822   2.10449   -1.000
 6056.00    2.19189   2.10048   -1.000
 6057.00    2.19310   2.10371   -1.000
 6058.00    2.19250   2.11187   -1.000
 6059.00    2.18604   2.12027   -1.000
 6060.00    2.14996   2.12467   -1.000
 6061.00    2.24466   2.12242   -1.000
 6062.00    2.18112   2.11236   -1.000
 6063.00    1.26226   2.09578   -1.000
 6064.00    1.38444   2.07834   -1.000
 6065.00    2.45684   2.06965   -1.000
 6066.00    2.19579   2.07646   -1.000
 6067.00    2.12755   2.09553   56.446
 6068.00    2.02136   2.11701   -1.000
 6069.00    1.26642   2.13360   -1.000
 6070.00    0.96444   2.14378   -1.000
 6071.00    2.28197   2.14925   -1.000
 6072.00    2.24255   2.15210   -1.000
 6073.00    2.23833   2.15325   -1.000
 6074.00    2.20936   2.15212   -1.000
 6075.00    2.20251   2.14742   -1.000
 6076.00    2.20878   2.13844   -1.000
 6077.00    2.18380   2.12608   -1.000
 6078.00    2.18141   2.11341   -1.000
 6079.00    2.18634   2.10420   -1.000
 6080.00    2.18070   2.09908   -1.000
 6081.00    2.17189   2.09555   -1.000
 6082.00    2.15829   2.09225   -1.000
 6083.00    2.15271   2.09003   -1.000
 6084.00    2.15978   2.08998   -1.000
 6085.00    2.16776   2.09293   -1.000
 6086.00    2.18059   2.09885   -1.000
 6087.00    2.19085   2.10506   -1.000
 6088.00    2.19189   2.10735   -1.000
 6089.00    2.17637   2.10415   -1.000
 6090.00    2.15302   2.09836   -1.000
 6091.00    2.16750   2.09487   -1.000
 6092.00    2.16923   2.09675   -1.000
 6093.00    2.19347   2.10375   -1.000
 6094.00    2.21119   2.11316   -1.000
 6095.00    2.22094   2.12187   -1.000
 6096.00    2.20549   2.12827   -1.000
 6097.00    2.20157   2.13228   -1.000
 6098.00    2.20837   2.13249   -1.000
 6099.00    2.20033   2.12419   -1.000
 6100.00    2.19193   2.10241   -1.000
 6101.00    2.16290   2.06942   -1.000
 6102.00    2.11882   2.03884   -1.000
 6103.00    2.12196   2.02793   -1.000
 6104.00    2.14333   2.04195   -1.000
 6105.00    2.17365   2.06942   -1.000
 6106.00    2.18424   2.09530   -1.000
 6107.00    2.18507   2.11333   -1.000
 6108.00    2.18041   2.12501   -1.000
 6109.00    2.18586   2.13239   -1.000
 6110.00    2.19108   2.13592   -1.000
 6111.00    2.20194   2.13708   -1.000
 6112.00    2.19730   2.13870   -1.000
 6113.00    2.19415   2.14185   -1.000
 6114.00    2.19625   2.14459   -1.000
 6115.00    2.18304   2.14459   -1.000
 6116.00    2.17965   2.14177   -1.000
 6117.00    2.18288   2.13668   -1.000
 6118.00    2.18224   2.12702   -1.000
 6119.00    2.16680   2.10850   -1.000
 6120.00    2.14336   2.08051   -1.000
 6121.00    2.11264   2.05078   -1.000
 6122.00    2.10673   2.03264   -1.000
 6123.00    2.12913   2.03451   -1.000
 6124.00    2.14689   2.05246   -1.000
 6125.00    2.16720   2.07456   -1.000
 6126.00    2.16067   2.09129   -1.000
 6127.00    2.15203   2.10114   -1.000
 6128.00    2.15407   2.10850   -1.000
 6129.00    2.16515   2.11805   -1.000
 6130.00    2.17731   2.13043   -1.000
 6131.00    2.17785   2.14203   -1.000
 6132.00    2.18506   2.14665   -1.000
 6133.00    2.17165   2.13676   -1.000
 6134.00    2.13761   2.10710   -1.000
 6135.00    2.10078   2.06170   -1.000
 6136.00    2.05614   2.01720   -1.000
 6137.00    2.02092   1.99402   -1.000
 6138.00    2.04548   1.99862   -1.000
 6139.00    2.09622   2.01858   -1.000
 6140.00    2.12220   2.03940   -1.000
 6141.00    2.11335   2.05874   -1.000
 6142.00    2.07476   2.08045  165.151
 6143.00    2.10274   2.10391  164.906
 6144.00    2.14649   2.12303   -1.000
 6145.00    2.16155   2.13227   -1.000
 6146.00    2.16190   2.13116   -1.000
 6147.00    2.16656   2.12305   -1.000
 6148.00    2.16453   2.11218   -1.000
 6149.00    2.15242   2.10245   -1.000
 6150.00    2.15911   2.09749   -1.000
 6151.00    2.15422   2.09917   -1.000
 6152.00    2.14920   2.10449   -1.000
 6153.00    2.15845   2.10686   -1.000
 6154.00    2.16146   2.10303   -1.000
 6155.00    2.15432   2.09621   -1.000
 6156.00    2.14915   2.09053   -1.000
 6157.00    2.14557   2.08460   -1.000
 6158.00    2.11661   2.07124   -1.000
 6159.00    2.08514   2.04236   -1.000
 6160.00    2.04568   1.99703   -1.000
 6161.00    2.01170   1.94717   -1.000
 6162.00    1.97254   1.91307   -1.000
 6163.00    1.98660   1.90866   -1.000
 6164.00    2.02205   1.93080   -1.000
 6165.00    2.04387   1.96342   -1.000
 6166.00    2.07345   1.98906   -1.000
 6167.00    2.05349   1.99717   -1.000
 6168.00    2.04050   1.98929   -1.000
 6169.00    2.02505   1.97933   -1.000
 6170.00    2.01838   1.98254   -1.000
 6171.00    2.07109   2.00160   -1.000
 6172.00    2.08968   2.02708   -1.000
 6173.00    2.08004   2.04902   -1.000
 6174.00    2.09701   2.06352   -1.000
 6175.00    2.09034   2.07166   -1.000
 6176.00    2.08994   2.07678  169.496
 6177.00    2.09713   2.08196   -1.000
 6178.00    2.11141   2.08782   -1.000
 6179.00    2.10410   2.09359  167.765
 6180.00    2.10668   2.09963  167.210
 6181.00    2.10425   2.10661  166.619
 6182.00    2.11301   2.11279  165.898
 6183.00    2.11516   2.11465  165.712
 6184.00    2.12387   2.11021   -1.000
 6185.00    2.11416   2.10037   -1.000
 6186.00    2.10046   2.08763  168.527
 6187.00    2.09145   2.07414   -1.000
 6188.00    2.07300   2.05971   -1.000
 6189.00    2.05023   2.04214  173.630
 6190.00    2.03134   2.02314  175.087
 6191.00    2.02293   2.01227  177.246
 6192.00    2.03817   2.01877   -1.000
 6193.00    2.07344   2.04052   -1.000
 6194.00    2.11102   2.06651   -1.000
 6195.00    2.12613   2.08734   -1.000
 6196.00    2.11248   2.09891   -1.000
 6197.00    2.11055   2.10038  167.628
 6198.00    2.10803   2.09390   -1.000
 6199.00    2.08635   2.08558  171.009
 6200.00    2.08226   2.08292  171.929
 6201.00    2.07685   2.08909  171.197
 6202.00    2.08058   2.10118  169.186
 6203.00    2.10077   2.11419  167.437
 6204.00    2.10319   2.12481  167.302
 6205.00    2.12348   2.13205  167.268
 6206.00    2.12049   2.13624  167.007
 6207.00    2.11978   2.13783  167.206
 6208.00    2.13640   2.13634  167.773
 6209.00    2.12764   2.13035  167.839
 6210.00    2.11028   2.11808  168.894
 6211.00    2.08496   2.09869  170.477
 6212.00    2.06904   2.07435  171.842
 6213.00    2.04787   2.05098  173.812
 6214.00    2.03422   2.03536  176.369
 6215.00    2.04553   2.03016   -1.000
 6216.00    2.05486   2.03196   -1.000
 6217.00    2.04596   2.03415  175.019
 6218.00    2.04755   2.03297   -1.000
 6219.00    2.04556   2.03092   -1.000
 6220.00    2.02117   2.03338  174.934
 6221.00    1.91581   2.04189   -1.000
 6222.00    2.02178   2.05264   -1.000
 6223.00    2.10649   2.06123   -1.000
 6224.00    2.08936   2.06651   -1.000
 6225.00    2.09348   2.06895   -1.000
 6226.00    2.10452   2.06732   -1.000
 6227.00    2.09116   2.05806   -1.000
 6228.00    2.07884   2.03858   -1.000
 6229.00    2.06057   2.01231   -1.000
 6230.00    1.99908   1.98970  180.453
 6231.00    1.98366   1.98217  181.922
 6232.00    2.01065   1.99395   -1.000
 6233.00    2.03432   2.01911   -1.000
 6234.00    2.06993   2.04566   -1.000
 6235.00    2.10938   2.06274   -1.000
 6236.00    2.10849   2.06611   -1.000
 6237.00    2.09688   2.05865   -1.000
 6238.00    2.09033   2.04679   -1.000
 6239.00    2.06969   2.03590   -1.000
 6240.00    2.05563   2.02775   -1.000
 6241.00    2.04507   2.02063   -1.000
 6242.00    2.03665   2.01198   -1.000
 6243.00    2.03044   2.00147   -1.000
 6244.00    2.01998   1.99214   -1.000
 6245.00    2.02539   1.98891   -1.000
 6246.00    2.04349   1.99615   -1.000
 6247.00    2.04953   2.01400   -1.000
 6248.00    2.05434   2.03576   -1.000
 6249.00    2.06496   2.05060   -1.000
 6250.00    2.05494   2.05038  174.232
 6251.00    2.04464   2.03527  176.415
 6252.00    2.03273   2.01329   -1.000
 6253.00    1.99893   1.99440  181.429
 6254.00    1.98430   1.98347  182.405
 6255.00    2.01335   1.97871   -1.000
 6256.00    2.01871   1.97628   -1.000
 6257.00    2.00145   1.97575   -1.000
 6258.00    1.98954   1.98054  185.893
 6259.00    2.01030   1.99369   -1.000
 6260.00    2.05344   2.01430   -1.000
 6261.00    2.05588   2.03772   -1.000
 6262.00    2.06908   2.05779  176.267
 6263.00    2.09201   2.06993   -1.000
 6264.00    2.09175   2.07433   -1.000
 6265.00    2.08088   2.07581  175.351
 6266.00    2.07722   2.07878  176.004
 6267.00    2.06062   2.08267   -1.000
 6268.00    2.04946   2.08406   -1.000
 6269.00    2.05467   2.08240   -1.000
 6270.00    2.05309   2.08112   -1.000
 6271.00    2.06056   2.08282   -1.000
 6272.00    2.07112   2.08526  174.518
 6273.00    2.08751   2.08281  174.332
 6274.00    2.07393   2.07161  175.073
 6275.00    2.06659   2.05296   -1.000
 6276.00    2.03225   2.03185  178.209
 6277.00    1.98414   2.01319   -1.000
 6278.00    1.93567   1.99969   -1.000
 6279.00    1.89992   1.99304   -1.000
 6280.00    1.88997   1.99553   -1.000
 6281.00    1.87143   2.00837   -1.000
 6282.00    1.89609   2.02920   -1.000
 6283.00    1.92616   2.05259   -1.000
 6284.00    1.91184   2.07314   -1.000
 6285.00    1.92571   2.08831   -1.000
 6286.00    1.96298   2.09851   -1.000
 6287.00    2.01709   2.10439   -1.000
 6288.00    2.05204   2.10504   -1.000
 6289.00    2.07485   2.09984   -1.000
 6290.00    2.05966   2.09110   -1.000
 6291.00    2.03771   2.08306   -1.000
 6292.00    2.02619   2.07840   -1.000
 6293.00    2.02470   2.07642   -1.000
 6294.00    2.00222   2.07369   -1.000
 6295.00    1.98924   2.06674   -1.000
 6296.00    1.91029   2.05572   -1.000
 6297.00    1.75558   2.04487   -1.000
 6298.00    1.46483   2.03782   -1.000
 6299.00    1.08342   2.03342   -1.000
 6300.00    0.59058   2.02890   -1.000
 6301.00    0.08677   2.02609   -1.000
 6302.00    0.49725   2.03085   -1.000
 6303.00    1.87653   2.04572   -1.000
 6304.00    2.74862   2.06633   -1.000
 6305.00    2.51804   2.08603   -1.000
 6306.00    2.25354   2.10103   -1.000
 6307.00    2.11659   2.11037  173.469
 6308.00    2.09592   2.11412  172.159
 6309.00    2.09475   2.11319  172.250
 6310.00    2.07869   2.10919   -1.000
 6311.00    2.04488   2.10333   -1.000
 6312.00    2.03952   2.09568   -1.000
 6313.00    2.03219   2.08565   -1.000
 6314.00    2.03049   2.07377   -1.000
 6315.00    2.02508   2.06201   -1.000
 6316.00    2.01167   2.05234   -1.000
 6317.00    1.99882   2.04693   -1.000
 6318.00    1.99697   2.04901   -1.000
 6319.00    2.00884   2.06012   -1.000
 6320.00    2.04179   2.07671   -1.000
 6321.00    2.05303   2.09294   -1.000
 6322.00    2.07074   2.10669   -1.000
 6323.00    2.07061   2.11932   -1.000
 6324.00    2.08415   2.13069   -1.000
 6325.00    2.08837   2.13847   -1.000
 6326.00    2.07980   2.14163   -1.000
 6327.00    2.08223   2.14179   -1.000
 6328.00    2.09221   2.14127   -1.000
 6329.00    2.09889   2.14142   -1.000
 6330.00    2.09499   2.14263   -1.000
 6331.00    2.09826   2.14381   -1.000
 6332.00    2.10732   2.14111   -1.000
 6333.00    2.09928   2.13001   -1.000
 6334.00    2.07538   2.11070   -1.000
 6335.00    2.04142   2.09056   -1.000
 6336.00    2.03223   2.07938   -1.000
 6337.00    2.04769   2.08162   -1.000
 6338.00    2.07138   2.09429   -1.000
 6339.00    2.08648   2.11111   -1.000
 6340.00    2.09016   2.12581   -1.000
 6341.00    2.08917   2.13334   -1.000
 6342.00    2.08577   2.13216   -1.000
 6343.00    2.08776   2.12591   -1.000
 6344.00    2.08254   2.12086   -1.000
 6345.00    2.06460   2.12151   -1.000
 6346.00    2.06957   2.12884   -1.000
 6347.00    2.08380   2.14121   -1.000
 6348.00    2.10749   2.15530   -1.000
 6349.00    2.10159   2.16705   -1.000
 6350.00    2.10921   2.17343   -1.000
 6351.00    2.09265   2.17313   -1.000
 6352.00    2.08309   2.16630   -1.000
 6353.00    2.06249   2.15488   -1.000
 6354.00    2.05360   2.14258   -1.000
 6355.00    2.05465   2.13242   -1.000
 6356.00    2.05017   2.12398   -1.000
 6357.00    2.05025   2.11486   -1.000
 6358.00    2.02686   2.10467   -1.000
 6359.00    2.00528   2.09516   -1.000
 6360.00    1.95201   2.08737   -1.000
 6361.00    1.89598   2.08170   -1.000
 6362.00    1.84304   2.07991   -1.000
 6363.00    1.70441   2.08411   -1.000
 6364.00    1.50377   2.09429   -1.000
 6365.00    1.47694   2.10816   -1.000
 6366.00    1.72598   2.12283   -1.000
 6367.00    1.97710   2.13539   -1.000
 6368.00    2.12824   2.14337  167.762
 6369.00    2.09172   2.14679   -1.000
 6370.00    2.07243   2.14901   -1.000
 6371.00    2.07695   2.15367   -1.000
 6372.00    2.07649   2.16100   -1.000
 6373.00    2.06104   2.16791   -1.000
 6374.00    2.06209   2.17128   -1.000
 6375.00    2.03821   2.17014   -1.000
 6376.00    2.03389   2.16523   -1.000
 6377.00    2.01759   2.15816   -1.000
 6378.00    2.01867   2.15092   -1.000
 6379.00    2.02231   2.14504   -1.000
 6380.00    2.02257   2.14118   -1.000
 6381.00    2.00451   2.13935   -1.000
 6382.00    2.00825   2.13938   -1.000
 6383.00    2.01874   2.14131   -1.000
 6384.00    2.02513   2.14556   -1.000
 6385.00    2.00916   2.15177   -1.000
 6386.00    1.99429   2.15799   -1.000
 6387.00    1.99584   2.16193   -1.000
 6388.00    1.98368   2.16261   -1.000
 6389.00    1.97008   2.15945   -1.000
 6390.00    1.96392   2.15065   -1.000
 6391.00    1.93912   2.13548   -1.000
 6392.00    1.91846   2.11846   -1.000
 6393.00    1.89320   2.10861   -1.000
 6394.00    1.87882   2.11209   -1.000
 6395.00    1.89970   2.12567   -1.000
 6396.00    1.92639   2.13818   -1.000
 6397.00    1.90884   2.13885   -1.000
 6398.00    1.88690   2.12616   -1.000
 6399.00    1.85192   2.11009   -1.000
 6400.00    1.81402   2.10441   -1.000
 6401.00    1.81995   2.11515   -1.000
 6402.00    1.85373   2.13653   -1.000
 6403.00    1.86811   2.15717   -1.000
 6404.00    1.84890   2.16788   -1.000
 6405.00    1.84561   2.16582   -1.000
 6406.00    1.84326   2.15511   -1.000
 6407.00    1.80241   2.14401   -1.000
 6408.00    1.77164   2.13842   -1.000
 6409.00    1.77146   2.13745   -1.000
 6410.00    1.76321   2.13697   -1.000
 6411.00    1.74894   2.13624   -1.000
 6412.00    1.72672   2.13805   -1.000
 6413.00    1.71132   2.14358   -1.000
 6414.00    1.70957   2.15072   -1.000
 6415.00    1.70788   2.15664   -1.000
 6416.00    1.71270   2.15902   -1.000
 6417.00    1.68756   2.15557   -1.000
 6418.00    1.66511   2.14533   -1.000
 6419.00    1.64197   2.13159   -1.000
 6420.00    1.60723   2.12216   -1.000
 6421.00    1.57261   2.12472   -1.000
 6422.00    1.57366   2.14012   -1.000
 6423.00    1.58531   2.16145   -1.000
 6424.00    1.59314   2.18071   -1.000
 6425.00    1.58584   2.19430   -1.000
 6426.00    1.56749   2.20096   -1.000
 6427.00    1.54154   2.19845   -1.000
 6428.00    1.51732   2.18493   -1.000
