###################################################################
## OUTPUT of StarlightChains_v04.for    [Cid@UFSC - 01/Apr/2007] ##
###################################################################

## Some input info
NGC6316_a_1.cxt                          [arq_obs]
Base.BC03.N                              [arq_base]
NGC6316_a_1.msk                          [arq_masks]
StCv04.C11.config                        [arq_config]
   45                                    [N_base]
    0                                    [N_YAV_components = # of components with extra extinction!]
    0                                    [i_FitPowerLaw (1/0 = Yes/No)]
-9.99                                    [alpha_PowerLaw]
CCM                                      [red_law_option]
 1.458241                                [q_norm = A(l_norm)/A(V)]

## (Re)Sampling Parameters
 3359.00                                 [l_ini (A)]
 6428.00                                 [l_fin (A)]
    1.00                                 [dl    (A)]     (OBS: dl_cushion =    50.00 A)

## Normalization info
 4020.00                                 [l_norm (A) - for base]
 4010.00                                 [llow_norm (A) - window for f_obs]
 4060.00                                 [lupp_norm (A) - window for f_obs]
3.447620E-15                             [fobs_norm (in input units)]

## S/N
 4730.00                                 [llow_SN (A) - window for S/N]
 4780.00                                 [lupp_SN (A) - window for S/N]
  41.849                                 [S/N in S/N window]
  23.735                                 [S/N in norm. window]
 229.586                                 [S/N_err in S/N window]
 130.210                                 [S/N_err in norm. window]
  1.0000                                 [fscale_chi2]

## etc...
  2147483618                             [idum_orig]
  3065                                   [NOl_eff]
   599                                   [Nl_eff]
  2466    NSIGMA                         [Ntot_cliped & clip_method]
  1089760                                [Nglobal_steps]
   7                                     [N_chains]
  13                                     [NEX0s_base = N_base in EX0s-fits]
 0   0   1      227   2.0   2.812E+02    [Clip-Bug, RC-Crash & Burn-In warning-flags, n_censored_weights, wei_nsig_threshold & wei_limit]
    12     11.533     11.517      0.016  [idt_all, wdt_TotTime, wdt_UsrTime & wdt_SysTime (sec)]

## Synthesis Results - Best model ##

 2.83283E+00                             [chi2/Nl_eff]
     1.86201                             [adev (%)]

   100.04070                             [sum-of-x (%)]
 4.17898E-14                             [Flux_tot (units of input spectrum!)]
 1.92223E-09                             [Mini_tot (???)]
 9.72785E-10                             [Mcor_tot (???)]

 -28.74                                  [v0_min  (km/s)]
  58.24                                  [vd_min  (km/s)]
 1.8573                                  [AV_min  (mag)]
 0.0000                                  [YAV_min (mag)]

# j     x_j(%)      Mini_j(%)     Mcor_j(%)     age_j(yr)     Z_j      (L/M)_j    YAV?  Mstars   component_j        a/Fe...       SSP_chi2r SSP_adev(%)   SSP_AV   SSP_x(%)
  1      4.8482     9.4576E-03    1.8688E-02    1.000000E+06  0.00400  1.114E-02    0   1.0000   age020_m42            0.0000     5.4867E+03    41.9223   4.0000   104.5234
  2      3.5040     1.8695E-03    3.6938E-03    3.160000E+06  0.00400  4.073E-02    0   0.9999   age045_m42            0.0000     1.1831E+03    18.2542   4.0000   108.9792
  3      2.5993     2.2291E-03    4.1792E-03    5.010000E+06  0.00400  2.534E-02    0   0.9488   age055_m42            0.0000     2.5263E+03    29.4820   4.0000   108.7420
  4      1.7628     3.0141E-03    5.2781E-03    1.000000E+07  0.00400  1.271E-02    0   0.8862   age070_m42            0.0000     4.2262E+02    12.9160   4.0000    98.7456
  5      0.0000     0.0000E+00    0.0000E+00    2.512000E+07  0.00400  5.070E-03    0   0.8174   age090_m42            0.0000     2.9993E+02    10.2997   4.0000    97.3464
  6      0.0000     0.0000E+00    0.0000E+00    4.000000E+07  0.00400  3.505E-03    0   0.7851   age104_m42            0.0000     2.4278E+02     8.0810   3.8241    96.8529
  7      0.0000     0.0000E+00    0.0000E+00    1.015200E+08  0.00400  2.268E-03    0   0.7207   age116_m42            0.0000     8.3203E+02    15.8451   3.9260   102.1439
  8      0.0000     0.0000E+00    0.0000E+00    2.861200E+08  0.00400  1.079E-03    0   0.6613   age125_m42            0.0000     8.6809E+02    16.4578   3.4405   103.8265
  9      0.0000     0.0000E+00    0.0000E+00    6.405400E+08  0.00400  5.077E-04    0   0.6197   age132_m42            0.0000     9.0821E+02    17.3515   3.0901   107.4241
 10      0.0000     0.0000E+00    0.0000E+00    9.047900E+08  0.00400  3.535E-04    0   0.6024   age135_m42            0.0000     6.8695E+02    15.2092   2.8352   107.4151
 11      0.0000     0.0000E+00    0.0000E+00    1.434000E+09  0.00400  1.910E-04    0   0.5716   age139_m42            0.0000     4.1587E+02    12.1208   2.2920   107.4183
 12      0.0000     0.0000E+00    0.0000E+00    2.500000E+09  0.00400  9.818E-05    0   0.5463   age150_m42            0.0000     1.9044E+02     8.3186   1.9815   104.2793
 13     23.6121     1.0876E+01    1.1235E+01    5.000000E+09  0.00400  4.718E-05    0   0.5228   age161_m42            0.0000     1.0312E+02     6.3128   1.7929   101.9214
 14     11.0428     1.0883E+01    1.0710E+01    1.100000E+10  0.00400  2.205E-05    0   0.4980   age185_m42            0.0000     1.0467E+02     6.7726   1.5205   100.5373
 15      9.5503     1.1022E+01    1.0731E+01    1.300000E+10  0.00400  1.883E-05    0   0.4927   age193_m42            0.0000     1.0509E+02     6.8638   1.5018   100.4997
 16      5.7722     6.3066E-03    1.2462E-02    1.000000E+06  0.02000  1.989E-02    0   1.0000   age020_m62            0.0000     5.2798E+03    40.9770   4.0000   105.2572
 17      0.8039     4.6313E-04    9.0215E-04    3.160000E+06  0.02000  3.772E-02    0   0.9858   age045_m62            0.0000     4.4952E+03    38.6753   4.0000   107.1488
 18      3.3218     2.2370E-03    4.1295E-03    5.010000E+06  0.02000  3.227E-02    0   0.9342   age055_m62            0.0000     2.0001E+03    25.5090   4.0000   110.0201
 19      0.0000     0.0000E+00    0.0000E+00    1.000000E+07  0.02000  1.011E-02    0   0.8751   age070_m62            0.0000     5.8638E+02    17.0495   4.0000    95.9282
 20      0.0000     0.0000E+00    0.0000E+00    2.512000E+07  0.02000  4.206E-03    0   0.8099   age090_m62            0.0000     4.1324E+02    14.0694   4.0000    95.1791
 21      0.0000     0.0000E+00    0.0000E+00    4.000000E+07  0.02000  3.373E-03    0   0.7799   age104_m62            0.0000     3.4012E+02     8.9707   4.0000    98.9727
 22      0.0000     0.0000E+00    0.0000E+00    1.015200E+08  0.02000  1.878E-03    0   0.7221   age116_m62            0.0000     7.5127E+02    14.8562   3.9342   103.1678
 23      0.0000     0.0000E+00    0.0000E+00    2.861200E+08  0.02000  8.869E-04    0   0.6700   age125_m62            0.0000     1.2018E+03    19.6525   3.4760   108.0048
 24      0.0000     0.0000E+00    0.0000E+00    6.405400E+08  0.02000  3.657E-04    0   0.6322   age132_m62            0.0000     9.0975E+02    17.4146   2.7895   111.7516
 25      0.0000     0.0000E+00    0.0000E+00    9.047900E+08  0.02000  2.312E-04    0   0.6152   age135_m62            0.0000     6.1795E+02    14.4965   2.3925   111.9812
 26      0.0000     0.0000E+00    0.0000E+00    1.434000E+09  0.02000  1.168E-04    0   0.5865   age139_m62            0.0000     2.6923E+02     9.5861   1.9321   108.2702
 27      0.0000     0.0000E+00    0.0000E+00    2.500000E+09  0.02000  5.505E-05    0   0.5610   age150_m62            0.0000     1.7897E+02     8.2736   1.5394   106.6096
 28      0.0000     0.0000E+00    0.0000E+00    5.000000E+09  0.02000  2.596E-05    0   0.5353   age161_m62            0.0000     2.3688E+02    10.1794   1.1958   107.5037
 29     12.7828     2.3763E+01    2.3961E+01    1.100000E+10  0.02000  1.169E-05    0   0.5103   age185_m62            0.0000     3.7208E+02    12.5576   0.8243   109.7667
 30     19.3671     4.3430E+01    4.3312E+01    1.300000E+10  0.02000  9.691E-06    0   0.5047   age193_m62            0.0000     4.0090E+02    12.9666   0.7769   110.1587
 31      1.0734     8.7989E-04    1.7383E-03    1.000000E+06  0.05000  2.651E-02    0   0.9998   age020_m72            0.0000     5.2419E+03    40.5797   4.0000   106.4198
 32      0.0000     0.0000E+00    0.0000E+00    3.160000E+06  0.05000  4.817E-02    0   0.9577   age045_m72            0.0000     3.6290E+03    34.6414   4.0000   109.8368
 33      0.0000     0.0000E+00    0.0000E+00    5.010000E+06  0.05000  3.101E-02    0   0.9147   age055_m72            0.0000     2.0575E+03    27.4120   4.0000   108.4872
 34      0.0000     0.0000E+00    0.0000E+00    1.000000E+07  0.05000  8.954E-03    0   0.8524   age070_m72            0.0000     3.0247E+03    31.7690   4.0000   110.0999
 35      0.0000     0.0000E+00    0.0000E+00    2.512000E+07  0.05000  4.207E-03    0   0.7902   age090_m72            0.0000     1.3862E+03    20.6252   4.0000   109.8871
 36      0.0000     0.0000E+00    0.0000E+00    4.000000E+07  0.05000  3.198E-03    0   0.7618   age104_m72            0.0000     7.1142E+02    12.6689   4.0000   107.2828
 37      0.0000     0.0000E+00    0.0000E+00    1.015200E+08  0.05000  1.716E-03    0   0.7092   age116_m72            0.0000     8.5085E+02    15.9428   4.0000   103.9669
 38      0.0000     0.0000E+00    0.0000E+00    2.861200E+08  0.05000  7.047E-04    0   0.6618   age125_m72            0.0000     1.1622E+03    19.3228   3.2838   108.3432
 39      0.0000     0.0000E+00    0.0000E+00    6.405400E+08  0.05000  2.633E-04    0   0.6253   age132_m72            0.0000     7.3604E+02    15.8387   2.4131   111.7759
 40      0.0000     0.0000E+00    0.0000E+00    9.047900E+08  0.05000  1.484E-04    0   0.6088   age135_m72            0.0000     3.8235E+02    11.6160   1.8869   108.7179
 41      0.0000     0.0000E+00    0.0000E+00    1.434000E+09  0.05000  7.827E-05    0   0.5847   age139_m72            0.0000     2.6195E+02    10.2574   1.4662   106.7880
 42      0.0000     0.0000E+00    0.0000E+00    2.500000E+09  0.05000  3.759E-05    0   0.5583   age150_m72            0.0000     2.7137E+02    10.9435   1.1272   107.0160
 43      0.0000     0.0000E+00    0.0000E+00    5.000000E+09  0.05000  1.548E-05    0   0.5320   age161_m72            0.0000     3.9836E+02    12.7657   0.7193   107.3042
 44      0.0000     0.0000E+00    0.0000E+00    1.100000E+10  0.05000  6.532E-06    0   0.5070   age185_m72            0.0000     6.3402E+02    15.3678   0.3410   107.8286
 45      0.0000     0.0000E+00    0.0000E+00    1.300000E+10  0.05000  5.316E-06    0   0.5018   age193_m72            0.0000     7.4453E+02    16.4946   0.2237   108.1276


## Synthesis Results - Average & Chains ##

# j      x_j: min, <> & last-chain-values for 1 ...  7 chains
  1      4.8482      4.7022      4.8635      4.6378      4.6478      4.7857      4.8479      4.7721      4.5019
  2      3.5040      2.7595      2.7648      2.7202      2.7371      2.7618      2.7126      2.8404      3.0722
  3      2.5993      2.1798      2.2660      2.3057      2.2321      2.1750      2.0525      2.0780      2.2303
  4      1.7628      1.5371      1.5740      1.5185      1.7023      1.5337      1.6210      1.5984      1.4836
  5      0.0000      0.0239      0.0000      0.0000      0.0000      0.1149      0.0000      0.0383      0.0000
  6      0.0000      0.0520      0.0000      0.0963      0.0000      0.0723      0.0498      0.1021      0.0000
  7      0.0000      0.0246      0.0000      0.0279      0.2143      0.0750      0.1282      0.0074      0.0382
  8      0.0000      0.0175      0.0000      0.0000      0.0000      0.0000      0.0000      0.0000      0.0000
  9      0.0000      0.0329      0.0159      0.0000      0.0000      0.0000      0.0000      0.0000      0.0000
 10      0.0000      0.0329      0.1800      0.0000      0.0357      0.0000      0.0605      0.0000      0.0000
 11      0.0000      0.0898      0.0000      0.0000      0.0260      0.0000      0.0000      0.0000      0.1673
 12      0.0000      1.9679      1.7887      1.5801      2.1582      2.3527      2.4449      2.6515      1.2545
 13     23.6121     22.3981     22.7375     23.3242     22.6954     22.6129     22.7901     21.5166     23.0626
 14     11.0428     10.2579     10.3104     10.0013     10.0047     10.2394     10.3286     10.2283     10.1767
 15      9.5503      9.0702      9.4138      8.9107      9.2546      9.3378      9.0016      9.6380      9.1926
 16      5.7722      6.0235      5.9778      5.9640      5.8810      6.0932      5.8821      5.7715      5.9371
 17      0.8039      1.1880      1.1884      1.0533      1.2188      1.1728      1.2571      1.2852      1.2710
 18      3.3218      2.9773      3.0017      3.0931      2.9915      2.9514      3.0405      2.9982      3.1523
 19      0.0000      0.0682      0.1531      0.1503      0.2150      0.0000      0.0028      0.0000      0.0000
 20      0.0000      0.0222      0.0000      0.0000      0.0000      0.0000      0.0000      0.0000      0.0005
 21      0.0000      0.0109      0.0000      0.0000      0.0000      0.0000      0.0000      0.0000      0.0000
 22      0.0000      0.0123      0.0000      0.0000      0.0000      0.0000      0.0000      0.0000      0.0870
 23      0.0000      0.0102      0.0000      0.0000      0.0000      0.0000      0.0000      0.0000      0.0000
 24      0.0000      0.0195      0.0000      0.0000      0.0000      0.0000      0.0000      0.0000      0.0000
 25      0.0000      0.0321      0.0000      0.0000      0.0000      0.0000      0.0000      0.0000      0.0000
 26      0.0000      0.0356      0.0000      0.0000      0.0000      0.0000      0.0000      0.0000      0.0000
 27      0.0000      0.1055      0.0000      0.0932      0.0000      0.0000      0.0000      0.0000      0.0265
 28      0.0000      0.1586      0.0788      0.3374      0.0000      0.0986      0.0000      0.0020      0.0000
 29     12.7828     12.6703     12.6937     12.6691     12.6962     12.3378     12.5749     12.6273     12.9082
 30     19.3671     19.6287     19.6485     19.6546     19.7852     19.8265     19.5486     19.8478     19.6845
 31      1.0734      1.5013      1.2657      1.5778      1.5734      1.3587      1.4697      1.3426      1.4524
 32      0.0000      0.0964      0.0570      0.0987      0.0000      0.1143      0.2044      0.1810      0.1872
 33      0.0000      0.0210      0.0000      0.0000      0.0000      0.0000      0.0000      0.2622      0.0000
 34      0.0000      0.0227      0.0000      0.0000      0.0126      0.0000      0.0000      0.0000      0.0000
 35      0.0000      0.0186      0.0000      0.0000      0.0000      0.0000      0.0000      0.1383      0.0000
 36      0.0000      0.0117      0.0514      0.1502      0.0000      0.0000      0.0000      0.0000      0.0109
 37      0.0000      0.0140      0.0000      0.0000      0.0000      0.0000      0.0000      0.0000      0.0000
 38      0.0000      0.0158      0.0584      0.0000      0.0000      0.0000      0.0000      0.0300      0.0000
 39      0.0000      0.0254      0.0000      0.0000      0.0000      0.0129      0.0000      0.0000      0.0000
 40      0.0000      0.0413      0.0000      0.0742      0.0000      0.0247      0.0000      0.0000      0.0000
 41      0.0000      0.0614      0.0000      0.0000      0.0000      0.0000      0.0000      0.0350      0.2239
 42      0.0000      0.0598      0.0000      0.0000      0.0000      0.0000      0.0000      0.1155      0.0000
 43      0.0000      0.0453      0.0000      0.0678      0.0198      0.0535      0.0000      0.0000      0.0000
 44      0.0000      0.0447      0.0000      0.0044      0.0000      0.0000      0.0752      0.0000      0.0000
 45      0.0000      0.0281      0.0000      0.0000      0.0000      0.0000      0.0000      0.0000      0.0000

# j      m_j: min, <> & last-chain-values for 1 ...  7 chains
  1  1.8688E-02  1.8202E-02  1.8805E-02  1.7983E-02  1.7997E-02  1.8552E-02  1.8846E-02  1.8429E-02  1.7380E-02
  2  3.6938E-03  2.9213E-03  2.9235E-03  2.8846E-03  2.8984E-03  2.9280E-03  2.8840E-03  2.9998E-03  3.2437E-03
  3  4.1792E-03  3.5195E-03  3.6545E-03  3.7292E-03  3.6050E-03  3.5169E-03  3.3283E-03  3.3472E-03  3.5915E-03
  4  5.2781E-03  4.6215E-03  4.7270E-03  4.5736E-03  5.1200E-03  4.6181E-03  4.8946E-03  4.7944E-03  4.4487E-03
  5  0.0000E+00  1.6596E-04  0.0000E+00  0.0000E+00  0.0000E+00  8.0011E-04  0.0000E+00  2.6576E-04  0.0000E+00
  6  0.0000E+00  5.0238E-04  0.0000E+00  9.3199E-04  0.0000E+00  6.9893E-04  4.8268E-04  9.8339E-04  0.0000E+00
  7  0.0000E+00  3.3728E-04  0.0000E+00  3.8357E-04  2.9370E-03  1.0295E-03  1.7643E-03  1.0087E-04  5.2225E-04
  8  0.0000E+00  4.6372E-04  0.0000E+00  0.0000E+00  0.0000E+00  0.0000E+00  0.0000E+00  0.0000E+00  0.0000E+00
  9  0.0000E+00  1.7298E-03  8.3691E-04  0.0000E+00  0.0000E+00  0.0000E+00  0.0000E+00  0.0000E+00  0.0000E+00
 10  0.0000E+00  2.4154E-03  1.3209E-02  0.0000E+00  2.6215E-03  0.0000E+00  4.4676E-03  0.0000E+00  0.0000E+00
 11  0.0000E+00  1.1592E-02  0.0000E+00  0.0000E+00  3.3626E-03  0.0000E+00  0.0000E+00  0.0000E+00  2.1537E-02
 12  0.0000E+00  4.7218E-01  4.2868E-01  3.7978E-01  5.1800E-01  5.6533E-01  5.8914E-01  6.3471E-01  3.0021E-01
 13  1.1235E+01  1.0703E+01  1.0852E+01  1.1164E+01  1.0848E+01  1.0821E+01  1.0937E+01  1.0257E+01  1.0991E+01
 14  1.0710E+01  9.9903E+00  1.0030E+01  9.7571E+00  9.7467E+00  9.9870E+00  1.0102E+01  9.9379E+00  9.8848E+00
 15  1.0731E+01  1.0234E+01  1.0609E+01  1.0071E+01  1.0445E+01  1.0551E+01  1.0200E+01  1.0849E+01  1.0345E+01
 16  1.2462E-02  1.3059E-02  1.2945E-02  1.2952E-02  1.2754E-02  1.3230E-02  1.2807E-02  1.2483E-02  1.2838E-02
 17  9.0215E-04  1.3389E-03  1.3378E-03  1.1891E-03  1.3740E-03  1.3236E-03  1.4228E-03  1.4450E-03  1.4286E-03
 18  4.1295E-03  3.7167E-03  3.7429E-03  3.8679E-03  3.7356E-03  3.6898E-03  3.8119E-03  3.7339E-03  3.9247E-03
 19  0.0000E+00  2.5443E-04  5.7094E-04  5.6208E-04  8.0275E-04  0.0000E+00  1.0461E-05  0.0000E+00  0.0000E+00
 20  0.0000E+00  1.8402E-04  0.0000E+00  0.0000E+00  0.0000E+00  0.0000E+00  0.0000E+00  0.0000E+00  4.0649E-06
 21  0.0000E+00  1.0820E-04  0.0000E+00  0.0000E+00  0.0000E+00  0.0000E+00  0.0000E+00  0.0000E+00  0.0000E+00
 22  0.0000E+00  2.0316E-04  0.0000E+00  0.0000E+00  0.0000E+00  0.0000E+00  0.0000E+00  0.0000E+00  1.4389E-03
 23  0.0000E+00  3.3276E-04  0.0000E+00  0.0000E+00  0.0000E+00  0.0000E+00  0.0000E+00  0.0000E+00  0.0000E+00
 24  0.0000E+00  1.4547E-03  0.0000E+00  0.0000E+00  0.0000E+00  0.0000E+00  0.0000E+00  0.0000E+00  0.0000E+00
 25  0.0000E+00  3.6838E-03  0.0000E+00  0.0000E+00  0.0000E+00  0.0000E+00  0.0000E+00  0.0000E+00  0.0000E+00
 26  0.0000E+00  7.7187E-03  0.0000E+00  0.0000E+00  0.0000E+00  0.0000E+00  0.0000E+00  0.0000E+00  0.0000E+00
 27  0.0000E+00  4.6341E-02  0.0000E+00  4.1006E-02  0.0000E+00  0.0000E+00  0.0000E+00  0.0000E+00  1.1615E-02
 28  0.0000E+00  1.4104E-01  6.9946E-02  3.0053E-01  0.0000E+00  8.7761E-02  0.0000E+00  1.7637E-03  0.0000E+00
 29  2.3961E+01  2.3850E+01  2.3867E+01  2.3889E+01  2.3906E+01  2.3259E+01  2.3772E+01  2.3713E+01  2.4234E+01
 30  4.3312E+01  4.4081E+01  4.4075E+01  4.4215E+01  4.4446E+01  4.4591E+01  4.4090E+01  4.4468E+01  4.4089E+01
 31  1.7383E-03  2.4416E-03  2.0560E-03  2.5704E-03  2.5596E-03  2.2129E-03  2.4004E-03  2.1783E-03  2.3557E-03
 32  0.0000E+00  8.2684E-05  4.8773E-05  8.4791E-05  0.0000E+00  9.8129E-05  1.7598E-04  1.5478E-04  1.6006E-04
 33  0.0000E+00  2.6754E-05  0.0000E+00  0.0000E+00  0.0000E+00  0.0000E+00  0.0000E+00  3.3276E-04  0.0000E+00
 34  0.0000E+00  9.3225E-05  0.0000E+00  0.0000E+00  5.1659E-05  0.0000E+00  0.0000E+00  0.0000E+00  0.0000E+00
 35  0.0000E+00  1.5079E-04  0.0000E+00  0.0000E+00  0.0000E+00  0.0000E+00  0.0000E+00  1.1179E-03  0.0000E+00
 36  0.0000E+00  1.2026E-04  5.2781E-04  1.5453E-03  0.0000E+00  0.0000E+00  0.0000E+00  0.0000E+00  1.1141E-04
 37  0.0000E+00  2.4908E-04  0.0000E+00  0.0000E+00  0.0000E+00  0.0000E+00  0.0000E+00  0.0000E+00  0.0000E+00
 38  0.0000E+00  6.4126E-04  2.3616E-03  0.0000E+00  0.0000E+00  0.0000E+00  0.0000E+00  1.2103E-03  0.0000E+00
 39  0.0000E+00  2.5973E-03  0.0000E+00  0.0000E+00  0.0000E+00  1.3242E-03  0.0000E+00  0.0000E+00  0.0000E+00
 40  0.0000E+00  7.2988E-03  0.0000E+00  1.3152E-02  0.0000E+00  4.3680E-03  0.0000E+00  0.0000E+00  0.0000E+00
 41  0.0000E+00  1.9765E-02  0.0000E+00  0.0000E+00  0.0000E+00  0.0000E+00  0.0000E+00  1.1234E-02  7.1939E-02
 42  0.0000E+00  3.8325E-02  0.0000E+00  0.0000E+00  0.0000E+00  0.0000E+00  0.0000E+00  7.3788E-02  0.0000E+00
 43  0.0000E+00  6.7180E-02  0.0000E+00  1.0065E-01  2.9355E-02  7.9368E-02  0.0000E+00  0.0000E+00  0.0000E+00
 44  0.0000E+00  1.4964E-01  0.0000E+00  1.4796E-02  0.0000E+00  0.0000E+00  2.5264E-01  0.0000E+00  0.0000E+00
 45  0.0000E+00  1.1449E-01  0.0000E+00  0.0000E+00  0.0000E+00  0.0000E+00  0.0000E+00  0.0000E+00  0.0000E+00

# AV, chi2 & Mass for <> & i_chain = 1 ...  7 solutions
AV       1.8573      1.8562      1.8562      1.8569      1.8584      1.8564      1.8599      1.8569      1.8555
chi2 2.8328E+00  2.8667E+00  2.8573E+00  2.8639E+00  2.8570E+00  2.8595E+00  2.8590E+00  2.8568E+00  2.8559E+00
Mass 9.7279E-10  9.6728E-10  9.6834E-10  9.6648E-10  9.6982E-10  9.6602E-10  9.6790E-10  9.7041E-10  9.6886E-10
 -28.74                                  [v0_min (km/s) before EX0s...]
  58.24                                  [vd_min (km/s) before EX0s...]


## Synthetic spectrum (Best Model) ##l_obs f_obs f_syn wei
 3070    [Nl_obs]
 3359.00    0.25155   0.45693   -1.000
 3360.00    0.28686   0.44110   -1.000
 3361.00    0.26337   0.44795   -1.000
 3362.00    0.26264   0.47394   -1.000
 3363.00    0.30699   0.50298   -1.000
 3364.00    0.29813   0.51914   -1.000
 3365.00    0.29866   0.51547   -1.000
 3366.00    0.33946   0.49673   -1.000
 3367.00    0.30017   0.47448   -1.000
 3368.00    0.30608   0.45855   -1.000
 3369.00    0.34565   0.45198   -1.000
 3370.00    0.32885   0.44993   -1.000
 3371.00    0.29450   0.44924   -1.000
 3372.00    0.28433   0.45468   -1.000
 3373.00    0.38177   0.47141   -1.000
 3374.00    0.40128   0.49740   -1.000
 3375.00    0.37003   0.52371   -1.000
 3376.00    0.38408   0.53531   -1.000
 3377.00    0.41180   0.52606   -1.000
 3378.00    0.37912   0.50541   -1.000
 3379.00    0.35458   0.48705   -1.000
 3380.00    0.36761   0.48170   -1.000
 3381.00    0.37354   0.49100   -1.000
 3382.00    0.34982   0.50678   -1.000
 3383.00    0.36135   0.52029   -1.000
 3384.00    0.36415   0.53050   -1.000
 3385.00    0.38807   0.53914   -1.000
 3386.00    0.40637   0.54273   -1.000
 3387.00    0.37800   0.54133   -1.000
 3388.00    0.41122   0.53833   -1.000
 3389.00    0.42197   0.53488   -1.000
 3390.00    0.42348   0.52835   -1.000
 3391.00    0.42644   0.51742   -1.000
 3392.00    0.40592   0.50801   -1.000
 3393.00    0.38873   0.50902   -1.000
 3394.00    0.43404   0.52276   -1.000
 3395.00    0.45437   0.54183   -1.000
 3396.00    0.44452   0.55864   -1.000
 3397.00    0.44261   0.57139   -1.000
 3398.00    0.49824   0.57682   36.456
 3399.00    0.51718   0.57417   36.064
 3400.00    0.45774   0.56715   -1.000
 3401.00    0.44983   0.55661   -1.000
 3402.00    0.45614   0.54374   -1.000
 3403.00    0.46065   0.53371   39.121
 3404.00    0.46611   0.52785   39.829
 3405.00    0.44937   0.52278   40.431
 3406.00    0.43848   0.51662   -1.000
 3407.00    0.45840   0.51268   41.275
 3408.00    0.46515   0.51445   41.444
 3409.00    0.47302   0.52169   41.076
 3410.00    0.45390   0.52740   39.900
 3411.00    0.44681   0.52329   39.799
 3412.00    0.45985   0.51138   41.477
 3413.00    0.46633   0.49980   42.134
 3414.00    0.42472   0.49723   41.926
 3415.00    0.44731   0.50618   40.784
 3416.00    0.45455   0.52223   38.997
 3417.00    0.46359   0.54048   37.134
 3418.00    0.49856   0.55751   35.426
 3419.00    0.50180   0.57038   35.301
 3420.00    0.52667   0.57391   35.100
 3421.00    0.49764   0.56679   35.405
 3422.00    0.46854   0.55515   -1.000
 3423.00    0.47854   0.54762   37.065
 3424.00    0.49665   0.54598   35.979
 3425.00    0.50740   0.54837   35.109
 3426.00    0.49026   0.55380   38.421
 3427.00    0.49819   0.56488   -1.000
 3428.00    0.49521   0.58167   -1.000
 3429.00    0.50193   0.59282   -1.000
 3430.00    0.52211   0.58856   -1.000
 3431.00    0.50624   0.57264   -1.000
 3432.00    0.48562   0.55610   35.073
 3433.00    0.49125   0.54999   38.395
 3434.00    0.51789   0.55462   -1.000
 3435.00    0.52500   0.56023   -1.000
 3436.00    0.52453   0.55794   35.009
 3437.00    0.50882   0.54468   36.715
 3438.00    0.50132   0.52120   39.007
 3439.00    0.50781   0.49194   41.974
 3440.00    0.49784   0.46502   43.475
 3441.00    0.43419   0.45081   43.501
 3442.00    0.43209   0.45331   43.142
 3443.00    0.43218   0.46559   41.336
 3444.00    0.44287   0.47953   39.061
 3445.00    0.45898   0.49366   36.987
 3446.00    0.50377   0.51143   39.635
 3447.00    0.49402   0.53305   -1.000
 3448.00    0.52080   0.55425   -1.000
 3449.00    0.54640   0.56554   -1.000
 3450.00    0.55010   0.56126  281.232
 3451.00    0.56908   0.54704   -1.000
 3452.00    0.53578   0.53455  281.232
 3453.00    0.53721   0.53293  281.232
 3454.00    0.56461   0.54058   -1.000
 3455.00    0.55750   0.54691   -1.000
 3456.00    0.57859   0.54338   -1.000
 3457.00    0.58131   0.52915   -1.000
 3458.00    0.56721   0.51220   35.001
 3459.00    0.50152   0.49941   35.399
 3460.00    0.50232   0.49342   39.082
 3461.00    0.52441   0.49992   -1.000
 3462.00    0.53907   0.51862   -1.000
 3463.00    0.53439   0.53534  281.232
 3464.00    0.55961   0.53935   -1.000
 3465.00    0.55480   0.53709   -1.000
 3466.00    0.56684   0.53736   -1.000
 3467.00    0.56983   0.54514   -1.000
 3468.00    0.56462   0.55693  281.232
 3469.00    0.58188   0.56588   -1.000
 3470.00    0.59443   0.56630   -1.000
 3471.00    0.57954   0.55571   -1.000
 3472.00    0.54531   0.53725  281.232
 3473.00    0.55035   0.51493   -1.000
 3474.00    0.52667   0.49389   35.390
 3475.00    0.49330   0.48334   36.481
 3476.00    0.51226   0.48914   39.905
 3477.00    0.52156   0.50597   -1.000
 3478.00    0.53195   0.52503  281.232
 3479.00    0.56397   0.53922   -1.000
 3480.00    0.58205   0.54533   -1.000
 3481.00    0.54674   0.54261  281.232
 3482.00    0.56546   0.53393   -1.000
 3483.00    0.56959   0.52735   -1.000
 3484.00    0.57083   0.53143   -1.000
 3485.00    0.56952   0.54668   -1.000
 3486.00    0.57924   0.56226   -1.000
 3487.00    0.62762   0.56443   -1.000
 3488.00    0.62313   0.54938   -1.000
 3489.00    0.57612   0.52693   -1.000
 3490.00    0.53642   0.51202   -1.000
 3491.00    0.54457   0.51212   -1.000
 3492.00    0.55518   0.52148   -1.000
 3493.00    0.57631   0.52958   -1.000
 3494.00    0.56796   0.52944   -1.000
 3495.00    0.57305   0.52206   -1.000
 3496.00    0.55684   0.51818   -1.000
 3497.00    0.52759   0.52846  281.232
 3498.00    0.53255   0.54994   -1.000
 3499.00    0.58816   0.56669   -1.000
 3500.00    0.60273   0.57300   -1.000
 3501.00    0.57833   0.57758  272.388
 3502.00    0.56766   0.58393   -1.000
 3503.00    0.60096   0.58652   -1.000
 3504.00    0.62733   0.58029   -1.000
 3505.00    0.59877   0.56997   -1.000
 3506.00    0.58749   0.56378   -1.000
 3507.00    0.59178   0.56246   -1.000
 3508.00    0.59680   0.55945   -1.000
 3509.00    0.61388   0.55125   -1.000
 3510.00    0.60395   0.54071   -1.000
 3511.00    0.57801   0.53058   -1.000
 3512.00    0.54739   0.52048   -1.000
 3513.00    0.54428   0.51273   -1.000
 3514.00    0.55176   0.51709   -1.000
 3515.00    0.57284   0.53781   -1.000
 3516.00    0.55714   0.56590  280.081
 3517.00    0.57912   0.58597  277.544
 3518.00    0.61748   0.58824   -1.000
 3519.00    0.60089   0.57357   -1.000
 3520.00    0.56558   0.55052   -1.000
 3521.00    0.56554   0.52866   -1.000
 3522.00    0.53951   0.51086   -1.000
 3523.00    0.50625   0.49450   35.096
 3524.00    0.49730   0.48335   36.169
 3525.00    0.48252   0.48417   40.767
 3526.00    0.48778   0.50059   -1.000
 3527.00    0.52435   0.52814  281.232
 3528.00    0.53153   0.55514   -1.000
 3529.00    0.58135   0.57077   -1.000
 3530.00    0.57671   0.57339  281.232
 3531.00    0.56909   0.57015  281.232
 3532.00    0.57710   0.57088  281.232
 3533.00    0.59140   0.57789   -1.000
 3534.00    0.58991   0.58698  281.232
 3535.00    0.57546   0.59218   -1.000
 3536.00    0.59276   0.59390  280.633
 3537.00    0.57067   0.59832   -1.000
 3538.00    0.56422   0.60545   -1.000
 3539.00    0.60405   0.60807  277.534
 3540.00    0.64007   0.60300   -1.000
 3541.00    0.60861   0.59751   -1.000
 3542.00    0.57059   0.60003   -1.000
 3543.00    0.59319   0.60820   -1.000
 3544.00    0.63127   0.61433   -1.000
 3545.00    0.62115   0.61317  281.232
 3546.00    0.60819   0.60733  281.232
 3547.00    0.62371   0.60360   -1.000
 3548.00    0.61014   0.60390  281.232
 3549.00    0.60310   0.60535  281.232
 3550.00    0.59980   0.60381  281.232
 3551.00    0.59306   0.59677  281.232
 3552.00    0.59578   0.58557   -1.000
 3553.00    0.55478   0.57629   -1.000
 3554.00    0.56208   0.57423   -1.000
 3555.00    0.56504   0.57777   -1.000
 3556.00    0.59974   0.58068   -1.000
 3557.00    0.60082   0.57889   -1.000
 3558.00    0.57996   0.57497  281.232
 3559.00    0.56508   0.57609  281.232
 3560.00    0.54966   0.58527   -1.000
 3561.00    0.56505   0.59715   -1.000
 3562.00    0.60049   0.59879  281.232
 3563.00    0.59675   0.57866   -1.000
 3564.00    0.55737   0.54271   35.494
 3565.00    0.50742   0.51438   36.679
 3566.00    0.50561   0.50605   36.269
 3567.00    0.50325   0.50655   36.277
 3568.00    0.50546   0.50135   37.452
 3569.00    0.50107   0.48852   37.852
 3570.00    0.46513   0.48100   36.567
 3571.00    0.47027   0.48841   40.498
 3572.00    0.50081   0.50417  281.232
 3573.00    0.52556   0.51734  281.232
 3574.00    0.52921   0.52464  281.232
 3575.00    0.52996   0.52765  281.232
 3576.00    0.52294   0.52661  281.232
 3577.00    0.52511   0.51780  152.536
 3578.00    0.53682   0.49888   36.884
 3579.00    0.52822   0.47433   39.709
 3580.00    0.48606   0.45467   41.588
 3581.00    0.45655   0.44703   41.823
 3582.00    0.47551   0.45070   42.127
 3583.00    0.46267   0.45520   43.253
 3584.00    0.46276   0.45190   44.565
 3585.00    0.44737   0.44478   44.723
 3586.00    0.45963   0.44388   42.410
 3587.00    0.45271   0.45429   40.179
 3588.00    0.47066   0.47592   37.963
 3589.00    0.46986   0.50430   40.596
 3590.00    0.49247   0.53158   -1.000
 3591.00    0.52851   0.54911   -1.000
 3592.00    0.55064   0.55438  281.232
 3593.00    0.55203   0.55620  281.232
 3594.00    0.55319   0.56433  281.232
 3595.00    0.57919   0.58039  280.352
 3596.00    0.56834   0.59686   -1.000
 3597.00    0.58229   0.60948   -1.000
 3598.00    0.61767   0.61977  262.504
 3599.00    0.63167   0.62452  267.220
 3600.00    0.62814   0.61688   -1.000
 3601.00    0.61435   0.59609   -1.000
 3602.00    0.59432   0.56991   -1.000
 3603.00    0.55237   0.54839  281.232
 3604.00    0.53281   0.53855  281.232
 3605.00    0.52375   0.53699   -1.000
 3606.00    0.52190   0.53392  281.232
 3607.00    0.52159   0.52391  281.232
 3608.00    0.51922   0.51252  281.232
 3609.00    0.51808   0.51180  281.232
 3610.00    0.52943   0.52543  281.232
 3611.00    0.53061   0.54293   -1.000
 3612.00    0.53047   0.55606   -1.000
 3613.00    0.53548   0.56745   -1.000
 3614.00    0.55436   0.57864   -1.000
 3615.00    0.56334   0.58251   -1.000
 3616.00    0.58387   0.56627   -1.000
 3617.00    0.54907   0.53229  140.560
 3618.00    0.52711   0.50711   40.646
 3619.00    0.49438   0.51031   -1.000
 3620.00    0.53904   0.53581  281.232
 3621.00    0.57381   0.56760  279.595
 3622.00    0.58924   0.59153  273.555
 3623.00    0.58123   0.60721   -1.000
 3624.00    0.59806   0.62473   -1.000
 3625.00    0.61333   0.64855   -1.000
 3626.00    0.64467   0.67030   -1.000
 3627.00    0.64716   0.67715   -1.000
 3628.00    0.66188   0.65782  271.257
 3629.00    0.61909   0.61385  281.232
 3630.00    0.58459   0.56658   -1.000
 3631.00    0.55587   0.53959   -1.000
 3632.00    0.53657   0.53880  281.232
 3633.00    0.55919   0.55460  281.232
 3634.00    0.54884   0.57181   -1.000
 3635.00    0.57329   0.58326  281.232
 3636.00    0.57249   0.59364   -1.000
 3637.00    0.58963   0.61119   -1.000
 3638.00    0.61380   0.63277   -1.000
 3639.00    0.62715   0.64915   -1.000
 3640.00    0.63698   0.65183   -1.000
 3641.00    0.63088   0.63932  269.987
 3642.00    0.62305   0.61825  281.232
 3643.00    0.58027   0.59714   -1.000
 3644.00    0.57325   0.58078  281.232
 3645.00    0.57168   0.56762  281.232
 3646.00    0.56947   0.55477   -1.000
 3647.00    0.55385   0.54692  281.232
 3648.00    0.53184   0.55016   -1.000
 3649.00    0.57111   0.56541  281.232
 3650.00    0.58626   0.58984  269.075
 3651.00    0.59387   0.61737   -1.000
 3652.00    0.60570   0.64042   -1.000
 3653.00    0.62987   0.65417   -1.000
 3654.00    0.64121   0.66189   -1.000
 3655.00    0.63960   0.66955   -1.000
 3656.00    0.64381   0.68081   -1.000
 3657.00    0.64943   0.69155   -1.000
 3658.00    0.68457   0.69747  239.834
 3659.00    0.67589   0.69855   -1.000
 3660.00    0.64426   0.69407   -1.000
 3661.00    0.66709   0.68379   -1.000
 3662.00    0.65802   0.67119  249.716
 3663.00    0.63854   0.66183   -1.000
 3664.00    0.61649   0.65862   -1.000
 3665.00    0.64213   0.65952   -1.000
 3666.00    0.66841   0.65786   -1.000
 3667.00    0.65185   0.64910  257.540
 3668.00    0.64052   0.63751  262.547
 3669.00    0.61468   0.63478   -1.000
 3670.00    0.59879   0.64611   -1.000
 3671.00    0.63843   0.66326   -1.000
 3672.00    0.65701   0.67493   -1.000
 3673.00    0.67501   0.67711  245.331
 3674.00    0.67212   0.67078  247.178
 3675.00    0.66280   0.65691  255.011
 3676.00    0.63810   0.63760  262.922
 3677.00    0.63597   0.61640   -1.000
 3678.00    0.63019   0.59882   -1.000
 3679.00    0.58310   0.59096  274.005
 3680.00    0.57754   0.59540   -1.000
 3681.00    0.59085   0.60866   -1.000
 3682.00    0.59215   0.62207   -1.000
 3683.00    0.60107   0.62642   -1.000
 3684.00    0.61965   0.61525  277.439
 3685.00    0.61301   0.59173   -1.000
 3686.00    0.55966   0.57147  281.232
 3687.00    0.54985   0.56994   -1.000
 3688.00    0.56164   0.59021   -1.000
 3689.00    0.60363   0.62393   -1.000
 3690.00    0.65009   0.65528  239.826
 3691.00    0.67185   0.66968  242.718
 3692.00    0.68199   0.66528   -1.000
 3693.00    0.67818   0.65398   -1.000
 3694.00    0.64636   0.64544  250.014
 3695.00    0.63386   0.64311  247.602
 3696.00    0.61776   0.64929   -1.000
 3697.00    0.62710   0.66515   -1.000
 3698.00    0.65530   0.68623   -1.000
 3699.00    0.71516   0.70232   -1.000
 3700.00    0.72691   0.70357   -1.000
 3701.00    0.69554   0.68252   -1.000
 3702.00    0.66744   0.64007   -1.000
 3703.00    0.62243   0.58992   -1.000
 3704.00    0.59096   0.54945   -1.000
 3705.00    0.54813   0.53052   -1.000
 3706.00    0.54033   0.53259  281.232
 3707.00    0.55863   0.54323   -1.000
 3708.00    0.58293   0.55593   -1.000
 3709.00    0.57502   0.57218  268.545
 3710.00    0.59988   0.59408  255.674
 3711.00    0.63227   0.62224  241.533
 3712.00    0.65804   0.65426  231.103
 3713.00    0.69259   0.68065   -1.000
 3714.00    0.71288   0.69363   -1.000
 3715.00    0.72013   0.69009   -1.000
 3716.00    0.69847   0.66893   -1.000
 3717.00    0.66065   0.63078   -1.000
 3718.00    0.61745   0.57779   -1.000
 3719.00    0.56741   0.51981   -1.000
 3720.00    0.52552   0.48082   42.931
 3721.00    0.50654   0.47752   -1.000
 3722.00    0.54218   0.50672   -1.000
 3723.00    0.57801   0.55436   -1.000
 3724.00    0.59846   0.59831  252.430
 3725.00    0.64508   0.61902   -1.000
 3726.00    0.67263   0.61872   -1.000
 3727.00    0.64512   0.61636   -1.000
 3728.00    0.62606   0.61991  260.798
 3729.00    0.64394   0.62049   -1.000
 3730.00    0.65168   0.60478   -1.000
 3731.00    0.62000   0.56591   -1.000
 3732.00    0.57752   0.51356   35.582
 3733.00    0.52063   0.46409   39.330
 3734.00    0.45975   0.43167   40.058
 3735.00    0.45734   0.42812   37.639
 3736.00    0.47268   0.45379   42.294
 3737.00    0.48578   0.50058   -1.000
 3738.00    0.54993   0.55686  273.116
 3739.00    0.62473   0.60554   -1.000
 3740.00    0.66687   0.63035   -1.000
 3741.00    0.66921   0.62787   -1.000
 3742.00    0.64527   0.60429   -1.000
 3743.00    0.60751   0.57163   -1.000
 3744.00    0.57240   0.54238   -1.000
 3745.00    0.54569   0.52019   -1.000
 3746.00    0.53467   0.49772   35.754
 3747.00    0.51709   0.47127   37.693
 3748.00    0.48182   0.44903   46.415
 3749.00    0.47251   0.44951   -1.000
 3750.00    0.50919   0.48213   -1.000
 3751.00    0.55396   0.53503   -1.000
 3752.00    0.59706   0.59034  246.432
 3753.00    0.65465   0.63785   -1.000
 3754.00    0.68889   0.66579   -1.000
 3755.00    0.69048   0.66270   -1.000
 3756.00    0.65306   0.63070   -1.000
 3757.00    0.60623   0.58817   -1.000
 3758.00    0.57722   0.56052   -1.000
 3759.00    0.57276   0.55923   -1.000
 3760.00    0.58521   0.57360   -1.000
 3761.00    0.61476   0.58797   -1.000
 3762.00    0.64172   0.59557   -1.000
 3763.00    0.62723   0.59809   -1.000
 3764.00    0.62635   0.59592   -1.000
 3765.00    0.64480   0.58792   -1.000
 3766.00    0.64379   0.57805   -1.000
 3767.00    0.61823   0.57104   -1.000
 3768.00    0.60999   0.56638   -1.000
 3769.00    0.61894   0.56359   -1.000
 3770.00    0.61348   0.56837   -1.000
 3771.00    0.62972   0.58738   -1.000
 3772.00    0.66101   0.61603   -1.000
 3773.00    0.68934   0.64052   -1.000
 3774.00    0.69171   0.65473   -1.000
 3775.00    0.67879   0.66381   -1.000
 3776.00    0.67516   0.67304  239.124
 3777.00    0.69484   0.68534  234.668
 3778.00    0.71561   0.70002   -1.000
 3779.00    0.72297   0.71479  222.780
 3780.00    0.73475   0.72702  221.375
 3781.00    0.73941   0.73487  220.353
 3782.00    0.72585   0.73822  221.584
 3783.00    0.73127   0.73304  228.247
 3784.00    0.73028   0.71342   -1.000
 3785.00    0.71145   0.68153   -1.000
 3786.00    0.67646   0.64791   -1.000
 3787.00    0.63197   0.62253   -1.000
 3788.00    0.62921   0.61101   -1.000
 3789.00    0.61272   0.61223  267.650
 3790.00    0.61235   0.61863  266.457
 3791.00    0.62861   0.61997   -1.000
 3792.00    0.65142   0.60922   -1.000
 3793.00    0.63375   0.58843   -1.000
 3794.00    0.60117   0.56425   -1.000
 3795.00    0.57886   0.53921   -1.000
 3796.00    0.55896   0.51173   -1.000
 3797.00    0.53730   0.48803   -1.000
 3798.00    0.53290   0.48749   -1.000
 3799.00    0.53252   0.51951   -1.000
 3800.00    0.55698   0.57081   -1.000
 3801.00    0.61351   0.62230  250.714
 3802.00    0.63677   0.66062   -1.000
 3803.00    0.68091   0.68009  246.028
 3804.00    0.68335   0.68148  251.169
 3805.00    0.67245   0.66904  259.857
 3806.00    0.64266   0.65648  262.075
 3807.00    0.63233   0.65884   -1.000
 3808.00    0.65833   0.67648   -1.000
 3809.00    0.67843   0.69518   -1.000
 3810.00    0.70775   0.69947  251.765
 3811.00    0.69795   0.68289   -1.000
 3812.00    0.67641   0.65118   -1.000
 3813.00    0.64385   0.61550   -1.000
 3814.00    0.61862   0.58843   -1.000
 3815.00    0.58469   0.57994  281.232
 3816.00    0.59060   0.58524  281.232
 3817.00    0.59961   0.58707   -1.000
 3818.00    0.60713   0.57301   -1.000
 3819.00    0.58818   0.55005   -1.000
 3820.00    0.54318   0.53816  281.232
 3821.00    0.55605   0.54546   -1.000
 3822.00    0.58718   0.55584   -1.000
 3823.00    0.58554   0.54983   -1.000
 3824.00    0.53790   0.52964   36.680
 3825.00    0.50982   0.51042   37.201
 3826.00    0.49494   0.50136   36.793
 3827.00    0.48127   0.50232   36.190
 3828.00    0.48874   0.50666   35.838
 3829.00    0.51490   0.50660   36.579
 3830.00    0.50868   0.49699   38.564
 3831.00    0.50385   0.47737   41.258
 3832.00    0.50862   0.45178   41.984
 3833.00    0.48588   0.42870   40.902
 3834.00    0.46144   0.41757   39.409
 3835.00    0.47415   0.42032   38.959
 3836.00    0.48476   0.43004   39.854
 3837.00    0.49192   0.43926   40.419
 3838.00    0.47529   0.44912   39.267
 3839.00    0.46618   0.46737   47.317
 3840.00    0.49713   0.49997  281.232
 3841.00    0.54416   0.54251  281.232
 3842.00    0.59518   0.58508   -1.000
 3843.00    0.63585   0.61731   -1.000
 3844.00    0.64273   0.63456  281.232
 3845.00    0.64460   0.64323  281.232
 3846.00    0.66006   0.64901   -1.000
 3847.00    0.66227   0.64987   -1.000
 3848.00    0.64484   0.64354  281.232
 3849.00    0.62626   0.63667  281.232
 3850.00    0.60846   0.63777   -1.000
 3851.00    0.61443   0.64673   -1.000
 3852.00    0.62986   0.65387   -1.000
 3853.00    0.62788   0.64962   -1.000
 3854.00    0.61972   0.63477   -1.000
 3855.00    0.60781   0.61739  281.232
 3856.00    0.60105   0.59980  108.108
 3857.00    0.59181   0.58032   35.071
 3858.00    0.56568   0.56373   36.564
 3859.00    0.53258   0.56159   45.590
 3860.00    0.53725   0.58036   -1.000
 3861.00    0.56891   0.61310   -1.000
 3862.00    0.60813   0.64202   -1.000
 3863.00    0.65531   0.65343  279.438
 3864.00    0.66286   0.65084   -1.000
 3865.00    0.66101   0.64538   -1.000
 3866.00    0.64652   0.64241  281.232
 3867.00    0.63672   0.64096  281.232
 3868.00    0.61939   0.63524   -1.000
 3869.00    0.58652   0.62003   -1.000
 3870.00    0.54290   0.59887   44.779
 3871.00    0.51924   0.58364   -1.000
 3872.00    0.53708   0.58583   -1.000
 3873.00    0.58404   0.60762   -1.000
 3874.00    0.64125   0.63580  271.277
 3875.00    0.66283   0.64758   -1.000
 3876.00    0.64864   0.63414   -1.000
 3877.00    0.59892   0.61159  281.232
 3878.00    0.57252   0.59843   -1.000
 3879.00    0.56912   0.59769   -1.000
 3880.00    0.56145   0.60156   -1.000
 3881.00    0.54783   0.60346   -1.000
 3882.00    0.56003   0.60499   -1.000
 3883.00    0.58862   0.60462   -1.000
 3884.00    0.60756   0.59149   -1.000
 3885.00    0.60542   0.56057   -1.000
 3886.00    0.57625   0.52346   -1.000
 3887.00    0.56888   0.49858   -1.000
 3888.00    0.55895   0.49886   -1.000
 3889.00    0.58761   0.52752   -1.000
 3890.00    0.62879   0.57578   -1.000
 3891.00    0.66147   0.62496   -1.000
 3892.00    0.69729   0.65536   -1.000
 3893.00    0.70512   0.66380   -1.000
 3894.00    0.71123   0.66440   -1.000
 3895.00    0.71186   0.67017   -1.000
 3896.00    0.71671   0.68091   -1.000
 3897.00    0.72592   0.68780   -1.000
 3898.00    0.72296   0.68787   -1.000
 3899.00    0.71721   0.68836   -1.000
 3900.00    0.73971   0.69352   -1.000
 3901.00    0.73282   0.69745   -1.000
 3902.00    0.70519   0.69333   -1.000
 3903.00    0.72209   0.68069   -1.000
 3904.00    0.71058   0.66823   -1.000
 3905.00    0.66381   0.66700  248.110
 3906.00    0.65048   0.68214   -1.000
 3907.00    0.69495   0.71117   -1.000
 3908.00    0.74705   0.74188  215.430
 3909.00    0.76484   0.76251  213.519
 3910.00    0.76786   0.77364  211.678
 3911.00    0.78296   0.77996  211.424
 3912.00    0.78491   0.78073  214.507
 3913.00    0.76451   0.77547  219.177
 3914.00    0.75662   0.76636  223.739
 3915.00    0.76482   0.75582  226.565
 3916.00    0.76621   0.74461   -1.000
 3917.00    0.75714   0.72949   -1.000
 3918.00    0.72809   0.70777   -1.000
 3919.00    0.68578   0.68357  259.385
 3920.00    0.64919   0.66475   -1.000
 3921.00    0.65195   0.65812  259.308
 3922.00    0.68059   0.66282   -1.000
 3923.00    0.68123   0.66842   -1.000
 3924.00    0.66744   0.66395  277.658
 3925.00    0.63576   0.64405  281.232
 3926.00    0.60862   0.61032  111.503
 3927.00    0.57440   0.56833   40.195
 3928.00    0.50021   0.52493   47.114
 3929.00    0.43760   0.48260   55.271
 3930.00    0.38172   0.43964   -1.000
 3931.00    0.32601   0.39710   -1.000
 3932.00    0.29052   0.36031   -1.000
 3933.00    0.28327   0.34404   -1.000
 3934.00    0.28696   0.35964   -1.000
 3935.00    0.30114   0.39958   -1.000
 3936.00    0.34065   0.44996   -1.000
 3937.00    0.39963   0.50322   -1.000
 3938.00    0.46797   0.55227   -1.000
 3939.00    0.52469   0.59227   -1.000
 3940.00    0.56696   0.61971   -1.000
 3941.00    0.60279   0.63239   -1.000
 3942.00    0.60470   0.63526   -1.000
 3943.00    0.60177   0.63847   -1.000
 3944.00    0.61884   0.65237   -1.000
 3945.00    0.67210   0.67537  239.762
 3946.00    0.71074   0.69643   -1.000
 3947.00    0.70176   0.71066  233.882
 3948.00    0.71253   0.72333  225.412
 3949.00    0.74383   0.73829  220.349
 3950.00    0.75863   0.74858  222.121
 3951.00    0.76086   0.75055  223.439
 3952.00    0.74773   0.75227  218.884
 3953.00    0.75112   0.75764  215.514
 3954.00    0.78027   0.75988   -1.000
 3955.00    0.78283   0.75291   -1.000
 3956.00    0.76574   0.74265   -1.000
 3957.00    0.75374   0.73760   -1.000
 3958.00    0.75056   0.73080   -1.000
 3959.00    0.74219   0.70572   -1.000
 3960.00    0.69420   0.66123   -1.000
 3961.00    0.62165   0.61294   -1.000
 3962.00    0.57443   0.57530  103.466
 3963.00    0.54799   0.54715   37.898
 3964.00    0.52541   0.51431   45.058
 3965.00    0.46228   0.46564   55.532
 3966.00    0.37805   0.40449   66.231
 3967.00    0.30966   0.35045   69.654
 3968.00    0.28357   0.32353   62.242
 3969.00    0.29495   0.33185   51.184
 3970.00    0.33801   0.37142   42.287
 3971.00    0.38850   0.42993   49.283
 3972.00    0.45479   0.49425   -1.000
 3973.00    0.52893   0.55754   -1.000
 3974.00    0.60031   0.61576   -1.000
 3975.00    0.65048   0.66687   -1.000
 3976.00    0.68567   0.71189   -1.000
 3977.00    0.73423   0.75222   -1.000
 3978.00    0.78901   0.78860  198.700
 3979.00    0.82598   0.81445  197.545
 3980.00    0.83962   0.82390   -1.000
 3981.00    0.82866   0.82099  202.104
 3982.00    0.81378   0.81634  199.734
 3983.00    0.81164   0.81980  195.571
 3984.00    0.82927   0.83100  191.918
 3985.00    0.86409   0.84479   -1.000
 3986.00    0.85563   0.85953  185.540
 3987.00    0.86887   0.87399  184.505
 3988.00    0.87994   0.88422  184.703
 3989.00    0.87189   0.88953   -1.000
 3990.00    0.88487   0.89522  178.193
 3991.00    0.90874   0.90487  175.716
 3992.00    0.94150   0.91404   -1.000
 3993.00    0.93914   0.91424   -1.000
 3994.00    0.91825   0.90318   -1.000
 3995.00    0.90132   0.88639   -1.000
 3996.00    0.90144   0.87436   -1.000
 3997.00    0.87557   0.87677  183.964
 3998.00    0.87407   0.89359   -1.000
 3999.00    0.90885   0.91701  171.061
 4000.00    0.94051   0.93863  168.477
 4001.00    0.95472   0.95094  167.736
 4002.00    0.97207   0.94611   -1.000
 4003.00    0.96979   0.92042   -1.000
 4004.00    0.93090   0.88365   -1.000
 4005.00    0.87402   0.86074  186.335
 4006.00    0.87640   0.86893  176.351
 4007.00    0.91781   0.90016  170.828
 4008.00    0.95618   0.93237   -1.000
 4009.00    0.97309   0.95211   -1.000
 4010.00    1.02690   0.96154   -1.000
 4011.00    0.99331   0.96643   -1.000
 4012.00    0.97822   0.97047  168.763
 4013.00    0.97172   0.97524  167.103
 4014.00    0.99583   0.97917  165.826
 4015.00    1.00450   0.97950   -1.000
 4016.00    0.98960   0.97766  168.772
 4017.00    0.98406   0.97969  167.342
 4018.00    1.00000   0.98688  165.592
 4019.00    1.01891   0.99416   -1.000
 4020.00    1.01462   0.99615   -1.000
 4021.00    1.00793   0.99200  169.728
 4022.00    0.99287   0.98430  170.910
 4023.00    0.99315   0.97449   -1.000
 4024.00    0.96991   0.96833  165.598
 4025.00    0.98229   0.97439  160.411
 4026.00    1.03965   0.99272   -1.000
 4027.00    1.07052   1.00709   -1.000
 4028.00    1.04252   0.99710   -1.000
 4029.00    1.01501   0.96010   -1.000
 4030.00    0.96899   0.91428   -1.000
 4031.00    0.90700   0.88041   -1.000
 4032.00    0.90922   0.86761   -1.000
 4033.00    0.90556   0.87745   -1.000
 4034.00    0.91818   0.90842  167.374
 4035.00    0.96565   0.95398  159.850
 4036.00    1.01715   1.00282  155.807
 4037.00    1.06190   1.03782   -1.000
 4038.00    1.08399   1.04556   -1.000
 4039.00    1.07066   1.03370   -1.000
 4040.00    1.02529   1.01999  164.713
 4041.00    1.02125   1.00686  167.627
 4042.00    1.03324   0.97899   -1.000
 4043.00    1.00393   0.92496   -1.000
 4044.00    0.92684   0.86292   -1.000
 4045.00    0.85204   0.83421   -1.000
 4046.00    0.85895   0.85937  173.664
 4047.00    0.92248   0.91849  165.001
 4048.00    0.99326   0.97842  161.267
 4049.00    1.04172   1.01834   -1.000
 4050.00    1.06238   1.03315   -1.000
 4051.00    1.07149   1.02848   -1.000
 4052.00    1.05656   1.01158   -1.000
 4053.00    1.00979   0.99188   -1.000
 4054.00    0.99278   0.97655   -1.000
 4055.00    1.00613   0.96402   -1.000
 4056.00    0.99126   0.95274   -1.000
 4057.00    0.96750   0.95014   -1.000
 4058.00    0.95825   0.96271  167.314
 4059.00    1.00511   0.98128   -1.000
 4060.00    1.04637   0.98232   -1.000
 4061.00    1.04013   0.95193   -1.000
 4062.00    0.98492   0.90609   -1.000
 4063.00    0.91516   0.87430   -1.000
 4064.00    0.91468   0.87030   -1.000
 4065.00    0.93812   0.88925   -1.000
 4066.00    0.95102   0.91868   -1.000
 4067.00    0.97048   0.94711   -1.000
 4068.00    1.03191   0.96455   -1.000
 4069.00    1.06371   0.95956   -1.000
 4070.00    1.02333   0.93460   -1.000
 4071.00    0.96202   0.91466   -1.000
 4072.00    0.95806   0.91924   -1.000
 4073.00    0.99603   0.93706   -1.000
 4074.00    1.02915   0.93965   -1.000
 4075.00    0.99322   0.91584   -1.000
 4076.00    0.89912   0.88608  196.772
 4077.00    0.85538   0.87857   -1.000
 4078.00    0.88019   0.90462   -1.000
 4079.00    0.93698   0.95284  164.685
 4080.00    1.00234   0.99711  162.291
 4081.00    1.03692   1.01525   -1.000
 4082.00    1.04318   1.00545   -1.000
 4083.00    1.01458   0.98607   -1.000
 4084.00    0.99100   0.97946  168.024
 4085.00    1.01025   0.99543  161.991
 4086.00    1.04642   1.02630   -1.000
 4087.00    1.07220   1.05631  152.902
 4088.00    1.09808   1.07136   -1.000
 4089.00    1.11410   1.06699   -1.000
 4090.00    1.07979   1.05167   -1.000
 4091.00    1.05643   1.03804   -1.000
 4092.00    1.05860   1.02847   -1.000
 4093.00    1.05923   1.01497   -1.000
 4094.00    1.05465   0.99098   -1.000
 4095.00    1.01569   0.95893   -1.000
 4096.00    0.96313   0.92843   -1.000
 4097.00    0.95022   0.90120   -1.000
 4098.00    0.96400   0.86724   -1.000
 4099.00    0.93979   0.81826   -1.000
 4100.00    0.86298   0.76667   -1.000
 4101.00    0.78804   0.74162   -1.000
 4102.00    0.77783   0.76143   -1.000
 4103.00    0.84404   0.81830   -1.000
 4104.00    0.92297   0.88584   -1.000
 4105.00    0.97383   0.93905   -1.000
 4106.00    1.00768   0.97040   -1.000
 4107.00    1.02003   0.98418   -1.000
 4108.00    1.01915   0.98499   -1.000
 4109.00    0.99576   0.98101   -1.000
 4110.00    0.99070   0.98125  173.711
 4111.00    1.00377   0.98959  170.046
 4112.00    1.02428   1.00475   -1.000
 4113.00    1.04391   1.02383   -1.000
 4114.00    1.05263   1.04143  164.210
 4115.00    1.05638   1.04910  165.973
 4116.00    1.05442   1.04253  170.286
 4117.00    1.03791   1.02623  174.880
 4118.00    1.03168   1.01032   -1.000
 4119.00    1.02627   1.00367   -1.000
 4120.00    1.02431   1.00708   -1.000
 4121.00    1.03910   1.01425   -1.000
 4122.00    1.04186   1.02169   -1.000
 4123.00    1.03110   1.03064  167.106
 4124.00    1.04779   1.03980  167.544
 4125.00    1.07081   1.04250   -1.000
 4126.00    1.07302   1.03503   -1.000
 4127.00    1.05801   1.02309   -1.000
 4128.00    1.04100   1.01329   -1.000
 4129.00    1.02742   1.00202   -1.000
 4130.00    1.01227   0.98220   -1.000
 4131.00    0.99274   0.95709   -1.000
 4132.00    0.96353   0.94200   -1.000
 4133.00    0.93961   0.95148  179.547
 4134.00    0.96363   0.98318   -1.000
 4135.00    1.02447   1.02268  166.938
 4136.00    1.07179   1.05652  164.337
 4137.00    1.07338   1.07859  162.421
 4138.00    1.08085   1.08980  163.167
 4139.00    1.10971   1.08613   -1.000
 4140.00    1.11457   1.05851   -1.000
 4141.00    1.05743   1.00927   -1.000
 4142.00    0.96980   0.95963  196.718
 4143.00    0.91951   0.93715   -1.000
 4144.00    0.95061   0.95366  177.524
 4145.00    1.00657   0.99307  172.642
 4146.00    1.03807   1.02602  172.690
 4147.00    1.05549   1.03694   -1.000
 4148.00    1.04496   1.03254  180.724
 4149.00    1.03738   1.02734  181.667
 4150.00    1.02875   1.02662  180.349
 4151.00    1.01839   1.02496  180.257
 4152.00    1.04432   1.01713   -1.000
 4153.00    1.19961   1.00509   -1.000
 4154.00    1.27169   0.99743   -1.000
 4155.00    0.93056   1.00125   -1.000
 4156.00    0.77063   1.01590   -1.000
 4157.00    1.01142   1.03731   -1.000
 4158.00    1.08819   1.06104   -1.000
 4159.00    1.07376   1.08087  171.346
 4160.00    1.08494   1.09491  167.147
 4161.00    1.08409   1.10573   -1.000
 4162.00    1.10013   1.11338  168.053
 4163.00    1.11003   1.11441  170.793
 4164.00    1.09298   1.10469  173.792
 4165.00    1.05834   1.08523   -1.000
 4166.00    1.04802   1.06596   -1.000
 4167.00    1.03925   1.05734   -1.000
 4168.00    1.04197   1.05830  175.083
 4169.00    1.07194   1.05472   -1.000
 4170.00    1.07360   1.03309   -1.000
 4171.00    1.02078   0.99865   -1.000
 4172.00    0.96926   0.97202  196.403
 4173.00    0.94965   0.96972   -1.000
 4174.00    0.96909   0.98811   -1.000
 4175.00    1.00624   1.00875  185.082
 4176.00    1.00981   1.02152  185.541
 4177.00    1.00437   1.03202   -1.000
 4178.00    1.00508   1.04448   -1.000
 4179.00    1.02032   1.05278   -1.000
 4180.00    1.03083   1.05052   -1.000
 4181.00    1.02724   1.04399  177.170
 4182.00    1.01926   1.04743   -1.000
 4183.00    1.03276   1.06150   -1.000
 4184.00    1.06628   1.07035  174.134
 4185.00    1.07001   1.06202  179.903
 4186.00    1.03243   1.04291  182.605
 4187.00    0.99835   1.03122   -1.000
 4188.00    1.00518   1.03599   -1.000
 4189.00    1.02731   1.05051   -1.000
 4190.00    1.04676   1.06575   -1.000
 4191.00    1.05829   1.08021   -1.000
 4192.00    1.08288   1.09232  169.507
 4193.00    1.10068   1.09259  176.097
 4194.00    1.08900   1.07259   -1.000
 4195.00    1.04974   1.03791  189.297
 4196.00    1.01208   1.00347  191.494
 4197.00    0.98591   0.97949  190.907
 4198.00    0.96420   0.96736  188.377
 4199.00    0.97305   0.96491  186.234
 4200.00    1.01108   0.97023   -1.000
 4201.00    1.01086   0.98132   -1.000
 4202.00    0.99598   0.99952  181.313
 4203.00    1.00747   1.02632   -1.000
 4204.00    1.02771   1.05771   -1.000
 4205.00    1.04377   1.08682   -1.000
 4206.00    1.08009   1.10933   -1.000
 4207.00    1.12030   1.12178  168.639
 4208.00    1.12807   1.12311  168.998
 4209.00    1.11336   1.11913  168.296
 4210.00    1.10325   1.11856  167.877
 4211.00    1.10639   1.12199  170.572
 4212.00    1.11258   1.11666  177.148
 4213.00    1.10150   1.09288  184.211
 4214.00    1.04547   1.06252   -1.000
 4215.00    1.00366   1.04881   -1.000
 4216.00    1.01867   1.06538   -1.000
 4217.00    1.05002   1.10418   -1.000
 4218.00    1.11078   1.14352   -1.000
 4219.00    1.16333   1.16667  156.018
 4220.00    1.18309   1.16620  159.355
 4221.00    1.18166   1.14025   -1.000
 4222.00    1.14043   1.08714   -1.000
 4223.00    1.08853   1.00899   -1.000
 4224.00    1.00585   0.92216   -1.000
 4225.00    0.88881   0.85572   -1.000
 4226.00    0.80076   0.83984   -1.000
 4227.00    0.81678   0.88865   -1.000
 4228.00    0.92904   0.97811   -1.000
 4229.00    1.04209   1.05900   -1.000
 4230.00    1.10549   1.10121  163.038
 4231.00    1.13573   1.10717   -1.000
 4232.00    1.11698   1.09216   -1.000
 4233.00    1.08330   1.07172  172.973
 4234.00    1.08224   1.05534   -1.000
 4235.00    1.06859   1.04662   -1.000
 4236.00    1.03791   1.04668  175.688
 4237.00    1.03164   1.05782   -1.000
 4238.00    1.05326   1.07816   -1.000
 4239.00    1.05960   1.10122   -1.000
 4240.00    1.06933   1.12275   -1.000
 4241.00    1.09337   1.14170   -1.000
 4242.00    1.11241   1.16016   -1.000
 4243.00    1.14920   1.17921   -1.000
 4244.00    1.18104   1.18981  162.650
 4245.00    1.17514   1.17879  169.906
 4246.00    1.12963   1.14514  175.532
 4247.00    1.08488   1.10220  178.849
 4248.00    1.04990   1.06800   -1.000
 4249.00    1.03127   1.05479   -1.000
 4250.00    1.04717   1.06180  172.232
 4251.00    1.07564   1.07624  169.610
 4252.00    1.10736   1.08070   -1.000
 4253.00    1.10328   1.07087   -1.000
 4254.00    1.07043   1.06578  170.033
 4255.00    1.07470   1.08330  165.252
 4256.00    1.11210   1.10877  166.990
 4257.00    1.13261   1.11056   -1.000
 4258.00    1.09810   1.08071   -1.000
 4259.00    1.05022   1.04581  182.669
 4260.00    1.01095   1.04151   -1.000
 4261.00    1.00947   1.07949   -1.000
 4262.00    1.07550   1.13948   -1.000
 4263.00    1.16172   1.19007   -1.000
 4264.00    1.20347   1.21427  156.085
 4265.00    1.20523   1.21408  159.761
 4266.00    1.18740   1.19595  165.006
 4267.00    1.15997   1.16226  170.522
 4268.00    1.13427   1.11414   -1.000
 4269.00    1.09847   1.05566   -1.000
 4270.00    1.02559   0.99944   -1.000
 4271.00    0.97049   0.96251  197.834
 4272.00    0.93825   0.95377   -1.000
 4273.00    0.93652   0.97106   -1.000
 4274.00    0.98021   1.00763   -1.000
 4275.00    1.03919   1.05945   -1.000
 4276.00    1.09707   1.11707   -1.000
 4277.00    1.14499   1.15824  164.563
 4278.00    1.15495   1.16557  171.587
 4279.00    1.12485   1.14761   -1.000
 4280.00    1.07936   1.12872   -1.000
 4281.00    1.06841   1.12449   -1.000
 4282.00    1.10411   1.12875   -1.000
 4283.00    1.12127   1.12685  175.658
 4284.00    1.09803   1.11528  180.668
 4285.00    1.05720   1.09956   -1.000
 4286.00    1.03704   1.08125   -1.000
 4287.00    1.02894   1.05531   -1.000
 4288.00    1.00051   1.01994   -1.000
 4289.00    0.95721   0.99090   -1.000
 4290.00    0.94627   0.99176   -1.000
 4291.00    0.98966   1.02348   -1.000
 4292.00    1.03448   1.06070   -1.000
 4293.00    1.06530   1.07917  180.032
 4294.00    1.08238   1.07478  183.508
 4295.00    1.07568   1.05436   -1.000
 4296.00    1.04092   1.02039   -1.000
 4297.00    1.00289   0.97256   -1.000
 4298.00    0.93650   0.91951   -1.000
 4299.00    0.86959   0.88023  228.496
 4300.00    0.83552   0.86703   -1.000
 4301.00    0.83900   0.87426   -1.000
 4302.00    0.86947   0.88891   -1.000
 4303.00    0.89165   0.90244  215.226
 4304.00    0.91101   0.90780  218.879
 4305.00    0.89603   0.89567  228.421
 4306.00    0.86918   0.86688  238.315
 4307.00    0.83496   0.83828  239.651
 4308.00    0.80281   0.83105   -1.000
 4309.00    0.80335   0.85466   -1.000
 4310.00    0.83857   0.90122   -1.000
 4311.00    0.88578   0.95635   -1.000
 4312.00    0.91926   1.01572   -1.000
 4313.00    0.96377   1.08463   -1.000
 4314.00    1.03902   1.16401   -1.000
 4315.00    1.14956   1.24614   -1.000
 4316.00    1.24629   1.31204   -1.000
 4317.00    1.30398   1.34368   -1.000
 4318.00    1.31311   1.34213   -1.000
 4319.00    1.28196   1.32090   -1.000
 4320.00    1.25211   1.28569   -1.000
 4321.00    1.23352   1.23119  169.841
 4322.00    1.18919   1.15495   -1.000
 4323.00    1.09359   1.07178   -1.000
 4324.00    0.98572   1.01562   -1.000
 4325.00    0.94519   1.01665   -1.000
 4326.00    0.99843   1.07858   -1.000
 4327.00    1.09977   1.17138   -1.000
 4328.00    1.19389   1.24843   -1.000
 4329.00    1.24303   1.28560   -1.000
 4330.00    1.24814   1.29506   -1.000
 4331.00    1.24383   1.30030   -1.000
 4332.00    1.25302   1.31098   -1.000
 4333.00    1.28216   1.31841   -1.000
 4334.00    1.31161   1.30657  154.672
 4335.00    1.30531   1.26064   -1.000
 4336.00    1.24213   1.17651   -1.000
 4337.00    1.13955   1.07063   -1.000
 4338.00    1.02900   0.97869   -1.000
 4339.00    0.93693   0.93322  206.818
 4340.00    0.89968   0.94714   -1.000
 4341.00    0.94060   1.01193   -1.000
 4342.00    1.03357   1.09666   -1.000
 4343.00    1.12026   1.16816   -1.000
 4344.00    1.17600   1.21823   -1.000
 4345.00    1.21333   1.25523   -1.000
 4346.00    1.24314   1.28632   -1.000
 4347.00    1.25622   1.31229   -1.000
 4348.00    1.27602   1.32062   -1.000
 4349.00    1.29027   1.29446  164.821
 4350.00    1.23764   1.23962  173.149
 4351.00    1.15638   1.18982   -1.000
 4352.00    1.13559   1.17726   -1.000
 4353.00    1.17332   1.20569   -1.000
 4354.00    1.21205   1.25168   -1.000
 4355.00    1.25017   1.28888   -1.000
 4356.00    1.28319   1.30715   -1.000
 4357.00    1.28086   1.30951   -1.000
 4358.00    1.24508   1.30539   -1.000
 4359.00    1.22913   1.30889   -1.000
 4360.00    1.25584   1.32719   -1.000
 4361.00    1.29605   1.35305   -1.000
 4362.00    1.31103   1.37540   -1.000
 4363.00    1.32071   1.39135   -1.000
 4364.00    1.34565   1.39846   -1.000
 4365.00    1.35243   1.38719   -1.000
 4366.00    1.31909   1.35736   -1.000
 4367.00    1.26718   1.32587   -1.000
 4368.00    1.23877   1.30643   -1.000
 4369.00    1.25214   1.29767   -1.000
 4370.00    1.25894   1.29029   -1.000
 4371.00    1.24661   1.27456   -1.000
 4372.00    1.24955   1.24679  164.778
 4373.00    1.21191   1.21326  168.542
 4374.00    1.13949   1.19177   -1.000
 4375.00    1.15208   1.20121   -1.000
 4376.00    1.22020   1.23914   -1.000
 4377.00    1.27356   1.27967  150.833
 4378.00    1.31722   1.29764   -1.000
 4379.00    1.31807   1.28168   -1.000
 4380.00    1.30306   1.22733   -1.000
 4381.00    1.25539   1.14033   -1.000
 4382.00    1.13888   1.04813   -1.000
 4383.00    1.00893   0.99409  193.541
 4384.00    0.96341   1.00921   -1.000
 4385.00    1.04141   1.07929   -1.000
 4386.00    1.15810   1.15382  160.515
 4387.00    1.21504   1.19544   -1.000
 4388.00    1.22989   1.20650   -1.000
 4389.00    1.22377   1.20879  161.646
 4390.00    1.20286   1.21772  158.138
 4391.00    1.22946   1.23508  156.582
 4392.00    1.26893   1.25148  158.896
 4393.00    1.26760   1.25961  160.719
 4394.00    1.24699   1.26811   -1.000
 4395.00    1.23916   1.29096   -1.000
 4396.00    1.27439   1.32238   -1.000
 4397.00    1.31927   1.33828  153.033
 4398.00    1.32184   1.32674  158.377
 4399.00    1.27831   1.30164   -1.000
 4400.00    1.24231   1.28145   -1.000
 4401.00    1.25512   1.26634  158.281
 4402.00    1.27679   1.23959   -1.000
 4403.00    1.23919   1.19498   -1.000
 4404.00    1.18237   1.15620   -1.000
 4405.00    1.17233   1.15010   -1.000
 4406.00    1.19460   1.17548  163.474
 4407.00    1.20823   1.21436  159.853
 4408.00    1.21945   1.25947   -1.000
 4409.00    1.25547   1.31472   -1.000
 4410.00    1.30454   1.37082   -1.000
 4411.00    1.35281   1.39966   -1.000
 4412.00    1.39922   1.38452  150.735
 4413.00    1.37984   1.33658   -1.000
 4414.00    1.28668   1.28358  160.829
 4415.00    1.20500   1.25856   -1.000
 4416.00    1.20536   1.28066   -1.000
 4417.00    1.25011   1.33607   -1.000
 4418.00    1.30031   1.39218   -1.000
 4419.00    1.35038   1.42184   -1.000
 4420.00    1.35741   1.41632   -1.000
 4421.00    1.31922   1.38922   -1.000
 4422.00    1.27466   1.36450   -1.000
 4423.00    1.25288   1.35597   -1.000
 4424.00    1.26274   1.35902   -1.000
 4425.00    1.25694   1.36193   -1.000
 4426.00    1.23957   1.36393   -1.000
 4427.00    1.24964   1.36910   -1.000
 4428.00    1.26186   1.37396   -1.000
 4429.00    1.26483   1.37518   -1.000
 4430.00    1.26992   1.37443   -1.000
 4431.00    1.29248   1.37215   -1.000
 4432.00    1.30780   1.35936   -1.000
 4433.00    1.26459   1.32921   -1.000
 4434.00    1.20762   1.29975   -1.000
 4435.00    1.19709   1.30215   -1.000
 4436.00    1.24773   1.34735   -1.000
 4437.00    1.32851   1.41058   -1.000
 4438.00    1.39829   1.45331   -1.000
 4439.00    1.42423   1.45462   -1.000
 4440.00    1.38097   1.41880   -1.000
 4441.00    1.31022   1.37261   -1.000
 4442.00    1.26286   1.34971   -1.000
 4443.00    1.26192   1.36831   -1.000
 4444.00    1.31183   1.41549   -1.000
 4445.00    1.37101   1.46091   -1.000
 4446.00    1.39973   1.48570   -1.000
 4447.00    1.40878   1.49139   -1.000
 4448.00    1.42045   1.48961   -1.000
 4449.00    1.41704   1.48549   -1.000
 4450.00    1.40108   1.47613   -1.000
 4451.00    1.41061   1.45678   -1.000
 4452.00    1.40821   1.42127  155.186
 4453.00    1.36109   1.36966  160.624
 4454.00    1.29946   1.32092   -1.000
 4455.00    1.26316   1.29753   -1.000
 4456.00    1.27027   1.30073   -1.000
 4457.00    1.28945   1.31393   -1.000
 4458.00    1.30557   1.32115  158.254
 4459.00    1.30729   1.32146  159.838
 4460.00    1.29360   1.32458   -1.000
 4461.00    1.28805   1.33960   -1.000
 4462.00    1.31731   1.36924   -1.000
 4463.00    1.36167   1.40519   -1.000
 4464.00    1.38622   1.43231   -1.000
 4465.00    1.38816   1.44150   -1.000
 4466.00    1.38365   1.43549   -1.000
 4467.00    1.38754   1.42335   -1.000
 4468.00    1.37698   1.41383   -1.000
 4469.00    1.34385   1.41642   -1.000
 4470.00    1.34918   1.43890   -1.000
 4471.00    1.39346   1.47697   -1.000
 4472.00    1.44139   1.51686   -1.000
 4473.00    1.48682   1.54671   -1.000
 4474.00    1.50729   1.56373   -1.000
 4475.00    1.51954   1.57499   -1.000
 4476.00    1.55101   1.58330   -1.000
 4477.00    1.57308   1.57864  137.862
 4478.00    1.55890   1.54949  143.687
 4479.00    1.49927   1.49926  149.134
 4480.00    1.41817   1.45208   -1.000
 4481.00    1.36724   1.43672   -1.000
 4482.00    1.38355   1.46241   -1.000
 4483.00    1.43395   1.51440   -1.000
 4484.00    1.48422   1.56728   -1.000
 4485.00    1.52117   1.59770   -1.000
 4486.00    1.54588   1.59278   -1.000
 4487.00    1.52360   1.55866   -1.000
 4488.00    1.46642   1.51862   -1.000
 4489.00    1.44187   1.49784   -1.000
 4490.00    1.44905   1.50428   -1.000
 4491.00    1.47538   1.52383   -1.000
 4492.00    1.49956   1.53161   -1.000
 4493.00    1.47210   1.51699   -1.000
 4494.00    1.43115   1.49513   -1.000
 4495.00    1.40117   1.49010   -1.000
 4496.00    1.41394   1.50995   -1.000
 4497.00    1.47067   1.54154   -1.000
 4498.00    1.50788   1.56733   -1.000
 4499.00    1.51164   1.57894   -1.000
 4500.00    1.49405   1.58220   -1.000
 4501.00    1.47971   1.59264   -1.000
 4502.00    1.51178   1.61802   -1.000
 4503.00    1.57045   1.65195   -1.000
 4504.00    1.61154   1.67943   -1.000
 4505.00    1.61384   1.68734   -1.000
 4506.00    1.61099   1.67765   -1.000
 4507.00    1.60205   1.66429   -1.000
 4508.00    1.58096   1.65859   -1.000
 4509.00    1.59285   1.66019   -1.000
 4510.00    1.61251   1.65973   -1.000
 4511.00    1.59718   1.64846   -1.000
 4512.00    1.56722   1.62742   -1.000
 4513.00    1.54726   1.60581   -1.000
 4514.00    1.54168   1.59166   -1.000
 4515.00    1.54139   1.58722   -1.000
 4516.00    1.53348   1.58798   -1.000
 4517.00    1.52064   1.58852   -1.000
 4518.00    1.52366   1.59230   -1.000
 4519.00    1.56222   1.60465   -1.000
 4520.00    1.59520   1.61956   -1.000
 4521.00    1.57424   1.62387   -1.000
 4522.00    1.54133   1.61039   -1.000
 4523.00    1.52479   1.58399   -1.000
 4524.00    1.51558   1.55236   -1.000
 4525.00    1.49381   1.51550  151.526
 4526.00    1.44665   1.47224   -1.000
 4527.00    1.39519   1.43117   -1.000
 4528.00    1.38115   1.40750   -1.000
 4529.00    1.39562   1.40947  150.109
 4530.00    1.41085   1.43022  148.339
 4531.00    1.44217   1.45260  150.032
 4532.00    1.46173   1.46049  154.868
 4533.00    1.42849   1.45259   -1.000
 4534.00    1.37444   1.44601   -1.000
 4535.00    1.37061   1.46371   -1.000
 4536.00    1.45662   1.51251   -1.000
 4537.00    1.55950   1.57272  134.633
 4538.00    1.59791   1.61330  137.057
 4539.00    1.58657   1.61982   -1.000
 4540.00    1.59340   1.60588  138.059
 4541.00    1.39720   1.59488   -1.000
 4542.00    0.60478   1.59575   -1.000
 4543.00   -0.03563   1.59893    0.000
 4544.00    0.19186   1.59383   -1.000
 4545.00    0.81590   1.58208   -1.000
 4546.00    0.80626   1.57026   -1.000
 4547.00    0.88298   1.55807   -1.000
 4548.00    1.50192   1.54421   -1.000
 4549.00    1.46904   1.53631   -1.000
 4550.00    1.47592   1.54297   -1.000
 4551.00    1.51916   1.55739   -1.000
 4552.00    1.52109   1.56253   -1.000
 4553.00    1.48678   1.55480   -1.000
 4554.00    1.45984   1.54843   -1.000
 4555.00    1.47432   1.56053   -1.000
 4556.00    1.51969   1.59654   -1.000
 4557.00    1.58893   1.64312   -1.000
 4558.00    1.63145   1.68064   -1.000
 4559.00    1.62341   1.70093   -1.000
 4560.00    1.62559   1.70628   -1.000
 4561.00    1.64061   1.69919   -1.000
 4562.00    1.61615   1.67893   -1.000
 4563.00    1.56790   1.64891   -1.000
 4564.00    1.53996   1.62328   -1.000
 4565.00    1.53488   1.61903   -1.000
 4566.00    1.56891   1.64104   -1.000
 4567.00    1.61729   1.67436   -1.000
 4568.00    1.64374   1.69507   -1.000
 4569.00    1.62899   1.69054   -1.000
 4570.00    1.58468   1.66790   -1.000
 4571.00    1.54876   1.64724   -1.000
 4572.00    1.53947   1.64729   -1.000
 4573.00    1.57772   1.66856   -1.000
 4574.00    1.62951   1.69274   -1.000
 4575.00    1.64062   1.70397   -1.000
 4576.00    1.63307   1.70022   -1.000
 4577.00    1.62797   1.68338   -1.000
 4578.00    1.59831   1.65365   -1.000
 4579.00    1.55099   1.61765   -1.000
 4580.00    1.52568   1.58978   -1.000
 4581.00    1.53461   1.58076   -1.000
 4582.00    1.55467   1.58812   -1.000
 4583.00    1.56295   1.59907   -1.000
 4584.00    1.55081   1.60351   -1.000
 4585.00    1.54065   1.60577   -1.000
 4586.00    1.55065   1.61901   -1.000
 4587.00    1.58005   1.64675   -1.000
 4588.00    1.62490   1.67704   -1.000
 4589.00    1.64360   1.69307   -1.000
 4590.00    1.61956   1.68698   -1.000
 4591.00    1.58628   1.66510   -1.000
 4592.00    1.56959   1.64238   -1.000
 4593.00    1.56907   1.63027   -1.000
 4594.00    1.58013   1.62913   -1.000
 4595.00    1.59744   1.63367   -1.000
 4596.00    1.61032   1.64086   -1.000
 4597.00    1.60833   1.64911   -1.000
 4598.00    1.60515   1.65452   -1.000
 4599.00    1.60209   1.65375   -1.000
 4600.00    1.58249   1.64860   -1.000
 4601.00    1.56937   1.64450   -1.000
 4602.00    1.58302   1.64487   -1.000
 4603.00    1.60643   1.64842   -1.000
 4604.00    1.61066   1.65408   -1.000
 4605.00    1.60718   1.66523   -1.000
 4606.00    1.62836   1.68690   -1.000
 4607.00    1.65443   1.71880   -1.000
 4608.00    1.68438   1.75223   -1.000
 4609.00    1.71928   1.77308   -1.000
 4610.00    1.72699   1.77178   -1.000
 4611.00    1.70287   1.75503   -1.000
 4612.00    1.66741   1.73874   -1.000
 4613.00    1.65278   1.73285   -1.000
 4614.00    1.65540   1.73773   -1.000
 4615.00    1.66571   1.74682   -1.000
 4616.00    1.67447   1.75300   -1.000
 4617.00    1.67508   1.75406   -1.000
 4618.00    1.67212   1.75276   -1.000
 4619.00    1.66888   1.75423   -1.000
 4620.00    1.68710   1.76214   -1.000
 4621.00    1.71118   1.77340   -1.000
 4622.00    1.71563   1.77953   -1.000
 4623.00    1.71189   1.77692   -1.000
 4624.00    1.70720   1.77024   -1.000
 4625.00    1.69187   1.76376   -1.000
 4626.00    1.68941   1.75899   -1.000
 4627.00    1.69810   1.75782   -1.000
 4628.00    1.69353   1.75993   -1.000
 4629.00    1.69026   1.76401   -1.000
 4630.00    1.69373   1.76998   -1.000
 4631.00    1.70471   1.77471   -1.000
 4632.00    1.70911   1.77062   -1.000
 4633.00    1.69908   1.75651   -1.000
 4634.00    1.69152   1.74094   -1.000
 4635.00    1.69498   1.72893   -1.000
 4636.00    1.66964   1.71690   -1.000
 4637.00    1.63315   1.70275   -1.000
 4638.00    1.62143   1.69164   -1.000
 4639.00    1.63213   1.69113   -1.000
 4640.00    1.66890   1.70416   -1.000
 4641.00    1.71629   1.72482  128.999
 4642.00    1.74191   1.73935  130.572
 4643.00    1.72819   1.73447  133.719
 4644.00    1.70953   1.70852  137.503
 4645.00    1.67461   1.67082  139.631
 4646.00    1.61736   1.63591  138.507
 4647.00    1.59898   1.62145  135.544
 4648.00    1.62669   1.63634  133.038
 4649.00    1.64479   1.67170   -1.000
 4650.00    1.65927   1.70903   -1.000
 4651.00    1.68735   1.73361   -1.000
 4652.00    1.69878   1.74076   -1.000
 4653.00    1.69202   1.73245   -1.000
 4654.00    1.66179   1.71645   -1.000
 4655.00    1.61599   1.70773   -1.000
 4656.00    1.61337   1.72049   -1.000
 4657.00    1.66410   1.75762   -1.000
 4658.00    1.72964   1.80667   -1.000
 4659.00    1.78456   1.84486   -1.000
 4660.00    1.79660   1.85459   -1.000
 4661.00    1.77199   1.83585   -1.000
 4662.00    1.75158   1.80125   -1.000
 4663.00    1.73571   1.76306   -1.000
 4664.00    1.71344   1.72403  137.144
 4665.00    1.67825   1.67971  143.081
 4666.00    1.61090   1.63231  145.958
 4667.00    1.53853   1.59920   -1.000
 4668.00    1.52614   1.60064   -1.000
 4669.00    1.57916   1.63821   -1.000
 4670.00    1.64536   1.69074   -1.000
 4671.00    1.69209   1.73275   -1.000
 4672.00    1.71557   1.75366   -1.000
 4673.00    1.72558   1.76114   -1.000
 4674.00    1.72524   1.76888   -1.000
 4675.00    1.74490   1.78115   -1.000
 4676.00    1.76844   1.78777  129.429
 4677.00    1.74937   1.77679   -1.000
 4678.00    1.70244   1.74990   -1.000
 4679.00    1.67049   1.72002   -1.000
 4680.00    1.65652   1.69980   -1.000
 4681.00    1.64676   1.69492   -1.000
 4682.00    1.65704   1.70506   -1.000
 4683.00    1.68269   1.72423   -1.000
 4684.00    1.73417   1.74170  130.459
 4685.00    1.76046   1.75014  130.869
 4686.00    1.73759   1.75052  131.243
 4687.00    1.72793   1.74802  131.229
 4688.00    1.72096   1.74639   -1.000
 4689.00    1.71870   1.74626   -1.000
 4690.00    1.71420   1.74635   -1.000
 4691.00    1.71073   1.74742   -1.000
 4692.00    1.73591   1.75388  127.305
 4693.00    1.77254   1.76726  125.094
 4694.00    1.79989   1.78279  124.729
 4695.00    1.80886   1.79309  127.013
 4696.00    1.80905   1.79034  130.879
 4697.00    1.77137   1.77028  133.534
 4698.00    1.72696   1.73961  133.583
 4699.00    1.71253   1.71110  133.552
 4700.00    1.69993   1.69100  135.362
 4701.00    1.68186   1.67781  136.889
 4702.00    1.65307   1.67160  135.731
 4703.00    1.63800   1.67790   -1.000
 4704.00    1.66769   1.69582   -1.000
 4705.00    1.70720   1.71097  135.923
 4706.00    1.70234   1.71038  137.913
 4707.00    1.66732   1.69859   -1.000
 4708.00    1.65456   1.69246   -1.000
 4709.00    1.66615   1.70290   -1.000
 4710.00    1.69582   1.72578   -1.000
 4711.00    1.74423   1.74870  129.325
 4712.00    1.76531   1.75992  131.305
 4713.00    1.74233   1.75716  132.473
 4714.00    1.71555   1.75342   -1.000
 4715.00    1.71182   1.76472   -1.000
 4716.00    1.73419   1.79348   -1.000
 4717.00    1.77148   1.82789   -1.000
 4718.00    1.79696   1.85506   -1.000
 4719.00    1.79758   1.87030   -1.000
 4720.00    1.79381   1.87447   -1.000
 4721.00    1.78718   1.87123   -1.000
 4722.00    1.77399   1.86755   -1.000
 4723.00    1.78125   1.86881   -1.000
 4724.00    1.79815   1.86979   -1.000
 4725.00    1.79380   1.85711   -1.000
 4726.00    1.75603   1.82269   -1.000
 4727.00    1.70810   1.77456   -1.000
 4728.00    1.67570   1.73447   -1.000
 4729.00    1.66628   1.71914   -1.000
 4730.00    1.67931   1.72784   -1.000
 4731.00    1.69354   1.74977   -1.000
 4732.00    1.71520   1.77432   -1.000
 4733.00    1.74529   1.79306   -1.000
 4734.00    1.76258   1.80134   -1.000
 4735.00    1.75863   1.80189   -1.000
 4736.00    1.75701   1.80169   -1.000
 4737.00    1.76794   1.80673   -1.000
 4738.00    1.77733   1.81867   -1.000
 4739.00    1.77793   1.83130   -1.000
 4740.00    1.76678   1.83735   -1.000
 4741.00    1.75296   1.83938   -1.000
 4742.00    1.76209   1.84428   -1.000
 4743.00    1.79200   1.85231   -1.000
 4744.00    1.81177   1.86073   -1.000
 4745.00    1.79973   1.86964   -1.000
 4746.00    1.79300   1.88085   -1.000
 4747.00    1.80812   1.89430   -1.000
 4748.00    1.82099   1.90671   -1.000
 4749.00    1.82837   1.91477   -1.000
 4750.00    1.82398   1.91571   -1.000
 4751.00    1.80731   1.90627   -1.000
 4752.00    1.77758   1.88667   -1.000
 4753.00    1.75655   1.86320   -1.000
 4754.00    1.74794   1.84571   -1.000
 4755.00    1.73018   1.84036   -1.000
 4756.00    1.72156   1.84579   -1.000
 4757.00    1.72628   1.85793   -1.000
 4758.00    1.74934   1.87267   -1.000
 4759.00    1.77841   1.88293   -1.000
 4760.00    1.76590   1.87930   -1.000
 4761.00    1.72791   1.85698   -1.000
 4762.00    1.70040   1.82204   -1.000
 4763.00    1.69611   1.78903   -1.000
 4764.00    1.69915   1.76784   -1.000
 4765.00    1.67922   1.75798   -1.000
 4766.00    1.67579   1.76140   -1.000
 4767.00    1.70964   1.78511   -1.000
 4768.00    1.75476   1.82570   -1.000
 4769.00    1.79899   1.86376   -1.000
 4770.00    1.79786   1.88156   -1.000
 4771.00    1.76253   1.88088   -1.000
 4772.00    1.75417   1.88013   -1.000
 4773.00    1.77737   1.89358   -1.000
 4774.00    1.80776   1.91820   -1.000
 4775.00    1.81741   1.94040   -1.000
 4776.00    1.82005   1.95150   -1.000
 4777.00    1.81920   1.95251   -1.000
 4778.00    1.80346   1.94657   -1.000
 4779.00    1.78334   1.93522   -1.000
 4780.00    1.78216   1.92060   -1.000
 4781.00    1.78742   1.90409   -1.000
 4782.00    1.78221   1.88541   -1.000
 4783.00    1.77791   1.86849   -1.000
 4784.00    1.76847   1.85859   -1.000
 4785.00    1.76372   1.85459   -1.000
 4786.00    1.75075   1.85252   -1.000
 4787.00    1.74176   1.85205   -1.000
 4788.00    1.76082   1.85512   -1.000
 4789.00    1.75171   1.86288   -1.000
 4790.00    1.74500   1.87749   -1.000
 4791.00    1.77602   1.90215   -1.000
 4792.00    1.80298   1.93669   -1.000
 4793.00    1.83365   1.97538   -1.000
 4794.00    1.86932   2.00863   -1.000
 4795.00    1.88265   2.02492   -1.000
 4796.00    1.86941   2.01737   -1.000
 4797.00    1.83799   1.99089   -1.000
 4798.00    1.80201   1.95911   -1.000
 4799.00    1.77403   1.93753   -1.000
 4800.00    1.78476   1.93779   -1.000
 4801.00    1.83398   1.95933   -1.000
 4802.00    1.86373   1.98634   -1.000
 4803.00    1.85263   1.99906   -1.000
 4804.00    1.83324   1.99036   -1.000
 4805.00    1.81325   1.96897   -1.000
 4806.00    1.78932   1.94838   -1.000
 4807.00    1.79790   1.93681   -1.000
 4808.00    1.80771   1.93726   -1.000
 4809.00    1.81391   1.94889   -1.000
 4810.00    1.84203   1.96520   -1.000
 4811.00    1.86001   1.97783   -1.000
 4812.00    1.84991   1.98423   -1.000
 4813.00    1.82352   1.98894   -1.000
 4814.00    1.83322   1.99733   -1.000
 4815.00    1.86326   2.01126   -1.000
 4816.00    1.87812   2.02831   -1.000
 4817.00    1.89852   2.04381   -1.000
 4818.00    1.91068   2.05458   -1.000
 4819.00    1.92491   2.05868   -1.000
 4820.00    1.92416   2.05177   -1.000
 4821.00    1.88163   2.02867   -1.000
 4822.00    1.84350   1.99117   -1.000
 4823.00    1.82106   1.95361   -1.000
 4824.00    1.81726   1.93714   -1.000
 4825.00    1.84481   1.94955   -1.000
 4826.00    1.87997   1.97357   -1.000
 4827.00    1.88229   1.98682   -1.000
 4828.00    1.86243   1.98483   -1.000
 4829.00    1.85446   1.97628   -1.000
 4830.00    1.85680   1.96549   -1.000
 4831.00    1.83801   1.95183   -1.000
 4832.00    1.82404   1.94262   -1.000
 4833.00    1.85558   1.94801   -1.000
 4834.00    1.88321   1.96694   -1.000
 4835.00    1.88213   1.98735   -1.000
 4836.00    1.88288   1.99690   -1.000
 4837.00    1.88101   1.99165   -1.000
 4838.00    1.86192   1.97430   -1.000
 4839.00    1.82956   1.95200   -1.000
 4840.00    1.80399   1.93478   -1.000
 4841.00    1.81303   1.92847   -1.000
 4842.00    1.83254   1.93146   -1.000
 4843.00    1.84776   1.94125   -1.000
 4844.00    1.88027   1.95952   -1.000
 4845.00    1.91043   1.98341   -1.000
 4846.00    1.89709   1.99864   -1.000
 4847.00    1.86633   1.99435   -1.000
 4848.00    1.83789   1.97944   -1.000
 4849.00    1.85419   1.97228   -1.000
 4850.00    1.88006   1.97789   -1.000
 4851.00    1.88416   1.98454   -1.000
 4852.00    1.88206   1.97727   -1.000
 4853.00    1.86398   1.94846   -1.000
 4854.00    1.81856   1.90291   -1.000
 4855.00    1.77928   1.85851   -1.000
 4856.00    1.78585   1.83063   -1.000
 4857.00    1.80808   1.80959  146.530
 4858.00    1.75499   1.76116  162.075
 4859.00    1.60883   1.66388   -1.000
 4860.00    1.44841   1.54798   -1.000
 4861.00    1.36415   1.47817   -1.000
 4862.00    1.41023   1.49571   -1.000
 4863.00    1.53975   1.58454   -1.000
 4864.00    1.65794   1.69323   -1.000
 4865.00    1.72342   1.78439   -1.000
 4866.00    1.76515   1.84753   -1.000
 4867.00    1.80775   1.88470   -1.000
 4868.00    1.82448   1.89593   -1.000
 4869.00    1.79656   1.87807   -1.000
 4870.00    1.73761   1.83467   -1.000
 4871.00    1.67636   1.78891   -1.000
 4872.00    1.66867   1.77681   -1.000
 4873.00    1.72327   1.81207   -1.000
 4874.00    1.75810   1.86818   -1.000
 4875.00    1.76675   1.91219   -1.000
 4876.00    1.78257   1.93691   -1.000
 4877.00    1.78767   1.95607   -1.000
 4878.00    1.80710   1.98029   -1.000
 4879.00    1.82751   2.00426   -1.000
 4880.00    1.82650   2.01434   -1.000
 4881.00    1.81472   2.00527   -1.000
 4882.00    1.81116   1.98778   -1.000
 4883.00    1.80898   1.97202   -1.000
 4884.00    1.80557   1.95297   -1.000
 4885.00    1.78692   1.92722   -1.000
 4886.00    1.78221   1.90490   -1.000
 4887.00    1.79324   1.89383   -1.000
 4888.00    1.79157   1.88454   -1.000
 4889.00    1.75678   1.86266   -1.000
 4890.00    1.71148   1.83468   -1.000
 4891.00    1.70946   1.83143   -1.000
 4892.00    1.76782   1.87985   -1.000
 4893.00    1.87081   1.97278   -1.000
 4894.00    1.95843   2.07011   -1.000
 4895.00    1.99261   2.13471   -1.000
 4896.00    2.00855   2.16031   -1.000
 4897.00    1.99938   2.15779   -1.000
 4898.00    1.97887   2.13859   -1.000
 4899.00    1.93901   2.11279   -1.000
 4900.00    1.91924   2.08983   -1.000
 4901.00    1.91655   2.07284   -1.000
 4902.00    1.90457   2.05866   -1.000
 4903.00    1.89272   2.04936   -1.000
 4904.00    1.88916   2.05703   -1.000
 4905.00    1.92869   2.08462   -1.000
 4906.00    1.97650   2.11014   -1.000
 4907.00    1.96404   2.10683   -1.000
 4908.00    1.92751   2.07117   -1.000
 4909.00    1.90401   2.02246   -1.000
 4910.00    1.87484   1.98771   -1.000
 4911.00    1.86323   1.98466   -1.000
 4912.00    1.89171   2.01181   -1.000
 4913.00    1.93383   2.05206   -1.000
 4914.00    1.97424   2.08780   -1.000
 4915.00    1.99526   2.10500   -1.000
 4916.00    1.98923   2.08571   -1.000
 4917.00    1.94503   2.01704   -1.000
 4918.00    1.84186   1.91237   -1.000
 4919.00    1.74507   1.81305   -1.000
 4920.00    1.72760   1.76394   -1.000
 4921.00    1.76687   1.78189  133.809
 4922.00    1.82233   1.84281   -1.000
 4923.00    1.86824   1.90568   -1.000
 4924.00    1.87404   1.95084   -1.000
 4925.00    1.86871   1.98966   -1.000
 4926.00    1.89535   2.03588   -1.000
 4927.00    1.94816   2.08679   -1.000
 4928.00    1.99480   2.13138   -1.000
 4929.00    2.02440   2.16116   -1.000
 4930.00    2.04136   2.16950   -1.000
 4931.00    2.01766   2.15026   -1.000
 4932.00    1.95678   2.10692   -1.000
 4933.00    1.90542   2.05950   -1.000
 4934.00    1.89399   2.03137   -1.000
 4935.00    1.93935   2.02442   -1.000
 4936.00    1.95266   2.01469   -1.000
 4937.00    1.89709   1.98232   -1.000
 4938.00    1.83998   1.94428   -1.000
 4939.00    1.84972   1.93934   -1.000
 4940.00    1.90119   1.98348   -1.000
 4941.00    1.96814   2.05526   -1.000
 4942.00    2.01275   2.11858   -1.000
 4943.00    2.02162   2.15296   -1.000
 4944.00    2.01125   2.16061   -1.000
 4945.00    2.00761   2.15463   -1.000
 4946.00    2.00834   2.15082   -1.000
 4947.00    2.01621   2.16016   -1.000
 4948.00    2.03893   2.18068   -1.000
 4949.00    2.05189   2.19982   -1.000
 4950.00    2.04675   2.20800   -1.000
 4951.00    2.05342   2.20474   -1.000
 4952.00    2.05466   2.19290   -1.000
 4953.00    2.04977   2.17251   -1.000
 4954.00    2.04206   2.13530   -1.000
 4955.00    2.00114   2.06722   -1.000
 4956.00    1.89997   1.97273   -1.000
 4957.00    1.79996   1.89669   -1.000
 4958.00    1.80953   1.89241   -1.000
 4959.00    1.90748   1.96275   -1.000
 4960.00    1.99809   2.05747   -1.000
 4961.00    2.03271   2.12399   -1.000
 4962.00    2.03414   2.14662   -1.000
 4963.00    2.02192   2.13659   -1.000
 4964.00    1.99662   2.10683   -1.000
 4965.00    1.97654   2.06987   -1.000
 4966.00    1.96341   2.04048   -1.000
 4967.00    1.95135   2.02740   -1.000
 4968.00    1.93067   2.02995   -1.000
 4969.00    1.92967   2.04467   -1.000
 4970.00    1.96232   2.06886   -1.000
 4971.00    1.99300   2.09912   -1.000
 4972.00    2.01764   2.12980   -1.000
 4973.00    2.04046   2.15333   -1.000
 4974.00    2.04514   2.16405   -1.000
 4975.00    2.06388   2.16024   -1.000
 4976.00    2.05804   2.14284   -1.000
 4977.00    2.01536   2.11499   -1.000
 4978.00    1.98576   2.08266   -1.000
 4979.00    1.96836   2.04868   -1.000
 4980.00    1.92137   2.00656   -1.000
 4981.00    1.87093   1.94864   -1.000
 4982.00    1.81799   1.88548   -1.000
 4983.00    1.79594   1.84718   -1.000
 4984.00    1.82250   1.85721   -1.000
 4985.00    1.86902   1.91122   -1.000
 4986.00    1.92320   1.98344   -1.000
 4987.00    1.98377   2.04540   -1.000
 4988.00    2.00810   2.07792   -1.000
 4989.00    1.98314   2.07829   -1.000
 4990.00    1.97079   2.06371   -1.000
 4991.00    1.96172   2.05523   -1.000
 4992.00    1.97726   2.05989   -1.000
 4993.00    1.98609   2.07087   -1.000
 4994.00    1.98365   2.08152   -1.000
 4995.00    1.99905   2.09235   -1.000
 4996.00    2.01192   2.10091   -1.000
 4997.00    2.00091   2.09540   -1.000
 4998.00    1.97180   2.06698   -1.000
 4999.00    1.95088   2.02219   -1.000
 5000.00    1.92068   1.98013   -1.000
 5001.00    1.92206   1.95820   -1.000
 5002.00    1.95021   1.95698  136.104
 5003.00    1.96863   1.95900  139.048
 5004.00    1.94880   1.94485  140.898
 5005.00    1.89876   1.91505  138.970
 5006.00    1.87160   1.89607   -1.000
 5007.00    1.90642   1.91485  132.529
 5008.00    1.98830   1.96529  133.115
 5009.00    2.02849   2.01198  136.309
 5010.00    1.99678   2.02249   -1.000
 5011.00    1.93657   1.98934   -1.000
 5012.00    1.86989   1.93177   -1.000
 5013.00    1.82694   1.88147   -1.000
 5014.00    1.82911   1.86172   -1.000
 5015.00    1.85885   1.87201  139.023
 5016.00    1.89753   1.89479  138.854
 5017.00    1.90462   1.91538  137.869
 5018.00    1.91135   1.93344   -1.000
 5019.00    1.92935   1.95322   -1.000
 5020.00    1.94306   1.96918   -1.000
 5021.00    1.95086   1.97479   -1.000
 5022.00    1.94238   1.97728   -1.000
 5023.00    1.95827   1.99149   -1.000
 5024.00    1.99924   2.01928  134.329
 5025.00    2.00422   2.04166   -1.000
 5026.00    1.99215   2.04264   -1.000
 5027.00    1.98666   2.03201   -1.000
 5028.00    1.99368   2.03212   -1.000
 5029.00    2.02422   2.05447   -1.000
 5030.00    2.05888   2.09407   -1.000
 5031.00    2.08109   2.13722   -1.000
 5032.00    2.08523   2.16937   -1.000
 5033.00    2.09149   2.17522   -1.000
 5034.00    2.06649   2.14582   -1.000
 5035.00    1.99852   2.09336   -1.000
 5036.00    1.96443   2.04464   -1.000
 5037.00    1.96285   2.01151   -1.000
 5038.00    1.95022   1.97742   -1.000
 5039.00    1.88898   1.92291   -1.000
 5040.00    1.80023   1.86333   -1.000
 5041.00    1.75452   1.84348   -1.000
 5042.00    1.87496   1.89195  131.502
 5043.00    1.17953   1.99299   -1.000
 5044.00    0.26738   2.10039   -1.000
 5045.00   -0.02727   2.17356    0.000
 5046.00    0.60496   2.19699   -1.000
 5047.00    1.61148   2.17286   -1.000
 5048.00    2.01623   2.11707   -1.000
 5049.00    1.99115   2.05741   -1.000
 5050.00    1.96675   2.02071   -1.000
 5051.00    1.98160   2.01801   -1.000
 5052.00    2.00088   2.04614   -1.000
 5053.00    2.05022   2.09308   -1.000
 5054.00    2.10728   2.13986   -1.000
 5055.00    2.13056   2.17275   -1.000
 5056.00    2.13903   2.19290   -1.000
 5057.00    2.14957   2.20719   -1.000
 5058.00    2.15916   2.22108   -1.000
 5059.00    2.15696   2.23636   -1.000
 5060.00    2.15330   2.24997   -1.000
 5061.00    2.16071   2.25357   -1.000
 5062.00    2.15804   2.23330   -1.000
 5063.00    2.11402   2.18306   -1.000
 5064.00    2.04329   2.12074   -1.000
 5065.00    2.00862   2.07570   -1.000
 5066.00    2.02430   2.06162   -1.000
 5067.00    2.04817   2.06966   -1.000
 5068.00    2.05258   2.08469   -1.000
 5069.00    2.07273   2.09994   -1.000
 5070.00    2.09049   2.11108  133.027
 5071.00    2.07973   2.11089   -1.000
 5072.00    2.04545   2.10139   -1.000
 5073.00    2.04983   2.09701   -1.000
 5074.00    2.08368   2.10574  130.455
 5075.00    2.09954   2.11870  131.252
 5076.00    2.09886   2.12082  134.701
 5077.00    2.09166   2.09974  140.595
 5078.00    2.02574   2.05153   -1.000
 5079.00    1.94147   1.99239   -1.000
 5080.00    1.90935   1.95462   -1.000
 5081.00    1.93156   1.95523   -1.000
 5082.00    1.97805   1.98296  134.815
 5083.00    2.02703   2.01988  132.408
 5084.00    2.07257   2.05888  131.017
 5085.00    2.11187   2.09862  130.600
 5086.00    2.12015   2.13292  130.113
 5087.00    2.10146   2.15581   -1.000
 5088.00    2.12046   2.16922   -1.000
 5089.00    2.14201   2.17952   -1.000
 5090.00    2.27393   2.19201   -1.000
 5091.00    2.30785   2.21014   -1.000
 5092.00    2.21235   2.23241  125.706
 5093.00    2.20856   2.24769   -1.000
 5094.00    2.22185   2.23991  130.631
 5095.00    2.19376   2.20213  133.690
 5096.00    2.15140   2.14376  136.651
 5097.00    2.07098   2.08371  137.896
 5098.00    1.99486   2.04228   -1.000
 5099.00    1.99600   2.03624   -1.000
 5100.00    2.04397   2.06799   -1.000
 5101.00    2.09920   2.11761  130.042
 5102.00    2.14257   2.15446  131.471
 5103.00    2.14816   2.16256  133.176
 5104.00    2.11891   2.14851   -1.000
 5105.00    2.08716   2.12411   -1.000
 5106.00    2.05619   2.09625   -1.000
 5107.00    2.02877   2.07045   -1.000
 5108.00    2.01352   2.05400   -1.000
 5109.00    2.03041   2.05419   -1.000
 5110.00    2.04284   2.07410   -1.000
 5111.00    2.05331   2.10903   -1.000
 5112.00    2.09277   2.14724   -1.000
 5113.00    2.13876   2.17928   -1.000
 5114.00    2.15246   2.20576   -1.000
 5115.00    2.15848   2.23048   -1.000
 5116.00    2.19787   2.25252   -1.000
 5117.00    2.23103   2.26644   -1.000
 5118.00    2.23154   2.26668   -1.000
 5119.00    2.21738   2.25035   -1.000
 5120.00    2.18408   2.21843   -1.000
 5121.00    2.13351   2.17519   -1.000
 5122.00    2.08308   2.12626   -1.000
 5123.00    2.04828   2.07954   -1.000
 5124.00    2.02463   2.04709   -1.000
 5125.00    2.04739   2.03718  137.577
 5126.00    2.07562   2.04381   -1.000
 5127.00    2.06370   2.05355  137.441
 5128.00    2.05113   2.06107  136.172
 5129.00    2.05431   2.07172  133.990
 5130.00    2.07173   2.09125  132.510
 5131.00    2.10868   2.11796  131.325
 5132.00    2.15029   2.14449  130.133
 5133.00    2.15975   2.16592  129.540
 5134.00    2.16909   2.18128  131.031
 5135.00    2.19847   2.18590  134.010
 5136.00    2.19430   2.17014   -1.000
 5137.00    2.12896   2.13377  137.329
 5138.00    2.07355   2.09515  136.508
 5139.00    2.06148   2.07405  136.788
 5140.00    2.06888   2.07202  138.678
 5141.00    2.06905   2.07644  138.857
 5142.00    2.04661   2.07975   -1.000
 5143.00    2.05864   2.08604   -1.000
 5144.00    2.10127   2.09570  136.616
 5145.00    2.11187   2.09732  137.280
 5146.00    2.09219   2.08616  136.203
 5147.00    2.08042   2.07637  135.119
 5148.00    2.08766   2.08154  136.045
 5149.00    2.10598   2.09365  138.328
 5150.00    2.11128   2.09499  139.764
 5151.00    2.07156   2.08279  139.531
 5152.00    2.05253   2.06854  137.435
 5153.00    2.05801   2.06520  134.167
 5154.00    2.08628   2.08200  130.740
 5155.00    2.13434   2.12132  128.023
 5156.00    2.18847   2.17350  126.645
 5157.00    2.23259   2.22133  126.367
 5158.00    2.24239   2.25276  126.668
 5159.00    2.27069   2.26527  127.312
 5160.00    2.27855   2.26092  128.538
 5161.00    2.25763   2.23961  130.379
 5162.00    2.24075   2.19965   -1.000
 5163.00    2.21273   2.14040   -1.000
 5164.00    2.16643   2.05547   -1.000
 5165.00    2.01502   1.93389   -1.000
 5166.00    1.80163   1.79104  171.425
 5167.00    1.68877   1.68355  163.162
 5168.00    1.72588   1.66075   -1.000
 5169.00    1.84224   1.70048   -1.000
 5170.00    1.87913   1.72230   -1.000
 5171.00    1.76482   1.68423   -1.000
 5172.00    1.62719   1.63503  158.901
 5173.00    1.64772   1.65662  144.439
 5174.00    1.82702   1.77408   -1.000
 5175.00    2.03264   1.92946   -1.000
 5176.00    2.14319   2.05034   -1.000
 5177.00    2.18579   2.11340   -1.000
 5178.00    2.19889   2.12994   -1.000
 5179.00    2.19082   2.10692   -1.000
 5180.00    2.15078   2.03269   -1.000
 5181.00    2.01458   1.90090   -1.000
 5182.00    1.78553   1.74568   -1.000
 5183.00    1.61117   1.64222   -1.000
 5184.00    1.64779   1.65569  143.346
 5185.00    1.85444   1.78076   -1.000
 5186.00    2.06031   1.94485   -1.000
 5187.00    2.16496   2.07277   -1.000
 5188.00    2.20096   2.13949   -1.000
 5189.00    2.21758   2.15803   -1.000
 5190.00    2.18901   2.13896   -1.000
 5191.00    2.12093   2.09268   -1.000
 5192.00    2.06120   2.04848  140.553
 5193.00    2.07315   2.03546   -1.000
 5194.00    2.12588   2.05395   -1.000
 5195.00    2.15793   2.08716   -1.000
 5196.00    2.18456   2.12660   -1.000
 5197.00    2.23178   2.17206   -1.000
 5198.00    2.26359   2.21816   -1.000
 5199.00    2.27597   2.25257  130.332
 5200.00    2.28355   2.26508  132.340
 5201.00    2.28716   2.25099   -1.000
 5202.00    2.25112   2.20887   -1.000
 5203.00    2.19515   2.14091   -1.000
 5204.00    2.13715   2.05864   -1.000
 5205.00    2.08036   1.98384   -1.000
 5206.00    2.05495   1.93590   -1.000
 5207.00    2.05388   1.91912   -1.000
 5208.00    2.04046   1.92913   -1.000
 5209.00    2.04928   1.96861   -1.000
 5210.00    2.12780   2.04170   -1.000
 5211.00    2.21531   2.13669   -1.000
 5212.00    2.30173   2.22376   -1.000
 5213.00    2.34681   2.27129   -1.000
 5214.00    2.33505   2.26854   -1.000
 5215.00    2.26846   2.23635   -1.000
 5216.00    2.22789   2.21379  129.277
 5217.00    2.24854   2.22779  127.052
 5218.00    2.29240   2.27429  125.827
 5219.00    2.34217   2.32835  125.210
 5220.00    2.38859   2.36676  126.243
 5221.00    2.40327   2.37688   -1.000
 5222.00    2.39260   2.35235   -1.000
 5223.00    2.34702   2.29149   -1.000
 5224.00    2.25796   2.19961   -1.000
 5225.00    2.14525   2.09824   -1.000
 5226.00    2.04660   2.02939  137.291
 5227.00    2.07022   2.03077   -1.000
 5228.00    2.19754   2.10273   -1.000
 5229.00    2.29649   2.20115   -1.000
 5230.00    2.35988   2.26828   -1.000
 5231.00    2.36197   2.27829   -1.000
 5232.00    2.30823   2.24904   -1.000
 5233.00    2.27460   2.22125   -1.000
 5234.00    2.27363   2.22871   -1.000
 5235.00    2.31930   2.27536   -1.000
 5236.00    2.37070   2.33895   -1.000
 5237.00    2.41317   2.39225  124.458
 5238.00    2.41808   2.42027  124.412
 5239.00    2.41169   2.42569  123.801
 5240.00    2.39385   2.41981   -1.000
 5241.00    2.39358   2.41251  123.615
 5242.00    2.40525   2.41119  123.393
 5243.00    2.42991   2.41772  125.148
 5244.00    2.43822   2.42039  128.757
 5245.00    2.41543   2.40062  132.069
 5246.00    2.35758   2.35595  133.116
 5247.00    2.29922   2.30619  133.336
 5248.00    2.29042   2.27270  134.033
 5249.00    2.28808   2.25964   -1.000
 5250.00    2.27827   2.26069  132.235
 5251.00    2.28451   2.27232  130.765
 5252.00    2.32938   2.28926   -1.000
 5253.00    2.33275   2.30189   -1.000
 5254.00    2.30959   2.31072  127.273
 5255.00    2.32060   2.33226  123.909
 5256.00    2.39064   2.37797  122.216
 5257.00    2.46537   2.43296   -1.000
 5258.00    2.49275   2.46671   -1.000
 5259.00    2.48269   2.45724   -1.000
 5260.00    2.42504   2.40057   -1.000
 5261.00    2.34084   2.30745   -1.000
 5262.00    2.24335   2.19839   -1.000
 5263.00    2.15657   2.09703   -1.000
 5264.00    2.10411   2.02430   -1.000
 5265.00    2.09652   1.99308   -1.000
 5266.00    2.14085   1.99609   -1.000
 5267.00    2.18460   2.00151   -1.000
 5268.00    2.14526   1.98048   -1.000
 5269.00    2.06343   1.94597   -1.000
 5270.00    2.06067   1.94975   -1.000
 5271.00    2.16860   2.02259   -1.000
 5272.00    2.28897   2.12741   -1.000
 5273.00    2.31944   2.20529   -1.000
 5274.00    2.31888   2.24509   -1.000
 5275.00    2.33919   2.27760   -1.000
 5276.00    2.38408   2.32963   -1.000
 5277.00    2.45950   2.39580   -1.000
 5278.00    2.52535   2.44484   -1.000
 5279.00    2.51464   2.44963   -1.000
 5280.00    2.46639   2.41058   -1.000
 5281.00    2.40564   2.35162   -1.000
 5282.00    2.33589   2.30233   -1.000
 5283.00    2.31381   2.28936  126.279
 5284.00    2.35923   2.32756   -1.000
 5285.00    2.46739   2.40535   -1.000
 5286.00    2.54206   2.48546   -1.000
 5287.00    2.56220   2.53574   -1.000
 5288.00    2.56560   2.55556  120.573
 5289.00    2.54432   2.56303  120.192
 5290.00    2.54909   2.56847  120.669
 5291.00    2.55878   2.56852  121.723
 5292.00    2.57517   2.55938  123.235
 5293.00    2.56449   2.54083   -1.000
 5294.00    2.53725   2.50689   -1.000
 5295.00    2.48376   2.44715   -1.000
 5296.00    2.38437   2.36619   -1.000
 5297.00    2.29992   2.29491  131.960
 5298.00    2.29467   2.26952   -1.000
 5299.00    2.36382   2.29458   -1.000
 5300.00    2.40914   2.34206   -1.000
 5301.00    2.42557   2.38742   -1.000
 5302.00    2.47133   2.43164   -1.000
 5303.00    2.53458   2.48457   -1.000
 5304.00    2.57524   2.53726   -1.000
 5305.00    2.59245   2.56789   -1.000
 5306.00    2.57334   2.57110  121.977
 5307.00    2.55905   2.56433  120.775
 5308.00    2.56833   2.56859  119.875
 5309.00    2.58137   2.58733  119.791
 5310.00    2.60987   2.60545  120.350
 5311.00    2.62466   2.60886  120.919
 5312.00    2.61010   2.59641  121.709
 5313.00    2.59467   2.57457  122.847
 5314.00    2.57748   2.54915   -1.000
 5315.00    2.56531   2.52355   -1.000
 5316.00    2.55496   2.50469   -1.000
 5317.00    2.53761   2.50161   -1.000
 5318.00    2.54492   2.51344   -1.000
 5319.00    2.56248   2.52651   -1.000
 5320.00    2.56480   2.52651   -1.000
 5321.00    2.56184   2.50741   -1.000
 5322.00    2.54371   2.46908   -1.000
 5323.00    2.50389   2.41896   -1.000
 5324.00    2.48689   2.36769   -1.000
 5325.00    2.46959   2.31303   -1.000
 5326.00    2.42145   2.23994   -1.000
 5327.00    2.28922   2.15517   -1.000
 5328.00    2.20755   2.10717   -1.000
 5329.00    2.27140   2.14247   -1.000
 5330.00    2.40998   2.24755   -1.000
 5331.00    2.49423   2.36048   -1.000
 5332.00    2.52705   2.43685   -1.000
 5333.00    2.55615   2.48121   -1.000
 5334.00    2.59246   2.51541   -1.000
 5335.00    2.59954   2.54192   -1.000
 5336.00    2.57580   2.54848   -1.000
 5337.00    2.56847   2.52785   -1.000
 5338.00    2.55159   2.48111   -1.000
 5339.00    2.48584   2.42014   -1.000
 5340.00    2.42365   2.37378   -1.000
 5341.00    2.44141   2.37181   -1.000
 5342.00    2.51056   2.41264   -1.000
 5343.00    2.56904   2.46155   -1.000
 5344.00    2.57813   2.48599   -1.000
 5345.00    2.55825   2.48124   -1.000
 5346.00    2.56153   2.46160   -1.000
 5347.00    2.53621   2.44149   -1.000
 5348.00    2.48907   2.43030   -1.000
 5349.00    2.49672   2.43790   -1.000
 5350.00    2.54318   2.47025   -1.000
 5351.00    2.58837   2.51934   -1.000
 5352.00    2.62179   2.56729   -1.000
 5353.00    2.64352   2.60351   -1.000
 5354.00    2.66162   2.63298   -1.000
 5355.00    2.66915   2.66074  117.852
 5356.00    2.66861   2.68183  118.035
 5357.00    2.68055   2.69046  118.413
 5358.00    2.69197   2.68682  119.599
 5359.00    2.68762   2.67251  121.497
 5360.00    2.67173   2.64729   -1.000
 5361.00    2.63286   2.61384  124.416
 5362.00    2.58963   2.57836  125.154
 5363.00    2.56492   2.54527  125.901
 5364.00    2.56276   2.51746   -1.000
 5365.00    2.56597   2.49813   -1.000
 5366.00    2.57745   2.48804   -1.000
 5367.00    2.58375   2.47672   -1.000
 5368.00    2.54289   2.44437   -1.000
 5369.00    2.45687   2.38478   -1.000
 5370.00    2.39119   2.32188   -1.000
 5371.00    2.39476   2.29866   -1.000
 5372.00    2.46972   2.34173   -1.000
 5373.00    2.59684   2.43479   -1.000
 5374.00    2.66056   2.53122   -1.000
 5375.00    2.67265   2.59314   -1.000
 5376.00    2.67978   2.61615   -1.000
 5377.00    2.69444   2.61882   -1.000
 5378.00    2.69158   2.61714   -1.000
 5379.00    2.66954   2.61241   -1.000
 5380.00    2.64512   2.59880   -1.000
 5381.00    2.62629   2.57681   -1.000
 5382.00    2.60776   2.55616   -1.000
 5383.00    2.59263   2.54938   -1.000
 5384.00    2.63027   2.56233   -1.000
 5385.00    2.65809   2.58751   -1.000
 5386.00    2.66453   2.60695   -1.000
 5387.00    2.68042   2.60522   -1.000
 5388.00    2.66237   2.58052   -1.000
 5389.00    2.62793   2.54296   -1.000
 5390.00    2.60240   2.50662   -1.000
 5391.00    2.57391   2.48089   -1.000
 5392.00    2.54886   2.46684   -1.000
 5393.00    2.55343   2.45909   -1.000
 5394.00    2.56791   2.44642   -1.000
 5395.00    2.53786   2.41913   -1.000
 5396.00    2.46935   2.38475   -1.000
 5397.00    2.44225   2.36868   -1.000
 5398.00    2.50066   2.39167   -1.000
 5399.00    2.58101   2.44457   -1.000
 5400.00    2.61980   2.49503   -1.000
 5401.00    2.63289   2.51690   -1.000
 5402.00    2.61710   2.49851   -1.000
 5403.00    2.54605   2.43913   -1.000
 5404.00    2.44957   2.35873   -1.000
 5405.00    2.39343   2.30067   -1.000
 5406.00    2.43748   2.29670   -1.000
 5407.00    2.50986   2.33329   -1.000
 5408.00    2.52000   2.37005   -1.000
 5409.00    2.48213   2.38674   -1.000
 5410.00    2.48676   2.40344   -1.000
 5411.00    2.54484   2.44427   -1.000
 5412.00    2.62810   2.49985   -1.000
 5413.00    2.65911   2.54421   -1.000
 5414.00    2.64390   2.56933   -1.000
 5415.00    2.62608   2.58988   -1.000
 5416.00    2.66658   2.61628   -1.000
 5417.00    2.70095   2.63852   -1.000
 5418.00    2.69047   2.64340   -1.000
 5419.00    2.67075   2.63220   -1.000
 5420.00    2.67207   2.61640   -1.000
 5421.00    2.67392   2.60285   -1.000
 5422.00    2.66140   2.58790   -1.000
 5423.00    2.63435   2.57140   -1.000
 5424.00    2.62291   2.56803   -1.000
 5425.00    2.65380   2.59003   -1.000
 5426.00    2.70593   2.62036   -1.000
 5427.00    2.69219   2.61859   -1.000
 5428.00    2.62871   2.56735   -1.000
 5429.00    2.56040   2.49979   -1.000
 5430.00    2.54813   2.46299   -1.000
 5431.00    2.59118   2.46582   -1.000
 5432.00    2.60848   2.47530   -1.000
 5433.00    2.56985   2.46425   -1.000
 5434.00    2.51834   2.44547   -1.000
 5435.00    2.52914   2.45104   -1.000
 5436.00    2.58686   2.49738   -1.000
 5437.00    2.64232   2.57232   -1.000
 5438.00    2.69588   2.64822   -1.000
 5439.00    2.74208   2.70359   -1.000
 5440.00    2.76752   2.73464   -1.000
 5441.00    2.77160   2.74760   -1.000
 5442.00    2.77027   2.74244   -1.000
 5443.00    2.74380   2.70916   -1.000
 5444.00    2.66944   2.63993   -1.000
 5445.00    2.56121   2.54765  132.771
 5446.00    2.46379   2.47165  128.948
 5447.00    2.46620   2.45140  125.198
 5448.00    2.55608   2.49416   -1.000
 5449.00    2.66452   2.56607   -1.000
 5450.00    2.70669   2.62171   -1.000
 5451.00    2.71149   2.63918   -1.000
 5452.00    2.71948   2.61811   -1.000
 5453.00    2.66966   2.56520   -1.000
 5454.00    2.58096   2.49881   -1.000
 5455.00    2.53222   2.45494   -1.000
 5456.00    2.56361   2.46840   -1.000
 5457.00    2.66666   2.53637   -1.000
 5458.00    2.73908   2.61235   -1.000
 5459.00    2.76981   2.65008   -1.000
 5460.00    2.74844   2.63863   -1.000
 5461.00    2.69191   2.59738   -1.000
 5462.00    2.63182   2.55656   -1.000
 5463.00    2.61491   2.54054   -1.000
 5464.00    2.66027   2.55539   -1.000
 5465.00    2.69135   2.58779   -1.000
 5466.00    2.71935   2.61952   -1.000
 5467.00    2.74138   2.64085   -1.000
 5468.00    2.75082   2.64969   -1.000
 5469.00    2.76106   2.64589   -1.000
 5470.00    2.74621   2.63232   -1.000
 5471.00    2.72587   2.61477   -1.000
 5472.00    2.71867   2.59579   -1.000
 5473.00    2.69213   2.57033   -1.000
 5474.00    2.65344   2.53110   -1.000
 5475.00    2.58834   2.48247   -1.000
 5476.00    2.54765   2.44744   -1.000
 5477.00    2.56160   2.45234   -1.000
 5478.00    2.62782   2.49457   -1.000
 5479.00    2.68127   2.53857   -1.000
 5480.00    2.66744   2.55395   -1.000
 5481.00    2.63133   2.54862   -1.000
 5482.00    2.62148   2.55600   -1.000
 5483.00    2.64920   2.59234   -1.000
 5484.00    2.69962   2.63872   -1.000
 5485.00    2.72192   2.66388   -1.000
 5486.00    2.70281   2.65514   -1.000
 5487.00    2.68483   2.62824   -1.000
 5488.00    2.68410   2.60976   -1.000
 5489.00    2.70832   2.61402   -1.000
 5490.00    2.72807   2.63299   -1.000
 5491.00    2.74410   2.64998   -1.000
 5492.00    2.74378   2.65704   -1.000
 5493.00    2.74839   2.65709   -1.000
 5494.00    2.76214   2.65485   -1.000
 5495.00    2.76364   2.64892   -1.000
 5496.00    2.73623   2.63822   -1.000
 5497.00    2.70475   2.63087   -1.000
 5498.00    2.73564   2.63446   -1.000
 5499.00    2.78010   2.64069   -1.000
 5500.00    2.76077   2.63271   -1.000
 5501.00    2.70991   2.60878   -1.000
 5502.00    2.69591   2.58813   -1.000
 5503.00    2.73506   2.58255   -1.000
 5504.00    2.71789   2.58080   -1.000
 5505.00    2.68341   2.57066   -1.000
 5506.00    2.65013   2.55963   -1.000
 5507.00    2.69521   2.56647   -1.000
 5508.00    2.73988   2.59319   -1.000
 5509.00    2.76941   2.61619   -1.000
 5510.00    2.73923   2.61144   -1.000
 5511.00    2.69110   2.57893   -1.000
 5512.00    2.63660   2.54016   -1.000
 5513.00    2.60445   2.51972   -1.000
 5514.00    2.63427   2.52810   -1.000
 5515.00    2.69697   2.55964   -1.000
 5516.00    2.76646   2.60351   -1.000
 5517.00    2.80545   2.65102   -1.000
 5518.00    2.83523   2.69426   -1.000
 5519.00    2.86355   2.72373   -1.000
 5520.00    2.85605   2.73484   -1.000
 5521.00    2.82381   2.73419   -1.000
 5522.00    2.82312   2.73127   -1.000
 5523.00    2.82866   2.72629   -1.000
 5524.00    2.80855   2.70907   -1.000
 5525.00    2.78846   2.66972   -1.000
 5526.00    2.73488   2.61131   -1.000
 5527.00    2.65481   2.55513   -1.000
 5528.00    2.63890   2.53319   -1.000
 5529.00    2.68153   2.56136   -1.000
 5530.00    2.73130   2.62018   -1.000
 5531.00    2.77054   2.67074   -1.000
 5532.00    2.77284   2.69035   -1.000
 5533.00    2.75232   2.68458   -1.000
 5534.00    2.73565   2.67099   -1.000
 5535.00    2.75918   2.66338   -1.000
 5536.00    2.78344   2.66750   -1.000
 5537.00    2.81174   2.68108   -1.000
 5538.00    2.83996   2.69909   -1.000
 5539.00    2.85578   2.71977   -1.000
 5540.00    2.88160   2.73878   -1.000
 5541.00    2.88641   2.74579   -1.000
 5542.00    2.87313   2.73620   -1.000
 5543.00    2.82550   2.71932   -1.000
 5544.00    2.79916   2.70892   -1.000
 5545.00    2.81109   2.71086   -1.000
 5546.00    2.82118   2.72333   -1.000
 5547.00    2.85516   2.74483   -1.000
 5548.00    2.91050   2.77172   -1.000
 5549.00    2.91841   2.79406   -1.000
 5550.00    2.93388   2.80300   -1.000
 5551.00    2.92703   2.79624   -1.000
 5552.00    2.88756   2.77687   -1.000
 5553.00    2.88115   2.75383   -1.000
 5554.00    2.85525   2.73854   -1.000
 5555.00    2.86224   2.73589   -1.000
 5556.00    2.87421   2.74071   -1.000
 5557.00    2.87937   2.74570   -1.000
 5558.00    2.89742   2.74957   -1.000
 5559.00    2.89604   2.75182   -1.000
 5560.00    2.88736   2.74690   -1.000
 5561.00    2.86853   2.73110   -1.000
 5562.00    2.83542   2.71075   -1.000
 5563.00    2.82003   2.69500   -1.000
 5564.00    2.81665   2.68535   -1.000
 5565.00    2.80762   2.67734   -1.000
 5566.00    2.80105   2.66889   -1.000
 5567.00    2.79936   2.66286   -1.000
 5568.00    2.79971   2.66176   -1.000
 5569.00    2.80944   2.66452   -1.000
 5570.00    2.78751   2.66714   -1.000
 5571.00    2.66517   2.66583  127.818
 5572.00    2.22806   2.66132   -1.000
 5573.00    0.68972   2.66236   -1.000
 5574.00   -2.06636   2.67755    0.000
 5575.00   -3.74335   2.70019    0.000
 5576.00   -2.42380   2.71813    0.000
 5577.00    0.41529   2.73170   -1.000
 5578.00    2.35489   2.74561   -1.000
 5579.00    2.87608   2.75677   -1.000
 5580.00    2.92709   2.76010   -1.000
 5581.00    2.89718   2.75518   -1.000
 5582.00    2.87722   2.74554   -1.000
 5583.00    2.89943   2.73123   -1.000
 5584.00    2.90935   2.70232   -1.000
 5585.00    2.84742   2.64809   -1.000
 5586.00    2.73459   2.57528   -1.000
 5587.00    2.66820   2.51209   -1.000
 5588.00    2.66296   2.48551   -1.000
 5589.00    2.68814   2.50065   -1.000
 5590.00    2.74879   2.54217   -1.000
 5591.00    2.77395   2.58630   -1.000
 5592.00    2.77304   2.61673   -1.000
 5593.00    2.77355   2.63548   -1.000
 5594.00    2.80121   2.65601   -1.000
 5595.00    2.83382   2.68301   -1.000
 5596.00    2.84629   2.70200   -1.000
 5597.00    2.83075   2.69510   -1.000
 5598.00    2.79346   2.66359   -1.000
 5599.00    2.75579   2.62653   -1.000
 5600.00    2.76231   2.59761   -1.000
 5601.00    2.75631   2.58182   -1.000
 5602.00    2.73635   2.59006   -1.000
 5603.00    2.76554   2.63337   -1.000
 5604.00    2.86434   2.70378   -1.000
 5605.00    2.92563   2.77599   -1.000
 5606.00    2.94758   2.82734   -1.000
 5607.00    2.95080   2.85184   -1.000
 5608.00    2.95911   2.85803   -1.000
 5609.00    2.96556   2.85893   -1.000
 5610.00    2.96444   2.86240   -1.000
 5611.00    2.98969   2.86239   -1.000
 5612.00    2.99616   2.83946   -1.000
 5613.00    2.92542   2.77800   -1.000
 5614.00    2.82512   2.68998   -1.000
 5615.00    2.74473   2.61740   -1.000
 5616.00    2.74857   2.59980   -1.000
 5617.00    2.83791   2.63590   -1.000
 5618.00    2.90627   2.68754   -1.000
 5619.00    2.90955   2.72628   -1.000
 5620.00    2.92879   2.75102   -1.000
 5621.00    2.97197   2.76275   -1.000
 5622.00    2.93061   2.75187   -1.000
 5623.00    2.86686   2.71726   -1.000
 5624.00    2.83802   2.67967   -1.000
 5625.00    2.82261   2.66890   -1.000
 5626.00    2.87158   2.69421   -1.000
 5627.00    2.92769   2.73954   -1.000
 5628.00    2.94124   2.78481   -1.000
 5629.00    2.96060   2.81958   -1.000
 5630.00    2.99674   2.83935   -1.000
 5631.00    2.99047   2.84236   -1.000
 5632.00    2.96965   2.83150   -1.000
 5633.00    2.95076   2.81263   -1.000
 5634.00    2.95900   2.78972   -1.000
 5635.00    2.95937   2.76634   -1.000
 5636.00    2.90946   2.74746   -1.000
 5637.00    2.89861   2.73771   -1.000
 5638.00    2.89401   2.73746   -1.000
 5639.00    2.91101   2.74021   -1.000
 5640.00    2.90290   2.73793   -1.000
 5641.00    2.87387   2.73245   -1.000
 5642.00    2.89745   2.73365   -1.000
 5643.00    2.91361   2.74426   -1.000
 5644.00    2.92376   2.75899   -1.000
 5645.00    2.92797   2.77343   -1.000
 5646.00    2.94064   2.78448   -1.000
 5647.00    2.96221   2.78884   -1.000
 5648.00    2.94232   2.78676   -1.000
 5649.00    2.94439   2.78433   -1.000
 5650.00    2.96654   2.78934   -1.000
 5651.00    2.97280   2.80113   -1.000
 5652.00    2.97935   2.80772   -1.000
 5653.00    2.97837   2.79991   -1.000
 5654.00    2.96118   2.78072   -1.000
 5655.00    2.92907   2.75472   -1.000
 5656.00    2.89121   2.71898   -1.000
 5657.00    2.81565   2.67424   -1.000
 5658.00    2.74946   2.63844   -1.000
 5659.00    2.78032   2.63462   -1.000
 5660.00    2.82892   2.65910   -1.000
 5661.00    2.83873   2.68666   -1.000
 5662.00    2.83694   2.70722   -1.000
 5663.00    2.86415   2.73066   -1.000
 5664.00    2.90077   2.76015   -1.000
 5665.00    2.90774   2.78281   -1.000
 5666.00    2.90514   2.78740   -1.000
 5667.00    2.89285   2.77940   -1.000
 5668.00    2.88099   2.77349   -1.000
 5669.00    2.87670   2.77818   -1.000
 5670.00    2.90028   2.79361   -1.000
 5671.00    2.95122   2.81761   -1.000
 5672.00    2.98961   2.84473   -1.000
 5673.00    2.99312   2.86610   -1.000
 5674.00    3.01030   2.87613   -1.000
 5675.00    3.01474   2.87754   -1.000
 5676.00    3.03118   2.87737   -1.000
 5677.00    3.04884   2.87689   -1.000
 5678.00    3.01390   2.87025   -1.000
 5679.00    3.01850   2.85378   -1.000
 5680.00    2.98100   2.82822   -1.000
 5681.00    2.94039   2.79642   -1.000
 5682.00    2.92053   2.76766   -1.000
 5683.00    2.90478   2.75540   -1.000
 5684.00    2.92258   2.76115   -1.000
 5685.00    2.92800   2.76982   -1.000
 5686.00    2.92851   2.76797   -1.000
 5687.00    2.92333   2.75949   -1.000
 5688.00    2.91346   2.75954   -1.000
 5689.00    2.93283   2.77852   -1.000
 5690.00    2.97386   2.81287   -1.000
 5691.00    3.01170   2.84900   -1.000
 5692.00    3.04192   2.87487   -1.000
 5693.00    3.03571   2.88654   -1.000
 5694.00    3.03154   2.88755   -1.000
 5695.00    3.01808   2.88215   -1.000
 5696.00    2.99993   2.87085   -1.000
 5697.00    2.98481   2.85182   -1.000
 5698.00    2.95007   2.82608   -1.000
 5699.00    2.92345   2.79857   -1.000
 5700.00    2.87924   2.77487   -1.000
 5701.00    2.85641   2.76248   -1.000
 5702.00    2.85675   2.76686   -1.000
 5703.00    2.87662   2.78133   -1.000
 5704.00    2.90472   2.78919   -1.000
 5705.00    2.89428   2.77707   -1.000
 5706.00    2.87669   2.74545   -1.000
 5707.00    2.84058   2.70627   -1.000
 5708.00    2.80488   2.67145   -1.000
 5709.00    2.78167   2.65061   -1.000
 5710.00    2.77070   2.65157   -1.000
 5711.00    2.81565   2.67710   -1.000
 5712.00    2.86539   2.72458   -1.000
 5713.00    2.93250   2.78209   -1.000
 5714.00    3.01006   2.83182   -1.000
 5715.00    3.02140   2.86441   -1.000
 5716.00    3.01978   2.88347   -1.000
 5717.00    3.02011   2.89661   -1.000
 5718.00    3.02410   2.90983   -1.000
 5719.00    3.05491   2.92652   -1.000
 5720.00    3.08438   2.94596   -1.000
 5721.00    3.09413   2.96436   -1.000
 5722.00    3.10457   2.97751   -1.000
 5723.00    3.12072   2.98179   -1.000
 5724.00    3.08994   2.97333   -1.000
 5725.00    3.07654   2.95178   -1.000
 5726.00    3.03875   2.92644   -1.000
 5727.00    3.01818   2.91272   -1.000
 5728.00    3.02113   2.91562   -1.000
 5729.00    3.04588   2.92318   -1.000
 5730.00    3.06898   2.92282   -1.000
 5731.00    3.03832   2.91797   -1.000
 5732.00    3.04620   2.92286   -1.000
 5733.00    3.07578   2.94238   -1.000
 5734.00    3.10719   2.96380   -1.000
 5735.00    3.11286   2.97287   -1.000
 5736.00    3.08625   2.96848   -1.000
 5737.00    3.06202   2.95997   -1.000
 5738.00    3.07938   2.95600   -1.000
 5739.00    3.06493   2.95644   -1.000
 5740.00    3.07994   2.95630   -1.000
 5741.00    3.06210   2.95333   -1.000
 5742.00    3.06338   2.95238   -1.000
 5743.00    3.06870   2.95981   -1.000
 5744.00    3.08219   2.97327   -1.000
 5745.00    3.09223   2.98064   -1.000
 5746.00    3.07929   2.97249   -1.000
 5747.00    3.06873   2.95636   -1.000
 5748.00    3.06662   2.94981   -1.000
 5749.00    3.08653   2.95596   -1.000
 5750.00    3.12085   2.95791   -1.000
 5751.00    3.09499   2.93782   -1.000
 5752.00    3.03092   2.90064   -1.000
 5753.00    2.98130   2.87256   -1.000
 5754.00    2.99676   2.87734   -1.000
 5755.00    3.06176   2.91593   -1.000
 5756.00    3.11121   2.96469   -1.000
 5757.00    3.15629   2.99673   -1.000
 5758.00    3.15937   2.99909   -1.000
 5759.00    3.11376   2.97392   -1.000
 5760.00    3.07246   2.93314   -1.000
 5761.00    3.02811   2.89522   -1.000
 5762.00    3.00792   2.88087   -1.000
 5763.00    3.02966   2.90177   -1.000
 5764.00    3.04985   2.94852   -1.000
 5765.00    3.07963   2.99593   -1.000
 5766.00    3.11747   3.02579   -1.000
 5767.00    3.12685   3.03638   -1.000
 5768.00    3.11736   3.03470   -1.000
 5769.00    3.09688   3.02730   -1.000
 5770.00    3.08084   3.01704   -1.000
 5771.00    3.05392   3.00383   -1.000
 5772.00    3.03539   2.98856   -1.000
 5773.00    3.02366   2.97629   -1.000
 5774.00    3.02455   2.97210   -1.000
 5775.00    2.97465   2.97775  123.322
 5776.00    2.89945   2.98685   -1.000
 5777.00    2.83769   2.98484   -1.000
 5778.00    2.76657   2.95946   -1.000
 5779.00    2.74796   2.91101   -1.000
 5780.00    2.79421   2.85449   -1.000
 5781.00    2.84917   2.81103   -1.000
 5782.00    2.90854   2.79302   -1.000
 5783.00    2.93847   2.79425   -1.000
 5784.00    2.92332   2.80307   -1.000
 5785.00    2.94117   2.82082   -1.000
 5786.00    2.98619   2.85407   -1.000
 5787.00    3.06450   2.89603   -1.000
 5788.00    3.09233   2.92904   -1.000
 5789.00    3.07917   2.94209   -1.000
 5790.00    3.05033   2.94128   -1.000
 5791.00    3.05091   2.94413   -1.000
 5792.00    3.05042   2.96344   -1.000
 5793.00    3.05131   2.99501   -1.000
 5794.00    3.03613   3.02274  122.814
 5795.00    3.04434   3.03220  123.605
 5796.00    3.05990   3.02170   -1.000
 5797.00    3.05752   3.00694   -1.000
 5798.00    3.08763   3.00874   -1.000
 5799.00    3.15263   3.03325   -1.000
 5800.00    3.19028   3.06515   -1.000
 5801.00    3.20638   3.08368   -1.000
 5802.00    3.21160   3.07945   -1.000
 5803.00    3.16909   3.05712   -1.000
 5804.00    3.13204   3.03114   -1.000
 5805.00    3.11247   3.01575   -1.000
 5806.00    3.10636   3.01544   -1.000
 5807.00    3.10194   3.02476   -1.000
 5808.00    3.12444   3.03671   -1.000
 5809.00    3.15382   3.04832   -1.000
 5810.00    3.16884   3.05785   -1.000
 5811.00    3.18095   3.06160   -1.000
 5812.00    3.19858   3.05626   -1.000
 5813.00    3.22159   3.04075   -1.000
 5814.00    3.19615   3.01806   -1.000
 5815.00    3.15088   2.99878   -1.000
 5816.00    3.13690   2.99833   -1.000
 5817.00    3.15960   3.02161   -1.000
 5818.00    3.19791   3.05599   -1.000
 5819.00    3.23401   3.08205   -1.000
 5820.00    3.25900   3.09080   -1.000
 5821.00    3.21801   3.08694   -1.000
 5822.00    3.20454   3.08040   -1.000
 5823.00    3.23647   3.07777   -1.000
 5824.00    3.24023   3.07953   -1.000
 5825.00    3.22942   3.08393   -1.000
 5826.00    3.23220   3.08938   -1.000
 5827.00    3.24754   3.09491   -1.000
 5828.00    3.23937   3.09980   -1.000
 5829.00    3.24819   3.10288   -1.000
 5830.00    3.24667   3.10308   -1.000
 5831.00    3.23956   3.09985   -1.000
 5832.00    3.22247   3.09269   -1.000
 5833.00    3.21909   3.08265   -1.000
 5834.00    3.23160   3.07414   -1.000
 5835.00    3.24253   3.07187   -1.000
 5836.00    3.24433   3.07492   -1.000
 5837.00    3.22924   3.07876   -1.000
 5838.00    3.22127   3.08372   -1.000
 5839.00    3.23099   3.09364   -1.000
 5840.00    3.23217   3.10822   -1.000
 5841.00    3.22966   3.12070   -1.000
 5842.00    3.21769   3.12393   -1.000
 5843.00    3.23835   3.11614   -1.000
 5844.00    3.24207   3.09976   -1.000
 5845.00    3.23044   3.07859   -1.000
 5846.00    3.21530   3.05836   -1.000
 5847.00    3.17558   3.04567   -1.000
 5848.00    3.19535   3.04244   -1.000
 5849.00    3.22652   3.04150   -1.000
 5850.00    3.21003   3.03245   -1.000
 5851.00    3.17917   3.01236   -1.000
 5852.00    3.13170   2.98895   -1.000
 5853.00    3.11408   2.97139   -1.000
 5854.00    3.13594   2.95837   -1.000
 5855.00    3.12826   2.93789   -1.000
 5856.00    3.09103   2.90468   -1.000
 5857.00    3.06317   2.87550   -1.000
 5858.00    3.09012   2.87499   -1.000
 5859.00    3.11931   2.90652   -1.000
 5860.00    3.14622   2.94848   -1.000
 5861.00    3.17882   2.97953   -1.000
 5862.00    3.18618   2.99544   -1.000
 5863.00    3.17526   3.00295   -1.000
 5864.00    3.17960   3.00423   -1.000
 5865.00    3.18459   2.99710   -1.000
 5866.00    3.18413   2.98798   -1.000
 5867.00    3.17474   2.99117   -1.000
 5868.00    3.18894   3.01191   -1.000
 5869.00    3.22343   3.03973   -1.000
 5870.00    3.23306   3.05952   -1.000
 5871.00    3.24596   3.06409   -1.000
 5872.00    3.24171   3.05761   -1.000
 5873.00    3.24020   3.04904   -1.000
 5874.00    3.26118   3.04313   -1.000
 5875.00    3.26119   3.03720   -1.000
 5876.00    3.25685   3.02657   -1.000
 5877.00    3.21354   3.01028   -1.000
 5878.00    3.18387   2.99131   -1.000
 5879.00    3.16410   2.97495   -1.000
 5880.00    3.11250   2.96565   -1.000
 5881.00    3.04415   2.96226   -1.000
 5882.00    2.94906   2.95747  125.009
 5883.00    2.88089   2.94678   -1.000
 5884.00    2.75339   2.93067   -1.000
 5885.00    2.47769   2.89962   -1.000
 5886.00    2.00940   2.82499   -1.000
 5887.00    1.51293   2.68054   -1.000
 5888.00    1.38489   2.48291   -1.000
 5889.00    1.64384   2.30669   -1.000
 5890.00    2.03780   2.23739   -1.000
 5891.00    2.24371   2.28987   -1.000
 5892.00    2.11613   2.38866   -1.000
 5893.00    1.90278   2.44329   -1.000
 5894.00    1.90833   2.42525   -1.000
 5895.00    2.18832   2.38337   -1.000
 5896.00    2.54713   2.39401   -1.000
 5897.00    2.80070   2.48388   -1.000
 5898.00    2.95871   2.61426   -1.000
 5899.00    3.03361   2.73556   -1.000
 5900.00    3.11681   2.82832   -1.000
 5901.00    3.16824   2.89319   -1.000
 5902.00    3.18958   2.93416   -1.000
 5903.00    3.18650   2.95600   -1.000
 5904.00    3.18612   2.96534   -1.000
 5905.00    3.18556   2.97031   -1.000
 5906.00    3.16333   2.97785   -1.000
 5907.00    3.16609   2.98954   -1.000
 5908.00    3.19973   3.00274   -1.000
 5909.00    3.17542   3.01463   -1.000
 5910.00    3.17864   3.02138   -1.000
 5911.00    3.20524   3.01657   -1.000
 5912.00    3.18256   2.99539   -1.000
 5913.00    3.15452   2.96302   -1.000
 5914.00    3.10927   2.93591   -1.000
 5915.00    3.07407   2.92854   -1.000
 5916.00    3.10033   2.94230   -1.000
 5917.00    3.11742   2.96894   -1.000
 5918.00    3.14072   2.99684   -1.000
 5919.00    3.16729   3.01621   -1.000
 5920.00    3.15559   3.02347   -1.000
 5921.00    3.15116   3.02191   -1.000
 5922.00    3.13636   3.01949   -1.000
 5923.00    3.14630   3.02384   -1.000
 5924.00    3.20375   3.03599   -1.000
 5925.00    3.25816   3.04880   -1.000
 5926.00    3.25803   3.05161   -1.000
 5927.00    3.24044   3.03840   -1.000
 5928.00    3.20368   3.01518   -1.000
 5929.00    3.14945   2.99743   -1.000
 5930.00    3.17383   2.99750   -1.000
 5931.00    3.20790   3.01173   -1.000
 5932.00    3.22020   3.02375   -1.000
 5933.00    3.21528   3.02419   -1.000
 5934.00    3.19491   3.02146   -1.000
 5935.00    3.20104   3.02944   -1.000
 5936.00    3.21413   3.04806   -1.000
 5937.00    3.22350   3.06440   -1.000
 5938.00    3.20197   3.06769   -1.000
 5939.00    3.19955   3.05625   -1.000
 5940.00    3.16122   3.03658   -1.000
 5941.00    3.16480   3.02108   -1.000
 5942.00    3.16569   3.02032   -1.000
 5943.00    3.18951   3.03415   -1.000
 5944.00    3.21229   3.05242   -1.000
 5945.00    3.23112   3.06269   -1.000
 5946.00    3.21049   3.05782   -1.000
 5947.00    3.17696   3.04132   -1.000
 5948.00    3.16618   3.02640   -1.000
 5949.00    3.15074   3.02336   -1.000
 5950.00    3.19419   3.02790   -1.000
 5951.00    3.19640   3.02852   -1.000
 5952.00    3.19848   3.02306   -1.000
 5953.00    3.18523   3.02019   -1.000
 5954.00    3.20097   3.02307   -1.000
 5955.00    3.18536   3.02361   -1.000
 5956.00    3.17011   3.01883   -1.000
 5957.00    3.17701   3.01860   -1.000
 5958.00    3.20708   3.03259   -1.000
 5959.00    3.24483   3.05874   -1.000
 5960.00    3.28523   3.08584   -1.000
 5961.00    3.29780   3.10354   -1.000
 5962.00    3.31111   3.10829   -1.000
 5963.00    3.26783   3.10199   -1.000
 5964.00    3.22708   3.08985   -1.000
 5965.00    3.18966   3.07996   -1.000
 5966.00    3.20432   3.07969   -1.000
 5967.00    3.23017   3.08948   -1.000
 5968.00    3.26543   3.10408   -1.000
 5969.00    3.28534   3.11888   -1.000
 5970.00    3.27087   3.13088   -1.000
 5971.00    3.29366   3.13691   -1.000
 5972.00    3.29538   3.13413   -1.000
 5973.00    3.27920   3.12026   -1.000
 5974.00    3.24551   3.09500   -1.000
 5975.00    3.20370   3.06424   -1.000
 5976.00    3.18453   3.04009   -1.000
 5977.00    3.21295   3.03338   -1.000
 5978.00    3.24134   3.04605   -1.000
 5979.00    3.25431   3.06909   -1.000
 5980.00    3.26570   3.08602   -1.000
 5981.00    3.26988   3.08208   -1.000
 5982.00    3.23540   3.05610   -1.000
 5983.00    3.16902   3.02410   -1.000
 5984.00    3.15628   3.00840   -1.000
 5985.00    3.18821   3.01808   -1.000
 5986.00    3.20269   3.04287   -1.000
 5987.00    3.22579   3.06816   -1.000
 5988.00    3.25206   3.08713   -1.000
 5989.00    3.25969   3.09850   -1.000
 5990.00    3.26127   3.10453   -1.000
 5991.00    3.25601   3.11211   -1.000
 5992.00    3.28543   3.12727   -1.000
 5993.00    3.31598   3.14508   -1.000
 5994.00    3.29803   3.15145   -1.000
 5995.00    3.30741   3.13864   -1.000
 5996.00    3.28608   3.11410   -1.000
 5997.00    3.25398   3.09361   -1.000
 5998.00    3.27906   3.08790   -1.000
 5999.00    3.25396   3.09421   -1.000
 6000.00    3.25067   3.10067   -1.000
 6001.00    3.25407   3.09890   -1.000
 6002.00    3.24951   3.09172   -1.000
 6003.00    3.25035   3.08762   -1.000
 6004.00    3.25468   3.08584   -1.000
 6005.00    3.24518   3.07518   -1.000
 6006.00    3.18170   3.05208   -1.000
 6007.00    3.13692   3.03146   -1.000
 6008.00    3.17346   3.03336   -1.000
 6009.00    3.19956   3.05865   -1.000
 6010.00    3.25998   3.08520   -1.000
 6011.00    3.26416   3.09268   -1.000
 6012.00    3.25449   3.08274   -1.000
 6013.00    3.26275   3.07083   -1.000
 6014.00    3.27431   3.06602   -1.000
 6015.00    3.26198   3.06532   -1.000
 6016.00    3.25452   3.06437   -1.000
 6017.00    3.25772   3.06234   -1.000
 6018.00    3.24542   3.05655   -1.000
 6019.00    3.24049   3.04580   -1.000
 6020.00    3.20420   3.03714   -1.000
 6021.00    3.22148   3.03897   -1.000
 6022.00    3.22048   3.05171   -1.000
 6023.00    3.23477   3.07070   -1.000
 6024.00    3.26780   3.09305   -1.000
 6025.00    3.28367   3.11663   -1.000
 6026.00    3.29904   3.13819   -1.000
 6027.00    3.31242   3.15710   -1.000
 6028.00    3.31632   3.17442   -1.000
 6029.00    3.32526   3.18881   -1.000
 6030.00    3.30937   3.19899   -1.000
 6031.00    3.31862   3.20763   -1.000
 6032.00    3.31977   3.21923   -1.000
 6033.00    3.36588   3.23480   -1.000
 6034.00    3.34827   3.24869   -1.000
 6035.00    3.33983   3.25329   -1.000
 6036.00    3.33552   3.24683   -1.000
 6037.00    3.37275   3.23325   -1.000
 6038.00    3.34255   3.21762   -1.000
 6039.00    3.31959   3.20495   -1.000
 6040.00    3.32044   3.20002   -1.000
 6041.00    3.32291   3.20498   -1.000
 6042.00    3.35885   3.21738   -1.000
 6043.00    3.35300   3.23162   -1.000
 6044.00    3.35539   3.24306   -1.000
 6045.00    3.35391   3.25096   -1.000
 6046.00    3.37132   3.25703   -1.000
 6047.00    3.38748   3.26236   -1.000
 6048.00    3.41040   3.26663   -1.000
 6049.00    3.40945   3.26842   -1.000
 6050.00    3.38813   3.26532   -1.000
 6051.00    3.39422   3.25512   -1.000
 6052.00    3.40060   3.23788   -1.000
 6053.00    3.38963   3.21645   -1.000
 6054.00    3.36547   3.19549   -1.000
 6055.00    3.33415   3.18125   -1.000
 6056.00    3.35980   3.17967   -1.000
 6057.00    3.37383   3.19119   -1.000
 6058.00    3.41037   3.20892   -1.000
 6059.00    3.35614   3.22313   -1.000
 6060.00    3.52357   3.22637   -1.000
 6061.00    2.09070   3.21508   -1.000
 6062.00    0.93289   3.18981   -1.000
 6063.00    2.42954   3.15745   -1.000
 6064.00    3.28401   3.13347   -1.000
 6065.00    3.12291   3.13516  126.725
 6066.00    3.36372   3.16577   -1.000
 6067.00    1.97381   3.20956   -1.000
 6068.00    1.23272   3.24724   -1.000
 6069.00    3.47821   3.27137   -1.000
 6070.00    3.39272   3.28481   -1.000
 6071.00    3.37605   3.29172   -1.000
 6072.00    3.41339   3.29400   -1.000
 6073.00    3.43459   3.29182   -1.000
 6074.00    3.43584   3.28376   -1.000
 6075.00    3.40928   3.26802   -1.000
 6076.00    3.38839   3.24506   -1.000
 6077.00    3.36077   3.21962   -1.000
 6078.00    3.34163   3.19856   -1.000
 6079.00    3.32080   3.18476   -1.000
 6080.00    3.28949   3.17527   -1.000
 6081.00    3.31182   3.16783   -1.000
 6082.00    3.31666   3.16426   -1.000
 6083.00    3.31633   3.16587   -1.000
 6084.00    3.31507   3.17194   -1.000
 6085.00    3.31395   3.18191   -1.000
 6086.00    3.34307   3.19337   -1.000
 6087.00    3.34917   3.19985   -1.000
 6088.00    3.31809   3.19567   -1.000
 6089.00    3.31105   3.18279   -1.000
 6090.00    3.31115   3.17064   -1.000
 6091.00    3.30292   3.16860   -1.000
 6092.00    3.32701   3.17965   -1.000
 6093.00    3.33314   3.19958   -1.000
 6094.00    3.33782   3.22024   -1.000
 6095.00    3.37045   3.23506   -1.000
 6096.00    3.36467   3.24378   -1.000
 6097.00    3.36535   3.24909   -1.000
 6098.00    3.39793   3.24669   -1.000
 6099.00    3.37955   3.22404   -1.000
 6100.00    3.33304   3.17382   -1.000
 6101.00    3.25813   3.11047   -1.000
 6102.00    3.19697   3.06817   -1.000
 6103.00    3.20347   3.07263   -1.000
 6104.00    3.29630   3.11586   -1.000
 6105.00    3.35612   3.16767   -1.000
 6106.00    3.35619   3.20649   -1.000
 6107.00    3.31751   3.23088   -1.000
 6108.00    3.32570   3.24654   -1.000
 6109.00    3.34223   3.25512   -1.000
 6110.00    3.35324   3.25788   -1.000
 6111.00    3.35411   3.26084   -1.000
 6112.00    3.33839   3.26885   -1.000
 6113.00    3.36966   3.27869   -1.000
 6114.00    3.38174   3.28267   -1.000
 6115.00    3.36588   3.27804   -1.000
 6116.00    3.34514   3.26810   -1.000
 6117.00    3.34071   3.25310   -1.000
 6118.00    3.34158   3.22599   -1.000
 6119.00    3.30657   3.18091   -1.000
 6120.00    3.26534   3.12554   -1.000
 6121.00    3.17652   3.08282   -1.000
 6122.00    3.20428   3.07513   -1.000
 6123.00    3.26258   3.10302   -1.000
 6124.00    3.31800   3.14462   -1.000
 6125.00    3.33194   3.17714   -1.000
 6126.00    3.30454   3.19420   -1.000
 6127.00    3.28918   3.20440   -1.000
 6128.00    3.31521   3.21956   -1.000
 6129.00    3.33211   3.24386   -1.000
 6130.00    3.35455   3.27081   -1.000
 6131.00    3.38866   3.28792   -1.000
 6132.00    3.39126   3.28120   -1.000
 6133.00    3.34448   3.23907   -1.000
 6134.00    3.28136   3.16187   -1.000
 6135.00    3.19819   3.07319   -1.000
 6136.00    3.10682   3.01421   -1.000
 6137.00    3.07466   3.01396   -1.000
 6138.00    3.15254   3.06173   -1.000
 6139.00    3.24606   3.11910   -1.000
 6140.00    3.27876   3.16012   -1.000
 6141.00    3.27726   3.18918   -1.000
 6142.00    3.27004   3.22011   -1.000
 6143.00    3.31004   3.25313   -1.000
 6144.00    3.34617   3.27659   -1.000
 6145.00    3.36521   3.28205   -1.000
 6146.00    3.38124   3.27092   -1.000
 6147.00    3.33877   3.25026   -1.000
 6148.00    3.30772   3.22801   -1.000
 6149.00    3.29098   3.21184   -1.000
 6150.00    3.29214   3.20766   -1.000
 6151.00    3.33019   3.21425   -1.000
 6152.00    3.34037   3.22092   -1.000
 6153.00    3.33537   3.21715   -1.000
 6154.00    3.29361   3.20417   -1.000
 6155.00    3.27747   3.19121   -1.000
 6156.00    3.28600   3.18100   -1.000
 6157.00    3.26489   3.16325   -1.000
 6158.00    3.22542   3.12112   -1.000
 6159.00    3.17986   3.04520   -1.000
 6160.00    3.07990   2.94842   -1.000
 6161.00    2.98220   2.86677   -1.000
 6162.00    2.95032   2.83593   -1.000
 6163.00    2.99002   2.86307   -1.000
 6164.00    3.05249   2.92405   -1.000
 6165.00    3.11563   2.98397   -1.000
 6166.00    3.14750   3.01614   -1.000
 6167.00    3.10696   3.01254   -1.000
 6168.00    3.05600   2.98960   -1.000
 6169.00    3.01549   2.97932   -1.000
 6170.00    3.04936   3.00157   -1.000
 6171.00    3.12102   3.04691   -1.000
 6172.00    3.14796   3.09207   -1.000
 6173.00    3.13933   3.12311  133.803
 6174.00    3.16683   3.13958   -1.000
 6175.00    3.14698   3.14775  133.186
 6176.00    3.17520   3.15527  132.486
 6177.00    3.17965   3.16625  132.039
 6178.00    3.20088   3.17919  131.620
 6179.00    3.20810   3.19222  130.977
 6180.00    3.24219   3.20616   -1.000
 6181.00    3.26834   3.21960   -1.000
 6182.00    3.26038   3.22625   -1.000
 6183.00    3.26029   3.22056   -1.000
 6184.00    3.25787   3.20237   -1.000
 6185.00    3.21504   3.17617   -1.000
 6186.00    3.19995   3.14806   -1.000
 6187.00    3.17990   3.12133   -1.000
 6188.00    3.16779   3.09304   -1.000
 6189.00    3.15055   3.06026   -1.000
 6190.00    3.08398   3.03308   -1.000
 6191.00    3.03960   3.03139  134.821
 6192.00    3.10883   3.06280   -1.000
 6193.00    3.16400   3.11242   -1.000
 6194.00    3.21141   3.15830   -1.000
 6195.00    3.22901   3.18738   -1.000
 6196.00    3.25889   3.19597   -1.000
 6197.00    3.22054   3.18625   -1.000
 6198.00    3.18234   3.16802  135.419
 6199.00    3.13227   3.15737   -1.000
 6200.00    3.08822   3.16519   -1.000
 6201.00    3.12890   3.18814   -1.000
 6202.00    3.21539   3.21455  132.045
 6203.00    3.21829   3.23574  131.776
 6204.00    3.24274   3.24992  131.816
 6205.00    3.28214   3.25892   -1.000
 6206.00    3.27987   3.26409  132.294
 6207.00    3.29827   3.26447   -1.000
 6208.00    3.28959   3.25730   -1.000
 6209.00    3.27798   3.23979   -1.000
 6210.00    3.25180   3.20972   -1.000
 6211.00    3.25062   3.16695   -1.000
 6212.00    3.18662   3.11771   -1.000
 6213.00    3.15179   3.07551   -1.000
 6214.00    3.14670   3.05320   -1.000
 6215.00    3.12460   3.05261   -1.000
 6216.00    3.17888   3.06255   -1.000
 6217.00    3.18535   3.06841   -1.000
 6218.00    3.17348   3.06558   -1.000
 6219.00    2.64855   3.06301   -1.000
 6220.00    2.94998   3.07088   -1.000
 6221.00    3.21381   3.08827   -1.000
 6222.00    3.18327   3.10627   -1.000
 6223.00    3.22690   3.11915   -1.000
 6224.00    3.22078   3.12727   -1.000
 6225.00    3.23576   3.13077   -1.000
 6226.00    3.23578   3.12429   -1.000
 6227.00    3.22348   3.09980   -1.000
 6228.00    3.18264   3.05632   -1.000
 6229.00    3.13729   3.00787   -1.000
 6230.00    3.07423   2.97821   -1.000
 6231.00    3.04907   2.98445   -1.000
 6232.00    3.12606   3.02506   -1.000
 6233.00    3.17370   3.08172   -1.000
 6234.00    3.24016   3.13030   -1.000
 6235.00    3.25764   3.15362   -1.000
 6236.00    3.23013   3.14899   -1.000
 6237.00    3.20204   3.12615   -1.000
 6238.00    3.15393   3.09860   -1.000
 6239.00    3.14974   3.07549   -1.000
 6240.00    3.14538   3.05815   -1.000
 6241.00    3.11443   3.04268   -1.000
 6242.00    3.11471   3.02665   -1.000
 6243.00    3.08960   3.01341   -1.000
 6244.00    3.07166   3.00998   -1.000
 6245.00    3.09769   3.02275   -1.000
 6246.00    3.13848   3.05333   -1.000
 6247.00    3.17573   3.09359   -1.000
 6248.00    3.21752   3.12624   -1.000
 6249.00    3.21583   3.13459   -1.000
 6250.00    3.18629   3.11384   -1.000
 6251.00    3.15860   3.07459   -1.000
 6252.00    3.11049   3.03551   -1.000
 6253.00    3.08581   3.00953   -1.000
 6254.00    3.07274   2.99573   -1.000
 6255.00    3.04539   2.98545   -1.000
 6256.00    3.03142   2.97587   -1.000
 6257.00    3.02942   2.97488   -1.000
 6258.00    3.03710   2.99237   -1.000
 6259.00    3.06704   3.02972   -1.000
 6260.00    3.12119   3.07823   -1.000
 6261.00    3.17688   3.12451   -1.000
 6262.00    3.19009   3.15655   -1.000
 6263.00    3.19538   3.16975   -1.000
 6264.00    3.19321   3.17072   -1.000
 6265.00    3.16517   3.17145  137.183
 6266.00    3.14079   3.17699   -1.000
 6267.00    3.13011   3.18226   -1.000
 6268.00    3.14221   3.18253   -1.000
 6269.00    3.15136   3.18149   -1.000
 6270.00    3.15437   3.18558   -1.000
 6271.00    3.19764   3.19445  137.948
 6272.00    3.19892   3.19966  139.035
 6273.00    3.14422   3.19183   -1.000
 6274.00    3.08441   3.16867   -1.000
 6275.00    3.01619   3.13617   -1.000
 6276.00    2.94900   3.10316   -1.000
 6277.00    2.91511   3.07578   -1.000
 6278.00    2.89663   3.05694   -1.000
 6279.00    2.82146   3.05015   -1.000
 6280.00    2.76718   3.06042   -1.000
 6281.00    2.75020   3.08883   -1.000
 6282.00    2.81737   3.12865   -1.000
 6283.00    2.91126   3.16886   -1.000
 6284.00    2.99661   3.20152   -1.000
 6285.00    3.10580   3.22559   -1.000
 6286.00    3.17533   3.24325   -1.000
 6287.00    3.18872   3.25343   -1.000
 6288.00    3.23512   3.25177  138.480
 6289.00    3.23841   3.23760  139.467
 6290.00    3.21172   3.21775  139.633
 6291.00    3.19789   3.20155  139.784
 6292.00    3.16925   3.19313   -1.000
 6293.00    3.12543   3.18858   -1.000
 6294.00    3.09625   3.17944   -1.000
 6295.00    2.96394   3.16139   -1.000
 6296.00    2.75362   3.14057   -1.000
 6297.00    2.51988   3.12734   -1.000
 6298.00    2.57511   3.12324   -1.000
 6299.00    2.81795   3.11983   -1.000
 6300.00    3.06022   3.11277   -1.000
 6301.00    3.11832   3.11037  142.184
 6302.00    3.15976   3.12342   -1.000
 6303.00    3.18215   3.15200   -1.000
 6304.00    3.18150   3.18709  137.099
 6305.00    3.20649   3.22058  135.860
 6306.00    3.19531   3.24828   -1.000
 6307.00    3.21068   3.26629   -1.000
 6308.00    3.25644   3.27133  137.455
 6309.00    3.23887   3.26465   -1.000
 6310.00    3.20034   3.25174   -1.000
 6311.00    3.22166   3.23720  138.597
 6312.00    3.18483   3.22112   -1.000
 6313.00    3.17237   3.20148   -1.000
 6314.00    3.13398   3.17943   -1.000
 6315.00    3.09683   3.15875   -1.000
 6316.00    3.09335   3.14296   -1.000
 6317.00    3.10568   3.13760   -1.000
 6318.00    3.12921   3.14970  137.843
 6319.00    3.14589   3.17831   -1.000
 6320.00    3.17290   3.21198   -1.000
 6321.00    3.19933   3.24103   -1.000
 6322.00    3.23444   3.26554   -1.000
 6323.00    3.23977   3.28817   -1.000
 6324.00    3.26334   3.30672   -1.000
 6325.00    3.27646   3.31764   -1.000
 6326.00    3.28849   3.32178   -1.000
 6327.00    3.27428   3.32300   -1.000
 6328.00    3.28160   3.32400   -1.000
 6329.00    3.31282   3.32639  133.604
 6330.00    3.27435   3.33122   -1.000
 6331.00    3.21760   3.33434   -1.000
 6332.00    3.27681   3.32521   -1.000
 6333.00    3.24526   3.29678   -1.000
 6334.00    3.22093   3.25644   -1.000
 6335.00    3.18709   3.22371   -1.000
 6336.00    3.16676   3.21468   -1.000
 6337.00    3.18719   3.23030   -1.000
 6338.00    3.24221   3.25994  132.844
 6339.00    3.27150   3.29014  132.209
 6340.00    3.27181   3.30853   -1.000
 6341.00    3.25927   3.30842   -1.000
 6342.00    3.28054   3.29455  133.767
 6343.00    3.25363   3.28135   -1.000
 6344.00    3.22984   3.28188   -1.000
 6345.00    3.22066   3.29855   -1.000
 6346.00    3.25738   3.32495   -1.000
 6347.00    3.28111   3.35294   -1.000
 6348.00    3.27616   3.37606   -1.000
 6349.00    3.29747   3.39035   -1.000
 6350.00    3.27973   3.39396   -1.000
 6351.00    3.27893   3.38575   -1.000
 6352.00    3.26482   3.36595   -1.000
 6353.00    3.25021   3.33947   -1.000
 6354.00    3.24419   3.31458   -1.000
 6355.00    3.23366   3.29485   -1.000
 6356.00    3.20870   3.27568   -1.000
 6357.00    3.21590   3.25236   -1.000
 6358.00    3.14128   3.22730   -1.000
 6359.00    3.07673   3.20576   -1.000
 6360.00    2.98667   3.19049   -1.000
 6361.00    2.98139   3.18401   -1.000
 6362.00    3.02929   3.19036   -1.000
 6363.00    3.13079   3.21095   -1.000
 6364.00    3.21155   3.24191   -1.000
 6365.00    3.21498   3.27703   -1.000
 6366.00    3.22487   3.31078   -1.000
 6367.00    3.21946   3.33778   -1.000
 6368.00    3.22681   3.35462   -1.000
 6369.00    3.22988   3.36406   -1.000
 6370.00    3.24835   3.37344   -1.000
 6371.00    3.24230   3.38693   -1.000
 6372.00    3.22742   3.40119   -1.000
 6373.00    3.21919   3.41018   -1.000
 6374.00    3.19073   3.41142   -1.000
 6375.00    3.18096   3.40551   -1.000
 6376.00    3.16971   3.39359   -1.000
 6377.00    3.17888   3.37818   -1.000
 6378.00    3.17158   3.36351   -1.000
 6379.00    3.14261   3.35323   -1.000
 6380.00    3.14758   3.34889   -1.000
 6381.00    3.15429   3.34964   -1.000
 6382.00    3.16158   3.35336   -1.000
 6383.00    3.15886   3.35923   -1.000
 6384.00    3.14884   3.36822   -1.000
 6385.00    3.15241   3.37969   -1.000
 6386.00    3.17118   3.38990   -1.000
 6387.00    3.14979   3.39543   -1.000
 6388.00    3.14009   3.39487   -1.000
 6389.00    3.11813   3.38518   -1.000
 6390.00    3.10236   3.36188   -1.000
 6391.00    3.04595   3.32768   -1.000
 6392.00    2.98784   3.29803   -1.000
 6393.00    2.92365   3.29167   -1.000
 6394.00    2.93925   3.31289   -1.000
 6395.00    3.00148   3.34493   -1.000
 6396.00    2.98796   3.36186   -1.000
 6397.00    2.97821   3.34841   -1.000
 6398.00    2.95755   3.31385   -1.000
 6399.00    2.89975   3.28732   -1.000
 6400.00    2.86129   3.29375   -1.000
 6401.00    2.87900   3.33207   -1.000
 6402.00    2.90795   3.37980   -1.000
 6403.00    2.91926   3.41329   -1.000
 6404.00    2.92384   3.42081   -1.000
 6405.00    2.87912   3.40536   -1.000
 6406.00    2.83400   3.38164   -1.000
 6407.00    2.79886   3.36559   -1.000
 6408.00    2.74509   3.36146   -1.000
 6409.00    2.75773   3.36110   -1.000
 6410.00    2.74476   3.35761   -1.000
 6411.00    2.71207   3.35462   -1.000
 6412.00    2.68446   3.35924   -1.000
 6413.00    2.67810   3.37192   -1.000
 6414.00    2.68444   3.38709   -1.000
 6415.00    2.66926   3.39803   -1.000
 6416.00    2.66247   3.39825   -1.000
 6417.00    2.65272   3.38338   -1.000
 6418.00    2.58168   3.35627   -1.000
 6419.00    2.53780   3.33002   -1.000
 6420.00    2.48073   3.32232   -1.000
 6421.00    2.43763   3.34180   -1.000
 6422.00    2.45014   3.37971   -1.000
 6423.00    2.45944   3.41857   -1.000
 6424.00    2.46817   3.44792   -1.000
 6425.00    2.45641   3.46601   -1.000
 6426.00    2.44037   3.47044   -1.000
 6427.00    2.41325   3.45534   -1.000
 6428.00    2.21618   3.42043   -1.000
