###################################################################
## OUTPUT of StarlightChains_v04.for    [Cid@UFSC - 01/Apr/2007] ##
###################################################################

## Some input info
NGC6284_a_1.cxt                          [arq_obs]
Base.BC03.N                              [arq_base]
NGC6284_a_1.msk                          [arq_masks]
StCv04.C11.config                        [arq_config]
   45                                    [N_base]
    0                                    [N_YAV_components = # of components with extra extinction!]
    0                                    [i_FitPowerLaw (1/0 = Yes/No)]
-9.99                                    [alpha_PowerLaw]
CCM                                      [red_law_option]
 1.458241                                [q_norm = A(l_norm)/A(V)]

## (Re)Sampling Parameters
 3359.00                                 [l_ini (A)]
 6428.00                                 [l_fin (A)]
    1.00                                 [dl    (A)]     (OBS: dl_cushion =    50.00 A)

## Normalization info
 4020.00                                 [l_norm (A) - for base]
 4010.00                                 [llow_norm (A) - window for f_obs]
 4060.00                                 [lupp_norm (A) - window for f_obs]
9.247314E-15                             [fobs_norm (in input units)]

## S/N
 4730.00                                 [llow_SN (A) - window for S/N]
 4780.00                                 [lupp_SN (A) - window for S/N]
  76.302                                 [S/N in S/N window]
  62.584                                 [S/N in norm. window]
  42.607                                 [S/N_err in S/N window]
  34.947                                 [S/N_err in norm. window]
  1.0000                                 [fscale_chi2]

## etc...
  2147483621                             [idum_orig]
  3068                                   [NOl_eff]
  1896                                   [Nl_eff]
  1172    NSIGMA                         [Ntot_cliped & clip_method]
   881440                                [Nglobal_steps]
   7                                     [N_chains]
  13                                     [NEX0s_base = N_base in EX0s-fits]
 0   0   1      208   2.0   7.609E+02    [Clip-Bug, RC-Crash & Burn-In warning-flags, n_censored_weights, wei_nsig_threshold & wei_limit]
    10     10.185     10.181      0.004  [idt_all, wdt_TotTime, wdt_UsrTime & wdt_SysTime (sec)]

## Synthesis Results - Best model ##

 1.57065E+00                             [chi2/Nl_eff]
     1.90268                             [adev (%)]

   100.64943                             [sum-of-x (%)]
 3.29466E-14                             [Flux_tot (units of input spectrum!)]
 4.81283E-10                             [Mini_tot (???)]
 2.49956E-10                             [Mcor_tot (???)]

  -5.54                                  [v0_min  (km/s)]
  72.63                                  [vd_min  (km/s)]
 0.9412                                  [AV_min  (mag)]
 0.0000                                  [YAV_min (mag)]

# j     x_j(%)      Mini_j(%)     Mcor_j(%)     age_j(yr)     Z_j      (L/M)_j    YAV?  Mstars   component_j        a/Fe...       SSP_chi2r SSP_adev(%)   SSP_AV   SSP_x(%)
  1      0.0000     0.0000E+00    0.0000E+00    1.000000E+06  0.00400  1.114E-02    0   1.0000   age020_m42            0.0000     6.7937E+02    10.7658   4.0000    76.2717
  2      2.9006     4.8436E-03    9.3253E-03    3.160000E+06  0.00400  4.073E-02    0   0.9999   age045_m42            0.0000     9.9456E+01     5.6452   3.3496    90.1821
  3      0.0000     0.0000E+00    0.0000E+00    5.010000E+06  0.00400  2.534E-02    0   0.9488   age055_m42            0.0000     2.4004E+02    10.3801   3.8841    83.2137
  4      5.8570     3.1342E-02    5.3481E-02    1.000000E+07  0.00400  1.271E-02    0   0.8862   age070_m42            0.0000     1.7667E+02     9.1440   3.0924    86.6033
  5      0.0000     0.0000E+00    0.0000E+00    2.512000E+07  0.00400  5.070E-03    0   0.8174   age090_m42            0.0000     1.5176E+02     8.3778   2.9498    88.1835
  6      0.0000     0.0000E+00    0.0000E+00    4.000000E+07  0.00400  3.505E-03    0   0.7851   age104_m42            0.0000     9.1818E+01     5.8455   2.5743    91.5166
  7     25.2570     7.5742E-01    1.0511E+00    1.015200E+08  0.00400  2.268E-03    0   0.7207   age116_m42            0.0000     3.4363E+02    10.1142   2.1345   103.0519
  8      0.0000     0.0000E+00    0.0000E+00    2.861200E+08  0.00400  1.079E-03    0   0.6613   age125_m42            0.0000     3.7614E+02    11.8452   1.5749   105.5162
  9      2.7751     3.7176E-01    4.4360E-01    6.405400E+08  0.00400  5.077E-04    0   0.6197   age132_m42            0.0000     4.2210E+02    12.9421   1.1862   109.5651
 10      6.8067     1.3096E+00    1.5190E+00    9.047900E+08  0.00400  3.535E-04    0   0.6024   age135_m42            0.0000     2.4623E+02    10.3895   1.0177   108.7141
 11      0.0294     1.0464E-02    1.1516E-02    1.434000E+09  0.00400  1.910E-04    0   0.5716   age139_m42            0.0000     8.4367E+01     7.6653   0.5532   108.1102
 12      3.0590     2.1192E+00    2.2291E+00    2.500000E+09  0.00400  9.818E-05    0   0.5463   age150_m42            0.0000     3.1146E+01     4.8962   0.3937   103.6791
 13     40.6491     5.8599E+01    5.8988E+01    5.000000E+09  0.00400  4.718E-05    0   0.5228   age161_m42            0.0000     7.0030E+01     3.9060   0.3023   100.4627
 14      8.1233     2.5057E+01    2.4026E+01    1.100000E+10  0.00400  2.205E-05    0   0.4980   age185_m42            0.0000     1.7234E+02     5.4291   0.0000    99.4335
 15      1.3207     4.7704E+00    4.5256E+00    1.300000E+10  0.00400  1.883E-05    0   0.4927   age193_m42            0.0000     1.9330E+02     5.3800   0.0000    99.2863
 16      0.0000     0.0000E+00    0.0000E+00    1.000000E+06  0.02000  1.989E-02    0   1.0000   age020_m62            0.0000     6.5454E+02     9.8574   4.0000    76.8426
 17      0.0000     0.0000E+00    0.0000E+00    3.160000E+06  0.02000  3.772E-02    0   0.9858   age045_m62            0.0000     5.1633E+02     7.3837   4.0000    78.8238
 18      1.0756     2.2670E-03    4.0778E-03    5.010000E+06  0.02000  3.227E-02    0   0.9342   age055_m62            0.0000     1.5771E+02     8.1392   3.6872    86.2214
 19      0.0000     0.0000E+00    0.0000E+00    1.000000E+07  0.02000  1.011E-02    0   0.8751   age070_m62            0.0000     4.2086E+02    14.0666   3.2450    82.0093
 20      0.0000     0.0000E+00    0.0000E+00    2.512000E+07  0.02000  4.206E-03    0   0.8099   age090_m62            0.0000     3.2174E+02    12.0960   3.1367    83.2077
 21      0.0000     0.0000E+00    0.0000E+00    4.000000E+07  0.02000  3.373E-03    0   0.7799   age104_m62            0.0000     8.8337E+01     4.6542   2.7434    92.5994
 22      0.0000     0.0000E+00    0.0000E+00    1.015200E+08  0.02000  1.878E-03    0   0.7221   age116_m62            0.0000     2.8088E+02     8.5571   2.2469   102.1921
 23      0.0000     0.0000E+00    0.0000E+00    2.861200E+08  0.02000  8.869E-04    0   0.6700   age125_m62            0.0000     6.8833E+02    16.4332   1.4383   111.0526
 24      0.0000     0.0000E+00    0.0000E+00    6.405400E+08  0.02000  3.657E-04    0   0.6322   age132_m62            0.0000     4.2418E+02    16.0232   0.7198   115.4242
 25      0.0000     0.0000E+00    0.0000E+00    9.047900E+08  0.02000  2.312E-04    0   0.6152   age135_m62            0.0000     2.1564E+02    12.8587   0.4471   114.2318
 26      0.0000     0.0000E+00    0.0000E+00    1.434000E+09  0.02000  1.168E-04    0   0.5865   age139_m62            0.0000     6.4126E+01     7.4894   0.2385   107.9687
 27      0.0000     0.0000E+00    0.0000E+00    2.500000E+09  0.02000  5.505E-05    0   0.5610   age150_m62            0.0000     1.2310E+02     7.0024  -0.0750   105.7312
 28      0.0000     0.0000E+00    0.0000E+00    5.000000E+09  0.02000  2.596E-05    0   0.5353   age161_m62            0.0000     2.8951E+02     8.6797  -0.4272   106.7974
 29      0.0000     0.0000E+00    0.0000E+00    1.100000E+10  0.02000  1.169E-05    0   0.5103   age185_m62            0.0000     4.9357E+02    10.6807  -0.8359   109.4146
 30      0.0000     0.0000E+00    0.0000E+00    1.300000E+10  0.02000  9.691E-06    0   0.5047   age193_m62            0.0000     5.3772E+02    10.9558  -0.8862   109.8434
 31      0.0000     0.0000E+00    0.0000E+00    1.000000E+06  0.05000  2.651E-02    0   0.9998   age020_m72            0.0000     6.1634E+02     9.6435   4.0000    77.7660
 32      0.0000     0.0000E+00    0.0000E+00    3.160000E+06  0.05000  4.817E-02    0   0.9577   age045_m72            0.0000     3.2733E+02     8.1122   4.0000    82.0880
 33      1.2109     2.6558E-03    4.6775E-03    5.010000E+06  0.05000  3.101E-02    0   0.9147   age055_m72            0.0000     2.6932E+02    11.4839   3.7894    84.0638
 34      0.0000     0.0000E+00    0.0000E+00    1.000000E+07  0.05000  8.954E-03    0   0.8524   age070_m72            0.0000     3.0561E+02    10.9525   4.0000    82.8715
 35      0.0000     0.0000E+00    0.0000E+00    2.512000E+07  0.05000  4.207E-03    0   0.7902   age090_m72            0.0000     1.4450E+02     7.0072   3.4834    88.6439
 36      0.0000     0.0000E+00    0.0000E+00    4.000000E+07  0.05000  3.198E-03    0   0.7618   age104_m72            0.0000     1.4987E+02     4.7381   2.7302    97.8053
 37      0.0000     0.0000E+00    0.0000E+00    1.015200E+08  0.05000  1.716E-03    0   0.7092   age116_m72            0.0000     3.5063E+02     9.8930   2.2793   102.8393
 38      0.0000     0.0000E+00    0.0000E+00    2.861200E+08  0.05000  7.047E-04    0   0.6618   age125_m72            0.0000     6.5482E+02    16.7773   1.1820   112.5661
 39      0.0000     0.0000E+00    0.0000E+00    6.405400E+08  0.05000  2.633E-04    0   0.6253   age132_m72            0.0000     3.0091E+02    15.0278   0.3503   115.6477
 40      0.0000     0.0000E+00    0.0000E+00    9.047900E+08  0.05000  1.484E-04    0   0.6088   age135_m72            0.0000     1.1246E+02    11.2843   0.0000   110.5275
 41      0.0000     0.0000E+00    0.0000E+00    1.434000E+09  0.05000  7.827E-05    0   0.5847   age139_m72            0.0000     1.6174E+02     9.1776  -0.2511   107.4572
 42      0.0000     0.0000E+00    0.0000E+00    2.500000E+09  0.05000  3.759E-05    0   0.5583   age150_m72            0.0000     3.0185E+02     9.2291  -0.5252   107.0957
 43      1.5851     6.9642E+00    7.1338E+00    5.000000E+09  0.05000  1.548E-05    0   0.5320   age161_m72            0.0000     4.6884E+02    10.6906  -0.9675   107.8471
 44      0.0000     0.0000E+00    0.0000E+00    1.100000E+10  0.05000  6.532E-06    0   0.5070   age185_m72            0.0000     7.1290E+02    13.8999  -1.0000   107.1316
 45      0.0000     0.0000E+00    0.0000E+00    1.300000E+10  0.05000  5.316E-06    0   0.5018   age193_m72            0.0000     8.5420E+02    17.6302  -1.0000   106.7554


## Synthesis Results - Average & Chains ##

# j      x_j: min, <> & last-chain-values for 1 ...  7 chains
  1      0.0000      0.0241      0.0198      0.0000      0.0000      0.0108      0.0000      0.1026      0.0155
  2      2.9006      1.7840      1.6082      1.9515      1.8383      1.9316      1.7606      1.9000      1.6881
  3      0.0000      0.1446      0.1468      0.1894      0.3672      0.0989      0.0699      0.1998      0.3726
  4      5.8570      5.4361      5.7676      5.5194      5.0073      5.4157      5.5237      5.4008      5.5617
  5      0.0000      0.2790      0.4115      0.3188      0.4899      0.1643      0.2300      0.2701      0.2876
  6      0.0000      0.0381      0.0000      0.0000      0.0999      0.0172      0.0000      0.2047      0.0000
  7     25.2570     28.1964     28.1452     27.3833     27.4087     27.3844     28.3973     27.3995     28.0250
  8      0.0000      0.0346      0.0000      0.0553      0.0000      0.0486      0.0000      0.0000      0.0000
  9      2.7751      1.3411      2.3573      1.6078      1.7059      1.4158      1.4618      1.5133      1.4270
 10      6.8067      2.2856      2.2708      3.5150      3.9026      3.5072      2.2921      3.2430      3.3527
 11      0.0294      0.5930      0.6102      0.7626      0.0000      0.6812      1.0863      0.7496      0.0000
 12      3.0590      9.5694      8.5398      8.9933      9.0708      9.3365      9.5853      9.6216      8.9326
 13     40.6491     39.7039     40.2359     39.5396     39.8299     39.9458     39.5280     39.6081     39.9277
 14      8.1233      5.7918      6.2044      6.2689      5.8167      5.9139      5.8434      5.6854      5.9203
 15      1.3207      0.4827      0.3222      0.0251      0.8227      0.6145      0.8381      0.6031      1.0320
 16      0.0000      0.0103      0.0000      0.0000      0.0000      0.0000      0.0816      0.0000      0.0000
 17      0.0000      0.0504      0.0000      0.0000      0.0000      0.0401      0.1325      0.0000      0.0000
 18      1.0756      0.4877      0.4565      0.7791      0.5307      0.5766      0.6371      0.5149      0.3582
 19      0.0000      0.2172      0.2450      0.0000      0.1334      0.2056      0.1538      0.3084      0.1478
 20      0.0000      0.0168      0.0000      0.0000      0.0000      0.0000      0.0000      0.0000      0.0076
 21      0.0000      0.1509      0.0000      0.1772      0.1701      0.0000      0.0352      0.1107      0.0000
 22      0.0000      0.2593      0.0000      0.0000      0.0466      0.0101      0.0546      0.2666      0.1021
 23      0.0000      0.0151      0.0000      0.0000      0.0000      0.0000      0.0000      0.0000      0.0367
 24      0.0000      0.0084      0.0000      0.0000      0.0000      0.0000      0.0000      0.0000      0.0000
 25      0.0000      0.0110      0.0000      0.0000      0.0000      0.0000      0.0000      0.0000      0.0000
 26      0.0000      0.0106      0.0000      0.0000      0.0175      0.0000      0.0000      0.0000      0.0000
 27      0.0000      0.0194      0.0000      0.0000      0.0000      0.0000      0.0000      0.0000      0.0000
 28      0.0000      0.0287      0.0000      0.0000      0.0000      0.0000      0.0000      0.0000      0.0000
 29      0.0000      0.0355      0.0000      0.0717      0.0748      0.0000      0.0000      0.0000      0.0000
 30      0.0000      0.0504      0.1933      0.0000      0.3524      0.0000      0.0000      0.0000      0.0000
 31      0.0000      0.0192      0.0577      0.0000      0.0000      0.0000      0.0527      0.0000      0.0759
 32      0.0000      0.4775      0.3574      0.5547      0.8083      0.3703      0.6276      0.5437      0.3860
 33      1.2109      0.4753      0.7954      0.8337      0.4565      1.0927      0.4615      0.4496      0.6867
 34      0.0000      0.0132      0.0000      0.0000      0.0000      0.0000      0.0000      0.0000      0.0000
 35      0.0000      0.0564      0.0000      0.0000      0.0044      0.0530      0.0000      0.0267      0.0000
 36      0.0000      0.1033      0.0000      0.0000      0.0000      0.0000      0.0090      0.0000      0.0000
 37      0.0000      0.2189      0.0235      0.0000      0.0281      0.1109      0.0000      0.0000      0.2401
 38      0.0000      0.0079      0.0000      0.0000      0.0000      0.0000      0.0000      0.0000      0.0000
 39      0.0000      0.0056      0.0000      0.0000      0.0000      0.0000      0.0000      0.0000      0.0000
 40      0.0000      0.0092      0.0000      0.0000      0.0000      0.0000      0.0000      0.0000      0.0000
 41      0.0000      0.0151      0.0000      0.0000      0.0000      0.0000      0.0000      0.0079      0.0000
 42      0.0000      0.0426      0.0999      0.0239      0.0000      0.1649      0.0000      0.1164      0.1081
 43      1.5851      1.0163      1.0036      1.0582      0.8977      1.1593      1.0362      0.9305      1.0738
 44      0.0000      0.6148      0.3996      0.3884      0.4776      0.4521      0.5954      0.5007      0.5680
 45      0.0000      0.6393      0.5175      0.7058      0.4163      0.0000      0.2006      0.4832      0.4552

# j      m_j: min, <> & last-chain-values for 1 ...  7 chains
  1  0.0000E+00  2.7007E-04  2.2609E-04  0.0000E+00  0.0000E+00  1.3109E-04  0.0000E+00  1.1897E-03  1.7464E-04
  2  9.3253E-03  5.4567E-03  5.0234E-03  6.0906E-03  5.7001E-03  6.4021E-03  5.6532E-03  6.0270E-03  5.2095E-03
  3  0.0000E+00  6.7450E-04  6.9954E-04  9.0141E-04  1.7364E-03  5.0004E-04  3.4257E-04  9.6690E-04  1.7536E-03
  4  5.3481E-02  4.7224E-02  5.1166E-02  4.8924E-02  4.4097E-02  5.0981E-02  5.0375E-02  4.8658E-02  4.8748E-02
  5  0.0000E+00  5.6041E-03  8.4404E-03  6.5337E-03  9.9755E-03  3.5762E-03  4.8502E-03  5.6267E-03  5.8295E-03
  6  0.0000E+00  1.0626E-03  0.0000E+00  0.0000E+00  2.8263E-03  5.2020E-04  0.0000E+00  5.9258E-03  0.0000E+00
  7  1.0511E+00  1.1163E+00  1.1379E+00  1.1062E+00  1.1001E+00  1.1748E+00  1.1803E+00  1.1250E+00  1.1195E+00
  8  0.0000E+00  2.6413E-03  0.0000E+00  4.3081E-03  0.0000E+00  4.0228E-03  0.0000E+00  0.0000E+00  0.0000E+00
  9  4.4360E-01  2.0395E-01  3.6610E-01  2.4949E-01  2.6300E-01  2.3331E-01  2.3337E-01  2.3868E-01  2.1896E-01
 10  1.5190E+00  4.8527E-01  4.9236E-01  7.6148E-01  8.4000E-01  8.0690E-01  5.1090E-01  7.1408E-01  7.1821E-01
 11  1.1516E-02  2.2112E-01  2.3235E-01  2.9013E-01  0.0000E+00  2.7524E-01  4.2521E-01  2.8988E-01  0.0000E+00
 12  2.2291E+00  6.6341E+00  6.0459E+00  6.3617E+00  6.3750E+00  7.0138E+00  6.9761E+00  6.9177E+00  6.2481E+00
 13  5.8988E+01  5.4816E+01  5.6728E+01  5.5700E+01  5.5746E+01  5.9761E+01  5.7290E+01  5.6711E+01  5.5618E+01
 14  2.4026E+01  1.6298E+01  1.7829E+01  1.7999E+01  1.6593E+01  1.8033E+01  1.7262E+01  1.6592E+01  1.6809E+01
 15  4.5256E+00  1.5737E+00  1.0727E+00  8.3384E-02  2.7188E+00  2.1707E+00  2.8682E+00  2.0389E+00  3.3944E+00
 16  0.0000E+00  6.4640E-05  0.0000E+00  0.0000E+00  0.0000E+00  0.0000E+00  5.3650E-04  0.0000E+00  0.0000E+00
 17  0.0000E+00  1.6405E-04  0.0000E+00  0.0000E+00  0.0000E+00  1.4158E-04  4.5294E-04  0.0000E+00  0.0000E+00
 18  4.0778E-03  1.7591E-03  1.6816E-03  2.8672E-03  1.9406E-03  2.2535E-03  2.4125E-03  1.9261E-03  1.3037E-03
 19  0.0000E+00  2.3428E-03  2.6982E-03  0.0000E+00  1.4585E-03  2.4021E-03  1.7412E-03  3.4491E-03  1.6087E-03
 20  0.0000E+00  4.0393E-04  0.0000E+00  0.0000E+00  0.0000E+00  0.0000E+00  0.0000E+00  0.0000E+00  1.8343E-04
 21  0.0000E+00  4.3483E-03  0.0000E+00  5.2080E-03  4.9671E-03  0.0000E+00  1.0644E-03  3.3074E-03  0.0000E+00
 22  0.0000E+00  1.2422E-02  0.0000E+00  0.0000E+00  2.2636E-03  5.2609E-04  2.7439E-03  1.3246E-02  4.9362E-03
 23  0.0000E+00  1.4253E-03  0.0000E+00  0.0000E+00  0.0000E+00  0.0000E+00  0.0000E+00  0.0000E+00  3.4834E-03
 24  0.0000E+00  1.8161E-03  0.0000E+00  0.0000E+00  0.0000E+00  0.0000E+00  0.0000E+00  0.0000E+00  0.0000E+00
 25  0.0000E+00  3.6335E-03  0.0000E+00  0.0000E+00  0.0000E+00  0.0000E+00  0.0000E+00  0.0000E+00  0.0000E+00
 26  0.0000E+00  6.6264E-03  0.0000E+00  0.0000E+00  1.1122E-02  0.0000E+00  0.0000E+00  0.0000E+00  0.0000E+00
 27  0.0000E+00  2.4645E-02  0.0000E+00  0.0000E+00  0.0000E+00  0.0000E+00  0.0000E+00  0.0000E+00  0.0000E+00
 28  0.0000E+00  7.3851E-02  0.0000E+00  0.0000E+00  0.0000E+00  0.0000E+00  0.0000E+00  0.0000E+00  0.0000E+00
 29  0.0000E+00  1.9293E-01  0.0000E+00  3.9765E-01  4.1217E-01  0.0000E+00  0.0000E+00  0.0000E+00  0.0000E+00
 30  0.0000E+00  3.2700E-01  1.2809E+00  0.0000E+00  2.3180E+00  0.0000E+00  0.0000E+00  0.0000E+00  0.0000E+00
 31  0.0000E+00  9.0306E-05  2.7673E-04  0.0000E+00  0.0000E+00  0.0000E+00  2.5978E-04  0.0000E+00  3.5989E-04
 32  0.0000E+00  1.1829E-03  9.0405E-04  1.4020E-03  2.0298E-03  9.9399E-04  1.6319E-03  1.3967E-03  9.6462E-04
 33  4.6775E-03  1.7467E-03  2.9851E-03  3.1263E-03  1.7007E-03  4.3517E-03  1.7806E-03  1.7138E-03  2.5461E-03
 34  0.0000E+00  1.5670E-04  0.0000E+00  0.0000E+00  0.0000E+00  0.0000E+00  0.0000E+00  0.0000E+00  0.0000E+00
 35  0.0000E+00  1.3196E-03  0.0000E+00  0.0000E+00  1.0506E-04  1.3434E-03  0.0000E+00  6.4919E-04  0.0000E+00
 36  0.0000E+00  3.0646E-03  0.0000E+00  0.0000E+00  0.0000E+00  0.0000E+00  2.7967E-04  0.0000E+00  0.0000E+00
 37  0.0000E+00  1.1272E-02  1.2378E-03  0.0000E+00  1.4682E-03  6.1884E-03  0.0000E+00  0.0000E+00  1.2472E-02
 38  0.0000E+00  9.1892E-04  0.0000E+00  0.0000E+00  0.0000E+00  0.0000E+00  0.0000E+00  0.0000E+00  0.0000E+00
 39  0.0000E+00  1.6473E-03  0.0000E+00  0.0000E+00  0.0000E+00  0.0000E+00  0.0000E+00  0.0000E+00  0.0000E+00
 40  0.0000E+00  4.6948E-03  0.0000E+00  0.0000E+00  0.0000E+00  0.0000E+00  0.0000E+00  0.0000E+00  0.0000E+00
 41  0.0000E+00  1.4053E-02  0.0000E+00  0.0000E+00  0.0000E+00  0.0000E+00  0.0000E+00  7.6295E-03  0.0000E+00
 42  0.0000E+00  7.8895E-02  1.8879E-01  4.5131E-02  0.0000E+00  3.3069E-01  0.0000E+00  2.2333E-01  2.0188E-01
 43  7.1338E+00  4.3517E+00  4.3885E+00  4.6235E+00  3.8968E+00  5.3792E+00  4.6580E+00  4.1321E+00  4.6391E+00
 44  0.0000E+00  5.9456E+00  3.9466E+00  3.8330E+00  4.6823E+00  4.7377E+00  6.0445E+00  5.0216E+00  5.5422E+00
 45  0.0000E+00  7.5192E+00  6.2155E+00  8.4700E+00  4.9639E+00  0.0000E+00  2.4772E+00  5.8940E+00  5.4012E+00

# AV, chi2 & Mass for <> & i_chain = 1 ...  7 solutions
AV       0.9412      0.9097      0.9186      0.9238      0.9162      0.9297      0.9268      0.9207      0.9110
chi2 1.5707E+00  1.6606E+00  1.6394E+00  1.6272E+00  1.6354E+00  1.6211E+00  1.6330E+00  1.6390E+00  1.6442E+00
Mass 2.4996E-10  2.5184E-10  2.4960E-10  2.5155E-10  2.5061E-10  2.3875E-10  2.4548E-10  2.4645E-10  2.5007E-10
  -5.54                                  [v0_min (km/s) before EX0s...]
  72.63                                  [vd_min (km/s) before EX0s...]


## Synthetic spectrum (Best Model) ##l_obs f_obs f_syn wei
 3070    [Nl_obs]
 3359.00    0.02616   0.46284   -1.000
 3360.00    0.21456   0.44147   -1.000
 3361.00    0.20597   0.43808   -1.000
 3362.00    0.22425   0.45489   -1.000
 3363.00    0.23515   0.48054   -1.000
 3364.00    0.25936   0.49978   -1.000
 3365.00    0.25957   0.50366   -1.000
 3366.00    0.25704   0.49250   -1.000
 3367.00    0.27021   0.47405   -1.000
 3368.00    0.24867   0.45826   -1.000
 3369.00    0.25567   0.44997   -1.000
 3370.00    0.25581   0.44687   -1.000
 3371.00    0.24639   0.44489   -1.000
 3372.00    0.24563   0.44544   -1.000
 3373.00    0.25990   0.45476   -1.000
 3374.00    0.27727   0.47555   -1.000
 3375.00    0.29155   0.50131   -1.000
 3376.00    0.31340   0.51685   -1.000
 3377.00    0.30943   0.51263   -1.000
 3378.00    0.30327   0.49447   -1.000
 3379.00    0.31913   0.47577   -1.000
 3380.00    0.31959   0.46795   -1.000
 3381.00    0.30042   0.47435   -1.000
 3382.00    0.30468   0.48961   -1.000
 3383.00    0.30853   0.50393   -1.000
 3384.00    0.30885   0.51345   -1.000
 3385.00    0.31109   0.52004   -1.000
 3386.00    0.33819   0.52314   -1.000
 3387.00    0.33640   0.52198   -1.000
 3388.00    0.34885   0.51943   -1.000
 3389.00    0.35001   0.51791   -1.000
 3390.00    0.35439   0.51592   -1.000
 3391.00    0.36749   0.51026   -1.000
 3392.00    0.35100   0.50156   -1.000
 3393.00    0.35933   0.49711   -1.000
 3394.00    0.36207   0.50336   -1.000
 3395.00    0.37195   0.51857   -1.000
 3396.00    0.38430   0.53621   -1.000
 3397.00    0.39506   0.55037   -1.000
 3398.00    0.41002   0.55639   -1.000
 3399.00    0.42502   0.55285   -1.000
 3400.00    0.43471   0.54366   -1.000
 3401.00    0.42709   0.53302   -1.000
 3402.00    0.43197   0.52242   -1.000
 3403.00    0.42120   0.51443   -1.000
 3404.00    0.40224   0.51016   -1.000
 3405.00    0.39405   0.50659   -1.000
 3406.00    0.40081   0.50100   -1.000
 3407.00    0.39842   0.49584   -1.000
 3408.00    0.39704   0.49552   -1.000
 3409.00    0.38638   0.50092   -1.000
 3410.00    0.39540   0.50772   -1.000
 3411.00    0.40409   0.50993   -1.000
 3412.00    0.41622   0.50619   -1.000
 3413.00    0.40926   0.50038   -1.000
 3414.00    0.40182   0.49757   -1.000
 3415.00    0.39409   0.50034   -1.000
 3416.00    0.39599   0.50875   -1.000
 3417.00    0.41328   0.52090   -1.000
 3418.00    0.42683   0.53475   -1.000
 3419.00    0.43662   0.54694   -1.000
 3420.00    0.44591   0.55269   -1.000
 3421.00    0.45543   0.55029   -1.000
 3422.00    0.43154   0.54323   -1.000
 3423.00    0.45089   0.53649   -1.000
 3424.00    0.45063   0.53339   -1.000
 3425.00    0.45395   0.53396   -1.000
 3426.00    0.46014   0.53770   -1.000
 3427.00    0.45968   0.54609   -1.000
 3428.00    0.47683   0.55897   -1.000
 3429.00    0.48111   0.56905   -1.000
 3430.00    0.48770   0.56886   -1.000
 3431.00    0.48895   0.55865   -1.000
 3432.00    0.46428   0.54554   -1.000
 3433.00    0.46436   0.53743   -1.000
 3434.00    0.47809   0.53733   -1.000
 3435.00    0.48767   0.54188   -1.000
 3436.00    0.49498   0.54390   -1.000
 3437.00    0.47747   0.53844   -1.000
 3438.00    0.45189   0.52371   -1.000
 3439.00    0.45175   0.50145   -1.000
 3440.00    0.43878   0.47689   -1.000
 3441.00    0.41681   0.45956   -1.000
 3442.00    0.41618   0.45586   -1.000
 3443.00    0.42484   0.46276   -1.000
 3444.00    0.42782   0.47372   -1.000
 3445.00    0.44618   0.48646   -1.000
 3446.00    0.47031   0.50275   -1.000
 3447.00    0.46811   0.52288   -1.000
 3448.00    0.47994   0.54202   -1.000
 3449.00    0.50097   0.55221   -1.000
 3450.00    0.50581   0.54898   -1.000
 3451.00    0.49148   0.53574   -1.000
 3452.00    0.47493   0.52085   -1.000
 3453.00    0.47721   0.51354   -1.000
 3454.00    0.47824   0.51635   -1.000
 3455.00    0.48729   0.52327   -1.000
 3456.00    0.50314   0.52548   -1.000
 3457.00    0.48699   0.51881   -1.000
 3458.00    0.48030   0.50759   -1.000
 3459.00    0.48843   0.49692   93.898
 3460.00    0.48371   0.48961   94.940
 3461.00    0.48716   0.49032  106.247
 3462.00    0.49173   0.50109   -1.000
 3463.00    0.49467   0.51439   -1.000
 3464.00    0.50733   0.52147   -1.000
 3465.00    0.51336   0.52217   -1.000
 3466.00    0.50542   0.52210   -1.000
 3467.00    0.49639   0.52623   -1.000
 3468.00    0.50161   0.53385   -1.000
 3469.00    0.51598   0.54112   -1.000
 3470.00    0.53028   0.54437   -1.000
 3471.00    0.53163   0.54088   -1.000
 3472.00    0.50493   0.52983   -1.000
 3473.00    0.50137   0.51288   -1.000
 3474.00    0.49261   0.49416  434.800
 3475.00    0.48730   0.48164   94.956
 3476.00    0.47170   0.48206   97.830
 3477.00    0.46940   0.49404  107.954
 3478.00    0.49953   0.51003   -1.000
 3479.00    0.51973   0.52326  760.885
 3480.00    0.53524   0.53024   -1.000
 3481.00    0.53484   0.53047   -1.000
 3482.00    0.53162   0.52557   -1.000
 3483.00    0.53492   0.51988   -1.000
 3484.00    0.53557   0.51969   -1.000
 3485.00    0.52320   0.52870   -1.000
 3486.00    0.53128   0.54207   -1.000
 3487.00    0.54859   0.54777  760.885
 3488.00    0.54348   0.53942   -1.000
 3489.00    0.51895   0.52230  760.885
 3490.00    0.51010   0.50828   -1.000
 3491.00    0.50155   0.50462  760.885
 3492.00    0.49787   0.50839   -1.000
 3493.00    0.50136   0.51188   -1.000
 3494.00    0.50350   0.50970   -1.000
 3495.00    0.50575   0.50345   -1.000
 3496.00    0.49487   0.50050  760.885
 3497.00    0.50136   0.50797   -1.000
 3498.00    0.52469   0.52356  760.885
 3499.00    0.53612   0.53578  760.885
 3500.00    0.54776   0.53997   -1.000
 3501.00    0.55892   0.54183   -1.000
 3502.00    0.54327   0.54550  730.599
 3503.00    0.54819   0.54860  728.605
 3504.00    0.55335   0.54617   -1.000
 3505.00    0.54100   0.53891  758.338
 3506.00    0.53104   0.53280  760.885
 3507.00    0.53073   0.53098  760.495
 3508.00    0.53254   0.53097  754.298
 3509.00    0.54475   0.52855   -1.000
 3510.00    0.53218   0.52283   -1.000
 3511.00    0.50748   0.51598   -1.000
 3512.00    0.51419   0.50857   -1.000
 3513.00    0.51668   0.50155   -1.000
 3514.00    0.50415   0.50178  760.885
 3515.00    0.50815   0.51390   -1.000
 3516.00    0.53272   0.53369  760.885
 3517.00    0.55426   0.55118  751.273
 3518.00    0.56040   0.55715  744.365
 3519.00    0.55637   0.54990   -1.000
 3520.00    0.54806   0.53448   -1.000
 3521.00    0.52731   0.51860   -1.000
 3522.00    0.51629   0.50526   -1.000
 3523.00    0.50128   0.49289   -1.000
 3524.00    0.48281   0.48295   94.119
 3525.00    0.46936   0.47994   97.018
 3526.00    0.47402   0.48773  108.756
 3527.00    0.50033   0.50554  760.885
 3528.00    0.53210   0.52604   -1.000
 3529.00    0.54341   0.54054  760.885
 3530.00    0.55017   0.54575   -1.000
 3531.00    0.54539   0.54519  760.885
 3532.00    0.53713   0.54528   -1.000
 3533.00    0.53671   0.54929   -1.000
 3534.00    0.54405   0.55514   -1.000
 3535.00    0.54612   0.55931   -1.000
 3536.00    0.56028   0.56161  749.900
 3537.00    0.55486   0.56522   -1.000
 3538.00    0.55720   0.57152   -1.000
 3539.00    0.56704   0.57667   -1.000
 3540.00    0.56086   0.57643   -1.000
 3541.00    0.55572   0.57341   -1.000
 3542.00    0.55620   0.57346   -1.000
 3543.00    0.55879   0.57733   -1.000
 3544.00    0.56678   0.58178   -1.000
 3545.00    0.56502   0.58296   -1.000
 3546.00    0.55961   0.58048   -1.000
 3547.00    0.56211   0.57735   -1.000
 3548.00    0.55841   0.57612   -1.000
 3549.00    0.56179   0.57724   -1.000
 3550.00    0.56346   0.57883   -1.000
 3551.00    0.54408   0.57763   -1.000
 3552.00    0.52883   0.57173   -1.000
 3553.00    0.52298   0.56375   -1.000
 3554.00    0.53638   0.55848   -1.000
 3555.00    0.54597   0.55843   -1.000
 3556.00    0.53433   0.56100   -1.000
 3557.00    0.54491   0.56116   -1.000
 3558.00    0.54981   0.55817   -1.000
 3559.00    0.53797   0.55624   -1.000
 3560.00    0.54340   0.56029   -1.000
 3561.00    0.54623   0.56989   -1.000
 3562.00    0.54244   0.57632   -1.000
 3563.00    0.54721   0.56789   -1.000
 3564.00    0.53291   0.54257   -1.000
 3565.00    0.50663   0.51604   95.140
 3566.00    0.48043   0.50298   98.401
 3567.00    0.49478   0.50130   97.291
 3568.00    0.49422   0.49929   97.247
 3569.00    0.48094   0.49011  100.424
 3570.00    0.48061   0.48041  101.587
 3571.00    0.48044   0.47973   98.163
 3572.00    0.48946   0.48751  106.610
 3573.00    0.49543   0.49685  760.885
 3574.00    0.50636   0.50276   -1.000
 3575.00    0.51767   0.50573   -1.000
 3576.00    0.52272   0.50790   -1.000
 3577.00    0.52382   0.50734   -1.000
 3578.00    0.52410   0.49968   -1.000
 3579.00    0.51016   0.48417   98.779
 3580.00    0.48378   0.46659  106.394
 3581.00    0.46171   0.45500  111.536
 3582.00    0.45652   0.45319  112.169
 3583.00    0.46351   0.45624  112.934
 3584.00    0.46293   0.45492  115.934
 3585.00    0.44592   0.44819  119.496
 3586.00    0.43488   0.44342  120.100
 3587.00    0.45264   0.44688  113.896
 3588.00    0.45873   0.45989  107.895
 3589.00    0.47798   0.47951  102.053
 3590.00    0.48870   0.50106  106.314
 3591.00    0.51605   0.51832  760.885
 3592.00    0.53612   0.52725   -1.000
 3593.00    0.54033   0.53032   -1.000
 3594.00    0.54095   0.53466   -1.000
 3595.00    0.55961   0.54463   -1.000
 3596.00    0.56060   0.55725  752.531
 3597.00    0.55821   0.56834   -1.000
 3598.00    0.57755   0.57639  712.830
 3599.00    0.58946   0.57939   -1.000
 3600.00    0.58827   0.57459   -1.000
 3601.00    0.57794   0.56126   -1.000
 3602.00    0.56507   0.54315   -1.000
 3603.00    0.55090   0.52703   -1.000
 3604.00    0.54698   0.51868   -1.000
 3605.00    0.54350   0.51810   -1.000
 3606.00    0.53517   0.51893   -1.000
 3607.00    0.53019   0.51525   -1.000
 3608.00    0.51971   0.50770   -1.000
 3609.00    0.51342   0.50373   -1.000
 3610.00    0.51901   0.50889   -1.000
 3611.00    0.51361   0.51861  760.885
 3612.00    0.52426   0.52689  760.885
 3613.00    0.52719   0.53415   -1.000
 3614.00    0.54249   0.54262  760.885
 3615.00    0.54776   0.54918  760.885
 3616.00    0.55697   0.54396   -1.000
 3617.00    0.54748   0.52392   -1.000
 3618.00    0.50531   0.50415  425.706
 3619.00    0.48871   0.50070  105.523
 3620.00    0.51198   0.51453  760.885
 3621.00    0.54090   0.53549   -1.000
 3622.00    0.56309   0.55346   -1.000
 3623.00    0.58019   0.56545   -1.000
 3624.00    0.56938   0.57654   -1.000
 3625.00    0.57431   0.59188   -1.000
 3626.00    0.59975   0.60895   -1.000
 3627.00    0.59899   0.61954   -1.000
 3628.00    0.59253   0.61327   -1.000
 3629.00    0.57031   0.58673   -1.000
 3630.00    0.55648   0.55193   -1.000
 3631.00    0.52375   0.52700  760.885
 3632.00    0.51185   0.52164   -1.000
 3633.00    0.52113   0.53098   -1.000
 3634.00    0.52614   0.54300   -1.000
 3635.00    0.53743   0.55010   -1.000
 3636.00    0.54840   0.55483   -1.000
 3637.00    0.56274   0.56435  729.058
 3638.00    0.56455   0.57938   -1.000
 3639.00    0.58172   0.59348   -1.000
 3640.00    0.57042   0.59833   -1.000
 3641.00    0.56996   0.59097   -1.000
 3642.00    0.57493   0.57549  722.720
 3643.00    0.56310   0.55919  760.031
 3644.00    0.54839   0.54782  760.885
 3645.00    0.54191   0.54118  760.885
 3646.00    0.53312   0.53567  760.885
 3647.00    0.53845   0.53156   -1.000
 3648.00    0.54299   0.53188   -1.000
 3649.00    0.54399   0.53825   -1.000
 3650.00    0.54966   0.55054  759.274
 3651.00    0.56685   0.56675  723.000
 3652.00    0.58253   0.58284  694.426
 3653.00    0.59795   0.59530  678.541
 3654.00    0.60749   0.60280  670.173
 3655.00    0.59781   0.60780   -1.000
 3656.00    0.61433   0.61410  659.558
 3657.00    0.61289   0.62109   -1.000
 3658.00    0.60131   0.62584   -1.000
 3659.00    0.59832   0.62693   -1.000
 3660.00    0.60936   0.62395   -1.000
 3661.00    0.61014   0.61731   -1.000
 3662.00    0.60598   0.60881   -1.000
 3663.00    0.59858   0.60141   -1.000
 3664.00    0.60254   0.59790  672.763
 3665.00    0.59500   0.59797   -1.000
 3666.00    0.60035   0.59798  667.883
 3667.00    0.60169   0.59401   -1.000
 3668.00    0.59226   0.58673   -1.000
 3669.00    0.58674   0.58312  704.442
 3670.00    0.58694   0.58834  696.431
 3671.00    0.58791   0.59977   -1.000
 3672.00    0.60015   0.60988   -1.000
 3673.00    0.61026   0.61315   -1.000
 3674.00    0.60617   0.60902   -1.000
 3675.00    0.61810   0.59885   -1.000
 3676.00    0.60831   0.58534   -1.000
 3677.00    0.59301   0.57208   -1.000
 3678.00    0.58093   0.56200   -1.000
 3679.00    0.57138   0.55735   -1.000
 3680.00    0.56827   0.55836   -1.000
 3681.00    0.57997   0.56383   -1.000
 3682.00    0.59594   0.57105   -1.000
 3683.00    0.60198   0.57511   -1.000
 3684.00    0.58140   0.57061   -1.000
 3685.00    0.57016   0.55684   -1.000
 3686.00    0.56555   0.54244   -1.000
 3687.00    0.55549   0.53856   -1.000
 3688.00    0.57055   0.54954   -1.000
 3689.00    0.58681   0.57048   -1.000
 3690.00    0.60730   0.59133   -1.000
 3691.00    0.61616   0.60318   -1.000
 3692.00    0.61881   0.60532   -1.000
 3693.00    0.61756   0.60326   -1.000
 3694.00    0.61780   0.60005   -1.000
 3695.00    0.60548   0.59612   -1.000
 3696.00    0.60339   0.59441   -1.000
 3697.00    0.60855   0.60082   -1.000
 3698.00    0.62843   0.61714   -1.000
 3699.00    0.64516   0.63609   -1.000
 3700.00    0.65867   0.64520   -1.000
 3701.00    0.65187   0.63434   -1.000
 3702.00    0.62552   0.60278   -1.000
 3703.00    0.59020   0.56213   -1.000
 3704.00    0.56080   0.52886   -1.000
 3705.00    0.53900   0.51497   -1.000
 3706.00    0.54278   0.51994   -1.000
 3707.00    0.56007   0.53322   -1.000
 3708.00    0.56627   0.54471   -1.000
 3709.00    0.57410   0.54984   -1.000
 3710.00    0.58533   0.55185   -1.000
 3711.00    0.59039   0.55960   -1.000
 3712.00    0.59977   0.57899   -1.000
 3713.00    0.62683   0.60690   -1.000
 3714.00    0.64884   0.63435   -1.000
 3715.00    0.66366   0.65212   -1.000
 3716.00    0.67691   0.65447   -1.000
 3717.00    0.67810   0.63885   -1.000
 3718.00    0.63376   0.60269   -1.000
 3719.00    0.58642   0.55005   -1.000
 3720.00    0.52800   0.50061   -1.000
 3721.00    0.51017   0.47594   -1.000
 3722.00    0.51188   0.48450   -1.000
 3723.00    0.54221   0.52132   -1.000
 3724.00    0.59658   0.56960   -1.000
 3725.00    0.63611   0.60757   -1.000
 3726.00    0.64872   0.62655   -1.000
 3727.00    0.65259   0.63504   -1.000
 3728.00    0.64597   0.64104   -1.000
 3729.00    0.64274   0.64162  699.041
 3730.00    0.64570   0.62658   -1.000
 3731.00    0.62888   0.58895   -1.000
 3732.00    0.57926   0.53509   -1.000
 3733.00    0.50211   0.48080   94.764
 3734.00    0.45890   0.44271  105.249
 3735.00    0.45243   0.43375  107.815
 3736.00    0.46654   0.45678  101.632
 3737.00    0.51711   0.50441  105.966
 3738.00    0.57962   0.56453   -1.000
 3739.00    0.62010   0.62086  735.478
 3740.00    0.64753   0.65840   -1.000
 3741.00    0.66865   0.67188  699.280
 3742.00    0.66965   0.66405   -1.000
 3743.00    0.65007   0.64164   -1.000
 3744.00    0.62028   0.61303   -1.000
 3745.00    0.58789   0.58237   -1.000
 3746.00    0.56406   0.54819   -1.000
 3747.00    0.53089   0.50852   95.497
 3748.00    0.49941   0.46839   -1.000
 3749.00    0.46647   0.44524  115.862
 3750.00    0.47587   0.45471   -1.000
 3751.00    0.52836   0.49540   -1.000
 3752.00    0.57930   0.55348   -1.000
 3753.00    0.63786   0.61333   -1.000
 3754.00    0.68169   0.66074   -1.000
 3755.00    0.71015   0.68540   -1.000
 3756.00    0.70390   0.68384   -1.000
 3757.00    0.67130   0.66380   -1.000
 3758.00    0.64604   0.64278  760.885
 3759.00    0.64034   0.63508  760.885
 3760.00    0.65250   0.64130   -1.000
 3761.00    0.67519   0.65240   -1.000
 3762.00    0.69038   0.66088   -1.000
 3763.00    0.69144   0.66342   -1.000
 3764.00    0.68691   0.65750   -1.000
 3765.00    0.66896   0.64151   -1.000
 3766.00    0.65177   0.61766   -1.000
 3767.00    0.62147   0.58947   -1.000
 3768.00    0.60556   0.55959   -1.000
 3769.00    0.57935   0.53279   -1.000
 3770.00    0.56172   0.51831   -1.000
 3771.00    0.57735   0.52696   -1.000
 3772.00    0.61375   0.55880   -1.000
 3773.00    0.64634   0.59883   -1.000
 3774.00    0.66955   0.63373   -1.000
 3775.00    0.69325   0.66222   -1.000
 3776.00    0.72192   0.68814   -1.000
 3777.00    0.73112   0.71473   -1.000
 3778.00    0.74589   0.74154  631.144
 3779.00    0.76943   0.76571  610.539
 3780.00    0.78379   0.78479   -1.000
 3781.00    0.79718   0.79753  594.062
 3782.00    0.79782   0.80452   -1.000
 3783.00    0.79379   0.80484   -1.000
 3784.00    0.79239   0.79503   -1.000
 3785.00    0.78085   0.77400  644.539
 3786.00    0.76049   0.74748   -1.000
 3787.00    0.73356   0.72413   -1.000
 3788.00    0.72482   0.70886   -1.000
 3789.00    0.72267   0.70077   -1.000
 3790.00    0.70492   0.69539   -1.000
 3791.00    0.69528   0.68578   -1.000
 3792.00    0.68856   0.66575   -1.000
 3793.00    0.66519   0.63460   -1.000
 3794.00    0.62779   0.59559   -1.000
 3795.00    0.59279   0.55342   -1.000
 3796.00    0.55683   0.51172   -1.000
 3797.00    0.51600   0.47752   -1.000
 3798.00    0.49800   0.46732   -1.000
 3799.00    0.52169   0.49238   -1.000
 3800.00    0.57612   0.54486   -1.000
 3801.00    0.63669   0.60713   -1.000
 3802.00    0.68328   0.66253   -1.000
 3803.00    0.71583   0.70170   -1.000
 3804.00    0.73522   0.72366   -1.000
 3805.00    0.74809   0.73121   -1.000
 3806.00    0.74219   0.73305   -1.000
 3807.00    0.73481   0.74157   -1.000
 3808.00    0.75384   0.76114   -1.000
 3809.00    0.77374   0.78488   -1.000
 3810.00    0.78424   0.80069   -1.000
 3811.00    0.78590   0.79899   -1.000
 3812.00    0.77910   0.77921  710.027
 3813.00    0.74627   0.74985  754.205
 3814.00    0.72598   0.72422  760.885
 3815.00    0.72146   0.71346   -1.000
 3816.00    0.71678   0.71705  760.885
 3817.00    0.72358   0.72224  760.885
 3818.00    0.73813   0.71644   -1.000
 3819.00    0.72106   0.69892   -1.000
 3820.00    0.69108   0.68277   -1.000
 3821.00    0.69017   0.68013   -1.000
 3822.00    0.70156   0.68483   -1.000
 3823.00    0.71035   0.68090   -1.000
 3824.00    0.68178   0.66284   -1.000
 3825.00    0.65146   0.63909   98.199
 3826.00    0.63503   0.61999   99.866
 3827.00    0.62755   0.60807   98.837
 3828.00    0.61809   0.59882   97.218
 3829.00    0.60788   0.58599   96.011
 3830.00    0.59887   0.56482   -1.000
 3831.00    0.56712   0.53333   -1.000
 3832.00    0.53151   0.49378   -1.000
 3833.00    0.49581   0.45304   -1.000
 3834.00    0.46019   0.42308   -1.000
 3835.00    0.45579   0.41279   -1.000
 3836.00    0.47528   0.42096   -1.000
 3837.00    0.48920   0.44083   -1.000
 3838.00    0.50563   0.46735   -1.000
 3839.00    0.52574   0.50107  105.935
 3840.00    0.57184   0.54473   -1.000
 3841.00    0.62350   0.59536   -1.000
 3842.00    0.66589   0.64549   -1.000
 3843.00    0.70104   0.68740   -1.000
 3844.00    0.72413   0.71679   -1.000
 3845.00    0.73069   0.73707   -1.000
 3846.00    0.74229   0.75336   -1.000
 3847.00    0.75414   0.76547   -1.000
 3848.00    0.75590   0.77021   -1.000
 3849.00    0.75030   0.76980   -1.000
 3850.00    0.74587   0.77110   -1.000
 3851.00    0.75026   0.77792   -1.000
 3852.00    0.76325   0.78662   -1.000
 3853.00    0.77522   0.78902   -1.000
 3854.00    0.76906   0.78199   -1.000
 3855.00    0.75110   0.77006   -1.000
 3856.00    0.74282   0.75739   -1.000
 3857.00    0.72984   0.74444   -1.000
 3858.00    0.71821   0.73243   93.501
 3859.00    0.69733   0.72711   98.315
 3860.00    0.70159   0.73493   -1.000
 3861.00    0.73428   0.75408   -1.000
 3862.00    0.76244   0.77476   -1.000
 3863.00    0.78026   0.78679   -1.000
 3864.00    0.80026   0.78921   -1.000
 3865.00    0.79978   0.78768   -1.000
 3866.00    0.78367   0.78657   -1.000
 3867.00    0.78444   0.78695  760.885
 3868.00    0.77899   0.78550   -1.000
 3869.00    0.75936   0.77661   -1.000
 3870.00    0.73975   0.75865   -1.000
 3871.00    0.70851   0.73719   -1.000
 3872.00    0.70337   0.72371   -1.000
 3873.00    0.72757   0.72718  760.885
 3874.00    0.74932   0.74443   -1.000
 3875.00    0.76537   0.75784   -1.000
 3876.00    0.75729   0.75285  754.303
 3877.00    0.72426   0.73323   -1.000
 3878.00    0.69503   0.71384   -1.000
 3879.00    0.69056   0.70363   -1.000
 3880.00    0.68606   0.69892   -1.000
 3881.00    0.67837   0.69140   -1.000
 3882.00    0.66204   0.67815   -1.000
 3883.00    0.66222   0.65977  760.885
 3884.00    0.65876   0.63324   -1.000
 3885.00    0.64065   0.59410   -1.000
 3886.00    0.60447   0.54525   -1.000
 3887.00    0.56621   0.50121   -1.000
 3888.00    0.53718   0.47760   -1.000
 3889.00    0.53556   0.48348   -1.000
 3890.00    0.57935   0.51783   -1.000
 3891.00    0.64501   0.56763   -1.000
 3892.00    0.68192   0.61332   -1.000
 3893.00    0.69880   0.64482   -1.000
 3894.00    0.71180   0.66680   -1.000
 3895.00    0.72337   0.68804   -1.000
 3896.00    0.76578   0.71117   -1.000
 3897.00    0.77138   0.73064   -1.000
 3898.00    0.76834   0.74267   -1.000
 3899.00    0.78872   0.75126   -1.000
 3900.00    0.78893   0.76187   -1.000
 3901.00    0.80096   0.77356   -1.000
 3902.00    0.82245   0.78018   -1.000
 3903.00    0.80332   0.77796   -1.000
 3904.00    0.79487   0.77107   -1.000
 3905.00    0.78761   0.76862   -1.000
 3906.00    0.78329   0.77753   -1.000
 3907.00    0.80547   0.79906   -1.000
 3908.00    0.82927   0.82654  590.607
 3909.00    0.85160   0.84899  578.407
 3910.00    0.88396   0.86212   -1.000
 3911.00    0.88658   0.86761   -1.000
 3912.00    0.88156   0.86668   -1.000
 3913.00    0.87648   0.86088   -1.000
 3914.00    0.85528   0.85345  586.303
 3915.00    0.84698   0.84688  599.265
 3916.00    0.84368   0.84140  606.765
 3917.00    0.85130   0.83456   -1.000
 3918.00    0.83873   0.82396   -1.000
 3919.00    0.81426   0.81076   -1.000
 3920.00    0.80378   0.79935   -1.000
 3921.00    0.80406   0.79474   -1.000
 3922.00    0.79399   0.79745  697.093
 3923.00    0.79424   0.80167   -1.000
 3924.00    0.79596   0.79909  696.600
 3925.00    0.78604   0.78460   -1.000
 3926.00    0.75048   0.75777  760.885
 3927.00    0.71042   0.72092  430.482
 3928.00    0.65075   0.67862  105.872
 3929.00    0.60204   0.63360  124.120
 3930.00    0.54762   0.58488   -1.000
 3931.00    0.47763   0.53387   -1.000
 3932.00    0.40442   0.48730   -1.000
 3933.00    0.35931   0.45955   -1.000
 3934.00    0.36615   0.46340   -1.000
 3935.00    0.41654   0.49796   -1.000
 3936.00    0.48781   0.55106   -1.000
 3937.00    0.55554   0.60964   -1.000
 3938.00    0.61777   0.66337   -1.000
 3939.00    0.66411   0.70749   -1.000
 3940.00    0.70788   0.73978   -1.000
 3941.00    0.73559   0.75834   -1.000
 3942.00    0.74157   0.76550   -1.000
 3943.00    0.74934   0.76742   -1.000
 3944.00    0.75832   0.77197   -1.000
 3945.00    0.78990   0.78319   -1.000
 3946.00    0.81847   0.79656   -1.000
 3947.00    0.82300   0.80603   -1.000
 3948.00    0.81563   0.81210   -1.000
 3949.00    0.82129   0.81778  607.160
 3950.00    0.84045   0.82186   -1.000
 3951.00    0.84482   0.82265   -1.000
 3952.00    0.84315   0.82303   -1.000
 3953.00    0.85155   0.82564   -1.000
 3954.00    0.86419   0.82676   -1.000
 3955.00    0.85465   0.82058   -1.000
 3956.00    0.82092   0.80921   -1.000
 3957.00    0.80611   0.79979  612.841
 3958.00    0.81902   0.79151   -1.000
 3959.00    0.82222   0.77437   -1.000
 3960.00    0.78030   0.74175   -1.000
 3961.00    0.71923   0.69875   -1.000
 3962.00    0.67928   0.65682   -1.000
 3963.00    0.64034   0.61868   -1.000
 3964.00    0.59554   0.57581   99.640
 3965.00    0.52741   0.51920  117.766
 3966.00    0.44061   0.44895  145.311
 3967.00    0.35530   0.38120   -1.000
 3968.00    0.29619   0.33560   -1.000
 3969.00    0.28697   0.32334   -1.000
 3970.00    0.33116   0.34621  141.102
 3971.00    0.40134   0.39662  116.268
 3972.00    0.47266   0.46119  114.483
 3973.00    0.55096   0.52973   -1.000
 3974.00    0.62771   0.59547   -1.000
 3975.00    0.68676   0.65399   -1.000
 3976.00    0.73789   0.70462   -1.000
 3977.00    0.77112   0.74815   -1.000
 3978.00    0.80833   0.78627   -1.000
 3979.00    0.83973   0.81633   -1.000
 3980.00    0.85789   0.83411   -1.000
 3981.00    0.86948   0.84081   -1.000
 3982.00    0.87849   0.84379   -1.000
 3983.00    0.87961   0.85079   -1.000
 3984.00    0.88361   0.86288   -1.000
 3985.00    0.89832   0.87605   -1.000
 3986.00    0.90671   0.88814   -1.000
 3987.00    0.91393   0.89952   -1.000
 3988.00    0.92345   0.91005   -1.000
 3989.00    0.93662   0.91898   -1.000
 3990.00    0.93723   0.92717   -1.000
 3991.00    0.95094   0.93624   -1.000
 3992.00    0.96249   0.94475   -1.000
 3993.00    0.96308   0.94790   -1.000
 3994.00    0.94939   0.94272  489.090
 3995.00    0.94315   0.93147   -1.000
 3996.00    0.93360   0.92060   -1.000
 3997.00    0.91525   0.91695  510.585
 3998.00    0.91021   0.92299   -1.000
 3999.00    0.94169   0.93584  474.493
 4000.00    0.95731   0.95063  459.835
 4001.00    0.97854   0.96116   -1.000
 4002.00    0.99462   0.96167   -1.000
 4003.00    0.99762   0.94944   -1.000
 4004.00    0.96602   0.92814   -1.000
 4005.00    0.92581   0.90980   -1.000
 4006.00    0.92579   0.90869   -1.000
 4007.00    0.95161   0.92557   -1.000
 4008.00    0.97355   0.94826   -1.000
 4009.00    0.98841   0.96568   -1.000
 4010.00    0.98855   0.97475   -1.000
 4011.00    0.99430   0.97813   -1.000
 4012.00    0.98963   0.97969   -1.000
 4013.00    0.99268   0.98182   -1.000
 4014.00    1.00844   0.98440   -1.000
 4015.00    1.00446   0.98615   -1.000
 4016.00    0.99438   0.98708  448.571
 4017.00    0.99423   0.98907  453.039
 4018.00    0.99979   0.99379  449.906
 4019.00    1.00376   0.99948  443.964
 4020.00    1.00267   1.00272  446.068
 4021.00    0.98630   1.00124   -1.000
 4022.00    0.99395   0.99544  454.812
 4023.00    1.00343   0.98718   -1.000
 4024.00    0.99084   0.98051   -1.000
 4025.00    0.98701   0.98134  446.618
 4026.00    1.00094   0.99083  431.540
 4027.00    1.01657   1.00097   -1.000
 4028.00    1.01654   0.99980   -1.000
 4029.00    1.01478   0.98390   -1.000
 4030.00    0.97418   0.96087   -1.000
 4031.00    0.94677   0.94142   -1.000
 4032.00    0.94176   0.93319   -1.000
 4033.00    0.94816   0.93749   -1.000
 4034.00    0.96977   0.95242   -1.000
 4035.00    0.98229   0.97539  452.416
 4036.00    1.01405   1.00326   -1.000
 4037.00    1.03279   1.02820  418.086
 4038.00    1.04574   1.04005  418.410
 4039.00    1.02943   1.03695   -1.000
 4040.00    1.02236   1.02754   -1.000
 4041.00    1.01902   1.01796  441.488
 4042.00    1.01293   1.00397   -1.000
 4043.00    0.99807   0.97732   -1.000
 4044.00    0.95635   0.94127   -1.000
 4045.00    0.90765   0.91673   -1.000
 4046.00    0.91696   0.92008   -1.000
 4047.00    0.95773   0.94808   -1.000
 4048.00    1.00513   0.98414   -1.000
 4049.00    1.03368   1.01192   -1.000
 4050.00    1.03280   1.02467  429.682
 4051.00    1.02448   1.02370  434.186
 4052.00    1.01748   1.01343  446.351
 4053.00    1.01755   1.00013   -1.000
 4054.00    1.00142   0.99040   -1.000
 4055.00    0.99939   0.98504   -1.000
 4056.00    1.00000   0.98139   -1.000
 4057.00    0.98992   0.98067   -1.000
 4058.00    0.99426   0.98616   -1.000
 4059.00    1.01521   0.99592   -1.000
 4060.00    1.02852   0.99937   -1.000
 4061.00    1.01790   0.98647   -1.000
 4062.00    0.98675   0.96031   -1.000
 4063.00    0.94245   0.93429  517.441
 4064.00    0.94444   0.92133   -1.000
 4065.00    0.96536   0.92377   -1.000
 4066.00    0.98286   0.93603   -1.000
 4067.00    0.98835   0.95199   -1.000
 4068.00    1.00907   0.96560   -1.000
 4069.00    1.02139   0.96844   -1.000
 4070.00    1.00322   0.95724   -1.000
 4071.00    0.98975   0.94171   -1.000
 4072.00    0.97013   0.93567   -1.000
 4073.00    0.98061   0.94050   -1.000
 4074.00    1.00048   0.94266   -1.000
 4075.00    0.98176   0.93120   -1.000
 4076.00    0.94955   0.91091   -1.000
 4077.00    0.92496   0.89675   -1.000
 4078.00    0.92096   0.90097   -1.000
 4079.00    0.95252   0.92352   -1.000
 4080.00    0.98002   0.95207   -1.000
 4081.00    1.00488   0.96965   -1.000
 4082.00    0.99705   0.96911   -1.000
 4083.00    0.98618   0.95707   -1.000
 4084.00    0.96937   0.94695   -1.000
 4085.00    0.96080   0.94836   -1.000
 4086.00    0.98020   0.96117   -1.000
 4087.00    1.01216   0.97762   -1.000
 4088.00    1.03061   0.98765   -1.000
 4089.00    1.02736   0.98593   -1.000
 4090.00    1.01225   0.97461   -1.000
 4091.00    0.98937   0.96025   -1.000
 4092.00    0.97347   0.94625   -1.000
 4093.00    0.97609   0.93027   -1.000
 4094.00    0.95846   0.90825   -1.000
 4095.00    0.93697   0.87897   -1.000
 4096.00    0.91529   0.84551   -1.000
 4097.00    0.88838   0.80917   -1.000
 4098.00    0.85047   0.76648   -1.000
 4099.00    0.80233   0.71380   -1.000
 4100.00    0.72093   0.65810   -1.000
 4101.00    0.65880   0.62050   -1.000
 4102.00    0.66146   0.62023   -1.000
 4103.00    0.71616   0.65902   -1.000
 4104.00    0.79806   0.71997   -1.000
 4105.00    0.84575   0.77897   -1.000
 4106.00    0.88732   0.82313   -1.000
 4107.00    0.91570   0.85290   -1.000
 4108.00    0.91210   0.87192   -1.000
 4109.00    0.92234   0.88529   -1.000
 4110.00    0.93314   0.89829   -1.000
 4111.00    0.94095   0.91326   -1.000
 4112.00    0.95727   0.92998   -1.000
 4113.00    0.97108   0.94772   -1.000
 4114.00    0.98758   0.96519   -1.000
 4115.00    1.00371   0.97818   -1.000
 4116.00    1.00268   0.98272   -1.000
 4117.00    0.99413   0.97883   -1.000
 4118.00    0.98418   0.97123   -1.000
 4119.00    0.98171   0.96603   -1.000
 4120.00    0.99734   0.96646   -1.000
 4121.00    0.99122   0.97087   -1.000
 4122.00    0.99105   0.97654   -1.000
 4123.00    0.99365   0.98345   -1.000
 4124.00    1.00048   0.99121   -1.000
 4125.00    1.00735   0.99559   -1.000
 4126.00    1.00825   0.99246   -1.000
 4127.00    0.99578   0.98413   -1.000
 4128.00    0.98126   0.97670  467.646
 4129.00    0.97602   0.97182  470.497
 4130.00    0.96920   0.96485  477.914
 4131.00    0.96826   0.95347   -1.000
 4132.00    0.95485   0.94381   -1.000
 4133.00    0.94686   0.94504  504.840
 4134.00    0.95203   0.96047   -1.000
 4135.00    0.98066   0.98491  462.663
 4136.00    1.02175   1.01026   -1.000
 4137.00    1.03317   1.03035  442.042
 4138.00    1.03489   1.04327   -1.000
 4139.00    1.05043   1.04637  435.991
 4140.00    1.04604   1.03501   -1.000
 4141.00    1.02578   1.00920   -1.000
 4142.00    0.97979   0.97820  512.266
 4143.00    0.95701   0.95661  531.560
 4144.00    0.94915   0.95660   -1.000
 4145.00    0.97069   0.97560   -1.000
 4146.00    1.00244   0.99784  463.867
 4147.00    1.00339   1.01026   -1.000
 4148.00    0.99605   1.01203   -1.000
 4149.00    0.98703   1.01101   -1.000
 4150.00    0.97793   1.01229   -1.000
 4151.00    0.99308   1.01324   -1.000
 4152.00    0.99806   1.00924   -1.000
 4153.00    0.98557   1.00041   -1.000
 4154.00    0.98355   0.99264   -1.000
 4155.00    0.98375   0.99192   -1.000
 4156.00    0.98219   0.99914   -1.000
 4157.00    1.05057   1.01120   -1.000
 4158.00    1.12665   1.02451   -1.000
 4159.00    1.01076   1.03575   -1.000
 4160.00    0.92932   1.04338   -1.000
 4161.00    0.99506   1.04877   -1.000
 4162.00    1.04052   1.05389   -1.000
 4163.00    1.02733   1.05823   -1.000
 4164.00    1.02729   1.05879   -1.000
 4165.00    1.02772   1.05302   -1.000
 4166.00    1.00932   1.04254   -1.000
 4167.00    0.99476   1.03281   -1.000
 4168.00    0.99818   1.02725   -1.000
 4169.00    1.00662   1.02104   -1.000
 4170.00    0.99512   1.00602   -1.000
 4171.00    0.97019   0.98203   -1.000
 4172.00    0.93307   0.95970   -1.000
 4173.00    0.92843   0.95280   -1.000
 4174.00    0.94279   0.96362   -1.000
 4175.00    0.95202   0.98079   -1.000
 4176.00    0.95734   0.99244   -1.000
 4177.00    0.96244   0.99819   -1.000
 4178.00    0.96196   1.00450   -1.000
 4179.00    0.98047   1.01273   -1.000
 4180.00    0.99229   1.01749   -1.000
 4181.00    0.98519   1.01628   -1.000
 4182.00    0.98289   1.01418   -1.000
 4183.00    0.98967   1.01681   -1.000
 4184.00    1.00569   1.02160   -1.000
 4185.00    1.00441   1.02085   -1.000
 4186.00    0.98538   1.01274   -1.000
 4187.00    0.96279   1.00364   -1.000
 4188.00    0.96720   1.00075   -1.000
 4189.00    0.98890   1.00497   -1.000
 4190.00    0.99408   1.01290   -1.000
 4191.00    0.99837   1.02265   -1.000
 4192.00    1.00705   1.03247   -1.000
 4193.00    1.01371   1.03720   -1.000
 4194.00    1.01191   1.03155   -1.000
 4195.00    1.00227   1.01533   -1.000
 4196.00    0.97484   0.99405   -1.000
 4197.00    0.94836   0.97494   -1.000
 4198.00    0.94561   0.96199   -1.000
 4199.00    0.93944   0.95609   -1.000
 4200.00    0.94885   0.95640   -1.000
 4201.00    0.95783   0.96076  498.340
 4202.00    0.96919   0.96814  494.294
 4203.00    0.97239   0.97965   -1.000
 4204.00    0.97272   0.99539   -1.000
 4205.00    0.98461   1.01312   -1.000
 4206.00    0.99823   1.02983   -1.000
 4207.00    1.00985   1.04187   -1.000
 4208.00    1.01293   1.04691   -1.000
 4209.00    1.01293   1.04678   -1.000
 4210.00    1.01145   1.04667   -1.000
 4211.00    1.01239   1.04944   -1.000
 4212.00    1.00988   1.05065   -1.000
 4213.00    1.00891   1.04281   -1.000
 4214.00    0.99653   1.02564   -1.000
 4215.00    0.96363   1.00859   -1.000
 4216.00    0.96311   1.00284   -1.000
 4217.00    0.99461   1.01300   -1.000
 4218.00    1.02734   1.03285  431.150
 4219.00    1.03841   1.05033   -1.000
 4220.00    1.04447   1.05738   -1.000
 4221.00    1.04221   1.05031   -1.000
 4222.00    1.02500   1.02681  443.809
 4223.00    0.98798   0.98743  477.541
 4224.00    0.96701   0.93922   -1.000
 4225.00    0.90030   0.89569  596.045
 4226.00    0.85171   0.87479   -1.000
 4227.00    0.85902   0.88899   -1.000
 4228.00    0.91601   0.93212   -1.000
 4229.00    0.97916   0.97943  455.489
 4230.00    1.01638   1.00976  435.772
 4231.00    1.02431   1.01756  435.178
 4232.00    1.01593   1.01019  445.824
 4233.00    1.00069   0.99865  456.490
 4234.00    1.00666   0.98978   -1.000
 4235.00    0.99021   0.98485  472.464
 4236.00    0.97619   0.98368   -1.000
 4237.00    0.96805   0.98756   -1.000
 4238.00    0.98065   0.99722   -1.000
 4239.00    0.99341   1.00987   -1.000
 4240.00    1.00539   1.02162   -1.000
 4241.00    1.01254   1.03048   -1.000
 4242.00    1.02434   1.03781   -1.000
 4243.00    1.02716   1.04495   -1.000
 4244.00    1.03234   1.04905   -1.000
 4245.00    1.03520   1.04414  431.993
 4246.00    1.00991   1.02813   -1.000
 4247.00    0.98648   1.00758   -1.000
 4248.00    0.97252   0.99242   -1.000
 4249.00    0.96854   0.98803   -1.000
 4250.00    0.95884   0.99335   -1.000
 4251.00    0.97369   1.00245   -1.000
 4252.00    0.99957   1.00782   -1.000
 4253.00    0.99987   1.00474  459.059
 4254.00    0.98581   0.99890   -1.000
 4255.00    0.98878   1.00060   -1.000
 4256.00    1.01231   1.00919  443.864
 4257.00    1.02719   1.01265   -1.000
 4258.00    1.00578   1.00220  463.365
 4259.00    0.98454   0.98423  487.373
 4260.00    0.96163   0.97546   -1.000
 4261.00    0.96796   0.98663   -1.000
 4262.00    0.99610   1.01345   -1.000
 4263.00    1.02177   1.04155   -1.000
 4264.00    1.04260   1.05986   -1.000
 4265.00    1.04358   1.06504   -1.000
 4266.00    1.04011   1.05948   -1.000
 4267.00    1.03055   1.04583   -1.000
 4268.00    1.01320   1.02456   -1.000
 4269.00    0.98972   0.99638  473.255
 4270.00    0.96222   0.96568  504.965
 4271.00    0.92515   0.94000   -1.000
 4272.00    0.91342   0.92732   -1.000
 4273.00    0.92511   0.93002  520.522
 4274.00    0.93208   0.94493   -1.000
 4275.00    0.95284   0.96935   -1.000
 4276.00    0.98523   0.99948   -1.000
 4277.00    1.01741   1.02486  433.264
 4278.00    1.02007   1.03500   -1.000
 4279.00    1.00497   1.02960   -1.000
 4280.00    0.98187   1.01894   -1.000
 4281.00    0.98197   1.01279   -1.000
 4282.00    0.99348   1.01234   -1.000
 4283.00    0.98929   1.01127   -1.000
 4284.00    0.98596   1.00540   -1.000
 4285.00    0.97251   0.99548   -1.000
 4286.00    0.95565   0.98239   -1.000
 4287.00    0.94164   0.96565   -1.000
 4288.00    0.91772   0.94479   -1.000
 4289.00    0.89218   0.92575   -1.000
 4290.00    0.89535   0.92034   -1.000
 4291.00    0.91544   0.93264   -1.000
 4292.00    0.94523   0.95255  481.490
 4293.00    0.96572   0.96576  475.511
 4294.00    0.96669   0.96553  481.079
 4295.00    0.96082   0.95443   -1.000
 4296.00    0.94499   0.93596   -1.000
 4297.00    0.91610   0.91041   -1.000
 4298.00    0.87127   0.87925  578.678
 4299.00    0.83404   0.85049   -1.000
 4300.00    0.82311   0.83265   -1.000
 4301.00    0.82684   0.82842  599.386
 4302.00    0.83144   0.83470  590.702
 4303.00    0.84204   0.84680  582.012
 4304.00    0.85916   0.85827   -1.000
 4305.00    0.86753   0.86080   -1.000
 4306.00    0.84883   0.85054  605.294
 4307.00    0.82559   0.83360   -1.000
 4308.00    0.81257   0.82264   -1.000
 4309.00    0.81911   0.82734   -1.000
 4310.00    0.83468   0.84629   -1.000
 4311.00    0.86293   0.87091  554.485
 4312.00    0.88497   0.89729   -1.000
 4313.00    0.89852   0.92873   -1.000
 4314.00    0.92928   0.96918   -1.000
 4315.00    0.97979   1.01680   -1.000
 4316.00    1.03406   1.06083   -1.000
 4317.00    1.07155   1.08969   -1.000
 4318.00    1.07222   1.09863   -1.000
 4319.00    1.05439   1.09154   -1.000
 4320.00    1.04457   1.07365   -1.000
 4321.00    1.02222   1.04561   -1.000
 4322.00    0.99395   1.00677   -1.000
 4323.00    0.95832   0.96229  482.987
 4324.00    0.91256   0.92541   -1.000
 4325.00    0.89084   0.91160   -1.000
 4326.00    0.90929   0.92822   -1.000
 4327.00    0.95902   0.96582   -1.000
 4328.00    1.00777   1.00227  415.214
 4329.00    1.02435   1.02247  409.898
 4330.00    1.01245   1.02673   -1.000
 4331.00    1.00019   1.02432   -1.000
 4332.00    1.00375   1.02082   -1.000
 4333.00    1.00757   1.01353  397.773
 4334.00    1.00065   0.99551  398.334
 4335.00    0.98344   0.95972   -1.000
 4336.00    0.93817   0.90228   -1.000
 4337.00    0.86886   0.82852   -1.000
 4338.00    0.79468   0.75561   -1.000
 4339.00    0.72697   0.70403   -1.000
 4340.00    0.68439   0.69032   -1.000
 4341.00    0.70397   0.71878   -1.000
 4342.00    0.77696   0.77558  470.477
 4343.00    0.85626   0.83739   -1.000
 4344.00    0.90452   0.89039   -1.000
 4345.00    0.93679   0.93307  420.812
 4346.00    0.96212   0.96856  414.360
 4347.00    0.97925   0.99769   -1.000
 4348.00    0.99744   1.01586   -1.000
 4349.00    1.01205   1.01655  409.108
 4350.00    0.99406   0.99990  434.441
 4351.00    0.94912   0.97909   -1.000
 4352.00    0.93963   0.97206   -1.000
 4353.00    0.96590   0.98604   -1.000
 4354.00    1.00033   1.01305   -1.000
 4355.00    1.01815   1.03882   -1.000
 4356.00    1.02903   1.05556   -1.000
 4357.00    1.03392   1.06336   -1.000
 4358.00    1.04785   1.06632   -1.000
 4359.00    1.04124   1.07004   -1.000
 4360.00    1.04128   1.07892   -1.000
 4361.00    1.05441   1.09206   -1.000
 4362.00    1.06420   1.10487   -1.000
 4363.00    1.06874   1.11490   -1.000
 4364.00    1.07914   1.12073   -1.000
 4365.00    1.08089   1.11837   -1.000
 4366.00    1.06016   1.10622   -1.000
 4367.00    1.04140   1.08968   -1.000
 4368.00    1.03430   1.07546   -1.000
 4369.00    1.03658   1.06604   -1.000
 4370.00    1.04503   1.05966   -1.000
 4371.00    1.05328   1.05218  413.337
 4372.00    1.03970   1.03974  419.833
 4373.00    1.01712   1.02291  437.785
 4374.00    0.98326   1.00914   -1.000
 4375.00    0.98948   1.00874   -1.000
 4376.00    1.01794   1.02455  428.027
 4377.00    1.04602   1.04743  408.677
 4378.00    1.05794   1.06470  403.821
 4379.00    1.06062   1.06732  407.552
 4380.00    1.06330   1.05024   -1.000
 4381.00    1.04018   1.01266   -1.000
 4382.00    0.98036   0.96265   -1.000
 4383.00    0.93383   0.92016   -1.000
 4384.00    0.90650   0.90802  533.003
 4385.00    0.93824   0.93003   -1.000
 4386.00    0.98984   0.96697   -1.000
 4387.00    1.01355   0.99680   -1.000
 4388.00    1.02947   1.01176   -1.000
 4389.00    1.03204   1.01762   -1.000
 4390.00    1.03712   1.02285   -1.000
 4391.00    1.03771   1.03141   -1.000
 4392.00    1.04708   1.04006   -1.000
 4393.00    1.04986   1.04313   -1.000
 4394.00    1.03484   1.04270  431.697
 4395.00    1.02575   1.04749   -1.000
 4396.00    1.05109   1.06001  406.871
 4397.00    1.07561   1.07093   -1.000
 4398.00    1.06908   1.07061  406.558
 4399.00    1.04947   1.06101   -1.000
 4400.00    1.01848   1.05167   -1.000
 4401.00    1.02729   1.04744   -1.000
 4402.00    1.04711   1.04275  420.434
 4403.00    1.03718   1.03054   -1.000
 4404.00    1.01475   1.01468  460.965
 4405.00    1.00123   1.00624  459.969
 4406.00    1.01167   1.01027  444.941
 4407.00    1.01927   1.02273  439.448
 4408.00    1.01742   1.03961   -1.000
 4409.00    1.02536   1.06225   -1.000
 4410.00    1.05793   1.08862   -1.000
 4411.00    1.08732   1.10834   -1.000
 4412.00    1.09961   1.11114   -1.000
 4413.00    1.08737   1.09468  398.323
 4414.00    1.06238   1.06656  420.752
 4415.00    1.03377   1.04274   -1.000
 4416.00    1.02715   1.03849   -1.000
 4417.00    1.03861   1.05663   -1.000
 4418.00    1.05970   1.08698   -1.000
 4419.00    1.08572   1.11427   -1.000
 4420.00    1.09680   1.12616   -1.000
 4421.00    1.08645   1.12219   -1.000
 4422.00    1.07088   1.11209   -1.000
 4423.00    1.06386   1.10500   -1.000
 4424.00    1.05394   1.10226   -1.000
 4425.00    1.05610   1.10014   -1.000
 4426.00    1.05922   1.09794   -1.000
 4427.00    1.04908   1.09847   -1.000
 4428.00    1.04709   1.10217   -1.000
 4429.00    1.05516   1.10686   -1.000
 4430.00    1.05559   1.11030   -1.000
 4431.00    1.06043   1.11037   -1.000
 4432.00    1.07375   1.10430   -1.000
 4433.00    1.06234   1.09036   -1.000
 4434.00    1.03945   1.07394   -1.000
 4435.00    1.02545   1.06809   -1.000
 4436.00    1.03901   1.08161   -1.000
 4437.00    1.07989   1.10907   -1.000
 4438.00    1.10603   1.13466   -1.000
 4439.00    1.11685   1.14438   -1.000
 4440.00    1.10425   1.13371   -1.000
 4441.00    1.07169   1.10997   -1.000
 4442.00    1.04512   1.08904   -1.000
 4443.00    1.03067   1.08515   -1.000
 4444.00    1.04733   1.10089   -1.000
 4445.00    1.08090   1.12551   -1.000
 4446.00    1.09464   1.14511   -1.000
 4447.00    1.10156   1.15374   -1.000
 4448.00    1.10889   1.15434   -1.000
 4449.00    1.10556   1.15174   -1.000
 4450.00    1.09953   1.14772   -1.000
 4451.00    1.09746   1.14101   -1.000
 4452.00    1.09817   1.12744   -1.000
 4453.00    1.08446   1.10454   -1.000
 4454.00    1.05625   1.07842   -1.000
 4455.00    1.03638   1.06059   -1.000
 4456.00    1.04225   1.05736   -1.000
 4457.00    1.05830   1.06469  419.503
 4458.00    1.06795   1.07408  420.565
 4459.00    1.05889   1.08089   -1.000
 4460.00    1.05460   1.08564   -1.000
 4461.00    1.05738   1.09081   -1.000
 4462.00    1.07103   1.09909   -1.000
 4463.00    1.08813   1.11096   -1.000
 4464.00    1.09177   1.12261   -1.000
 4465.00    1.09702   1.12854   -1.000
 4466.00    1.10082   1.12603   -1.000
 4467.00    1.09011   1.11722   -1.000
 4468.00    1.07670   1.10818   -1.000
 4469.00    1.07314   1.10599   -1.000
 4470.00    1.06463   1.11463   -1.000
 4471.00    1.08408   1.13279   -1.000
 4472.00    1.11685   1.15507   37.564
 4473.00    1.14655   1.17462   36.682
 4474.00    1.15057   1.18679   36.476
 4475.00    1.15277   1.19177   36.498
 4476.00    1.15279   1.19263   36.171
 4477.00    1.16011   1.18989   36.060
 4478.00    1.15275   1.17966   36.588
 4479.00    1.14502   1.15872   38.066
 4480.00    1.11229   1.13239   39.709
 4481.00    1.08765   1.11460   40.516
 4482.00    1.08769   1.11594   39.746
 4483.00    1.10030   1.13555   38.026
 4484.00    1.12913   1.16354   36.711
 4485.00    1.15426   1.18677   36.105
 4486.00    1.15864   1.19529   36.338
 4487.00    1.15142   1.18796   37.311
 4488.00    1.13028   1.17224   38.688
 4489.00    1.11136   1.15878   39.313
 4490.00    1.11639   1.15529   38.700
 4491.00    1.13162   1.16163   37.700
 4492.00    1.13778   1.17037   37.325
 4493.00    1.14580   1.17294   38.055
 4494.00    1.13277   1.16841   39.203
 4495.00    1.10597   1.16414   39.803
 4496.00    1.10465   1.16613   39.128
 4497.00    1.12691   1.17355   37.768
 4498.00    1.14869   1.18139   36.838
 4499.00    1.14928   1.18545   36.643
 4500.00    1.13351   1.18617   37.084
 4501.00    1.11769   1.18946   37.063
 4502.00    1.13841   1.20047   35.981
 4503.00    1.16699   1.21745   34.830
 4504.00    1.18842   1.23330   34.397
 4505.00    1.19249   1.24134   34.759
 4506.00    1.18291   1.24003   35.439
 4507.00    1.17789   1.23347   35.707
 4508.00    1.17086   1.22811   35.665
 4509.00    1.17601   1.22719   35.378
 4510.00    1.18673   1.22824   35.228
 4511.00    1.19050   1.22641   35.629
 4512.00    1.17568   1.21962   36.349
 4513.00    1.16347   1.20992   36.920
 4514.00    1.15958   1.20074   37.053
 4515.00    1.15011   1.19482   36.874
 4516.00    1.14639   1.19240   36.940
 4517.00    1.14549   1.19081   37.380
 4518.00    1.14321   1.18882   37.432
 4519.00    1.14574   1.18847   36.729
 4520.00    1.15816   1.19042   36.144
 4521.00    1.16116   1.19152   36.430
 4522.00    1.15073   1.18812   37.319
 4523.00    1.13291   1.18001   37.992
 4524.00    1.12069   1.16936   38.346
 4525.00    1.12140   1.15648   39.102
 4526.00    1.10729   1.13993   40.320
 4527.00    1.09376   1.12096   41.339
 4528.00    1.07877   1.10566   41.657
 4529.00    1.08189   1.10026   41.235
 4530.00    1.09329   1.10479   40.481
 4531.00    1.10408   1.11208   39.835
 4532.00    1.10345   1.11318   39.893
 4533.00    1.08773   1.10631   41.133
 4534.00    1.07437   1.09969   42.205
 4535.00    1.07244   1.10505   41.205
 4536.00    1.09999   1.12734   38.745
 4537.00    1.14191   1.15992   36.676
 4538.00    1.17198   1.18881   35.985
 4539.00    1.17248   1.20325   36.495
 4540.00    1.16401   1.20377   37.247
 4541.00    1.16226   1.19911   37.115
 4542.00    1.15928   1.19639   36.856
 4543.00    1.15612   1.19511   38.802
 4544.00    1.14549   1.19112   39.570
 4545.00    1.13638   1.18372   18.584
 4546.00    0.82689   1.17482   -1.000
 4547.00    0.04425   1.16429   -1.000
 4548.00   -0.01675   1.15172    0.000
 4549.00    0.26630   1.14154   -1.000
 4550.00    0.75369   1.14069   -1.000
 4551.00    0.34153   1.14879   -1.000
 4552.00    1.02415   1.15645   -1.000
 4553.00    1.13519   1.15645   39.234
 4554.00    1.10098   1.15169   39.414
 4555.00    1.10305   1.15141   38.618
 4556.00    1.12275   1.16249   37.137
 4557.00    1.15045   1.18303   35.782
 4558.00    1.17995   1.20474   35.340
 4559.00    1.17945   1.22111   35.541
 4560.00    1.18158   1.23003   35.512
 4561.00    1.18046   1.23109   35.669
 4562.00    1.16992   1.22396   36.556
 4563.00    1.15307   1.21067   37.423
 4564.00    1.13886   1.19758   37.862
 4565.00    1.14091   1.19240   37.294
 4566.00    1.15899   1.19875   36.312
 4567.00    1.18375   1.21234   35.454
 4568.00    1.19601   1.22357   35.258
 4569.00    1.18411   1.22462   35.772
 4570.00    1.16658   1.21473   36.716
 4571.00    1.14481   1.20114   37.468
 4572.00    1.13701   1.19458   36.977
 4573.00    1.16154   1.20022   35.920
 4574.00    1.18198   1.21260   35.531
 4575.00    1.18105   1.22258   35.603
 4576.00    1.17720   1.22568   35.782
 4577.00    1.18063   1.22167   36.062
 4578.00    1.17086   1.21069   36.783
 4579.00    1.14502   1.19407   37.855
 4580.00    1.13354   1.17622   38.462
 4581.00    1.13927   1.16288   38.233
 4582.00    1.13786   1.15721   37.717
 4583.00    1.13399   1.15825   37.520
 4584.00    1.14034   1.16266   37.673
 4585.00    1.14487   1.16833   37.783
 4586.00    1.15409   1.17595   37.137
 4587.00    1.16567   1.18659   36.171
 4588.00    1.17241   1.19846   35.537
 4589.00    1.17663   1.20689   35.619
 4590.00    1.16926   1.20794   36.196
 4591.00    1.16033   1.20204   36.872
 4592.00    1.15629   1.19419   37.410
 4593.00    1.15480   1.19027   37.352
 4594.00    1.15833   1.19227   37.021
 4595.00    1.16322   1.19788   36.765
 4596.00    1.16706   1.20413   36.681
 4597.00    1.17176   1.20892   36.603
 4598.00    1.18010   1.21032   36.591
 4599.00    1.18251   1.20743   36.936
 4600.00    1.16774   1.20168   37.228
 4601.00    1.16205   1.19625   37.232
 4602.00    1.15640   1.19398   36.808
 4603.00    1.16774   1.19545   36.477
 4604.00    1.17387   1.19950   36.540
 4605.00    1.18382   1.20507   36.412
 4606.00    1.18802   1.21223   35.941
 4607.00    1.19582   1.22144   35.203
 4608.00    1.20773   1.23222   34.506
 4609.00    1.21510   1.24174   34.214
 4610.00    1.20774   1.24549   34.451
 4611.00    1.20715   1.24235   34.927
 4612.00    1.19684   1.23615   35.281
 4613.00    1.19367   1.23140   35.430
 4614.00    1.19600   1.22971   35.210
 4615.00    1.19694   1.22939   34.920
 4616.00    1.19550   1.22783   34.854
 4617.00    1.19420   1.22433   35.112
 4618.00    1.19043   1.22080   35.322
 4619.00    1.18357   1.22045   35.219
 4620.00    1.20181   1.22550   34.827
 4621.00    1.20455   1.23469   34.357
 4622.00    1.21910   1.24316   34.391
 4623.00    1.21715   1.24686   34.479
 4624.00    1.20893   1.24606   34.590
 4625.00    1.19811   1.24292   34.881
 4626.00    1.20135   1.23907   34.935
 4627.00    1.20149   1.23565   34.955
 4628.00    1.20045   1.23334   35.168
 4629.00    1.19226   1.23263   35.190
 4630.00    1.19144   1.23446   34.959
 4631.00    1.19800   1.23844   34.642
 4632.00    1.19789   1.24077   34.888
 4633.00    1.18949   1.23799   35.396
 4634.00    1.19366   1.23161   35.704
 4635.00    1.19226   1.22559   35.707
 4636.00    1.19432   1.22139   36.048
 4637.00    1.17729   1.21850   36.478
 4638.00    1.17294   1.21732   36.574
 4639.00    1.18182   1.21957   36.410
 4640.00    1.19531   1.22637   35.713
 4641.00    1.20941   1.23631   34.892
 4642.00    1.21684   1.24475   34.543
 4643.00    1.22143   1.24615   34.804
 4644.00    1.20099   1.23843   35.539
 4645.00    1.18627   1.22363   36.558
 4646.00    1.17307   1.20652   37.418
 4647.00    1.16839   1.19457   37.384
 4648.00    1.17970   1.19398   36.642
 4649.00    1.18148   1.20424   35.838
 4650.00    1.19504   1.21820   35.441
 4651.00    1.19934   1.22800   35.399
 4652.00    1.18806   1.23063   35.411
 4653.00    1.19415   1.22720   35.931
 4654.00    1.19059   1.22046   36.715
 4655.00    1.17497   1.21479   36.981
 4656.00    1.17368   1.21591   36.469
 4657.00    1.18801   1.22750   35.220
 4658.00    1.21156   1.24753   33.958
 4659.00    1.23048   1.26762   33.353
 4660.00    1.23632   1.27865   33.435
 4661.00    1.22754   1.27730   33.947
 4662.00    1.21257   1.26671   34.776
 4663.00    1.20645   1.25175   35.344
 4664.00    1.20699   1.23500   35.483
 4665.00    1.20289   1.21568   36.259
 4666.00    1.18173   1.19357   37.869
 4667.00    1.15520   1.17377   39.169
 4668.00    1.14907   1.16517   38.899
 4669.00    1.14989   1.17235   37.562
 4670.00    1.17802   1.19118   36.068
 4671.00    1.20053   1.21220   35.257
 4672.00    1.21028   1.22790   35.128
 4673.00    1.20712   1.23684   35.155
 4674.00    1.21137   1.24251   35.038
 4675.00    1.20958   1.24792   34.546
 4676.00    1.22497   1.25087   34.146
 4677.00    1.22391   1.24672   34.456
 4678.00    1.21539   1.23491   35.226
 4679.00    1.19219   1.22032   35.898
 4680.00    1.17901   1.20906   36.442
 4681.00    1.18378   1.20416   36.635
 4682.00    1.18587   1.20569   36.050
 4683.00    1.19695   1.21198   35.194
 4684.00    1.21749   1.21995   34.860
 4685.00    1.22730   1.22637   34.990
 4686.00    1.22538   1.22999   35.031
 4687.00    1.21591   1.23147   35.206
 4688.00    1.21757   1.23175   35.197
 4689.00    1.21520   1.23139   35.246
 4690.00    1.21023   1.23050   35.482
 4691.00    1.20816   1.22980   35.456
 4692.00    1.21810   1.23111   34.989
 4693.00    1.23088   1.23521   34.415
 4694.00    1.24683   1.24032   33.692
 4695.00    1.24224   1.24392   33.387
 4696.00    1.24278   1.24370   33.725
 4697.00    1.23499   1.23772   34.753
 4698.00    1.21555   1.22671   35.691
 4699.00    1.20632   1.21394   35.944
 4700.00    1.20309   1.20204   35.718
 4701.00    1.19881   1.19137   36.083
 4702.00    1.18800   1.18292   36.662
 4703.00    1.18577   1.18023   36.665
 4704.00    1.19492   1.18524   35.951
 4705.00    1.19725   1.19336   35.614
 4706.00    1.19408   1.19686   36.207
 4707.00    1.18290   1.19345   36.879
 4708.00    1.17911   1.18889   37.114
 4709.00    1.18190   1.19013   36.724
 4710.00    1.19334   1.19852   35.609
 4711.00    1.22110   1.21037   34.751
 4712.00    1.22876   1.21985   34.560
 4713.00    1.21595   1.22290   34.985
 4714.00    1.21166   1.22150   35.547
 4715.00    1.21516   1.22214   35.382
 4716.00    1.21746   1.22926   34.647
 4717.00    1.22898   1.24086   34.064
 4718.00    1.23916   1.25159   33.894
 4719.00    1.24031   1.25789   33.778
 4720.00    1.23760   1.25988   33.735
 4721.00    1.22745   1.25969   34.037
 4722.00    1.22607   1.25959   34.195
 4723.00    1.22477   1.26063   33.940
 4724.00    1.22057   1.26171   33.639
 4725.00    1.23221   1.25957   33.850
 4726.00    1.22996   1.25072   34.799
 4727.00    1.21281   1.23540   36.057
 4728.00    1.19540   1.21923   36.662
 4729.00    1.18413   1.20876   36.434
 4730.00    1.19036   1.20583   36.066
 4731.00    1.19990   1.20866   35.759
 4732.00    1.20615   1.21495   35.341
 4733.00    1.20835   1.22189   35.061
 4734.00    1.21119   1.22637   34.867
 4735.00    1.21718   1.22732   34.776
 4736.00    1.21181   1.22620   35.122
 4737.00    1.20657   1.22574   35.056
 4738.00    1.22132   1.22827   34.660
 4739.00    1.22736   1.23340   34.735
 4740.00    1.21593   1.23814   34.919
 4741.00    1.20990   1.24105   34.896
 4742.00    1.21801   1.24368   34.580
 4743.00    1.22747   1.24726   34.279
 4744.00    1.23427   1.25102   34.365
 4745.00    1.23712   1.25396   34.340
 4746.00    1.24063   1.25682   34.051
 4747.00    1.23111   1.26135   33.751
 4748.00    1.23345   1.26741   33.717
 4749.00    1.23424   1.27319   33.769
 4750.00    1.23715   1.27677   33.830
 4751.00    1.24737   1.27626   34.115
 4752.00    1.23603   1.27036   34.492
 4753.00    1.22841   1.26030   34.766
 4754.00    1.22125   1.25029   34.947
 4755.00    1.21315   1.24471   34.905
 4756.00    1.21259   1.24501   35.075
 4757.00    1.21733   1.24966   35.302
 4758.00    1.21823   1.25600   35.268
 4759.00    1.22316   1.26082   34.999
 4760.00    1.21332   1.26028   35.058
 4761.00    1.19965   1.25163   35.699
 4762.00    1.19090   1.23604   36.535
 4763.00    1.18878   1.21968   36.906
 4764.00    1.18764   1.20894   36.916
 4765.00    1.18489   1.20582   36.799
 4766.00    1.19645   1.20929   36.484
 4767.00    1.20740   1.21877   35.906
 4768.00    1.21472   1.23288   35.131
 4769.00    1.22268   1.24705   34.760
 4770.00    1.23223   1.25571   34.889
 4771.00    1.22674   1.25770   35.199
 4772.00    1.21369   1.25727   35.379
 4773.00    1.22327   1.25998   34.868
 4774.00    1.23817   1.26712   34.196
 4775.00    1.24223   1.27497   34.037
 4776.00    1.24301   1.27920   34.089
 4777.00    1.24271   1.27836   34.216
 4778.00    1.23585   1.27390   34.475
 4779.00    1.22195   1.26842   34.839
 4780.00    1.21565   1.26390   35.013
 4781.00    1.21295   1.26023   35.111
 4782.00    1.21743   1.25594   35.308
 4783.00    1.21938   1.25066   35.544
 4784.00    1.21451   1.24541   35.538
 4785.00    1.21413   1.24104   35.709
 4786.00    1.21841   1.23797   36.050
 4787.00    1.20396   1.23693   36.205
 4788.00    1.20271   1.23867   36.130
 4789.00    1.20505   1.24339   35.937
 4790.00    1.21072   1.25094   35.685
 4791.00    1.21499   1.26115   35.265
 4792.00    1.22636   1.27344   34.636
 4793.00    1.24450   1.28646   33.886
 4794.00    1.25657   1.29819   33.397
 4795.00    1.26671   1.30562   33.381
 4796.00    1.26589   1.30602   33.802
 4797.00    1.24354   1.29938   34.494
 4798.00    1.24351   1.28908   35.095
 4799.00    1.22588   1.28045   35.366
 4800.00    1.23344   1.27820   34.945
 4801.00    1.24293   1.28306   34.255
 4802.00    1.24948   1.29046   33.873
 4803.00    1.24800   1.29443   34.023
 4804.00    1.24344   1.29255   34.496
 4805.00    1.23073   1.28707   34.913
 4806.00    1.22379   1.28183   35.164
 4807.00    1.23309   1.27890   35.125
 4808.00    1.23607   1.27875   35.020
 4809.00    1.23263   1.28123   34.829
 4810.00    1.24190   1.28498   34.517
 4811.00    1.24116   1.28825   34.287
 4812.00    1.23601   1.29088   34.141
 4813.00    1.24240   1.29410   34.105
 4814.00    1.24381   1.29883   34.011
 4815.00    1.25002   1.30502   33.870
 4816.00    1.25517   1.31144   33.652
 4817.00    1.25713   1.31616   33.457
 4818.00    1.26795   1.31818   33.348
 4819.00    1.26999   1.31794   33.344
 4820.00    1.25992   1.31508   33.399
 4821.00    1.25234   1.30716   33.816
 4822.00    1.24412   1.29272   34.697
 4823.00    1.23059   1.27545   35.211
 4824.00    1.22926   1.26386   35.006
 4825.00    1.23276   1.26389   34.375
 4826.00    1.24511   1.27254   33.971
 4827.00    1.24292   1.28130   34.193
 4828.00    1.23777   1.28459   34.575
 4829.00    1.23670   1.28289   34.739
 4830.00    1.23591   1.27847   34.780
 4831.00    1.22768   1.27237   35.072
 4832.00    1.22964   1.26662   35.002
 4833.00    1.23387   1.26454   34.429
 4834.00    1.24977   1.26734   34.038
 4835.00    1.25250   1.27263   33.961
 4836.00    1.23605   1.27646   34.045
 4837.00    1.24309   1.27603   34.268
 4838.00    1.23632   1.27069   34.779
 4839.00    1.22579   1.26187   35.300
 4840.00    1.21231   1.25275   35.274
 4841.00    1.22008   1.24679   35.177
 4842.00    1.22089   1.24518   34.979
 4843.00    1.22642   1.24662   34.697
 4844.00    1.23434   1.25011   34.309
 4845.00    1.23916   1.25512   33.827
 4846.00    1.23319   1.25846   33.826
 4847.00    1.22174   1.25610   34.522
 4848.00    1.21933   1.24902   34.933
 4849.00    1.21686   1.24253   34.815
 4850.00    1.21799   1.23953   34.380
 4851.00    1.21802   1.23710   34.369
 4852.00    1.21068   1.22965   34.595
 4853.00    1.19023   1.21327   35.028
 4854.00    1.16325   1.18799   36.104
 4855.00    1.13978   1.15863   36.922
 4856.00    1.12762   1.13111   36.736
 4857.00    1.12667   1.10453   36.599
 4858.00    1.09608   1.06795   38.040
 4859.00    1.00986   1.01169   41.641
 4860.00    0.90866   0.94423   46.115
 4861.00    0.83888   0.89278   47.229
 4862.00    0.85951   0.88329   43.887
 4863.00    0.95388   0.91913   40.185
 4864.00    1.03541   0.98065   38.039
 4865.00    1.08732   1.04417   36.829
 4866.00    1.12337   1.09647   36.152
 4867.00    1.15145   1.13437   35.871
 4868.00    1.16529   1.15789   35.809
 4869.00    1.16349   1.16661   36.266
 4870.00    1.15652   1.16163   37.299
 4871.00    1.13738   1.15012   37.980
 4872.00    1.13535   1.14525   37.463
 4873.00    1.15424   1.15614   36.441
 4874.00    1.17158   1.17879   35.890
 4875.00    1.18275   1.20080   35.640
 4876.00    1.18712   1.21445   35.462
 4877.00    1.18402   1.22275   35.272
 4878.00    1.18617   1.23276   34.767
 4879.00    1.20441   1.24608   34.526
 4880.00    1.21248   1.25767   34.909
 4881.00    1.20146   1.26215   35.431
 4882.00    1.20295   1.25960   35.566
 4883.00    1.20311   1.25397   35.490
 4884.00    1.19587   1.24752   35.760
 4885.00    1.18870   1.24045   36.263
 4886.00    1.19728   1.23376   36.371
 4887.00    1.20265   1.22879   36.188
 4888.00    1.19248   1.22398   36.251
 4889.00    1.19786   1.21566   36.861
 4890.00    1.17735   1.20470   37.496
 4891.00    1.17360   1.20014   36.969
 4892.00    1.19517   1.21286   35.395
 4893.00    1.22982   1.24431   33.849
 4894.00    1.26663   1.28291   32.938
 4895.00    1.27455   1.31405   32.416
 4896.00    1.29316   1.33131   32.317
 4897.00    1.28191   1.33594   32.509
 4898.00    1.27072   1.33151   33.252
 4899.00    1.25573   1.32208   33.968
 4900.00    1.24913   1.31213   34.228
 4901.00    1.25232   1.30425   34.081
 4902.00    1.25320   1.29788   34.206
 4903.00    1.24084   1.29271   34.496
 4904.00    1.24079   1.29221   34.025
 4905.00    1.25640   1.29942   33.366
 4906.00    1.26845   1.31005   33.226
 4907.00    1.26880   1.31483   33.643
 4908.00    1.25551   1.30801   34.506
 4909.00    1.24138   1.29180   35.413
 4910.00    1.22900   1.27467   35.674
 4911.00    1.23424   1.26596   35.141
 4912.00    1.24274   1.26969   34.526
 4913.00    1.25056   1.28246   34.062
 4914.00    1.25851   1.29720   33.645
 4915.00    1.26823   1.30683   33.435
 4916.00    1.27108   1.30414   33.791
 4917.00    1.24464   1.28371   35.132
 4918.00    1.21195   1.24724   37.047
 4919.00    1.17822   1.20608   38.566
 4920.00    1.16202   1.17639   38.647
 4921.00    1.17679   1.16875   37.309
 4922.00    1.20440   1.18102   36.096
 4923.00    1.21403   1.20184   35.676
 4924.00    1.21111   1.22218   35.579
 4925.00    1.22274   1.24157   35.022
 4926.00    1.24453   1.26287   34.142
 4927.00    1.26063   1.28574   33.595
 4928.00    1.27546   1.30637   33.303
 4929.00    1.28124   1.32077   33.082
 4930.00    1.28597   1.32635   32.979
 4931.00    1.28430   1.32116   33.426
 4932.00    1.25975   1.30518   34.414
 4933.00    1.22887   1.28404   35.468
 4934.00    1.22522   1.26758   35.385
 4935.00    1.23880   1.26117   34.838
 4936.00    1.24134   1.25976   35.023
 4937.00    1.22333   1.25399   36.082
 4938.00    1.20731   1.24330   36.836
 4939.00    1.20646   1.23809   36.299
 4940.00    1.22329   1.24773   35.045
 4941.00    1.25517   1.27068   34.011
 4942.00    1.27249   1.29617   33.454
 4943.00    1.28236   1.31378   33.218
 4944.00    1.28299   1.32040   33.291
 4945.00    1.27621   1.31945   33.506
 4946.00    1.26712   1.31724   33.503
 4947.00    1.26743   1.31921   33.172
 4948.00    1.28025   1.32645   32.829
 4949.00    1.28593   1.33488   32.731
 4950.00    1.28987   1.33937   32.648
 4951.00    1.28937   1.33831   32.838
 4952.00    1.28450   1.33358   33.095
 4953.00    1.28525   1.32668   33.489
 4954.00    1.27444   1.31523   33.995
 4955.00    1.25928   1.29354   35.072
 4956.00    1.23015   1.26024   36.848
 4957.00    1.18917   1.22688   37.908
 4958.00    1.18945   1.21270   36.809
 4959.00    1.22749   1.22700   34.816
 4960.00    1.25617   1.25983   33.810
 4961.00    1.27419   1.29163   33.651
 4962.00    1.28042   1.30992   33.840
 4963.00    1.27317   1.31382   34.138
 4964.00    1.26598   1.30764   34.606
 4965.00    1.25710   1.29628   35.301
 4966.00    1.25283   1.28449   35.669
 4967.00    1.24942   1.27587   35.644
 4968.00    1.24513   1.27196   35.507
 4969.00    1.24239   1.27301   35.218
 4970.00    1.24880   1.27878   34.837
 4971.00    1.25477   1.28808   34.455
 4972.00    1.27100   1.29897   34.058
 4973.00    1.27547   1.30921   33.772
 4974.00    1.27954   1.31644   33.708
 4975.00    1.27649   1.31884   33.976
 4976.00    1.26955   1.31598   34.357
 4977.00    1.27156   1.30856   34.845
 4978.00    1.26409   1.29762   35.392
 4979.00    1.24809   1.28347   35.837
 4980.00    1.22539   1.26450   36.469
 4981.00    1.20762   1.23897   37.691
 4982.00    1.19007   1.21006   38.690
 4983.00    1.17796   1.18798   38.521
 4984.00    1.19071   1.18354   37.709
 4985.00    1.21231   1.19901   36.613
 4986.00    1.23118   1.22624   35.494
 4987.00    1.24878   1.25322   34.788
 4988.00    1.25624   1.27066   34.930
 4989.00    1.25078   1.27517   35.432
 4990.00    1.23993   1.27031   35.728
 4991.00    1.24150   1.26390   35.672
 4992.00    1.24249   1.26204   35.375
 4993.00    1.24308   1.26553   35.255
 4994.00    1.24922   1.27169   35.211
 4995.00    1.25560   1.27793   35.026
 4996.00    1.26460   1.28235   34.923
 4997.00    1.26617   1.28226   35.193
 4998.00    1.25740   1.27454   35.717
 4999.00    1.23175   1.25906   36.397
 5000.00    1.22221   1.24093   36.767
 5001.00    1.23145   1.22785   36.711
 5002.00    1.23747   1.22397   36.372
 5003.00    1.23077   1.22577   36.275
 5004.00    1.22515   1.22484   36.891
 5005.00    1.21264   1.21649   37.712
 5006.00    1.20215   1.20615   37.688
 5007.00    1.21754   1.20486   36.692
 5008.00    1.24302   1.21696   35.702
 5009.00    1.25696   1.23467   35.495
 5010.00    1.25306   1.24458   36.093
 5011.00    1.23478   1.23845   37.247
 5012.00    1.20837   1.21887   38.560
 5013.00    1.19162   1.19660   39.243
 5014.00    1.18339   1.18226   38.896
 5015.00    1.19966   1.17917   38.025
 5016.00    1.21385   1.18323   37.348
 5017.00    1.21968   1.18902   37.238
 5018.00    1.21931   1.19528   37.169
 5019.00    1.22215   1.20390   36.756
 5020.00    1.22985   1.21425   36.545
 5021.00    1.23853   1.22262   36.704
 5022.00    1.24158   1.22749   36.729
 5023.00    1.24458   1.23226   36.477
 5024.00    1.24767   1.24049   36.112
 5025.00    1.24749   1.24954   35.950
 5026.00    1.25090   1.25364   36.134
 5027.00    1.24497   1.25249   36.212
 5028.00    1.24852   1.25145   35.800
 5029.00    1.26472   1.25528   35.146
 5030.00    1.27511   1.26483   34.636
 5031.00    1.28001   1.27770   34.101
 5032.00    1.28529   1.28945   33.796
 5033.00    1.28222   1.29444   34.052
 5034.00    1.26462   1.28805   35.226
 5035.00    1.24658   1.27128   36.487
 5036.00    1.22988   1.25144   36.980
 5037.00    1.22422   1.23501   37.158
 5038.00    1.22014   1.22045   37.811
 5039.00    1.19540   1.20124   39.343
 5040.00    1.16964   1.17828   40.654
 5041.00    1.15741   1.16437   40.240
 5042.00    1.18843   1.17262   38.132
 5043.00    1.22873   1.20340   35.911
 5044.00    1.25915   1.24382   34.603
 5045.00    1.28629   1.27836   33.777
 5046.00    1.30575   1.29781   32.891
 5047.00    1.23017   1.29968   23.136
 5048.00    0.52585   1.28631   -1.000
 5049.00   -0.00284   1.26466    0.000
 5050.00    0.05879   1.24458   -1.000
 5051.00    0.53106   1.23476   -1.000
 5052.00    1.14402   1.23920   35.471
 5053.00    1.28063   1.25517   34.619
 5054.00    1.29730   1.27439   34.053
 5055.00    1.30806   1.28942   33.778
 5056.00    1.30496   1.29907   33.707
 5057.00    1.29936   1.30607   33.775
 5058.00    1.30072   1.31221   33.823
 5059.00    1.30273   1.31730   33.766
 5060.00    1.30666   1.32045   33.576
 5061.00    1.30802   1.32045   33.684
 5062.00    1.30773   1.31456   34.251
 5063.00    1.29022   1.30010   35.312
 5064.00    1.26100   1.27971   36.422
 5065.00    1.24938   1.26159   36.649
 5066.00    1.25371   1.25249   36.155
 5067.00    1.26246   1.25231   35.686
 5068.00    1.26169   1.25603   35.575
 5069.00    1.26765   1.25965   35.391
 5070.00    1.27927   1.26186   35.254
 5071.00    1.27912   1.26153   35.556
 5072.00    1.26401   1.25857   35.699
 5073.00    1.27203   1.25614   35.266
 5074.00    1.28234   1.25777   35.039
 5075.00    1.27784   1.26253   35.003
 5076.00    1.28163   1.26508   35.046
 5077.00    1.27566   1.25988   35.564
 5078.00    1.25084   1.24493   36.924
 5079.00    1.21580   1.22460   38.455
 5080.00    1.20295   1.20826   38.610
 5081.00    1.21977   1.20300   37.752
 5082.00    1.22917   1.20859   37.003
 5083.00    1.23880   1.22055   36.476
 5084.00    1.25642   1.23560   35.791
 5085.00    1.28064   1.25225   35.249
 5086.00    1.29254   1.26791   35.048
 5087.00    1.29056   1.27947   34.982
 5088.00    1.29053   1.28648   34.786
 5089.00    1.29599   1.29104   34.542
 5090.00    1.29772   1.29525   34.356
 5091.00    1.29892   1.30023   34.136
 5092.00    1.30873   1.30614   33.751
 5093.00    1.31111   1.31115   33.567
 5094.00    1.30975   1.31084   33.971
 5095.00    1.32579   1.30081   34.701
 5096.00    1.31194   1.28134   35.470
 5097.00    1.27189   1.25846   36.313
 5098.00    1.25417   1.24031   36.947
 5099.00    1.24255   1.23297   36.840
 5100.00    1.25260   1.23816   35.867
 5101.00    1.27709   1.25214   34.960
 5102.00    1.29213   1.26676   34.777
 5103.00    1.29825   1.27479   35.049
 5104.00    1.28900   1.27410   35.518
 5105.00    1.27974   1.26641   35.964
 5106.00    1.26668   1.25480   36.406
 5107.00    1.25440   1.24304   36.765
 5108.00    1.24458   1.23523   36.655
 5109.00    1.24763   1.23428   36.408
 5110.00    1.25039   1.24074   36.094
 5111.00    1.25905   1.25288   35.580
 5112.00    1.27379   1.26735   35.147
 5113.00    1.29154   1.28095   34.740
 5114.00    1.30279   1.29246   34.456
 5115.00    1.29987   1.30214   34.241
 5116.00    1.31376   1.30996   33.886
 5117.00    1.31643   1.31503   33.680
 5118.00    1.31965   1.31604   33.860
 5119.00    1.31339   1.31190   34.330
 5120.00    1.30205   1.30238   34.860
 5121.00    1.29090   1.28855   35.499
 5122.00    1.26751   1.27227   36.459
 5123.00    1.25191   1.25546   37.404
 5124.00    1.24256   1.24077   37.515
 5125.00    1.23781   1.23132   37.188
 5126.00    1.25399   1.22803   37.005
 5127.00    1.25783   1.22860   36.835
 5128.00    1.24983   1.23028   36.882
 5129.00    1.24690   1.23271   36.757
 5130.00    1.25726   1.23741   36.230
 5131.00    1.27162   1.24508   35.669
 5132.00    1.28181   1.25443   35.382
 5133.00    1.28917   1.26326   35.048
 5134.00    1.28989   1.26992   34.782
 5135.00    1.29551   1.27295   34.839
 5136.00    1.29283   1.27037   35.540
 5137.00    1.27287   1.26141   36.359
 5138.00    1.25154   1.24864   36.824
 5139.00    1.23937   1.23712   36.778
 5140.00    1.24361   1.23079   36.549
 5141.00    1.24520   1.22969   36.909
 5142.00    1.23610   1.23143   37.366
 5143.00    1.23966   1.23446   37.032
 5144.00    1.25417   1.23819   36.488
 5145.00    1.26470   1.24092   36.473
 5146.00    1.26432   1.24050   36.786
 5147.00    1.26359   1.23816   36.758
 5148.00    1.26762   1.23791   36.331
 5149.00    1.26340   1.24022   36.265
 5150.00    1.25656   1.24073   36.784
 5151.00    1.24404   1.23659   37.384
 5152.00    1.24036   1.22995   37.525
 5153.00    1.25134   1.22556   37.212
 5154.00    1.26261   1.22800   36.431
 5155.00    1.27771   1.23953   35.495
 5156.00    1.30035   1.25820   34.639
 5157.00    1.31403   1.27835   34.078
 5158.00    1.31888   1.29439   33.891
 5159.00    1.32409   1.30357   33.919
 5160.00    1.31721   1.30576   34.054
 5161.00    1.31013   1.30154   34.290
 5162.00    1.30989   1.29094   34.714
 5163.00    1.29906   1.27257   35.410
 5164.00    1.27593   1.24232   37.093
 5165.00    1.23291   1.19577   40.394
 5166.00    1.16335   1.13688   44.391
 5167.00    1.09594   1.08288   46.529
 5168.00    1.08390   1.05416   45.061
 5169.00    1.12516   1.05443   -1.000
 5170.00    1.16237   1.06407   -1.000
 5171.00    1.13912   1.06191   -1.000
 5172.00    1.08708   1.05044   48.006
 5173.00    1.09420   1.05287   45.114
 5174.00    1.16551   1.08664   -1.000
 5175.00    1.23449   1.14370   -1.000
 5176.00    1.27986   1.20001   -1.000
 5177.00    1.30739   1.23825   -1.000
 5178.00    1.30992   1.25481   36.000
 5179.00    1.30393   1.25169   36.551
 5180.00    1.28700   1.22804   -1.000
 5181.00    1.24484   1.18248   -1.000
 5182.00    1.16811   1.12311   45.891
 5183.00    1.08800   1.07192   48.231
 5184.00    1.08610   1.05453   45.051
 5185.00    1.15777   1.08035   -1.000
 5186.00    1.23735   1.13398   -1.000
 5187.00    1.28394   1.18786   -1.000
 5188.00    1.28798   1.22358   -1.000
 5189.00    1.27946   1.23981   35.954
 5190.00    1.27475   1.24197   36.515
 5191.00    1.24961   1.23416   37.687
 5192.00    1.22341   1.22201   38.456
 5193.00    1.21707   1.21352   38.026
 5194.00    1.23323   1.21358   37.373
 5195.00    1.25636   1.22120   36.827
 5196.00    1.27458   1.23298   36.248
 5197.00    1.27777   1.24762   35.530
 5198.00    1.28935   1.26463   34.995
 5199.00    1.31025   1.28089   34.773
 5200.00    1.31300   1.29128   34.813
 5201.00    1.30529   1.29145   35.179
 5202.00    1.28882   1.27934   35.869
 5203.00    1.27245   1.25609   36.760
 5204.00    1.24867   1.22636   37.931
 5205.00    1.22661   1.19719   38.893
 5206.00    1.22605   1.17520   38.995
 5207.00    1.22287   1.16353   -1.000
 5208.00    1.21892   1.16210   -1.000
 5209.00    1.23381   1.17116   -1.000
 5210.00    1.25720   1.19220   -1.000
 5211.00    1.28841   1.22420   -1.000
 5212.00    1.31698   1.25989   34.414
 5213.00    1.32966   1.28745   33.950
 5214.00    1.32418   1.29796   34.467
 5215.00    1.30105   1.29245   35.227
 5216.00    1.28218   1.28199   35.489
 5217.00    1.28569   1.27944   35.062
 5218.00    1.31079   1.29005   34.326
 5219.00    1.33371   1.30934   33.869
 5220.00    1.33824   1.32840   33.647
 5221.00    1.34465   1.33990   33.631
 5222.00    1.34587   1.33957   34.213
 5223.00    1.32813   1.32503   35.365
 5224.00    1.29222   1.29564   36.887
 5225.00    1.24875   1.25591   38.491
 5226.00    1.21684   1.21895   39.133
 5227.00    1.21366   1.20157   37.921
 5228.00    1.25468   1.21173   35.859
 5229.00    1.30287   1.24094   -1.000
 5230.00    1.32677   1.27028   34.129
 5231.00    1.33150   1.28499   34.251
 5232.00    1.31555   1.28314   34.971
 5233.00    1.30210   1.27388   35.447
 5234.00    1.28777   1.27009   35.181
 5235.00    1.30398   1.27959   34.328
 5236.00    1.32999   1.30023   33.596
 5237.00    1.34483   1.32305   33.311
 5238.00    1.34842   1.33996   33.326
 5239.00    1.33869   1.34823   33.405
 5240.00    1.34679   1.34989   33.308
 5241.00    1.34772   1.34844   33.154
 5242.00    1.33913   1.34704   33.195
 5243.00    1.34537   1.34767   33.122
 5244.00    1.34709   1.34900   33.214
 5245.00    1.33878   1.34619   33.998
 5246.00    1.31628   1.33567   35.033
 5247.00    1.29487   1.31977   35.685
 5248.00    1.29680   1.30479   35.730
 5249.00    1.29511   1.29533   35.830
 5250.00    1.28612   1.29173   35.989
 5251.00    1.29179   1.29245   35.727
 5252.00    1.30816   1.29598   35.243
 5253.00    1.31155   1.30037   34.975
 5254.00    1.30248   1.30460   34.947
 5255.00    1.31552   1.31086   34.563
 5256.00    1.32655   1.32219   33.697
 5257.00    1.35016   1.33735   32.905
 5258.00    1.36495   1.34975   32.770
 5259.00    1.36204   1.35123   33.228
 5260.00    1.34201   1.33693   34.274
 5261.00    1.30751   1.30757   35.795
 5262.00    1.26422   1.26874   37.420
 5263.00    1.23511   1.22885   38.583
 5264.00    1.22139   1.19666   39.209
 5265.00    1.21643   1.17856   39.115
 5266.00    1.22379   1.17454   38.386
 5267.00    1.24143   1.17638   -1.000
 5268.00    1.24484   1.17373   -1.000
 5269.00    1.20923   1.16493   40.226
 5270.00    1.19504   1.16089   39.058
 5271.00    1.24425   1.17391   -1.000
 5272.00    1.29070   1.20240   -1.000
 5273.00    1.29858   1.23280   -1.000
 5274.00    1.29834   1.25495   35.272
 5275.00    1.30198   1.27025   35.059
 5276.00    1.31631   1.28658   34.241
 5277.00    1.33972   1.30797   33.150
 5278.00    1.36525   1.32928   32.730
 5279.00    1.37353   1.34032   33.094
 5280.00    1.36142   1.33528   33.940
 5281.00    1.33790   1.31808   34.774
 5282.00    1.31195   1.29880   35.300
 5283.00    1.29999   1.28761   35.262
 5284.00    1.31208   1.29135   34.422
 5285.00    1.34945   1.31054   33.342
 5286.00    1.34730   1.33786   32.455
 5287.00    1.31583   1.36251   32.341
 5288.00    1.37628   1.37791   32.499
 5289.00    1.38244   1.38480   32.444
 5290.00    1.38645   1.38704   32.268
 5291.00    1.38447   1.38685   32.260
 5292.00    1.38291   1.38479   32.489
 5293.00    1.38244   1.38033   32.829
 5294.00    1.37740   1.37109   33.364
 5295.00    1.35820   1.35397   34.376
 5296.00    1.31455   1.32905   35.643
 5297.00    1.29183   1.30295   36.330
 5298.00    1.28937   1.28628   35.888
 5299.00    1.30766   1.28497   34.989
 5300.00    1.32896   1.29558   34.443
 5301.00    1.33665   1.31038   34.205
 5302.00    1.33693   1.32522   33.664
 5303.00    1.35660   1.34075   32.787
 5304.00    1.38050   1.35646   32.309
 5305.00    1.38040   1.36807   32.337
 5306.00    1.37878   1.37250   32.669
 5307.00    1.37523   1.37204   32.847
 5308.00    1.37508   1.37252   32.575
 5309.00    1.39009   1.37768   32.254
 5310.00    1.40162   1.38568   32.105
 5311.00    1.39841   1.39146   32.182
 5312.00    1.38686   1.39126   32.363
 5313.00    1.37863   1.38464   32.520
 5314.00    1.37458   1.37335   32.780
 5315.00    1.36891   1.36005   33.104
 5316.00    1.35787   1.34878   33.337
 5317.00    1.35211   1.34448   33.276
 5318.00    1.35691   1.34911   33.036
 5319.00    1.36687   1.35828   32.957
 5320.00    1.36934   1.36385   33.117
 5321.00    1.36153   1.36031   33.389
 5322.00    1.35641   1.34763   33.832
 5323.00    1.34197   1.32947   34.380
 5324.00    1.33436   1.31014   34.611
 5325.00    1.33328   1.29096   34.774
 5326.00    1.31631   1.26881   36.051
 5327.00    1.26973   1.24212   38.232
 5328.00    1.23819   1.21942   38.795
 5329.00    1.25628   1.21567   36.957
 5330.00    1.29946   1.23701   -1.000
 5331.00    1.34181   1.27301   -1.000
 5332.00    1.36026   1.30639   33.706
 5333.00    1.36402   1.32846   33.368
 5334.00    1.36962   1.34155   33.026
 5335.00    1.37351   1.34942   32.973
 5336.00    1.36848   1.35208   33.207
 5337.00    1.35834   1.34817   33.452
 5338.00    1.35188   1.33729   33.927
 5339.00    1.33964   1.32124   34.765
 5340.00    1.31961   1.30572   35.169
 5341.00    1.32284   1.29909   34.682
 5342.00    1.34534   1.30577   33.771
 5343.00    1.36336   1.32077   33.313
 5344.00    1.37870   1.33317   33.393
 5345.00    1.37220   1.33601   33.623
 5346.00    1.37061   1.33074   33.828
 5347.00    1.35954   1.32328   34.020
 5348.00    1.34757   1.31871   34.290
 5349.00    1.34908   1.31974   34.227
 5350.00    1.35591   1.32737   33.602
 5351.00    1.37577   1.34045   32.882
 5352.00    1.38674   1.35518   32.560
 5353.00    1.38144   1.36767   32.442
 5354.00    1.38917   1.37756   32.141
 5355.00    1.40579   1.38684   31.756
 5356.00    1.40998   1.39578   31.585
 5357.00    1.40687   1.40234   31.634
 5358.00    1.40805   1.40469   31.697
 5359.00    1.41422   1.40241   31.871
 5360.00    1.40222   1.39544   32.296
 5361.00    1.38146   1.38376   32.835
 5362.00    1.36577   1.36873   33.259
 5363.00    1.35641   1.35338   33.468
 5364.00    1.35147   1.34086   33.662
 5365.00    1.34789   1.33304   33.801
 5366.00    1.35734   1.32946   33.697
 5367.00    1.36108   1.32664   33.776
 5368.00    1.34688   1.31931   34.247
 5369.00    1.32911   1.30407   35.176
 5370.00    1.30133   1.28385   36.057
 5371.00    1.29970   1.26875   35.791
 5372.00    1.32061   1.27015   34.316
 5373.00    1.35084   1.29149   -1.000
 5374.00    1.38404   1.32448   -1.000
 5375.00    1.40522   1.35527   32.102
 5376.00    1.41815   1.37470   32.202
 5377.00    1.41880   1.38207   32.217
 5378.00    1.40760   1.38143   32.311
 5379.00    1.39734   1.37668   32.535
 5380.00    1.38590   1.36977   32.867
 5381.00    1.37355   1.36170   33.156
 5382.00    1.36707   1.35411   33.267
 5383.00    1.37147   1.34994   33.204
 5384.00    1.38042   1.35215   32.995
 5385.00    1.39424   1.36074   32.688
 5386.00    1.39856   1.37127   32.690
 5387.00    1.39937   1.37756   32.888
 5388.00    1.38935   1.37612   33.257
 5389.00    1.37428   1.36772   33.752
 5390.00    1.37068   1.35572   34.071
 5391.00    1.36991   1.34358   34.179
 5392.00    1.36649   1.33338   34.205
 5393.00    1.35829   1.32556   34.349
 5394.00    1.34625   1.31859   34.657
 5395.00    1.34053   1.30963   35.182
 5396.00    1.32812   1.29821   35.768
 5397.00    1.31686   1.28909   35.503
 5398.00    1.33879   1.28935   34.382
 5399.00    1.37017   1.30126   -1.000
 5400.00    1.37568   1.31852   -1.000
 5401.00    1.36636   1.33096   33.598
 5402.00    1.36449   1.33118   34.038
 5403.00    1.34524   1.31737   35.150
 5404.00    1.31581   1.29440   36.168
 5405.00    1.29847   1.27300   36.464
 5406.00    1.30476   1.26339   35.922
 5407.00    1.33061   1.26745   -1.000
 5408.00    1.34984   1.27788   -1.000
 5409.00    1.33749   1.28633   -1.000
 5410.00    1.33593   1.29233   34.968
 5411.00    1.35217   1.30137   34.012
 5412.00    1.37517   1.31579   -1.000
 5413.00    1.38592   1.33118   -1.000
 5414.00    1.38281   1.34240   33.133
 5415.00    1.38081   1.34986   33.089
 5416.00    1.38228   1.35731   32.829
 5417.00    1.39192   1.36558   32.698
 5418.00    1.38855   1.37196   32.900
 5419.00    1.38409   1.37407   33.213
 5420.00    1.38603   1.37216   33.328
 5421.00    1.38134   1.36764   33.169
 5422.00    1.38064   1.36115   33.166
 5423.00    1.37804   1.35352   33.644
 5424.00    1.36922   1.34803   33.791
 5425.00    1.37462   1.34884   33.335
 5426.00    1.38582   1.35515   32.900
 5427.00    1.38165   1.35852   33.229
 5428.00    1.35751   1.35065   34.243
 5429.00    1.33605   1.33347   35.128
 5430.00    1.34099   1.31773   34.955
 5431.00    1.35318   1.31148   34.412
 5432.00    1.36027   1.31208   34.556
 5433.00    1.35303   1.31188   35.068
 5434.00    1.33814   1.30904   35.347
 5435.00    1.33715   1.30970   35.050
 5436.00    1.35207   1.32060   34.251
 5437.00    1.37058   1.34180   33.338
 5438.00    1.39510   1.36638   32.709
 5439.00    1.41317   1.38654   32.309
 5440.00    1.41562   1.39919   32.099
 5441.00    1.41769   1.40536   32.072
 5442.00    1.41593   1.40533   32.147
 5443.00    1.40843   1.39660   32.625
 5444.00    1.38365   1.37682   33.640
 5445.00    1.34843   1.34861   35.012
 5446.00    1.32914   1.32123   35.835
 5447.00    1.33005   1.30640   35.265
 5448.00    1.34902   1.31049   34.100
 5449.00    1.38408   1.32948   -1.000
 5450.00    1.40555   1.35200   33.100
 5451.00    1.41152   1.36713   33.186
 5452.00    1.40458   1.36916   33.596
 5453.00    1.38198   1.35773   34.461
 5454.00    1.35580   1.33763   35.416
 5455.00    1.33262   1.31884   35.882
 5456.00    1.34354   1.31285   35.100
 5457.00    1.36883   1.32442   33.889
 5458.00    1.40179   1.34643   -1.000
 5459.00    1.40694   1.36535   33.142
 5460.00    1.39861   1.37167   33.626
 5461.00    1.39635   1.36485   34.239
 5462.00    1.38334   1.35162   34.626
 5463.00    1.37692   1.34099   34.658
 5464.00    1.37691   1.33904   34.184
 5465.00    1.38691   1.34598   33.844
 5466.00    1.39714   1.35722   33.655
 5467.00    1.40627   1.36779   33.310
 5468.00    1.40718   1.37512   33.291
 5469.00    1.40977   1.37842   33.648
 5470.00    1.40037   1.37741   33.949
 5471.00    1.38737   1.37269   34.062
 5472.00    1.38847   1.36532   34.281
 5473.00    1.38536   1.35526   34.676
 5474.00    1.37290   1.34156   35.235
 5475.00    1.35534   1.32484   35.967
 5476.00    1.33332   1.30974   36.314
 5477.00    1.33372   1.30344   35.736
 5478.00    1.35718   1.30970   34.675
 5479.00    1.37968   1.32418   -1.000
 5480.00    1.39169   1.33753   -1.000
 5481.00    1.38180   1.34436   34.957
 5482.00    1.37078   1.34771   34.726
 5483.00    1.38003   1.35364   34.053
 5484.00    1.39750   1.36342   33.438
 5485.00    1.40173   1.37241   33.315
 5486.00    1.38643   1.37534   33.723
 5487.00    1.37619   1.37178   34.155
 5488.00    1.37552   1.36639   34.286
 5489.00    1.38008   1.36422   34.224
 5490.00    1.38250   1.36659   33.960
 5491.00    1.39774   1.37119   33.740
 5492.00    1.40137   1.37523   33.670
 5493.00    1.39441   1.37739   33.748
 5494.00    1.39891   1.37737   33.750
 5495.00    1.39876   1.37479   33.799
 5496.00    1.38865   1.36965   34.067
 5497.00    1.38041   1.36371   34.211
 5498.00    1.37975   1.35963   33.944
 5499.00    1.39220   1.35785   33.688
 5500.00    1.39278   1.35558   34.077
 5501.00    1.37691   1.35062   34.539
 5502.00    1.37761   1.34506   34.477
 5503.00    1.38738   1.34229   34.213
 5504.00    1.38914   1.34156   34.280
 5505.00    1.38472   1.33923   34.765
 5506.00    1.36926   1.33474   34.947
 5507.00    1.36793   1.33226   34.516
 5508.00    1.38139   1.33565   34.033
 5509.00    1.39980   1.34302   -1.000
 5510.00    1.39437   1.34772   34.357
 5511.00    1.38418   1.34495   35.048
 5512.00    1.37636   1.33588   35.555
 5513.00    1.36237   1.32693   35.684
 5514.00    1.36544   1.32471   35.153
 5515.00    1.38620   1.33153   -1.000
 5516.00    1.40570   1.34493   -1.000
 5517.00    1.42546   1.36059   -1.000
 5518.00    1.43017   1.37494   -1.000
 5519.00    1.43167   1.38553   32.910
 5520.00    1.43410   1.39138   32.972
 5521.00    1.43088   1.39315   33.050
 5522.00    1.43244   1.39246   33.156
 5523.00    1.42663   1.38972   33.239
 5524.00    1.41639   1.38315   33.508
 5525.00    1.40338   1.37035   34.055
 5526.00    1.38409   1.35162   34.892
 5527.00    1.36494   1.33207   35.646
 5528.00    1.35317   1.31999   35.566
 5529.00    1.36609   1.32195   34.680
 5530.00    1.38689   1.33687   -1.000
 5531.00    1.39760   1.35577   33.569
 5532.00    1.40238   1.36837   33.734
 5533.00    1.40729   1.37103   34.036
 5534.00    1.40205   1.36746   34.125
 5535.00    1.39531   1.36393   33.948
 5536.00    1.39816   1.36452   33.699
 5537.00    1.40677   1.36905   33.621
 5538.00    1.41726   1.37495   33.425
 5539.00    1.42990   1.38049   33.097
 5540.00    1.42911   1.38532   32.903
 5541.00    1.42684   1.38821   33.014
 5542.00    1.42028   1.38726   33.382
 5543.00    1.40855   1.38294   33.661
 5544.00    1.40791   1.37873   33.686
 5545.00    1.40962   1.37782   33.581
 5546.00    1.41920   1.38080   33.478
 5547.00    1.42891   1.38639   33.227
 5548.00    1.43993   1.39330   32.899
 5549.00    1.44683   1.40003   32.673
 5550.00    1.43794   1.40443   32.670
 5551.00    1.43352   1.40499   32.891
 5552.00    1.43137   1.40190   33.207
 5553.00    1.42737   1.39665   33.548
 5554.00    1.41935   1.39171   33.642
 5555.00    1.42268   1.38933   33.562
 5556.00    1.42319   1.38988   33.463
 5557.00    1.42670   1.39202   33.414
 5558.00    1.42445   1.39426   33.374
 5559.00    1.42116   1.39559   33.363
 5560.00    1.42925   1.39467   33.467
 5561.00    1.42529   1.39046   33.685
 5562.00    1.41744   1.38368   34.020
 5563.00    1.40787   1.37661   34.215
 5564.00    1.39720   1.37110   34.295
 5565.00    1.40172   1.36731   34.356
 5566.00    1.40726   1.36451   34.364
 5567.00    1.40190   1.36216   34.282
 5568.00    1.39939   1.36005   34.249
 5569.00    1.39944   1.35805   34.337
 5570.00    1.39830   1.35590   34.305
 5571.00    1.40355   1.35341   -1.000
 5572.00    1.40090   1.35104   -1.000
 5573.00    1.38872   1.35042   34.167
 5574.00    1.38377   1.35304   33.801
 5575.00    1.36435   1.35842   33.477
 5576.00    1.32983   1.36477   32.952
 5577.00    1.36802   1.37128   32.645
 5578.00    1.47396   1.37799   -1.000
 5579.00    1.54433   1.38367   -1.000
 5580.00    1.53278   1.38663   -1.000
 5581.00    1.39455   1.38674   34.132
 5582.00    1.40810   1.38512   33.830
 5583.00    1.41687   1.38215   33.844
 5584.00    1.41782   1.37582   34.186
 5585.00    1.39555   1.36253   35.026
 5586.00    1.36743   1.34113   35.899
 5587.00    1.33889   1.31656   36.575
 5588.00    1.32920   1.29818   36.644
 5589.00    1.34300   1.29287   -1.000
 5590.00    1.37067   1.30051   -1.000
 5591.00    1.38008   1.31529   -1.000
 5592.00    1.38718   1.32948   -1.000
 5593.00    1.38680   1.33871   -1.000
 5594.00    1.38691   1.34396   34.819
 5595.00    1.39342   1.34861   34.340
 5596.00    1.40569   1.35303   -1.000
 5597.00    1.40476   1.35399   -1.000
 5598.00    1.39220   1.34931   35.233
 5599.00    1.37993   1.34096   35.492
 5600.00    1.37224   1.33270   35.485
 5601.00    1.37153   1.32671   35.705
 5602.00    1.36804   1.32549   35.699
 5603.00    1.37899   1.33313   34.952
 5604.00    1.39738   1.35093   33.999
 5605.00    1.41901   1.37442   33.323
 5606.00    1.43826   1.39642   33.032
 5607.00    1.44361   1.41171   33.015
 5608.00    1.43849   1.41959   33.078
 5609.00    1.43548   1.42258   33.124
 5610.00    1.44552   1.42319   33.065
 5611.00    1.45197   1.42161   33.014
 5612.00    1.44505   1.41477   33.315
 5613.00    1.42385   1.39898   34.161
 5614.00    1.39677   1.37491   35.310
 5615.00    1.37623   1.35051   35.833
 5616.00    1.37129   1.33694   35.309
 5617.00    1.39428   1.33963   -1.000
 5618.00    1.41803   1.35396   -1.000
 5619.00    1.42201   1.37006   -1.000
 5620.00    1.42765   1.38194   33.917
 5621.00    1.43636   1.38796   -1.000
 5622.00    1.42718   1.38779   34.113
 5623.00    1.40932   1.38175   34.832
 5624.00    1.39778   1.37292   35.287
 5625.00    1.39948   1.36716   34.957
 5626.00    1.40985   1.36922   34.348
 5627.00    1.42261   1.37867   33.886
 5628.00    1.43028   1.39118   33.534
 5629.00    1.44210   1.40220   33.335
 5630.00    1.44580   1.40931   33.245
 5631.00    1.45424   1.41199   33.144
 5632.00    1.44720   1.41053   33.248
 5633.00    1.44617   1.40608   33.526
 5634.00    1.43860   1.40013   33.755
 5635.00    1.43234   1.39378   33.974
 5636.00    1.43705   1.38780   -1.000
 5637.00    1.42554   1.38322   34.401
 5638.00    1.42042   1.38064   34.373
 5639.00    1.42768   1.37968   -1.000
 5640.00    1.42096   1.37927   34.480
 5641.00    1.41671   1.37888   34.451
 5642.00    1.41691   1.37932   34.293
 5643.00    1.41949   1.38139   34.157
 5644.00    1.43398   1.38457   -1.000
 5645.00    1.43275   1.38801   33.845
 5646.00    1.42915   1.39116   33.768
 5647.00    1.43193   1.39323   33.688
 5648.00    1.43713   1.39371   33.672
 5649.00    1.44311   1.39316   -1.000
 5650.00    1.44150   1.39297   -1.000
 5651.00    1.43950   1.39391   33.421
 5652.00    1.43768   1.39501   33.403
 5653.00    1.43409   1.39402   33.584
 5654.00    1.43399   1.38929   33.880
 5655.00    1.41759   1.38019   34.285
 5656.00    1.40666   1.36691   35.071
 5657.00    1.38214   1.35142   36.080
 5658.00    1.35703   1.33838   36.350
 5659.00    1.37115   1.33311   35.657
 5660.00    1.39409   1.33675   -1.000
 5661.00    1.40258   1.34507   -1.000
 5662.00    1.40240   1.35350   -1.000
 5663.00    1.40758   1.36135   -1.000
 5664.00    1.42237   1.36973   -1.000
 5665.00    1.43177   1.37806   -1.000
 5666.00    1.42993   1.38340   -1.000
 5667.00    1.42196   1.38429   34.428
 5668.00    1.41196   1.38307   34.423
 5669.00    1.41180   1.38313   34.291
 5670.00    1.41635   1.38606   34.038
 5671.00    1.43502   1.39133   33.724
 5672.00    1.44153   1.39729   33.384
 5673.00    1.44201   1.40244   33.141
 5674.00    1.44153   1.40583   33.208
 5675.00    1.44128   1.40745   33.276
 5676.00    1.43723   1.40800   33.159
 5677.00    1.44594   1.40818   33.166
 5678.00    1.44982   1.40738   33.351
 5679.00    1.43546   1.40406   33.495
 5680.00    1.42608   1.39706   33.746
 5681.00    1.43265   1.38676   -1.000
 5682.00    1.42688   1.37549   -1.000
 5683.00    1.41745   1.36694   -1.000
 5684.00    1.41563   1.36389   -1.000
 5685.00    1.40942   1.36543   -1.000
 5686.00    1.40902   1.36765   34.433
 5687.00    1.40065   1.36735   34.797
 5688.00    1.40210   1.36574   34.757
 5689.00    1.41341   1.36707   -1.000
 5690.00    1.43641   1.37370   -1.000
 5691.00    1.44568   1.38414   -1.000
 5692.00    1.44533   1.39457   -1.000
 5693.00    1.44628   1.40214   33.225
 5694.00    1.44894   1.40632   33.271
 5695.00    1.45162   1.40765   33.310
 5696.00    1.44421   1.40663   33.469
 5697.00    1.43433   1.40316   33.839
 5698.00    1.42535   1.39732   34.215
 5699.00    1.41144   1.38968   34.521
 5700.00    1.40742   1.38193   34.852
 5701.00    1.40890   1.37627   34.887
 5702.00    1.40436   1.37402   34.559
 5703.00    1.40662   1.37485   34.255
 5704.00    1.41470   1.37627   34.277
 5705.00    1.41287   1.37510   34.599
 5706.00    1.39974   1.36914   35.153
 5707.00    1.38320   1.35862   35.800
 5708.00    1.36845   1.34582   36.262
 5709.00    1.36482   1.33446   36.365
 5710.00    1.36197   1.32884   36.182
 5711.00    1.36693   1.33191   35.691
 5712.00    1.39275   1.34346   -1.000
 5713.00    1.41836   1.36041   -1.000
 5714.00    1.43184   1.37798   -1.000
 5715.00    1.43662   1.39167   -1.000
 5716.00    1.44381   1.40025   -1.000
 5717.00    1.44491   1.40539   33.420
 5718.00    1.44498   1.40971   33.236
 5719.00    1.44974   1.41450   33.030
 5720.00    1.45491   1.41994   32.901
 5721.00    1.44587   1.42531   32.836
 5722.00    1.45634   1.42953   32.791
 5723.00    1.45374   1.43176   32.780
 5724.00    1.44469   1.43141   32.919
 5725.00    1.44342   1.42809   33.236
 5726.00    1.44316   1.42241   33.573
 5727.00    1.44148   1.41659   33.722
 5728.00    1.43777   1.41330   33.486
 5729.00    1.43595   1.41309   33.358
 5730.00    1.43844   1.41420   33.502
 5731.00    1.44015   1.41502   33.608
 5732.00    1.45102   1.41591   33.398
 5733.00    1.45970   1.41862   33.081
 5734.00    1.46488   1.42327   32.944
 5735.00    1.45863   1.42784   33.001
 5736.00    1.45268   1.43019   33.052
 5737.00    1.45420   1.43005   33.142
 5738.00    1.45619   1.42891   33.168
 5739.00    1.45132   1.42801   33.242
 5740.00    1.44733   1.42747   33.294
 5741.00    1.44306   1.42677   33.336
 5742.00    1.43821   1.42599   33.250
 5743.00    1.43988   1.42602   33.175
 5744.00    1.44516   1.42727   32.920
 5745.00    1.45503   1.42861   32.838
 5746.00    1.45149   1.42852   33.093
 5747.00    1.44277   1.42683   33.388
 5748.00    1.43953   1.42526   33.412
 5749.00    1.44670   1.42479   33.204
 5750.00    1.45532   1.42372   33.204
 5751.00    1.45515   1.41920   33.540
 5752.00    1.43543   1.41092   33.944
 5753.00    1.42219   1.40272   34.191
 5754.00    1.42700   1.39982   34.042
 5755.00    1.43381   1.40474   33.516
 5756.00    1.44932   1.41548   32.930
 5757.00    1.46220   1.42663   32.685
 5758.00    1.45983   1.43331   32.901
 5759.00    1.44897   1.43320   33.310
 5760.00    1.43900   1.42706   33.756
 5761.00    1.43240   1.41769   34.151
 5762.00    1.42929   1.40951   34.157
 5763.00    1.43683   1.40707   33.674
 5764.00    1.44596   1.41243   33.097
 5765.00    1.45596   1.42295   32.789
 5766.00    1.46777   1.43351   32.733
 5767.00    1.46980   1.44017   32.698
 5768.00    1.46290   1.44247   32.668
 5769.00    1.46235   1.44204   32.760
 5770.00    1.46569   1.44002   32.889
 5771.00    1.45921   1.43655   33.086
 5772.00    1.44482   1.43175   33.264
 5773.00    1.43062   1.42670   33.322
 5774.00    1.43574   1.42309   33.334
 5775.00    1.43938   1.42197   33.228
 5776.00    1.44123   1.42260   33.084
 5777.00    1.43072   1.42259   33.102
 5778.00    1.40785   1.41882   33.308
 5779.00    1.38518   1.40989   33.900
 5780.00    1.37433   1.39780   34.618
 5781.00    1.37687   1.38665   34.906
 5782.00    1.38815   1.37989   34.776
 5783.00    1.40243   1.37842   34.641
 5784.00    1.42048   1.38063   34.518
 5785.00    1.41712   1.38488   34.329
 5786.00    1.42385   1.39090   33.899
 5787.00    1.44691   1.39872   -1.000
 5788.00    1.44506   1.40651   33.324
 5789.00    1.44525   1.41121   33.416
 5790.00    1.44504   1.41226   33.529
 5791.00    1.44192   1.41241   33.401
 5792.00    1.44562   1.41493   33.115
 5793.00    1.44609   1.42087   32.903
 5794.00    1.44731   1.42820   32.747
 5795.00    1.44129   1.43389   32.795
 5796.00    1.43311   1.43600   33.017
 5797.00    1.43582   1.43495   33.139
 5798.00    1.44368   1.43353   32.878
 5799.00    1.46110   1.43477   32.428
 5800.00    1.47155   1.43899   32.069
 5801.00    1.47064   1.44363   32.114
 5802.00    1.46998   1.44579   32.412
 5803.00    1.47101   1.44417   32.661
 5804.00    1.46297   1.43979   32.902
 5805.00    1.45071   1.43530   32.982
 5806.00    1.44893   1.43308   32.873
 5807.00    1.44838   1.43366   32.753
 5808.00    1.45387   1.43588   32.681
 5809.00    1.46125   1.43845   32.682
 5810.00    1.46672   1.44071   32.624
 5811.00    1.46735   1.44217   32.498
 5812.00    1.46938   1.44205   32.445
 5813.00    1.47898   1.43985   32.575
 5814.00    1.47235   1.43587   32.838
 5815.00    1.46517   1.43143   32.897
 5816.00    1.46895   1.42884   32.684
 5817.00    1.47682   1.43022   -1.000
 5818.00    1.48214   1.43529   -1.000
 5819.00    1.48021   1.44126   32.153
 5820.00    1.48358   1.44536   32.090
 5821.00    1.48565   1.44715   32.172
 5822.00    1.48152   1.44759   32.250
 5823.00    1.48699   1.44764   32.176
 5824.00    1.48958   1.44766   32.129
 5825.00    1.48957   1.44787   32.074
 5826.00    1.49301   1.44859   -1.000
 5827.00    1.48966   1.44985   32.082
 5828.00    1.49393   1.45112   32.122
 5829.00    1.48858   1.45183   32.060
 5830.00    1.48239   1.45182   32.067
 5831.00    1.48811   1.45127   32.041
 5832.00    1.48649   1.45015   32.155
 5833.00    1.48892   1.44844   32.347
 5834.00    1.48765   1.44666   32.340
 5835.00    1.48073   1.44584   32.229
 5836.00    1.48292   1.44659   32.213
 5837.00    1.49445   1.44833   -1.000
 5838.00    1.48621   1.44984   32.353
 5839.00    1.48187   1.45065   32.198
 5840.00    1.48308   1.45132   31.965
 5841.00    1.47658   1.45215   31.849
 5842.00    1.48395   1.45254   31.898
 5843.00    1.48826   1.45170   32.017
 5844.00    1.48064   1.44935   32.164
 5845.00    1.47812   1.44572   32.377
 5846.00    1.47855   1.44150   32.530
 5847.00    1.47795   1.43793   32.645
 5848.00    1.48100   1.43579   -1.000
 5849.00    1.47457   1.43428   32.706
 5850.00    1.46792   1.43143   32.910
 5851.00    1.46070   1.42593   33.146
 5852.00    1.45599   1.41842   33.447
 5853.00    1.45083   1.41059   33.561
 5854.00    1.44734   1.40341   -1.000
 5855.00    1.44884   1.39575   -1.000
 5856.00    1.44346   1.38637   -1.000
 5857.00    1.43416   1.37682   -1.000
 5858.00    1.44152   1.37196   -1.000
 5859.00    1.45434   1.37571   -1.000
 5860.00    1.46175   1.38611   -1.000
 5861.00    1.46814   1.39781   -1.000
 5862.00    1.46491   1.40714   -1.000
 5863.00    1.46523   1.41316   -1.000
 5864.00    1.47275   1.41611   -1.000
 5865.00    1.46423   1.41594   -1.000
 5866.00    1.45509   1.41340   33.430
 5867.00    1.46090   1.41153   -1.000
 5868.00    1.47535   1.41332   -1.000
 5869.00    1.48055   1.41918   -1.000
 5870.00    1.47877   1.42647   -1.000
 5871.00    1.48492   1.43151   -1.000
 5872.00    1.48052   1.43245   -1.000
 5873.00    1.48019   1.43002   -1.000
 5874.00    1.47454   1.42621   -1.000
 5875.00    1.47454   1.42262   -1.000
 5876.00    1.47458   1.41970   -1.000
 5877.00    1.47084   1.41708   -1.000
 5878.00    1.46971   1.41408   -1.000
 5879.00    1.46967   1.41036   -1.000
 5880.00    1.46165   1.40599   -1.000
 5881.00    1.45363   1.40105   -1.000
 5882.00    1.45308   1.39531   -1.000
 5883.00    1.45484   1.38855   -1.000
 5884.00    1.44420   1.38063   -1.000
 5885.00    1.43551   1.36955   -1.000
 5886.00    1.39989   1.34974   -1.000
 5887.00    1.31126   1.31420   35.956
 5888.00    1.18129   1.26258   38.421
 5889.00    1.09081   1.20810   -1.000
 5890.00    1.10405   1.17172   40.540
 5891.00    1.20573   1.16586   39.141
 5892.00    1.29931   1.18233   -1.000
 5893.00    1.29481   1.19915   -1.000
 5894.00    1.21728   1.20228   38.069
 5895.00    1.14909   1.19442   38.927
 5896.00    1.17603   1.19035   38.398
 5897.00    1.28175   1.20318   -1.000
 5898.00    1.36909   1.23397   -1.000
 5899.00    1.41120   1.27296   -1.000
 5900.00    1.43221   1.30942   -1.000
 5901.00    1.44098   1.33945   -1.000
 5902.00    1.45432   1.36236   -1.000
 5903.00    1.46205   1.37786   -1.000
 5904.00    1.46459   1.38698   -1.000
 5905.00    1.45931   1.39210   -1.000
 5906.00    1.46229   1.39560   -1.000
 5907.00    1.46570   1.39885   -1.000
 5908.00    1.46693   1.40194   -1.000
 5909.00    1.46322   1.40456   -1.000
 5910.00    1.45780   1.40604   -1.000
 5911.00    1.45879   1.40532   -1.000
 5912.00    1.45373   1.40149   -1.000
 5913.00    1.44147   1.39490   -1.000
 5914.00    1.43404   1.38782   -1.000
 5915.00    1.43077   1.38350   -1.000
 5916.00    1.42770   1.38371   -1.000
 5917.00    1.42599   1.38802   34.116
 5918.00    1.43315   1.39455   33.982
 5919.00    1.44412   1.40085   -1.000
 5920.00    1.45144   1.40504   -1.000
 5921.00    1.44791   1.40673   33.835
 5922.00    1.43685   1.40707   33.825
 5923.00    1.44533   1.40754   33.675
 5924.00    1.45614   1.40920   -1.000
 5925.00    1.45900   1.41169   -1.000
 5926.00    1.46716   1.41336   -1.000
 5927.00    1.46377   1.41222   -1.000
 5928.00    1.46191   1.40777   -1.000
 5929.00    1.45983   1.40217   -1.000
 5930.00    1.45433   1.39888   -1.000
 5931.00    1.45614   1.39957   -1.000
 5932.00    1.45097   1.40281   -1.000
 5933.00    1.45475   1.40577   -1.000
 5934.00    1.46064   1.40734   -1.000
 5935.00    1.45524   1.40911   -1.000
 5936.00    1.45899   1.41229   -1.000
 5937.00    1.46182   1.41578   -1.000
 5938.00    1.45696   1.41747   33.503
 5939.00    1.45183   1.41606   33.710
 5940.00    1.44299   1.41224   34.044
 5941.00    1.44107   1.40832   34.153
 5942.00    1.44141   1.40649   34.062
 5943.00    1.44505   1.40744   33.843
 5944.00    1.45211   1.40993   -1.000
 5945.00    1.44932   1.41191   33.597
 5946.00    1.45110   1.41175   -1.000
 5947.00    1.44976   1.40928   -1.000
 5948.00    1.44675   1.40593   -1.000
 5949.00    1.45004   1.40376   -1.000
 5950.00    1.45599   1.40338   -1.000
 5951.00    1.44542   1.40359   -1.000
 5952.00    1.44053   1.40309   34.214
 5953.00    1.44563   1.40198   -1.000
 5954.00    1.44568   1.40129   -1.000
 5955.00    1.43966   1.40089   34.160
 5956.00    1.44595   1.40014   -1.000
 5957.00    1.44190   1.40017   -1.000
 5958.00    1.44649   1.40278   -1.000
 5959.00    1.45331   1.40820   -1.000
 5960.00    1.47261   1.41491   -1.000
 5961.00    1.47888   1.42057   -1.000
 5962.00    1.47758   1.42365   -1.000
 5963.00    1.46955   1.42397   -1.000
 5964.00    1.46559   1.42210   -1.000
 5965.00    1.45858   1.41926   33.709
 5966.00    1.46052   1.41703   -1.000
 5967.00    1.46418   1.41665   -1.000
 5968.00    1.46059   1.41840   -1.000
 5969.00    1.46088   1.42161   33.365
 5970.00    1.46701   1.42523   -1.000
 5971.00    1.46995   1.42800   -1.000
 5972.00    1.47104   1.42859   -1.000
 5973.00    1.47153   1.42626   -1.000
 5974.00    1.46369   1.42101   -1.000
 5975.00    1.45108   1.41386   34.048
 5976.00    1.43799   1.40707   34.267
 5977.00    1.43170   1.40338   34.331
 5978.00    1.44276   1.40432   -1.000
 5979.00    1.45688   1.40890   -1.000
 5980.00    1.45767   1.41386   -1.000
 5981.00    1.45556   1.41565   -1.000
 5982.00    1.45356   1.41258   -1.000
 5983.00    1.44543   1.40615   -1.000
 5984.00    1.44145   1.40009   -1.000
 5985.00    1.43945   1.39795   -1.000
 5986.00    1.44232   1.40053   -1.000
 5987.00    1.44804   1.40592   -1.000
 5988.00    1.44580   1.41148   33.751
 5989.00    1.44802   1.41563   33.632
 5990.00    1.45032   1.41825   33.721
 5991.00    1.45589   1.42041   33.736
 5992.00    1.46400   1.42346   -1.000
 5993.00    1.46608   1.42749   -1.000
 5994.00    1.47122   1.43065   -1.000
 5995.00    1.47266   1.43065   -1.000
 5996.00    1.46794   1.42758   -1.000
 5997.00    1.45394   1.42367   33.873
 5998.00    1.44700   1.42098   33.902
 5999.00    1.45229   1.42001   33.850
 6000.00    1.45475   1.41951   33.940
 6001.00    1.45193   1.41806   34.140
 6002.00    1.45614   1.41545   -1.000
 6003.00    1.45711   1.41280   -1.000
 6004.00    1.44769   1.41094   -1.000
 6005.00    1.44564   1.40895   -1.000
 6006.00    1.43785   1.40517   34.482
 6007.00    1.43355   1.40000   34.750
 6008.00    1.42802   1.39688   34.598
 6009.00    1.43117   1.39873   34.168
 6010.00    1.43728   1.40458   33.919
 6011.00    1.44637   1.41049   -1.000
 6012.00    1.45040   1.41294   -1.000
 6013.00    1.45320   1.41198   -1.000
 6014.00    1.44843   1.40978   -1.000
 6015.00    1.44879   1.40785   -1.000
 6016.00    1.45153   1.40651   -1.000
 6017.00    1.45569   1.40510   -1.000
 6018.00    1.44727   1.40290   -1.000
 6019.00    1.43706   1.39972   -1.000
 6020.00    1.43849   1.39635   -1.000
 6021.00    1.44206   1.39426   -1.000
 6022.00    1.44014   1.39456   -1.000
 6023.00    1.43334   1.39724   -1.000
 6024.00    1.44413   1.40177   -1.000
 6025.00    1.45224   1.40813   -1.000
 6026.00    1.45423   1.41572   -1.000
 6027.00    1.45678   1.42293   33.618
 6028.00    1.46128   1.42888   33.509
 6029.00    1.46625   1.43372   33.487
 6030.00    1.46392   1.43732   33.519
 6031.00    1.46422   1.43972   33.571
 6032.00    1.46932   1.44159   33.467
 6033.00    1.47583   1.44349   33.326
 6034.00    1.47028   1.44519   33.269
 6035.00    1.46866   1.44608   33.250
 6036.00    1.46968   1.44572   33.205
 6037.00    1.47594   1.44419   33.295
 6038.00    1.47349   1.44174   33.472
 6039.00    1.46629   1.43862   33.531
 6040.00    1.46257   1.43552   33.600
 6041.00    1.45457   1.43352   33.510
 6042.00    1.45429   1.43354   33.440
 6043.00    1.46257   1.43568   33.226
 6044.00    1.46819   1.43921   33.024
 6045.00    1.46942   1.44314   33.078
 6046.00    1.47790   1.44670   33.062
 6047.00    1.47732   1.44970   33.023
 6048.00    1.46744   1.45210   33.090
 6049.00    1.46857   1.45347   33.204
 6050.00    1.46895   1.45356   33.260
 6051.00    1.46835   1.45234   33.294
 6052.00    1.47319   1.44968   33.382
 6053.00    1.47104   1.44532   33.518
 6054.00    1.46575   1.43981   33.636
 6055.00    1.46113   1.43478   33.814
 6056.00    1.46051   1.43214   33.862
 6057.00    1.46139   1.43275   33.756
 6058.00    1.46086   1.43592   33.565
 6059.00    1.46553   1.43980   33.450
 6060.00    1.46389   1.44233   33.525
 6061.00    1.46309   1.44187   33.704
 6062.00    1.43699   1.43720   34.285
 6063.00    1.24445   1.42849   -1.000
 6064.00    1.20942   1.41849   -1.000
 6065.00    1.40664   1.41181   28.292
 6066.00    0.96817   1.41235   -1.000
 6067.00    0.46090   1.42017   -1.000
 6068.00    0.85214   1.43124   -1.000
 6069.00    1.45159   1.44139   33.341
 6070.00    1.45440   1.44857   32.467
 6071.00    1.39623   1.45272   32.382
 6072.00    0.89605   1.45492   -1.000
 6073.00    0.59932   1.45605   -1.000
 6074.00    1.48203   1.45614   33.236
 6075.00    1.47715   1.45449   33.375
 6076.00    1.46228   1.45049   33.559
 6077.00    1.45912   1.44458   33.770
 6078.00    1.46143   1.43816   34.027
 6079.00    1.46140   1.43280   34.179
 6080.00    1.44149   1.42919   34.179
 6081.00    1.43768   1.42660   34.233
 6082.00    1.44170   1.42426   34.313
 6083.00    1.44141   1.42253   34.291
 6084.00    1.44684   1.42214   34.263
 6085.00    1.44613   1.42355   34.209
 6086.00    1.44597   1.42656   34.092
 6087.00    1.45054   1.42983   34.003
 6088.00    1.45681   1.43157   34.130
 6089.00    1.44729   1.43098   34.335
 6090.00    1.43842   1.42908   34.430
 6091.00    1.44082   1.42764   34.343
 6092.00    1.44462   1.42810   34.113
 6093.00    1.44760   1.43075   33.946
 6094.00    1.45220   1.43483   33.761
 6095.00    1.44912   1.43918   33.661
 6096.00    1.46059   1.44279   33.709
 6097.00    1.45736   1.44485   33.783
 6098.00    1.44664   1.44393   33.792
 6099.00    1.44905   1.43795   33.894
 6100.00    1.43814   1.42533   34.455
 6101.00    1.41899   1.40760   35.274
 6102.00    1.40524   1.39099   35.591
 6103.00    1.40846   1.38306   35.139
 6104.00    1.42627   1.38751   -1.000
 6105.00    1.44245   1.40069   -1.000
 6106.00    1.44205   1.41547   34.057
 6107.00    1.43991   1.42745   34.198
 6108.00    1.44146   1.43564   34.248
 6109.00    1.44561   1.44078   34.209
 6110.00    1.44754   1.44370   34.110
 6111.00    1.44895   1.44512   33.988
 6112.00    1.45108   1.44623   33.954
 6113.00    1.44469   1.44776   33.776
 6114.00    1.44011   1.44934   33.763
 6115.00    1.44525   1.45012   33.939
 6116.00    1.45065   1.44934   34.127
 6117.00    1.44230   1.44645   34.183
 6118.00    1.43917   1.44030   34.449
 6119.00    1.43182   1.42893   34.973
 6120.00    1.41524   1.41231   35.385
 6121.00    1.40177   1.39401   35.632
 6122.00    1.40072   1.38038   35.472
 6123.00    1.40792   1.37692   34.865
 6124.00    1.42067   1.38370   -1.000
 6125.00    1.43031   1.39626   -1.000
 6126.00    1.43046   1.40885   34.795
 6127.00    1.42704   1.41830   34.712
 6128.00    1.42828   1.42505   34.584
 6129.00    1.43507   1.43125   34.266
 6130.00    1.43411   1.43823   34.005
 6131.00    1.44140   1.44474   33.997
 6132.00    1.44884   1.44766   34.139
 6133.00    1.43356   1.44341   34.604
 6134.00    1.41180   1.42948   35.499
 6135.00    1.38851   1.40720   36.536
 6136.00    1.36902   1.38350   37.227
 6137.00    1.36282   1.36703   36.978
 6138.00    1.37085   1.36240   35.920
 6139.00    1.39160   1.36748   35.061
 6140.00    1.40762   1.37692   -1.000
 6141.00    1.40703   1.38878   34.955
 6142.00    1.40779   1.40281   34.900
 6143.00    1.41944   1.41707   34.486
 6144.00    1.42532   1.42859   34.163
 6145.00    1.43366   1.43483   34.205
 6146.00    1.44174   1.43558   34.396
 6147.00    1.42866   1.43234   34.627
 6148.00    1.41797   1.42691   34.869
 6149.00    1.41851   1.42131   35.015
 6150.00    1.41619   1.41766   34.962
 6151.00    1.42520   1.41714   34.792
 6152.00    1.43325   1.41907   34.588
 6153.00    1.42809   1.42066   34.656
 6154.00    1.43894   1.41958   34.957
 6155.00    1.43450   1.41639   35.078
 6156.00    1.42472   1.41270   35.119
 6157.00    1.41936   1.40816   35.340
 6158.00    1.41239   1.39963   35.816
 6159.00    1.39498   1.38336   36.635
 6160.00    1.37037   1.35866   37.781
 6161.00    1.34462   1.33080   38.679
 6162.00    1.33579   1.30923   38.724
 6163.00    1.34208   1.30150   -1.000
 6164.00    1.36042   1.30841   -1.000
 6165.00    1.36906   1.32328   -1.000
 6166.00    1.37656   1.33734   -1.000
 6167.00    1.36831   1.34439   36.715
 6168.00    1.35720   1.34419   37.209
 6169.00    1.34684   1.34180   37.398
 6170.00    1.35168   1.34394   36.934
 6171.00    1.37103   1.35320   36.227
 6172.00    1.38163   1.36646   35.890
 6173.00    1.38766   1.37944   35.981
 6174.00    1.39961   1.38942   35.969
 6175.00    1.40205   1.39597   35.873
 6176.00    1.39525   1.40011   35.802
 6177.00    1.39994   1.40330   35.680
 6178.00    1.41076   1.40637   35.506
 6179.00    1.40270   1.40950   35.389
 6180.00    1.40251   1.41293   35.263
 6181.00    1.40700   1.41674   35.112
 6182.00    1.41038   1.42010   35.074
 6183.00    1.41161   1.42151   35.176
 6184.00    1.41169   1.41992   35.345
 6185.00    1.40405   1.41547   35.674
 6186.00    1.40012   1.40906   36.070
 6187.00    1.39753   1.40145   36.430
 6188.00    1.38539   1.39257   36.752
 6189.00    1.37745   1.38207   37.064
 6190.00    1.36988   1.37145   37.517
 6191.00    1.35576   1.36460   37.547
 6192.00    1.36362   1.36554   36.918
 6193.00    1.38449   1.37437   36.032
 6194.00    1.39549   1.38667   35.586
 6195.00    1.39962   1.39803   35.447
 6196.00    1.40047   1.40584   35.482
 6197.00    1.39666   1.40893   35.795
 6198.00    1.39429   1.40776   36.198
 6199.00    1.38739   1.40451   36.388
 6200.00    1.37679   1.40229   36.228
 6201.00    1.37511   1.40358   35.801
 6202.00    1.38914   1.40839   35.438
 6203.00    1.40087   1.41492   35.410
 6204.00    1.40531   1.42118   35.401
 6205.00    1.41489   1.42594   35.347
 6206.00    1.41565   1.42896   35.392
 6207.00    1.41557   1.43038   35.509
 6208.00    1.41433   1.42997   35.526
 6209.00    1.40481   1.42687   35.752
 6210.00    1.39761   1.42021   36.086
 6211.00    1.39447   1.41003   36.377
 6212.00    1.39089   1.39774   36.797
 6213.00    1.37699   1.38604   37.334
 6214.00    1.36892   1.37753   37.608
 6215.00    1.37143   1.37316   37.520
 6216.00    1.37618   1.37153   37.041
 6217.00    1.38612   1.37065   37.034
 6218.00    1.38849   1.36952   37.256
 6219.00    1.37500   1.36916   37.020
 6220.00    1.37486   1.37112   36.870
 6221.00    1.38422   1.37547   37.796
 6222.00    1.39101   1.38074   39.860
 6223.00    1.36190   1.38489   37.847
 6224.00    1.21581   1.38736   -1.000
 6225.00    1.30682   1.38803   36.674
 6226.00    1.41848   1.38616   -1.000
 6227.00    1.38869   1.38059   37.037
 6228.00    1.37949   1.37060   37.605
 6229.00    1.36525   1.35789   38.202
 6230.00    1.35240   1.34680   38.499
 6231.00    1.35107   1.34212   38.156
 6232.00    1.36004   1.34597   37.526
 6233.00    1.37806   1.35613   36.826
 6234.00    1.39586   1.36794   36.354
 6235.00    1.40295   1.37668   36.342
 6236.00    1.39426   1.38012   36.661
 6237.00    1.38113   1.37872   37.042
 6238.00    1.37355   1.37473   37.422
 6239.00    1.36859   1.37035   37.761
 6240.00    1.37046   1.36632   37.842
 6241.00    1.36604   1.36210   37.889
 6242.00    1.35719   1.35680   38.198
 6243.00    1.35219   1.35026   38.368
 6244.00    1.34937   1.34389   38.254
 6245.00    1.35824   1.34051   37.953
 6246.00    1.37405   1.34260   -1.000
 6247.00    1.38030   1.35082   -1.000
 6248.00    1.38396   1.36214   36.786
 6249.00    1.39279   1.37118   36.885
 6250.00    1.38172   1.37319   37.355
 6251.00    1.36109   1.36732   38.024
 6252.00    1.35446   1.35690   38.405
 6253.00    1.34632   1.34675   38.608
 6254.00    1.34395   1.34026   38.668
 6255.00    1.34241   1.33748   38.736
 6256.00    1.33709   1.33695   39.132
 6257.00    1.33539   1.33751   39.338
 6258.00    1.33980   1.33976   39.001
 6259.00    1.34957   1.34496   38.375
 6260.00    1.36697   1.35356   37.819
 6261.00    1.38194   1.36433   37.292
 6262.00    1.38395   1.37473   36.807
 6263.00    1.37876   1.38262   36.791
 6264.00    1.38223   1.38736   37.119
 6265.00    1.38645   1.39031   37.245
 6266.00    1.37212   1.39289   37.008
 6267.00    1.37095   1.39496   36.836
 6268.00    1.37559   1.39559   37.026
 6269.00    1.37300   1.39459   37.152
 6270.00    1.38045   1.39325   37.057
 6271.00    1.38369   1.39275   36.935
 6272.00    1.38041   1.39206   36.901
 6273.00    1.37870   1.38888   37.062
 6274.00    1.37288   1.38114   37.356
 6275.00    1.35383   1.36943   37.735
 6276.00    1.32985   1.35652   38.465
 6277.00    1.31088   1.34536   39.406
 6278.00    1.30141   1.33819   39.962
 6279.00    1.29073   1.33591   40.063
 6280.00    1.28572   1.33885   39.747
 6281.00    1.29461   1.34691   39.060
 6282.00    1.29859   1.35839   38.404
 6283.00    1.29996   1.37096   37.853
 6284.00    1.31206   1.38226   37.447
 6285.00    1.33396   1.39086   37.143
 6286.00    1.35556   1.39645   36.819
 6287.00    1.36511   1.39904   36.619
 6288.00    1.37749   1.39894   36.634
 6289.00    1.37803   1.39661   36.886
 6290.00    1.37726   1.39314   37.199
 6291.00    1.37197   1.39000   37.418
 6292.00    1.36858   1.38788   37.461
 6293.00    1.37196   1.38643   37.508
 6294.00    1.36894   1.38448   37.636
 6295.00    1.36160   1.38088   37.940
 6296.00    1.34543   1.37556   38.133
 6297.00    1.33529   1.36983   38.142
 6298.00    1.33160   1.36519   38.048
 6299.00    1.33017   1.36176   37.876
 6300.00    1.32621   1.35916   37.834
 6301.00    1.32658   1.35832   38.236
 6302.00    1.33765   1.36133   38.482
 6303.00    1.35993   1.36924   38.007
 6304.00    1.37892   1.38025   37.420
 6305.00    1.37986   1.39104   37.014
 6306.00    1.38381   1.39923   36.704
 6307.00    1.38831   1.40421   36.437
 6308.00    1.39304   1.40648   36.463
 6309.00    1.37908   1.40690   36.665
 6310.00    1.38426   1.40624   36.894
 6311.00    1.38617   1.40437   37.026
 6312.00    1.38470   1.40087   37.151
 6313.00    1.37618   1.39574   37.252
 6314.00    1.37100   1.38946   37.577
 6315.00    1.36332   1.38325   37.644
 6316.00    1.35261   1.37823   37.603
 6317.00    1.35180   1.37565   37.591
 6318.00    1.36504   1.37677   37.603
 6319.00    1.37265   1.38184   37.362
 6320.00    1.37549   1.38949   36.904
 6321.00    1.37972   1.39760   36.611
 6322.00    1.38209   1.40495   36.495
 6323.00    1.39192   1.41164   36.352
 6324.00    1.39954   1.41758   36.169
 6325.00    1.39764   1.42176   36.089
 6326.00    1.39813   1.42385   36.035
 6327.00    1.40199   1.42437   35.892
 6328.00    1.40440   1.42431   35.948
 6329.00    1.39352   1.42454   35.969
 6330.00    1.39595   1.42514   35.954
 6331.00    1.40344   1.42530   35.826
 6332.00    1.41104   1.42336   35.816
 6333.00    1.39917   1.41769   35.926
 6334.00    1.38218   1.40866   36.205
 6335.00    1.37417   1.39929   36.932
 6336.00    1.38111   1.39339   36.831
 6337.00    1.37722   1.39331   36.477
 6338.00    1.38580   1.39864   36.094
 6339.00    1.39519   1.40685   35.751
 6340.00    1.39451   1.41500   35.597
 6341.00    1.40214   1.42049   35.472
 6342.00    1.39653   1.42192   35.594
 6343.00    1.38969   1.42014   35.874
 6344.00    1.39370   1.41735   35.858
 6345.00    1.40078   1.41611   35.723
 6346.00    1.39841   1.41809   35.507
 6347.00    1.39986   1.42340   35.282
 6348.00    1.40457   1.43065   35.196
 6349.00    1.41004   1.43740   35.193
 6350.00    1.40952   1.44154   35.135
 6351.00    1.40753   1.44219   35.210
 6352.00    1.40125   1.43947   35.374
 6353.00    1.39367   1.43435   35.599
 6354.00    1.38771   1.42839   36.008
 6355.00    1.38655   1.42281   36.231
 6356.00    1.37948   1.41802   36.244
 6357.00    1.38151   1.41359   36.440
 6358.00    1.37870   1.40919   36.818
 6359.00    1.36716   1.40510   36.870
 6360.00    1.37467   1.40152   36.705
 6361.00    1.38159   1.39856   36.614
 6362.00    1.37408   1.39684   36.563
 6363.00    1.36377   1.39723   36.397
 6364.00    1.37711   1.40002   36.149
 6365.00    1.39316   1.40478   35.930
 6366.00    1.39456   1.41034   35.731
 6367.00    1.39665   1.41533   35.497
 6368.00    1.40170   1.41864   35.297
 6369.00    1.40177   1.42026   35.248
 6370.00    1.39749   1.42151   35.245
 6371.00    1.39968   1.42382   35.107
 6372.00    1.40016   1.42747   35.027
 6373.00    1.39635   1.43127   35.123
 6374.00    1.39319   1.43362   35.155
 6375.00    1.38946   1.43355   35.251
 6376.00    1.38457   1.43130   35.398
 6377.00    1.38916   1.42766   35.598
 6378.00    1.38566   1.42359   35.820
 6379.00    1.38369   1.41966   35.917
 6380.00    1.38057   1.41616   35.944
 6381.00    1.37270   1.41343   35.999
 6382.00    1.36498   1.41198   35.959
 6383.00    1.37068   1.41225   35.923
 6384.00    1.37120   1.41433   36.093
 6385.00    1.36380   1.41750   36.137
 6386.00    1.36069   1.42059   36.134
 6387.00    1.35479   1.42248   36.258
 6388.00    1.35474   1.42277   36.421
 6389.00    1.35373   1.42119   36.735
 6390.00    1.34566   1.41721   37.055
 6391.00    1.33050   1.41084   37.527
 6392.00    1.31732   1.40382   38.048
 6393.00    1.30499   1.39959   38.236
 6394.00    1.29959   1.40043   37.968
 6395.00    1.31128   1.40544   37.494
 6396.00    1.31096   1.41039   37.548
 6397.00    1.31428   1.41093   37.887
 6398.00    1.29960   1.40628   38.564
 6399.00    1.27335   1.39976   39.323
 6400.00    1.25841   1.39683   -1.000
 6401.00    1.26286   1.40053   38.871
 6402.00    1.28015   1.40966   38.344
 6403.00    1.28094   1.41993   38.263
 6404.00    1.27752   1.42682   -1.000
 6405.00    1.26853   1.42819   -1.000
 6406.00    1.25804   1.42499   -1.000
 6407.00    1.24616   1.42047   -1.000
 6408.00    1.24480   1.41706   -1.000
 6409.00    1.23940   1.41529   -1.000
 6410.00    1.22198   1.41434   -1.000
 6411.00    1.20602   1.41404   -1.000
 6412.00    1.19308   1.41513   -1.000
 6413.00    1.19373   1.41767   -1.000
 6414.00    1.19634   1.42070   -1.000
 6415.00    1.19321   1.42310   -1.000
 6416.00    1.19272   1.42395   -1.000
 6417.00    1.18259   1.42240   -1.000
 6418.00    1.16414   1.41796   -1.000
 6419.00    1.14681   1.41177   -1.000
 6420.00    1.12669   1.40721   -1.000
 6421.00    1.11745   1.40753   -1.000
 6422.00    1.10924   1.41371   -1.000
 6423.00    1.11140   1.42391   -1.000
 6424.00    1.12183   1.43432   -1.000
 6425.00    1.11745   1.44242   -1.000
 6426.00    1.09733   1.44652   -1.000
 6427.00    1.08211   1.44538   -1.000
 6428.00    1.07773   1.43887   -1.000
