###################################################################
## OUTPUT of StarlightChains_v04.for    [Cid@UFSC - 01/Apr/2007] ##
###################################################################

## Some input info
NGC7089_a_1.cxt                          [arq_obs]
Base.BC03.N                              [arq_base]
NGC7089_a_1.msk                          [arq_masks]
StCv04.C11.config                        [arq_config]
   45                                    [N_base]
    0                                    [N_YAV_components = # of components with extra extinction!]
    0                                    [i_FitPowerLaw (1/0 = Yes/No)]
-9.99                                    [alpha_PowerLaw]
CCM                                      [red_law_option]
 1.458241                                [q_norm = A(l_norm)/A(V)]

## (Re)Sampling Parameters
 3359.00                                 [l_ini (A)]
 6428.00                                 [l_fin (A)]
    1.00                                 [dl    (A)]     (OBS: dl_cushion =    50.00 A)

## Normalization info
 4020.00                                 [l_norm (A) - for base]
 4010.00                                 [llow_norm (A) - window for f_obs]
 4060.00                                 [lupp_norm (A) - window for f_obs]
7.608305E-14                             [fobs_norm (in input units)]

## S/N
 4730.00                                 [llow_SN (A) - window for S/N]
 4780.00                                 [lupp_SN (A) - window for S/N]
 117.458                                 [S/N in S/N window]
 112.425                                 [S/N in norm. window]
 300.443                                 [S/N_err in S/N window]
 287.568                                 [S/N_err in norm. window]
  1.0000                                 [fscale_chi2]

## etc...
  2147483586                             [idum_orig]
  3067                                   [NOl_eff]
   623                                   [Nl_eff]
  2444    NSIGMA                         [Ntot_cliped & clip_method]
   716520                                [Nglobal_steps]
   7                                     [N_chains]
   7                                     [NEX0s_base = N_base in EX0s-fits]
 0   0   1      249   2.0   6.084E+02    [Clip-Bug, RC-Crash & Burn-In warning-flags, n_censored_weights, wei_nsig_threshold & wei_limit]
    10     10.531     10.531      0.000  [idt_all, wdt_TotTime, wdt_UsrTime & wdt_SysTime (sec)]

## Synthesis Results - Best model ##

 2.94858E+00                             [chi2/Nl_eff]
     0.67361                             [adev (%)]

   103.70339                             [sum-of-x (%)]
 1.27654E-13                             [Flux_tot (units of input spectrum!)]
 6.96159E-10                             [Mini_tot (???)]
 3.87798E-10                             [Mcor_tot (???)]

 -12.39                                  [v0_min  (km/s)]
  97.78                                  [vd_min  (km/s)]
 0.3582                                  [AV_min  (mag)]
 0.0000                                  [YAV_min (mag)]

# j     x_j(%)      Mini_j(%)     Mcor_j(%)     age_j(yr)     Z_j      (L/M)_j    YAV?  Mstars   component_j        a/Fe...       SSP_chi2r SSP_adev(%)   SSP_AV   SSP_x(%)
  1      0.0000     0.0000E+00    0.0000E+00    1.000000E+06  0.00400  1.114E-02    0   1.0000   age020_m42            0.0000     2.1367E+03    14.4099   3.5573    77.0655
  2     14.5488     6.3160E-02    1.1337E-01    3.160000E+06  0.00400  4.073E-02    0   0.9999   age045_m42            0.0000     4.0676E+02     6.7398   2.5086    92.2217
  3      0.0000     0.0000E+00    0.0000E+00    5.010000E+06  0.00400  2.534E-02    0   0.9488   age055_m42            0.0000     1.0692E+03    10.5720   2.9594    85.1644
  4      3.3478     4.6574E-02    7.4093E-02    1.000000E+07  0.00400  1.271E-02    0   0.8862   age070_m42            0.0000     9.1171E+02    10.2483   2.1641    88.7166
  5      0.0000     0.0000E+00    0.0000E+00    2.512000E+07  0.00400  5.070E-03    0   0.8174   age090_m42            0.0000     7.7923E+02     9.4986   2.0235    90.3792
  6      0.0000     0.0000E+00    0.0000E+00    4.000000E+07  0.00400  3.505E-03    0   0.7851   age104_m42            0.0000     4.3814E+02     7.1222   1.6814    93.6592
  7     14.7294     1.1483E+00    1.4857E+00    1.015200E+08  0.00400  2.268E-03    0   0.7207   age116_m42            0.0000     7.8054E+02     5.7912   1.5493   105.9660
  8      0.0000     0.0000E+00    0.0000E+00    2.861200E+08  0.00400  1.079E-03    0   0.6613   age125_m42            0.0000     8.8307E+02     6.8812   1.0358   108.6406
  9      0.0000     0.0000E+00    0.0000E+00    6.405400E+08  0.00400  5.077E-04    0   0.6197   age132_m42            0.0000     9.9750E+02     7.2986   0.6628   113.1307
 10      9.0459     4.5247E+00    4.8931E+00    9.047900E+08  0.00400  3.535E-04    0   0.6024   age135_m42            0.0000     5.3130E+02     5.5845   0.4372   111.7924
 11     18.6964     1.7308E+01    1.7760E+01    1.434000E+09  0.00400  1.910E-04    0   0.5716   age139_m42            0.0000     1.9675E+02     4.4092  -0.0995   109.9671
 12     41.4696     7.4686E+01    7.3244E+01    2.500000E+09  0.00400  9.818E-05    0   0.5463   age150_m42            0.0000     1.9297E+02     3.9773  -0.3521   104.3327
 13      0.0000     0.0000E+00    0.0000E+00    5.000000E+09  0.00400  4.718E-05    0   0.5228   age161_m42            0.0000     3.9447E+02     4.7280  -0.5011   100.3684
 14      0.0000     0.0000E+00    0.0000E+00    1.100000E+10  0.00400  2.205E-05    0   0.4980   age185_m42            0.0000     8.2770E+02     6.7219  -0.7775    98.1163
 15      0.0000     0.0000E+00    0.0000E+00    1.300000E+10  0.00400  1.883E-05    0   0.4927   age193_m42            0.0000     9.0194E+02     6.9746  -0.7941    97.9147
 16      0.0000     0.0000E+00    0.0000E+00    1.000000E+06  0.02000  1.989E-02    0   1.0000   age020_m62            0.0000     2.1700E+03    14.3674   3.5181    77.7631
 17      0.0000     0.0000E+00    0.0000E+00    3.160000E+06  0.02000  3.772E-02    0   0.9858   age045_m62            0.0000     1.9233E+03    13.6510   3.3687    79.9300
 18      0.0000     0.0000E+00    0.0000E+00    5.010000E+06  0.02000  3.227E-02    0   0.9342   age055_m62            0.0000     6.8447E+02     8.6205   2.7937    88.3963
 19      0.0000     0.0000E+00    0.0000E+00    1.000000E+07  0.02000  1.011E-02    0   0.8751   age070_m62            0.0000     2.2012E+03    15.4816   2.2203    84.1338
 20      0.0000     0.0000E+00    0.0000E+00    2.512000E+07  0.02000  4.206E-03    0   0.8099   age090_m62            0.0000     1.6163E+03    13.0125   2.1354    85.4033
 21      0.0000     0.0000E+00    0.0000E+00    4.000000E+07  0.02000  3.373E-03    0   0.7799   age104_m62            0.0000     3.7247E+02     6.6678   1.8773    95.4891
 22      0.0000     0.0000E+00    0.0000E+00    1.015200E+08  0.02000  1.878E-03    0   0.7221   age116_m62            0.0000     6.0590E+02     5.1116   1.5950   105.7923
 23      0.0000     0.0000E+00    0.0000E+00    2.861200E+08  0.02000  8.869E-04    0   0.6700   age125_m62            0.0000     1.7640E+03     9.6993   0.9911   114.9432
 24      0.0000     0.0000E+00    0.0000E+00    6.405400E+08  0.02000  3.657E-04    0   0.6322   age132_m62            0.0000     1.0636E+03     8.8479   0.2744   118.8484
 25      0.0000     0.0000E+00    0.0000E+00    9.047900E+08  0.02000  2.312E-04    0   0.6152   age135_m62            0.0000     5.3304E+02     7.0048  -0.0797   116.8887
 26      0.0000     0.0000E+00    0.0000E+00    1.434000E+09  0.02000  1.168E-04    0   0.5865   age139_m62            0.0000     2.6534E+02     4.9396  -0.4532   109.3802
 27      0.0000     0.0000E+00    0.0000E+00    2.500000E+09  0.02000  5.505E-05    0   0.5610   age150_m62            0.0000     6.1602E+02     6.5790  -0.8309   106.0156
 28      0.0000     0.0000E+00    0.0000E+00    5.000000E+09  0.02000  2.596E-05    0   0.5353   age161_m62            0.0000     1.5071E+03     9.1767  -1.0000   102.7544
 29      0.0000     0.0000E+00    0.0000E+00    1.100000E+10  0.02000  1.169E-05    0   0.5103   age185_m62            0.0000     3.4086E+03    14.9342  -1.0000    96.2635
 30      0.0000     0.0000E+00    0.0000E+00    1.300000E+10  0.02000  9.691E-06    0   0.5047   age193_m62            0.0000     3.7788E+03    15.8128  -1.0000    95.3760
 31      0.0000     0.0000E+00    0.0000E+00    1.000000E+06  0.05000  2.651E-02    0   0.9998   age020_m72            0.0000     2.0173E+03    13.6803   3.5204    78.6225
 32      0.0000     0.0000E+00    0.0000E+00    3.160000E+06  0.05000  4.817E-02    0   0.9577   age045_m72            0.0000     1.3267E+03    11.3232   3.2077    83.4556
 33      0.0000     0.0000E+00    0.0000E+00    5.010000E+06  0.05000  3.101E-02    0   0.9147   age055_m72            0.0000     1.2203E+03    11.1417   2.8389    86.0157
 34      0.0000     0.0000E+00    0.0000E+00    1.000000E+07  0.05000  8.954E-03    0   0.8524   age070_m72            0.0000     1.2997E+03    11.1170   3.0806    84.5852
 35      0.0000     0.0000E+00    0.0000E+00    2.512000E+07  0.05000  4.207E-03    0   0.7902   age090_m72            0.0000     5.6921E+02     7.6438   2.5986    90.8641
 36      0.0000     0.0000E+00    0.0000E+00    4.000000E+07  0.05000  3.198E-03    0   0.7618   age104_m72            0.0000     2.8677E+02     3.8442   1.9919   100.7685
 37      0.0000     0.0000E+00    0.0000E+00    1.015200E+08  0.05000  1.716E-03    0   0.7092   age116_m72            0.0000     7.9773E+02     5.8967   1.6630   106.3989
 38      0.0000     0.0000E+00    0.0000E+00    2.861200E+08  0.05000  7.047E-04    0   0.6618   age125_m72            0.0000     1.6967E+03     9.9463   0.7568   115.7608
 39      0.0000     0.0000E+00    0.0000E+00    6.405400E+08  0.05000  2.633E-04    0   0.6253   age132_m72            0.0000     7.9581E+02     8.2615  -0.1153   117.9994
 40      1.8655     2.2228E+00    2.4293E+00    9.047900E+08  0.05000  1.484E-04    0   0.6088   age135_m72            0.0000     4.4340E+02     6.7431  -0.5704   111.5115
 41      0.0000     0.0000E+00    0.0000E+00    1.434000E+09  0.05000  7.827E-05    0   0.5847   age139_m72            0.0000     8.3721E+02     8.1364  -0.9605   107.2906
 42      0.0000     0.0000E+00    0.0000E+00    2.500000E+09  0.05000  3.759E-05    0   0.5583   age150_m72            0.0000     1.7471E+03    10.1361  -1.0000   100.9405
 43      0.0000     0.0000E+00    0.0000E+00    5.000000E+09  0.05000  1.548E-05    0   0.5320   age161_m72            0.0000     3.9635E+03    16.5848  -1.0000    91.5734
 44      0.0000     0.0000E+00    0.0000E+00    1.100000E+10  0.05000  6.532E-06    0   0.5070   age185_m72            0.0000     7.1880E+03    22.8346  -1.0000    82.1783
 45      0.0000     0.0000E+00    0.0000E+00    1.300000E+10  0.05000  5.316E-06    0   0.5018   age193_m72            0.0000     8.4257E+03    24.6512  -1.0000    79.2780


## Synthesis Results - Average & Chains ##

# j      x_j: min, <> & last-chain-values for 1 ...  7 chains
  1      0.0000      0.0020      0.0000      0.0000      0.0000      0.0000      0.0000      0.0000      0.0000
  2     14.5488     13.8025     14.1113     13.8871     13.9433     13.8578     13.9892     13.7872     13.8825
  3      0.0000      0.0154      0.0000      0.0000      0.0000      0.0000      0.0000      0.0000      0.0000
  4      3.3478      4.2406      3.9847      4.2613      4.2120      4.1270      4.1639      4.3541      4.2575
  5      0.0000      0.0246      0.0000      0.0000      0.0000      0.1218      0.0000      0.0000      0.0000
  6      0.0000      0.0226      0.0000      0.0000      0.0000      0.0052      0.0031      0.0000      0.0000
  7     14.7294     13.4265     13.4844     13.4412     13.9951     13.5190     13.6499     13.5715     13.7605
  8      0.0000      0.0478      0.0000      0.1696      0.0000      0.0000      0.0000      0.0638      0.0153
  9      0.0000      0.0592      0.2851      0.0000      0.0000      0.3410      0.0000      0.1766      0.0928
 10      9.0459     10.4671     10.3324     10.6779     10.0890     10.0234     10.5992     10.2959     10.4154
 11     18.6964     19.1424     18.8701     19.0896     19.0266     19.1337     18.6526     19.1425     18.7675
 12     41.4696     39.1894     39.8432     39.6054     39.4817     39.4941     39.6748     39.2092     39.3869
 13      0.0000      0.3037      0.1926      0.2513      0.4382      0.8671      0.1481      0.5045      0.3856
 14      0.0000      0.0270      0.0000      0.0913      0.0081      0.0000      0.0000      0.0426      0.0311
 15      0.0000      0.0226      0.1725      0.0000      0.0000      0.0000      0.1372      0.0000      0.0000
 16      0.0000      0.0020      0.0000      0.0000      0.0000      0.0000      0.0000      0.0000      0.0000
 17      0.0000      0.0022      0.0000      0.0000      0.0000      0.0000      0.0011      0.0000      0.0000
 18      0.0000      0.0189      0.0000      0.0000      0.0000      0.0000      0.0000      0.0000      0.0000
 19      0.0000      0.0065      0.0547      0.0000      0.0000      0.0042      0.0188      0.0000      0.0000
 20      0.0000      0.0059      0.0000      0.0000      0.0000      0.0000      0.0000      0.0000      0.0000
 21      0.0000      0.0194      0.0000      0.0000      0.0000      0.0000      0.0000      0.0000      0.0000
 22      0.0000      0.0409      0.0000      0.0000      0.0000      0.0000      0.0000      0.0000      0.0596
 23      0.0000      0.0158      0.0839      0.0000      0.0000      0.0000      0.0000      0.0000      0.0000
 24      0.0000      0.0263      0.0000      0.0000      0.0324      0.0159      0.0477      0.0000      0.0000
 25      0.0000      0.0515      0.0000      0.0000      0.0735      0.0000      0.0677      0.0000      0.0000
 26      0.0000      0.0485      0.0000      0.0222      0.0911      0.0000      0.0063      0.0000      0.0000
 27      0.0000      0.0386      0.0000      0.0000      0.0000      0.0000      0.0000      0.0000      0.0000
 28      0.0000      0.0118      0.0000      0.0000      0.0472      0.0000      0.0000      0.0000      0.0000
 29      0.0000      0.0076      0.0000      0.0000      0.0000      0.0000      0.0000      0.0000      0.0166
 30      0.0000      0.0057      0.0000      0.0000      0.0000      0.0000      0.0000      0.0000      0.0423
 31      0.0000      0.0013      0.0000      0.0000      0.0000      0.0000      0.0000      0.0000      0.0000
 32      0.0000      0.0109      0.0000      0.0000      0.0000      0.0039      0.0000      0.0000      0.0000
 33      0.0000      0.0119      0.0000      0.0000      0.0000      0.0105      0.0000      0.0000      0.0000
 34      0.0000      0.0025      0.0000      0.0000      0.0000      0.0000      0.0000      0.0163      0.0000
 35      0.0000      0.0092      0.0000      0.0000      0.0000      0.0000      0.0000      0.0000      0.0000
 36      0.0000      0.0158      0.0000      0.0000      0.0000      0.0000      0.0000      0.0000      0.0000
 37      0.0000      0.0213      0.0000      0.0000      0.0000      0.0000      0.0000      0.0000      0.0000
 38      0.0000      0.0189      0.0000      0.0000      0.0000      0.0000      0.0000      0.0000      0.0000
 39      0.0000      0.0715      0.0000      0.0000      0.0000      0.0777      0.0000      0.0000      0.0000
 40      1.8655      2.4283      2.2515      2.0879      2.2385      2.0949      2.5457      2.5632      2.6119
 41      0.0000      0.0286      0.0357      0.1544      0.0000      0.0000      0.0412      0.0000      0.0000
 42      0.0000      0.0309      0.0375      0.0000      0.0000      0.0061      0.0000      0.0000      0.0245
 43      0.0000      0.0081      0.0000      0.0000      0.0000      0.0098      0.0000      0.0070      0.0000
 44      0.0000      0.0030      0.0000      0.0000      0.0468      0.0000      0.0000      0.0000      0.0000
 45      0.0000      0.0022      0.0000      0.0000      0.0000      0.0000      0.0000      0.0000      0.0000

# j      m_j: min, <> & last-chain-values for 1 ...  7 chains
  1  0.0000E+00  5.6040E-05  0.0000E+00  0.0000E+00  0.0000E+00  0.0000E+00  0.0000E+00  0.0000E+00  0.0000E+00
  2  1.1337E-01  1.0721E-01  1.0900E-01  1.0809E-01  1.0749E-01  1.0688E-01  1.0872E-01  1.0727E-01  1.0744E-01
  3  0.0000E+00  1.8253E-04  0.0000E+00  0.0000E+00  0.0000E+00  0.0000E+00  0.0000E+00  0.0000E+00  0.0000E+00
  4  7.4093E-02  9.3554E-02  8.7419E-02  9.4206E-02  9.2226E-02  9.0404E-02  9.1905E-02  9.6218E-02  9.3584E-02
  5  0.0000E+00  1.2556E-03  0.0000E+00  0.0000E+00  0.0000E+00  6.1711E-03  0.0000E+00  0.0000E+00  0.0000E+00
  6  0.0000E+00  1.6016E-03  0.0000E+00  0.0000E+00  0.0000E+00  3.6756E-04  2.2014E-04  0.0000E+00  0.0000E+00
  7  1.4857E+00  1.3500E+00  1.3483E+00  1.3543E+00  1.3966E+00  1.3496E+00  1.3731E+00  1.3668E+00  1.3785E+00
  8  0.0000E+00  9.2653E-03  0.0000E+00  3.2951E-02  0.0000E+00  0.0000E+00  0.0000E+00  1.2386E-02  2.9553E-03
  9  0.0000E+00  2.2862E-02  1.0948E-01  0.0000E+00  0.0000E+00  1.3077E-01  0.0000E+00  6.8330E-02  3.5708E-02
 10  4.8931E+00  5.6438E+00  5.5402E+00  5.7694E+00  5.3991E+00  5.3663E+00  5.7177E+00  5.5607E+00  5.5954E+00
 11  1.7760E+01  1.8126E+01  1.7769E+01  1.8114E+01  1.7881E+01  1.7990E+01  1.7671E+01  1.8156E+01  1.7706E+01
 12  7.3244E+01  6.8996E+01  6.9758E+01  6.9874E+01  6.8989E+01  6.9041E+01  6.9885E+01  6.9146E+01  6.9090E+01
 13  0.0000E+00  1.0649E+00  6.7164E-01  8.8300E-01  1.5249E+00  3.0186E+00  5.1954E-01  1.7716E+00  1.3469E+00
 14  0.0000E+00  1.9321E-01  0.0000E+00  6.5382E-01  5.7234E-02  0.0000E+00  0.0000E+00  3.0488E-01  2.2157E-01
 15  0.0000E+00  1.8671E-01  1.4206E+00  0.0000E+00  0.0000E+00  0.0000E+00  1.1364E+00  0.0000E+00  0.0000E+00
 16  0.0000E+00  3.1814E-05  0.0000E+00  0.0000E+00  0.0000E+00  0.0000E+00  0.0000E+00  0.0000E+00  0.0000E+00
 17  0.0000E+00  1.8398E-05  0.0000E+00  0.0000E+00  0.0000E+00  0.0000E+00  9.2682E-06  0.0000E+00  0.0000E+00
 18  0.0000E+00  1.7337E-04  0.0000E+00  0.0000E+00  0.0000E+00  0.0000E+00  0.0000E+00  0.0000E+00  0.0000E+00
 19  0.0000E+00  1.7826E-04  1.4891E-03  0.0000E+00  0.0000E+00  1.1438E-04  5.1449E-04  0.0000E+00  0.0000E+00
 20  0.0000E+00  3.5887E-04  0.0000E+00  0.0000E+00  0.0000E+00  0.0000E+00  0.0000E+00  0.0000E+00  0.0000E+00
 21  0.0000E+00  1.4191E-03  0.0000E+00  0.0000E+00  0.0000E+00  0.0000E+00  0.0000E+00  0.0000E+00  0.0000E+00
 22  0.0000E+00  4.9719E-03  0.0000E+00  0.0000E+00  0.0000E+00  0.0000E+00  0.0000E+00  0.0000E+00  7.2209E-03
 23  0.0000E+00  3.7823E-03  1.9948E-02  0.0000E+00  0.0000E+00  0.0000E+00  0.0000E+00  0.0000E+00  0.0000E+00
 24  0.0000E+00  1.4411E-02  0.0000E+00  0.0000E+00  1.7583E-02  8.6289E-03  2.6091E-02  0.0000E+00  0.0000E+00
 25  0.0000E+00  4.3330E-02  0.0000E+00  0.0000E+00  6.1404E-02  0.0000E+00  5.6988E-02  0.0000E+00  0.0000E+00
 26  0.0000E+00  7.7012E-02  0.0000E+00  3.5406E-02  1.4366E-01  0.0000E+00  9.9873E-03  0.0000E+00  0.0000E+00
 27  0.0000E+00  1.2454E-01  0.0000E+00  0.0000E+00  0.0000E+00  0.0000E+00  0.0000E+00  0.0000E+00  0.0000E+00
 28  0.0000E+00  7.7198E-02  0.0000E+00  0.0000E+00  3.0588E-01  0.0000E+00  0.0000E+00  0.0000E+00  0.0000E+00
 29  0.0000E+00  1.0474E-01  0.0000E+00  0.0000E+00  0.0000E+00  0.0000E+00  0.0000E+00  0.0000E+00  2.2798E-01
 30  0.0000E+00  9.3571E-02  0.0000E+00  0.0000E+00  0.0000E+00  0.0000E+00  0.0000E+00  0.0000E+00  6.9393E-01
 31  0.0000E+00  1.5159E-05  0.0000E+00  0.0000E+00  0.0000E+00  0.0000E+00  0.0000E+00  0.0000E+00  0.0000E+00
 32  0.0000E+00  6.8726E-05  0.0000E+00  0.0000E+00  0.0000E+00  2.4508E-05  0.0000E+00  0.0000E+00  0.0000E+00
 33  0.0000E+00  1.1067E-04  0.0000E+00  0.0000E+00  0.0000E+00  9.7322E-05  0.0000E+00  0.0000E+00  0.0000E+00
 34  0.0000E+00  7.3858E-05  0.0000E+00  0.0000E+00  0.0000E+00  0.0000E+00  0.0000E+00  4.9259E-04  0.0000E+00
 35  0.0000E+00  5.4960E-04  0.0000E+00  0.0000E+00  0.0000E+00  0.0000E+00  0.0000E+00  0.0000E+00  0.0000E+00
 36  0.0000E+00  1.1909E-03  0.0000E+00  0.0000E+00  0.0000E+00  0.0000E+00  0.0000E+00  0.0000E+00  0.0000E+00
 37  0.0000E+00  2.7797E-03  0.0000E+00  0.0000E+00  0.0000E+00  0.0000E+00  0.0000E+00  0.0000E+00  0.0000E+00
 38  0.0000E+00  5.6158E-03  0.0000E+00  0.0000E+00  0.0000E+00  0.0000E+00  0.0000E+00  0.0000E+00  0.0000E+00
 39  0.0000E+00  5.3735E-02  0.0000E+00  0.0000E+00  0.0000E+00  5.7944E-02  0.0000E+00  0.0000E+00  0.0000E+00
 40  2.4293E+00  3.1520E+00  2.9063E+00  2.7158E+00  2.8839E+00  2.7000E+00  3.3060E+00  3.3326E+00  3.3780E+00
 41  0.0000E+00  6.7699E-02  8.3825E-02  3.6571E-01  0.0000E+00  0.0000E+00  9.7499E-02  0.0000E+00  0.0000E+00
 42  0.0000E+00  1.4513E-01  1.7534E-01  0.0000E+00  0.0000E+00  2.8488E-02  0.0000E+00  0.0000E+00  1.1459E-01
 43  0.0000E+00  8.8074E-02  0.0000E+00  0.0000E+00  0.0000E+00  1.0528E-01  0.0000E+00  7.6574E-02  0.0000E+00
 44  0.0000E+00  7.2994E-02  0.0000E+00  0.0000E+00  1.1397E+00  0.0000E+00  0.0000E+00  0.0000E+00  0.0000E+00
 45  0.0000E+00  6.7088E-02  0.0000E+00  0.0000E+00  0.0000E+00  0.0000E+00  0.0000E+00  0.0000E+00  0.0000E+00

# AV, chi2 & Mass for <> & i_chain = 1 ...  7 solutions
AV       0.3582      0.3561      0.3555      0.3561      0.3578      0.3534      0.3565      0.3564      0.3564
chi2 2.9486E+00  3.0030E+00  2.9893E+00  2.9896E+00  2.9845E+00  2.9958E+00  2.9874E+00  2.9914E+00  2.9892E+00
Mass 3.8780E-10  3.8794E-10  3.8979E-10  3.8711E-10  3.9176E-10  3.8930E-10  3.8794E-10  3.8743E-10  3.8950E-10
 -12.39                                  [v0_min (km/s) before EX0s...]
  97.78                                  [vd_min (km/s) before EX0s...]


## Synthetic spectrum (Best Model) ##l_obs f_obs f_syn wei
 3070    [Nl_obs]
 3359.00    0.00000   0.53057   -2.000
 3360.00    0.23752   0.51449   -1.000
 3361.00    0.25048   0.51387   -1.000
 3362.00    0.25956   0.52902   -1.000
 3363.00    0.28400   0.55078   -1.000
 3364.00    0.30813   0.56668   -1.000
 3365.00    0.31202   0.56860   -1.000
 3366.00    0.32069   0.55690   -1.000
 3367.00    0.32847   0.53940   -1.000
 3368.00    0.32396   0.52493   -1.000
 3369.00    0.30572   0.51732   -1.000
 3370.00    0.30300   0.51420   -1.000
 3371.00    0.29600   0.51228   -1.000
 3372.00    0.29736   0.51363   -1.000
 3373.00    0.30639   0.52361   -1.000
 3374.00    0.33680   0.54342   -1.000
 3375.00    0.34172   0.56525   -1.000
 3376.00    0.36342   0.57675   -1.000
 3377.00    0.38416   0.57180   -1.000
 3378.00    0.37960   0.55549   -1.000
 3379.00    0.36969   0.54004   -1.000
 3380.00    0.36463   0.53519   -1.000
 3381.00    0.37294   0.54240   -1.000
 3382.00    0.38265   0.55569   -1.000
 3383.00    0.38181   0.56831   -1.000
 3384.00    0.39125   0.57822   -1.000
 3385.00    0.38773   0.58594   -1.000
 3386.00    0.39407   0.59061   -1.000
 3387.00    0.39570   0.59134   -1.000
 3388.00    0.40541   0.58938   -1.000
 3389.00    0.40981   0.58627   -1.000
 3390.00    0.41978   0.58150   -1.000
 3391.00    0.41369   0.57410   -1.000
 3392.00    0.41129   0.56654   -1.000
 3393.00    0.42798   0.56458   -1.000
 3394.00    0.42193   0.57177   -1.000
 3395.00    0.43668   0.58609   -1.000
 3396.00    0.44331   0.60194   -1.000
 3397.00    0.45695   0.61405   -1.000
 3398.00    0.47408   0.61908   -1.000
 3399.00    0.48723   0.61601   -1.000
 3400.00    0.48322   0.60642   -1.000
 3401.00    0.49162   0.59350   -1.000
 3402.00    0.48486   0.58116   -1.000
 3403.00    0.45851   0.57282   -1.000
 3404.00    0.45798   0.56868   -1.000
 3405.00    0.44523   0.56538   -1.000
 3406.00    0.44370   0.56016   -1.000
 3407.00    0.44293   0.55463   -1.000
 3408.00    0.42823   0.55326   -1.000
 3409.00    0.43499   0.55794   -1.000
 3410.00    0.44350   0.56514   -1.000
 3411.00    0.44957   0.56932   -1.000
 3412.00    0.45727   0.56831   -1.000
 3413.00    0.44846   0.56482   -1.000
 3414.00    0.44302   0.56317   -1.000
 3415.00    0.44762   0.56624   -1.000
 3416.00    0.45042   0.57464   -1.000
 3417.00    0.46266   0.58700   -1.000
 3418.00    0.48118   0.60026   -1.000
 3419.00    0.49071   0.61022   -1.000
 3420.00    0.49191   0.61340   -1.000
 3421.00    0.48576   0.60998   -1.000
 3422.00    0.48141   0.60339   -1.000
 3423.00    0.48986   0.59717   -1.000
 3424.00    0.47881   0.59325   -1.000
 3425.00    0.47645   0.59267   -1.000
 3426.00    0.49357   0.59685   -1.000
 3427.00    0.49553   0.60683   -1.000
 3428.00    0.49577   0.61947   -1.000
 3429.00    0.51880   0.62768   -1.000
 3430.00    0.52834   0.62628   -1.000
 3431.00    0.52532   0.61670   -1.000
 3432.00    0.51159   0.60567   -1.000
 3433.00    0.50020   0.59946   -1.000
 3434.00    0.51262   0.59966   -1.000
 3435.00    0.52608   0.60266   -1.000
 3436.00    0.52456   0.60291   -1.000
 3437.00    0.52931   0.59639   -1.000
 3438.00    0.51006   0.58198   -1.000
 3439.00    0.49865   0.56139   -1.000
 3440.00    0.47663   0.53982   -1.000
 3441.00    0.46171   0.52461   -1.000
 3442.00    0.45401   0.52031   -1.000
 3443.00    0.46508   0.52536   -1.000
 3444.00    0.47468   0.53532   -1.000
 3445.00    0.48981   0.54826   -1.000
 3446.00    0.49828   0.56492   -1.000
 3447.00    0.51532   0.58445   -1.000
 3448.00    0.52695   0.60173   -1.000
 3449.00    0.53856   0.60968   -1.000
 3450.00    0.53860   0.60496   -1.000
 3451.00    0.53424   0.59088   -1.000
 3452.00    0.53470   0.57582   -1.000
 3453.00    0.52257   0.56772   -1.000
 3454.00    0.51791   0.56852   -1.000
 3455.00    0.55028   0.57329   -1.000
 3456.00    0.56136   0.57484   -1.000
 3457.00    0.54908   0.56989   -1.000
 3458.00    0.54678   0.56051   -1.000
 3459.00    0.54073   0.55082   79.382
 3460.00    0.53646   0.54501   78.146
 3461.00    0.52951   0.54694   77.657
 3462.00    0.53796   0.55661   -1.000
 3463.00    0.54316   0.56820   -1.000
 3464.00    0.55084   0.57585   -1.000
 3465.00    0.54973   0.57909   -1.000
 3466.00    0.56446   0.58144   -1.000
 3467.00    0.55565   0.58550   -1.000
 3468.00    0.56695   0.59089   -1.000
 3469.00    0.57939   0.59539   -1.000
 3470.00    0.58818   0.59657   -1.000
 3471.00    0.57812   0.59264   -1.000
 3472.00    0.57614   0.58291   -1.000
 3473.00    0.56450   0.56816  608.424
 3474.00    0.54322   0.55202   -1.000
 3475.00    0.52511   0.54092   80.041
 3476.00    0.51652   0.53999   80.626
 3477.00    0.51569   0.54865   78.953
 3478.00    0.54389   0.56155   -1.000
 3479.00    0.57051   0.57281  608.424
 3480.00    0.57602   0.57887  608.424
 3481.00    0.58565   0.57891   -1.000
 3482.00    0.58831   0.57487   -1.000
 3483.00    0.57648   0.57137   -1.000
 3484.00    0.57623   0.57361  608.424
 3485.00    0.58500   0.58275  608.424
 3486.00    0.60004   0.59300   -1.000
 3487.00    0.59751   0.59587  608.424
 3488.00    0.58732   0.58805  608.424
 3489.00    0.57133   0.57456  608.424
 3490.00    0.55913   0.56423  608.424
 3491.00    0.55972   0.56158  608.424
 3492.00    0.55524   0.56336   -1.000
 3493.00    0.56597   0.56313  608.424
 3494.00    0.56094   0.55805  608.424
 3495.00    0.56214   0.55155   -1.000
 3496.00    0.55912   0.55072   -1.000
 3497.00    0.54615   0.55961   -1.000
 3498.00    0.56658   0.57387   -1.000
 3499.00    0.59446   0.58496   -1.000
 3500.00    0.60277   0.58954   -1.000
 3501.00    0.60525   0.59098   -1.000
 3502.00    0.60995   0.59264   -1.000
 3503.00    0.60863   0.59307   -1.000
 3504.00    0.60055   0.58937   -1.000
 3505.00    0.59267   0.58297   -1.000
 3506.00    0.58963   0.57825   -1.000
 3507.00    0.59106   0.57689   -1.000
 3508.00    0.58687   0.57656   -1.000
 3509.00    0.57837   0.57417  608.424
 3510.00    0.57867   0.56901   -1.000
 3511.00    0.57869   0.56231   -1.000
 3512.00    0.56982   0.55573   -1.000
 3513.00    0.56825   0.55226   -1.000
 3514.00    0.56088   0.55594   -1.000
 3515.00    0.57567   0.56777   -1.000
 3516.00    0.59295   0.58358   -1.000
 3517.00    0.60678   0.59625   -1.000
 3518.00    0.60346   0.59997  608.424
 3519.00    0.59630   0.59373  608.424
 3520.00    0.58968   0.58140   -1.000
 3521.00    0.57526   0.56802   -1.000
 3522.00    0.57441   0.55572   -1.000
 3523.00    0.55815   0.54440   -1.000
 3524.00    0.54315   0.53561   79.386
 3525.00    0.53541   0.53345   79.801
 3526.00    0.52675   0.54125   79.351
 3527.00    0.54044   0.55731   -1.000
 3528.00    0.55935   0.57482   -1.000
 3529.00    0.58519   0.58681  608.424
 3530.00    0.59302   0.59102  608.424
 3531.00    0.58912   0.59065  608.424
 3532.00    0.59291   0.59064  608.424
 3533.00    0.58761   0.59332   -1.000
 3534.00    0.58995   0.59759   -1.000
 3535.00    0.59331   0.60149   -1.000
 3536.00    0.59844   0.60483   -1.000
 3537.00    0.59801   0.60887   -1.000
 3538.00    0.60552   0.61374   -1.000
 3539.00    0.61272   0.61718  605.670
 3540.00    0.61196   0.61744   -1.000
 3541.00    0.60340   0.61630   -1.000
 3542.00    0.59088   0.61700   -1.000
 3543.00    0.60707   0.62018   -1.000
 3544.00    0.61210   0.62339   -1.000
 3545.00    0.61583   0.62413   -1.000
 3546.00    0.60982   0.62269   -1.000
 3547.00    0.60174   0.62144   -1.000
 3548.00    0.61153   0.62183   -1.000
 3549.00    0.60990   0.62315   -1.000
 3550.00    0.59926   0.62337   -1.000
 3551.00    0.58969   0.62095   -1.000
 3552.00    0.58653   0.61612   -1.000
 3553.00    0.58554   0.61096   -1.000
 3554.00    0.57894   0.60768   -1.000
 3555.00    0.58336   0.60669   -1.000
 3556.00    0.59116   0.60644   -1.000
 3557.00    0.58041   0.60516   -1.000
 3558.00    0.57839   0.60308   -1.000
 3559.00    0.58516   0.60296   -1.000
 3560.00    0.58126   0.60732   -1.000
 3561.00    0.58238   0.61435   -1.000
 3562.00    0.60487   0.61679   -1.000
 3563.00    0.59856   0.60736   -1.000
 3564.00    0.57678   0.58721   -1.000
 3565.00    0.55346   0.56655   80.218
 3566.00    0.53228   0.55420   80.979
 3567.00    0.52893   0.54939   80.136
 3568.00    0.53897   0.54523   79.679
 3569.00    0.52604   0.53809   82.341
 3570.00    0.51517   0.53165   83.886
 3571.00    0.52144   0.53107   81.339
 3572.00    0.53164   0.53609   77.715
 3573.00    0.54902   0.54206   -1.000
 3574.00    0.55245   0.54573   -1.000
 3575.00    0.55785   0.54752   -1.000
 3576.00    0.55776   0.54857   -1.000
 3577.00    0.56369   0.54746   -1.000
 3578.00    0.56113   0.54121   -1.000
 3579.00    0.55600   0.52949   82.918
 3580.00    0.53719   0.51666   86.725
 3581.00    0.52232   0.50809   91.534
 3582.00    0.52287   0.50509   92.222
 3583.00    0.51375   0.50389   92.605
 3584.00    0.51262   0.50009   94.911
 3585.00    0.50028   0.49420   98.036
 3586.00    0.47710   0.49114   99.459
 3587.00    0.48176   0.49512   94.552
 3588.00    0.49907   0.50691   89.511
 3589.00    0.51118   0.52425   85.177
 3590.00    0.52965   0.54274   77.609
 3591.00    0.55306   0.55761  561.980
 3592.00    0.56566   0.56661  608.424
 3593.00    0.56886   0.57168  608.424
 3594.00    0.57992   0.57718  608.424
 3595.00    0.58321   0.58576  608.424
 3596.00    0.59109   0.59643   -1.000
 3597.00    0.59829   0.60641   -1.000
 3598.00    0.59868   0.61309   -1.000
 3599.00    0.60447   0.61418   -1.000
 3600.00    0.60868   0.60802  585.171
 3601.00    0.59648   0.59514  608.424
 3602.00    0.57714   0.57940  608.424
 3603.00    0.57572   0.56650   -1.000
 3604.00    0.57309   0.56039   -1.000
 3605.00    0.56739   0.56013   -1.000
 3606.00    0.56609   0.56068   -1.000
 3607.00    0.56226   0.55782  608.424
 3608.00    0.55323   0.55247  608.424
 3609.00    0.55019   0.54955  608.424
 3610.00    0.54391   0.55206   -1.000
 3611.00    0.55872   0.55804  608.424
 3612.00    0.57111   0.56453   -1.000
 3613.00    0.56831   0.57120  608.424
 3614.00    0.57827   0.57824  608.424
 3615.00    0.59391   0.58233   -1.000
 3616.00    0.59525   0.57783   -1.000
 3617.00    0.58454   0.56503   -1.000
 3618.00    0.55973   0.55314   -1.000
 3619.00    0.54157   0.55163   79.064
 3620.00    0.54783   0.56159   -1.000
 3621.00    0.57528   0.57666  608.424
 3622.00    0.59273   0.59013  608.424
 3623.00    0.59232   0.60064   -1.000
 3624.00    0.60746   0.61158  597.795
 3625.00    0.60951   0.62553   -1.000
 3626.00    0.61646   0.63955   -1.000
 3627.00    0.62777   0.64609   -1.000
 3628.00    0.61911   0.63821   -1.000
 3629.00    0.60628   0.61606   -1.000
 3630.00    0.57865   0.58890   -1.000
 3631.00    0.54403   0.56923   -1.000
 3632.00    0.54158   0.56397   -1.000
 3633.00    0.56586   0.57042  608.424
 3634.00    0.56794   0.58039   -1.000
 3635.00    0.57543   0.58804   -1.000
 3636.00    0.59074   0.59407  608.424
 3637.00    0.60030   0.60226  604.498
 3638.00    0.61655   0.61318  577.229
 3639.00    0.63319   0.62246   -1.000
 3640.00    0.62419   0.62448  556.801
 3641.00    0.62329   0.61729   -1.000
 3642.00    0.61035   0.60402   -1.000
 3643.00    0.58920   0.59044  608.424
 3644.00    0.57919   0.58079  608.424
 3645.00    0.56856   0.57526   -1.000
 3646.00    0.57807   0.57193   -1.000
 3647.00    0.58398   0.57022   -1.000
 3648.00    0.58115   0.57149   -1.000
 3649.00    0.57451   0.57723  608.424
 3650.00    0.58278   0.58752  608.424
 3651.00    0.60045   0.60056  599.253
 3652.00    0.60640   0.61343   -1.000
 3653.00    0.61994   0.62381  559.752
 3654.00    0.62509   0.63124   -1.000
 3655.00    0.63226   0.63731  549.935
 3656.00    0.63684   0.64347   -1.000
 3657.00    0.63321   0.64901   -1.000
 3658.00    0.62883   0.65200   -1.000
 3659.00    0.63431   0.65115   -1.000
 3660.00    0.63481   0.64663   -1.000
 3661.00    0.62931   0.63979   -1.000
 3662.00    0.63299   0.63269  540.775
 3663.00    0.62837   0.62751  550.045
 3664.00    0.62471   0.62534  554.318
 3665.00    0.63188   0.62499   -1.000
 3666.00    0.63944   0.62371   -1.000
 3667.00    0.63027   0.61991   -1.000
 3668.00    0.60458   0.61566   -1.000
 3669.00    0.60105   0.61533   -1.000
 3670.00    0.60227   0.62076   -1.000
 3671.00    0.60903   0.62923   -1.000
 3672.00    0.62569   0.63587   -1.000
 3673.00    0.62736   0.63743   -1.000
 3674.00    0.61895   0.63347   -1.000
 3675.00    0.62548   0.62508  542.408
 3676.00    0.63255   0.61403   -1.000
 3677.00    0.61584   0.60289   -1.000
 3678.00    0.59818   0.59451  594.032
 3679.00    0.60175   0.59087   -1.000
 3680.00    0.60131   0.59205   -1.000
 3681.00    0.59876   0.59632  591.986
 3682.00    0.60706   0.60058   -1.000
 3683.00    0.61076   0.60104   -1.000
 3684.00    0.61324   0.59514   -1.000
 3685.00    0.59560   0.58472   -1.000
 3686.00    0.58039   0.57652  608.424
 3687.00    0.57953   0.57751  608.424
 3688.00    0.60487   0.58920   -1.000
 3689.00    0.62965   0.60648   -1.000
 3690.00    0.63523   0.62177   -1.000
 3691.00    0.63918   0.63063   -1.000
 3692.00    0.63780   0.63393  532.742
 3693.00    0.64472   0.63428   -1.000
 3694.00    0.64570   0.63245   -1.000
 3695.00    0.63614   0.62903   -1.000
 3696.00    0.63247   0.62769  547.858
 3697.00    0.63116   0.63403  541.167
 3698.00    0.64709   0.64922  523.477
 3699.00    0.67920   0.66582   -1.000
 3700.00    0.68020   0.67157   -1.000
 3701.00    0.67640   0.65816   -1.000
 3702.00    0.64794   0.62752   -1.000
 3703.00    0.60673   0.59131   -1.000
 3704.00    0.57823   0.56407   -1.000
 3705.00    0.56688   0.55432   -1.000
 3706.00    0.58561   0.56006   -1.000
 3707.00    0.60345   0.57232   -1.000
 3708.00    0.61056   0.58220   -1.000
 3709.00    0.61193   0.58572   -1.000
 3710.00    0.61648   0.58629   -1.000
 3711.00    0.60808   0.59223   -1.000
 3712.00    0.61337   0.60938  539.202
 3713.00    0.64853   0.63586   -1.000
 3714.00    0.68128   0.66358   -1.000
 3715.00    0.69965   0.68336   -1.000
 3716.00    0.70544   0.68838   -1.000
 3717.00    0.70572   0.67435   -1.000
 3718.00    0.67160   0.64027   -1.000
 3719.00    0.61007   0.59298   -1.000
 3720.00    0.55922   0.54871   -1.000
 3721.00    0.53077   0.52528   80.738
 3722.00    0.52343   0.53199   -1.000
 3723.00    0.56857   0.56475  608.424
 3724.00    0.63256   0.60808   -1.000
 3725.00    0.67280   0.64460   -1.000
 3726.00    0.69082   0.66695   -1.000
 3727.00    0.68977   0.67902   -1.000
 3728.00    0.68550   0.68517  584.175
 3729.00    0.69490   0.68214   -1.000
 3730.00    0.68283   0.66200   -1.000
 3731.00    0.65891   0.62138   -1.000
 3732.00    0.60122   0.56765   -1.000
 3733.00    0.53589   0.51656   79.229
 3734.00    0.49066   0.48459   85.825
 3735.00    0.49244   0.48182   89.234
 3736.00    0.52138   0.50874   84.946
 3737.00    0.56128   0.55749   77.014
 3738.00    0.61404   0.61499  534.916
 3739.00    0.66788   0.66653  608.424
 3740.00    0.69914   0.70071  576.186
 3741.00    0.71340   0.71319  572.418
 3742.00    0.71793   0.70641   -1.000
 3743.00    0.69084   0.68628  608.424
 3744.00    0.67066   0.65838   -1.000
 3745.00    0.64062   0.62535   -1.000
 3746.00    0.60734   0.58710   -1.000
 3747.00    0.58703   0.54491   -1.000
 3748.00    0.53026   0.50688   82.824
 3749.00    0.49879   0.48743   83.831
 3750.00    0.50922   0.49772   -1.000
 3751.00    0.55563   0.53693   -1.000
 3752.00    0.61236   0.59322   -1.000
 3753.00    0.66727   0.65099   -1.000
 3754.00    0.71663   0.69657   -1.000
 3755.00    0.74710   0.72066   -1.000
 3756.00    0.74427   0.72115   -1.000
 3757.00    0.72201   0.70596   -1.000
 3758.00    0.69291   0.68932  608.424
 3759.00    0.68344   0.68220  608.424
 3760.00    0.70204   0.68609   -1.000
 3761.00    0.72742   0.69545   -1.000
 3762.00    0.73382   0.70374   -1.000
 3763.00    0.74320   0.70596   -1.000
 3764.00    0.72994   0.69865   -1.000
 3765.00    0.72075   0.68068   -1.000
 3766.00    0.70515   0.65353   -1.000
 3767.00    0.66833   0.62036   -1.000
 3768.00    0.63730   0.58585   -1.000
 3769.00    0.60379   0.55770   -1.000
 3770.00    0.57153   0.54616   -1.000
 3771.00    0.57839   0.55803   -1.000
 3772.00    0.62397   0.58978   -1.000
 3773.00    0.66579   0.62959   -1.000
 3774.00    0.70434   0.66719   -1.000
 3775.00    0.73540   0.69981   -1.000
 3776.00    0.74864   0.72966   -1.000
 3777.00    0.77344   0.75889   -1.000
 3778.00    0.78901   0.78706  522.042
 3779.00    0.80178   0.81181   -1.000
 3780.00    0.82276   0.83084   -1.000
 3781.00    0.83850   0.84322  489.284
 3782.00    0.83346   0.84891   -1.000
 3783.00    0.83481   0.84717   -1.000
 3784.00    0.83843   0.83637  497.703
 3785.00    0.81514   0.81674  524.186
 3786.00    0.79542   0.79280  563.721
 3787.00    0.77156   0.77126  592.098
 3788.00    0.76860   0.75629   -1.000
 3789.00    0.75875   0.74725   -1.000
 3790.00    0.75209   0.73948   -1.000
 3791.00    0.75102   0.72671   -1.000
 3792.00    0.73652   0.70397   -1.000
 3793.00    0.70657   0.66999   -1.000
 3794.00    0.68050   0.62713   -1.000
 3795.00    0.64093   0.58020   -1.000
 3796.00    0.57987   0.53641   -1.000
 3797.00    0.54704   0.50682   -1.000
 3798.00    0.53487   0.50390   -1.000
 3799.00    0.56714   0.53272   -1.000
 3800.00    0.61525   0.58551   -1.000
 3801.00    0.67528   0.64655   -1.000
 3802.00    0.72435   0.70119   -1.000
 3803.00    0.76258   0.74117   -1.000
 3804.00    0.78496   0.76488   -1.000
 3805.00    0.78919   0.77618   -1.000
 3806.00    0.78851   0.78360   -1.000
 3807.00    0.79011   0.79608   -1.000
 3808.00    0.80520   0.81627   -1.000
 3809.00    0.82622   0.83839   -1.000
 3810.00    0.84581   0.85212   -1.000
 3811.00    0.85342   0.84905  548.701
 3812.00    0.82691   0.82896  578.337
 3813.00    0.80136   0.80126  608.424
 3814.00    0.79510   0.77943   -1.000
 3815.00    0.78123   0.77196   -1.000
 3816.00    0.78559   0.77622   -1.000
 3817.00    0.80882   0.78117   -1.000
 3818.00    0.81235   0.77733   -1.000
 3819.00    0.78864   0.76495   -1.000
 3820.00    0.75590   0.75257  608.424
 3821.00    0.76128   0.74636   -1.000
 3822.00    0.78384   0.74231   -1.000
 3823.00    0.77422   0.73169   -1.000
 3824.00    0.74687   0.71210   -1.000
 3825.00    0.71794   0.68971   83.157
 3826.00    0.69784   0.67170   82.211
 3827.00    0.69645   0.65921   -1.000
 3828.00    0.69903   0.64766   -1.000
 3829.00    0.69341   0.63110   -1.000
 3830.00    0.67664   0.60528   -1.000
 3831.00    0.63976   0.56916   -1.000
 3832.00    0.59336   0.52618   -1.000
 3833.00    0.54994   0.48453   -1.000
 3834.00    0.51060   0.45457   -1.000
 3835.00    0.49797   0.44384   -1.000
 3836.00    0.51718   0.45321   -1.000
 3837.00    0.54071   0.47792   -1.000
 3838.00    0.57431   0.51237   -1.000
 3839.00    0.60399   0.55371   -1.000
 3840.00    0.63290   0.60056   82.952
 3841.00    0.68276   0.64988   -1.000
 3842.00    0.72386   0.69641   -1.000
 3843.00    0.76994   0.73518   -1.000
 3844.00    0.79245   0.76461   -1.000
 3845.00    0.79946   0.78674   -1.000
 3846.00    0.80550   0.80369  608.424
 3847.00    0.81671   0.81507  608.424
 3848.00    0.81217   0.82040   -1.000
 3849.00    0.80362   0.82271   -1.000
 3850.00    0.80109   0.82692   -1.000
 3851.00    0.82128   0.83470   -1.000
 3852.00    0.83656   0.84231   -1.000
 3853.00    0.83972   0.84442   -1.000
 3854.00    0.84267   0.83941  608.424
 3855.00    0.82966   0.82977  608.424
 3856.00    0.81905   0.81857  608.424
 3857.00    0.80824   0.80791  608.424
 3858.00    0.80123   0.80044   78.776
 3859.00    0.77171   0.80021   80.985
 3860.00    0.77739   0.80967   79.272
 3861.00    0.80556   0.82571   -1.000
 3862.00    0.84139   0.84085  608.424
 3863.00    0.86616   0.84911   -1.000
 3864.00    0.86299   0.85047   -1.000
 3865.00    0.86125   0.84901   -1.000
 3866.00    0.85865   0.84820   -1.000
 3867.00    0.84825   0.84796  608.424
 3868.00    0.84016   0.84469  608.424
 3869.00    0.82938   0.83430   -1.000
 3870.00    0.80832   0.81666   -1.000
 3871.00    0.78297   0.79788   79.807
 3872.00    0.76728   0.78712   -1.000
 3873.00    0.77760   0.78929   -1.000
 3874.00    0.79676   0.79937  608.424
 3875.00    0.82006   0.80520   -1.000
 3876.00    0.81406   0.79836   -1.000
 3877.00    0.79336   0.78165   -1.000
 3878.00    0.75315   0.76473   -1.000
 3879.00    0.74604   0.75343   -1.000
 3880.00    0.74980   0.74524   -1.000
 3881.00    0.73437   0.73435  608.424
 3882.00    0.71166   0.71752   -1.000
 3883.00    0.71656   0.69355   -1.000
 3884.00    0.71070   0.66058   -1.000
 3885.00    0.67516   0.61753   -1.000
 3886.00    0.62547   0.56912   -1.000
 3887.00    0.58380   0.52698   -1.000
 3888.00    0.55787   0.50467   -1.000
 3889.00    0.55219   0.51069   -1.000
 3890.00    0.59544   0.54327   -1.000
 3891.00    0.65398   0.59036   -1.000
 3892.00    0.69614   0.63682   -1.000
 3893.00    0.72087   0.67393   -1.000
 3894.00    0.73877   0.70235   -1.000
 3895.00    0.75377   0.72671   -1.000
 3896.00    0.77824   0.74876   -1.000
 3897.00    0.79137   0.76675   -1.000
 3898.00    0.79606   0.78006   -1.000
 3899.00    0.80253   0.79153   -1.000
 3900.00    0.81131   0.80377   -1.000
 3901.00    0.82215   0.81527   -1.000
 3902.00    0.83119   0.82188   -1.000
 3903.00    0.84164   0.82183   -1.000
 3904.00    0.82893   0.81889   -1.000
 3905.00    0.81770   0.82025  561.106
 3906.00    0.80881   0.83168   -1.000
 3907.00    0.83221   0.85324   -1.000
 3908.00    0.87097   0.87868   -1.000
 3909.00    0.89447   0.89981  476.860
 3910.00    0.90618   0.91208  472.512
 3911.00    0.90372   0.91524   -1.000
 3912.00    0.90329   0.91142   -1.000
 3913.00    0.89815   0.90402   -1.000
 3914.00    0.88468   0.89667   -1.000
 3915.00    0.88043   0.89124   -1.000
 3916.00    0.88189   0.88698   -1.000
 3917.00    0.87211   0.88167   -1.000
 3918.00    0.86579   0.87399   -1.000
 3919.00    0.85382   0.86515   -1.000
 3920.00    0.83654   0.85846   -1.000
 3921.00    0.83396   0.85651   -1.000
 3922.00    0.84806   0.85833   -1.000
 3923.00    0.85006   0.85917   -1.000
 3924.00    0.85058   0.85318  568.990
 3925.00    0.84412   0.83643   -1.000
 3926.00    0.80872   0.80829  608.424
 3927.00    0.76569   0.77055   -1.000
 3928.00    0.72534   0.72539   88.086
 3929.00    0.66948   0.67357   99.406
 3930.00    0.60937   0.61533  116.296
 3931.00    0.53469   0.55450  137.616
 3932.00    0.44741   0.50220   -1.000
 3933.00    0.38683   0.47467   -1.000
 3934.00    0.37996   0.48326   -1.000
 3935.00    0.44016   0.52560   -1.000
 3936.00    0.53669   0.58764   -1.000
 3937.00    0.62916   0.65333  100.003
 3938.00    0.69474   0.71188   84.024
 3939.00    0.74329   0.75824   -1.000
 3940.00    0.78397   0.79053   -1.000
 3941.00    0.80316   0.80909   -1.000
 3942.00    0.80441   0.81744   -1.000
 3943.00    0.81011   0.82160   -1.000
 3944.00    0.80490   0.82725   -1.000
 3945.00    0.83109   0.83612  564.630
 3946.00    0.85508   0.84563   -1.000
 3947.00    0.86076   0.85265   -1.000
 3948.00    0.85775   0.85684  521.667
 3949.00    0.85665   0.85919  502.628
 3950.00    0.88290   0.86010   -1.000
 3951.00    0.87326   0.86024   -1.000
 3952.00    0.86198   0.86102  495.322
 3953.00    0.86234   0.86206  486.746
 3954.00    0.87449   0.86011   -1.000
 3955.00    0.87044   0.85277   -1.000
 3956.00    0.85064   0.84221   -1.000
 3957.00    0.83977   0.83195   -1.000
 3958.00    0.84588   0.82049   -1.000
 3959.00    0.83717   0.80160   -1.000
 3960.00    0.80598   0.77133   -1.000
 3961.00    0.76263   0.73255   -1.000
 3962.00    0.71759   0.69084   -1.000
 3963.00    0.68668   0.64718   -1.000
 3964.00    0.64515   0.59655   -1.000
 3965.00    0.57319   0.53413   -1.000
 3966.00    0.47996   0.46312  115.446
 3967.00    0.38689   0.39706  141.280
 3968.00    0.30268   0.35364   -1.000
 3969.00    0.28475   0.34488   -1.000
 3970.00    0.33833   0.37145   -1.000
 3971.00    0.42547   0.42419   98.974
 3972.00    0.52361   0.49025   82.769
 3973.00    0.60669   0.55877   -1.000
 3974.00    0.67276   0.62294   -1.000
 3975.00    0.72673   0.67980   -1.000
 3976.00    0.76389   0.72906   -1.000
 3977.00    0.80048   0.77173   -1.000
 3978.00    0.83481   0.80790   -1.000
 3979.00    0.86811   0.83551   -1.000
 3980.00    0.88378   0.85260   -1.000
 3981.00    0.87990   0.86115   -1.000
 3982.00    0.88164   0.86713   -1.000
 3983.00    0.89711   0.87570   -1.000
 3984.00    0.90770   0.88741   -1.000
 3985.00    0.92268   0.89975   -1.000
 3986.00    0.92860   0.91117   -1.000
 3987.00    0.94118   0.92207   -1.000
 3988.00    0.95025   0.93297   -1.000
 3989.00    0.95111   0.94366  408.313
 3990.00    0.95067   0.95398  405.756
 3991.00    0.95822   0.96359  396.357
 3992.00    0.96924   0.97060  386.699
 3993.00    0.97926   0.97216  391.260
 3994.00    0.97034   0.96710  400.738
 3995.00    0.95640   0.95780  409.984
 3996.00    0.94020   0.94955   -1.000
 3997.00    0.93874   0.94771   -1.000
 3998.00    0.94378   0.95422   -1.000
 3999.00    0.96277   0.96637  393.019
 4000.00    0.98319   0.97854  379.654
 4001.00    0.99130   0.98487  373.542
 4002.00    1.00094   0.98167   -1.000
 4003.00    0.99846   0.96927   -1.000
 4004.00    0.97686   0.95327   -1.000
 4005.00    0.95327   0.94316   -1.000
 4006.00    0.95192   0.94627  418.823
 4007.00    0.96845   0.96143  394.568
 4008.00    0.98782   0.98031  378.884
 4009.00    0.99891   0.99488  373.834
 4010.00    1.00000   1.00240  369.791
 4011.00    0.99191   1.00490   -1.000
 4012.00    0.98866   1.00598   -1.000
 4013.00    0.99680   1.00787   -1.000
 4014.00    0.99817   1.01059   -1.000
 4015.00    1.00633   1.01332  365.156
 4016.00    1.00568   1.01616   -1.000
 4017.00    1.00795   1.02001   -1.000
 4018.00    1.00561   1.02502   -1.000
 4019.00    1.00217   1.02952   -1.000
 4020.00    1.00825   1.03100   -1.000
 4021.00    1.00714   1.02794   -1.000
 4022.00    1.00252   1.02098   -1.000
 4023.00    1.00167   1.01307   -1.000
 4024.00    0.99419   1.00866   -1.000
 4025.00    0.99418   1.01099   -1.000
 4026.00    1.00583   1.01810   -1.000
 4027.00    1.01669   1.02260  349.306
 4028.00    1.01343   1.01741  352.417
 4029.00    0.99496   1.00217   -1.000
 4030.00    0.97604   0.98341   -1.000
 4031.00    0.95852   0.96955   -1.000
 4032.00    0.94900   0.96586   -1.000
 4033.00    0.95959   0.97297   -1.000
 4034.00    0.97475   0.98858   -1.000
 4035.00    0.99445   1.00954   -1.000
 4036.00    1.01305   1.03156   -1.000
 4037.00    1.03062   1.04878   -1.000
 4038.00    1.03551   1.05633   -1.000
 4039.00    1.02501   1.05428   -1.000
 4040.00    1.01482   1.04679   -1.000
 4041.00    1.01337   1.03634   -1.000
 4042.00    1.01351   1.02066   -1.000
 4043.00    0.99668   0.99763  382.209
 4044.00    0.96473   0.97298   -1.000
 4045.00    0.93065   0.95941   -1.000
 4046.00    0.93125   0.96560   -1.000
 4047.00    0.96260   0.98804   -1.000
 4048.00    0.99477   1.01438   -1.000
 4049.00    1.01816   1.03309   -1.000
 4050.00    1.02295   1.03957   -1.000
 4051.00    1.01605   1.03534   -1.000
 4052.00    1.01587   1.02482   -1.000
 4053.00    1.00145   1.01334   -1.000
 4054.00    0.99237   1.00491   -1.000
 4055.00    0.99066   1.00034   -1.000
 4056.00    0.99507   0.99893  386.502
 4057.00    0.99672   1.00109  390.566
 4058.00    0.99333   1.00701   -1.000
 4059.00    0.99889   1.01295   -1.000
 4060.00    1.00847   1.01170  364.526
 4061.00    1.00344   0.99898  370.742
 4062.00    0.97306   0.97862  398.027
 4063.00    0.94645   0.95990   -1.000
 4064.00    0.94941   0.95039  419.401
 4065.00    0.96187   0.95145   -1.000
 4066.00    0.96922   0.95950   -1.000
 4067.00    0.97516   0.96953  378.337
 4068.00    0.98171   0.97623  366.090
 4069.00    0.99745   0.97509   -1.000
 4070.00    0.99412   0.96633   -1.000
 4071.00    0.96848   0.95627   -1.000
 4072.00    0.96231   0.95135   -1.000
 4073.00    0.98362   0.95048   -1.000
 4074.00    0.98529   0.94598   -1.000
 4075.00    0.96891   0.93298   -1.000
 4076.00    0.94003   0.91624   -1.000
 4077.00    0.91784   0.90675   -1.000
 4078.00    0.92417   0.91241   -1.000
 4079.00    0.95072   0.93118   -1.000
 4080.00    0.98069   0.95242   -1.000
 4081.00    0.98676   0.96475   -1.000
 4082.00    0.98219   0.96421   -1.000
 4083.00    0.97238   0.95583   -1.000
 4084.00    0.95480   0.94872  380.794
 4085.00    0.94927   0.94934  375.164
 4086.00    0.96611   0.95758   -1.000
 4087.00    0.98085   0.96766   -1.000
 4088.00    0.99000   0.97257   -1.000
 4089.00    0.98191   0.96882   -1.000
 4090.00    0.97452   0.95807   -1.000
 4091.00    0.96185   0.94413   -1.000
 4092.00    0.94566   0.92867   -1.000
 4093.00    0.94113   0.90999   -1.000
 4094.00    0.92989   0.88578   -1.000
 4095.00    0.90564   0.85583   -1.000
 4096.00    0.87687   0.82124   -1.000
 4097.00    0.84527   0.78157   -1.000
 4098.00    0.82188   0.73481   -1.000
 4099.00    0.77706   0.68222   -1.000
 4100.00    0.70103   0.63351   -1.000
 4101.00    0.63481   0.60508   -1.000
 4102.00    0.62839   0.60982   -1.000
 4103.00    0.69015   0.64693   -1.000
 4104.00    0.77305   0.70194   -1.000
 4105.00    0.82379   0.75684   -1.000
 4106.00    0.85252   0.80050   -1.000
 4107.00    0.88207   0.83105   -1.000
 4108.00    0.89337   0.85196   -1.000
 4109.00    0.89364   0.86801   -1.000
 4110.00    0.90769   0.88321   -1.000
 4111.00    0.92183   0.89978   -1.000
 4112.00    0.93745   0.91805   -1.000
 4113.00    0.94796   0.93700   -1.000
 4114.00    0.95952   0.95421  365.454
 4115.00    0.97286   0.96620  361.878
 4116.00    0.97610   0.97040  363.658
 4117.00    0.96715   0.96761  371.442
 4118.00    0.94832   0.96203   -1.000
 4119.00    0.94568   0.95828   -1.000
 4120.00    0.95787   0.95838  383.764
 4121.00    0.95810   0.96161  379.770
 4122.00    0.96287   0.96678  380.159
 4123.00    0.97515   0.97318  376.080
 4124.00    0.98308   0.97906  369.368
 4125.00    0.99050   0.98130   -1.000
 4126.00    0.98386   0.97821  373.082
 4127.00    0.97616   0.97182  381.193
 4128.00    0.96879   0.96563  384.366
 4129.00    0.96651   0.96062  386.298
 4130.00    0.96908   0.95506   -1.000
 4131.00    0.96342   0.94875   -1.000
 4132.00    0.95295   0.94568  416.384
 4133.00    0.94722   0.95104  417.529
 4134.00    0.95210   0.96617   -1.000
 4135.00    0.96711   0.98725   -1.000
 4136.00    0.98448   1.00853   -1.000
 4137.00    1.00216   1.02567   -1.000
 4138.00    1.01586   1.03601   -1.000
 4139.00    1.01806   1.03689   -1.000
 4140.00    1.01201   1.02617   -1.000
 4141.00    0.99883   1.00561  384.299
 4142.00    0.96716   0.98297   -1.000
 4143.00    0.93526   0.96884   -1.000
 4144.00    0.93896   0.96958   -1.000
 4145.00    0.96843   0.98205   -1.000
 4146.00    0.99010   0.99656  382.726
 4147.00    0.99401   1.00524   -1.000
 4148.00    0.98717   1.00738   -1.000
 4149.00    0.97717   1.00694   -1.000
 4150.00    0.98129   1.00664   -1.000
 4151.00    0.98668   1.00550   -1.000
 4152.00    0.98314   1.00142   -1.000
 4153.00    0.97650   0.99486   -1.000
 4154.00    0.97178   0.98938   -1.000
 4155.00    0.95337   0.98890   -1.000
 4156.00    1.10324   0.99472   -1.000
 4157.00    1.12343   1.00487   -1.000
 4158.00    0.91191   1.01569   -1.000
 4159.00    0.87120   1.02417   -1.000
 4160.00    0.99022   1.02962   -1.000
 4161.00    1.02041   1.03347   -1.000
 4162.00    1.00625   1.03717   -1.000
 4163.00    1.01451   1.04040   -1.000
 4164.00    1.00110   1.04132   -1.000
 4165.00    0.99258   1.03861   -1.000
 4166.00    0.99351   1.03300   -1.000
 4167.00    0.98890   1.02640   -1.000
 4168.00    0.98471   1.01882   -1.000
 4169.00    0.98491   1.00700   -1.000
 4170.00    0.99101   0.98814  389.167
 4171.00    0.97012   0.96527  412.549
 4172.00    0.93678   0.94736   -1.000
 4173.00    0.92415   0.94240   -1.000
 4174.00    0.93154   0.95002   -1.000
 4175.00    0.94627   0.96227   -1.000
 4176.00    0.96002   0.97153   -1.000
 4177.00    0.95235   0.97686   -1.000
 4178.00    0.95917   0.98183   -1.000
 4179.00    0.97828   0.98820   -1.000
 4180.00    0.98074   0.99393   -1.000
 4181.00    0.97703   0.99694   -1.000
 4182.00    0.97906   0.99836   -1.000
 4183.00    0.98104   1.00029   -1.000
 4184.00    0.98108   1.00212   -1.000
 4185.00    0.98186   1.00121   -1.000
 4186.00    0.96572   0.99717   -1.000
 4187.00    0.95035   0.99326   -1.000
 4188.00    0.95587   0.99315   -1.000
 4189.00    0.97245   0.99745   -1.000
 4190.00    0.97512   1.00434   -1.000
 4191.00    0.97932   1.01173   -1.000
 4192.00    0.98583   1.01727   -1.000
 4193.00    0.99068   1.01748   -1.000
 4194.00    0.99634   1.00951   -1.000
 4195.00    0.97814   0.99396   -1.000
 4196.00    0.95482   0.97507   -1.000
 4197.00    0.94403   0.95818   -1.000
 4198.00    0.93306   0.94710   -1.000
 4199.00    0.93603   0.94287   -1.000
 4200.00    0.94831   0.94423  411.545
 4201.00    0.94749   0.94911  410.462
 4202.00    0.94785   0.95645   -1.000
 4203.00    0.95596   0.96638   -1.000
 4204.00    0.95394   0.97894   -1.000
 4205.00    0.95656   0.99291   -1.000
 4206.00    0.96998   1.00587   -1.000
 4207.00    0.98390   1.01536   -1.000
 4208.00    0.98428   1.02038   -1.000
 4209.00    0.98357   1.02245   -1.000
 4210.00    0.98557   1.02407   -1.000
 4211.00    0.98092   1.02543   -1.000
 4212.00    0.98248   1.02344   -1.000
 4213.00    0.98256   1.01506   -1.000
 4214.00    0.96501   1.00201   -1.000
 4215.00    0.94080   0.99118   -1.000
 4216.00    0.94306   0.98961   -1.000
 4217.00    0.96003   0.99873   -1.000
 4218.00    0.97527   1.01330   -1.000
 4219.00    0.99378   1.02546   -1.000
 4220.00    1.00254   1.02908   -1.000
 4221.00    0.99410   1.02091   -1.000
 4222.00    0.98373   0.99973   -1.000
 4223.00    0.96374   0.96727  386.345
 4224.00    0.93297   0.93011  424.837
 4225.00    0.89040   0.89985   -1.000
 4226.00    0.85037   0.88899   -1.000
 4227.00    0.86428   0.90333   -1.000
 4228.00    0.91291   0.93621   -1.000
 4229.00    0.96230   0.97148   -1.000
 4230.00    0.98899   0.99409  359.550
 4231.00    0.98411   0.99904   -1.000
 4232.00    0.96910   0.99129   -1.000
 4233.00    0.96073   0.97962   -1.000
 4234.00    0.95509   0.97055   -1.000
 4235.00    0.94893   0.96626   -1.000
 4236.00    0.94501   0.96649   -1.000
 4237.00    0.94155   0.97078   -1.000
 4238.00    0.94861   0.97851   -1.000
 4239.00    0.95291   0.98808   -1.000
 4240.00    0.96669   0.99733   -1.000
 4241.00    0.98089   1.00501   -1.000
 4242.00    0.97304   1.01082   -1.000
 4243.00    0.96978   1.01402   -1.000
 4244.00    0.97889   1.01248   -1.000
 4245.00    0.97661   1.00434   -1.000
 4246.00    0.95553   0.99097   -1.000
 4247.00    0.94200   0.97738   -1.000
 4248.00    0.93905   0.96897   -1.000
 4249.00    0.93068   0.96800   -1.000
 4250.00    0.92649   0.97281   -1.000
 4251.00    0.93930   0.97937   -1.000
 4252.00    0.95512   0.98359   -1.000
 4253.00    0.96484   0.98417   -1.000
 4254.00    0.95575   0.98357   -1.000
 4255.00    0.95043   0.98465   -1.000
 4256.00    0.96630   0.98591   -1.000
 4257.00    0.97777   0.98236  363.266
 4258.00    0.96490   0.97245   -1.000
 4259.00    0.94036   0.96188   -1.000
 4260.00    0.92775   0.95973   -1.000
 4261.00    0.93749   0.97060   -1.000
 4262.00    0.96128   0.99069   -1.000
 4263.00    0.97893   1.01131   -1.000
 4264.00    0.98434   1.02492   -1.000
 4265.00    0.99895   1.02871   -1.000
 4266.00    0.98973   1.02332   -1.000
 4267.00    0.97082   1.01027   -1.000
 4268.00    0.96891   0.99076   -1.000
 4269.00    0.95845   0.96672   -1.000
 4270.00    0.93581   0.94226  410.663
 4271.00    0.90888   0.92336   -1.000
 4272.00    0.89935   0.91497   -1.000
 4273.00    0.90591   0.91871   -1.000
 4274.00    0.91244   0.93278   -1.000
 4275.00    0.93000   0.95356   -1.000
 4276.00    0.95287   0.97580   -1.000
 4277.00    0.97384   0.99274   -1.000
 4278.00    0.97484   0.99936   -1.000
 4279.00    0.95436   0.99642   -1.000
 4280.00    0.94217   0.98939   -1.000
 4281.00    0.93506   0.98356   -1.000
 4282.00    0.93295   0.98001   -1.000
 4283.00    0.94255   0.97659   -1.000
 4284.00    0.94463   0.97069   -1.000
 4285.00    0.93454   0.96106   -1.000
 4286.00    0.92403   0.94738   -1.000
 4287.00    0.91074   0.93018   -1.000
 4288.00    0.89624   0.91264   -1.000
 4289.00    0.87641   0.90067   -1.000
 4290.00    0.86784   0.89957   -1.000
 4291.00    0.88483   0.90874   -1.000
 4292.00    0.91123   0.92084   -1.000
 4293.00    0.91949   0.92747   -1.000
 4294.00    0.92326   0.92519  394.623
 4295.00    0.90886   0.91498  401.212
 4296.00    0.90468   0.89849  410.444
 4297.00    0.88406   0.87650   -1.000
 4298.00    0.85360   0.85159  469.375
 4299.00    0.82315   0.82917  504.407
 4300.00    0.80890   0.81514   -1.000
 4301.00    0.81853   0.81185   -1.000
 4302.00    0.82742   0.81756   -1.000
 4303.00    0.83306   0.82760  480.042
 4304.00    0.84149   0.83612  474.251
 4305.00    0.84673   0.83800   -1.000
 4306.00    0.83775   0.83221  493.235
 4307.00    0.81417   0.82375   -1.000
 4308.00    0.79190   0.82052   -1.000
 4309.00    0.79990   0.82684   -1.000
 4310.00    0.82142   0.84068   -1.000
 4311.00    0.83739   0.85701   -1.000
 4312.00    0.84525   0.87399   -1.000
 4313.00    0.86033   0.89477   -1.000
 4314.00    0.87664   0.92298   -1.000
 4315.00    0.91379   0.95695   -1.000
 4316.00    0.95762   0.98929   -1.000
 4317.00    0.97516   1.01107   -1.000
 4318.00    0.98816   1.01797   -1.000
 4319.00    0.98191   1.01120   -1.000
 4320.00    0.97634   0.99449   -1.000
 4321.00    0.96432   0.97043  346.613
 4322.00    0.95220   0.94079   -1.000
 4323.00    0.91846   0.90974   -1.000
 4324.00    0.86948   0.88573   -1.000
 4325.00    0.85270   0.87786   -1.000
 4326.00    0.87687   0.88899   -1.000
 4327.00    0.91041   0.91162  369.813
 4328.00    0.93495   0.93308  343.446
 4329.00    0.94410   0.94434  337.166
 4330.00    0.92921   0.94545   -1.000
 4331.00    0.93121   0.94090   -1.000
 4332.00    0.92688   0.93319  330.810
 4333.00    0.91358   0.92006  327.483
 4334.00    0.90973   0.89609   -1.000
 4335.00    0.89718   0.85675   -1.000
 4336.00    0.86041   0.80168   -1.000
 4337.00    0.80325   0.73760   -1.000
 4338.00    0.73615   0.67777   -1.000
 4339.00    0.66499   0.63809   -1.000
 4340.00    0.63041   0.62970  471.478
 4341.00    0.65229   0.65374  435.851
 4342.00    0.72824   0.70023   -1.000
 4343.00    0.80168   0.75430   -1.000
 4344.00    0.83129   0.80464   -1.000
 4345.00    0.86799   0.84742   -1.000
 4346.00    0.88722   0.88238  341.685
 4347.00    0.90729   0.90824  338.144
 4348.00    0.92503   0.92187  332.509
 4349.00    0.93685   0.92184   -1.000
 4350.00    0.91563   0.91245  352.605
 4351.00    0.89092   0.90382   -1.000
 4352.00    0.88403   0.90576   -1.000
 4353.00    0.90891   0.92075   -1.000
 4354.00    0.93539   0.94274  351.294
 4355.00    0.95159   0.96340   -1.000
 4356.00    0.96673   0.97760   -1.000
 4357.00    0.96835   0.98540   -1.000
 4358.00    0.95933   0.99017   -1.000
 4359.00    0.96023   0.99593   -1.000
 4360.00    0.97222   1.00480   -1.000
 4361.00    0.98168   1.01597   -1.000
 4362.00    0.98579   1.02683   -1.000
 4363.00    0.98780   1.03471   -1.000
 4364.00    1.00013   1.03747   -1.000
 4365.00    0.99418   1.03340   -1.000
 4366.00    0.98001   1.02290   -1.000
 4367.00    0.96845   1.00951   -1.000
 4368.00    0.96793   0.99776   -1.000
 4369.00    0.97240   0.98960   -1.000
 4370.00    0.97504   0.98338  339.767
 4371.00    0.97212   0.97561  339.512
 4372.00    0.97525   0.96426   -1.000
 4373.00    0.96692   0.95159   -1.000
 4374.00    0.94726   0.94385  371.651
 4375.00    0.93920   0.94686  371.534
 4376.00    0.94728   0.96070   -1.000
 4377.00    0.97398   0.97879  337.764
 4378.00    0.99818   0.99154  332.063
 4379.00    0.99591   0.99163  334.245
 4380.00    0.98663   0.97556   -1.000
 4381.00    0.97621   0.94495   -1.000
 4382.00    0.93652   0.90848   -1.000
 4383.00    0.88987   0.88046   -1.000
 4384.00    0.87494   0.87251  446.030
 4385.00    0.90224   0.88572   -1.000
 4386.00    0.94476   0.90952   -1.000
 4387.00    0.96728   0.93107   -1.000
 4388.00    0.96689   0.94454   -1.000
 4389.00    0.96448   0.95148   -1.000
 4390.00    0.96802   0.95617   -1.000
 4391.00    0.97731   0.96035   -1.000
 4392.00    0.98870   0.96287   -1.000
 4393.00    0.98105   0.96301   -1.000
 4394.00    0.96654   0.96313  355.165
 4395.00    0.96237   0.96693  353.590
 4396.00    0.96907   0.97395  336.928
 4397.00    0.98248   0.97881  327.289
 4398.00    0.98266   0.97717  332.288
 4399.00    0.96455   0.97089  344.889
 4400.00    0.95343   0.96553   -1.000
 4401.00    0.96824   0.96311  350.519
 4402.00    0.98442   0.96074   -1.000
 4403.00    0.97455   0.95559   -1.000
 4404.00    0.94757   0.94930  378.062
 4405.00    0.94636   0.94647  380.643
 4406.00    0.96206   0.94946   -1.000
 4407.00    0.96397   0.95742  362.248
 4408.00    0.96589   0.96942  359.074
 4409.00    0.97547   0.98461   -1.000
 4410.00    0.99038   1.00015   -1.000
 4411.00    1.00905   1.01006  319.010
 4412.00    1.01913   1.00836   -1.000
 4413.00    1.00479   0.99449   -1.000
 4414.00    0.97949   0.97471  343.503
 4415.00    0.96397   0.95922  355.708
 4416.00    0.96024   0.95672  353.274
 4417.00    0.96354   0.96891  340.595
 4418.00    0.98032   0.98947   -1.000
 4419.00    1.00536   1.00825  317.263
 4420.00    1.01093   1.01820  319.429
 4421.00    1.00995   1.01853  328.133
 4422.00    1.00419   1.01434   -1.000
 4423.00    0.99891   1.01083   -1.000
 4424.00    1.00132   1.00943  330.256
 4425.00    0.98903   1.00913   -1.000
 4426.00    0.97992   1.00919   -1.000
 4427.00    0.98282   1.00994   -1.000
 4428.00    0.98549   1.01157   -1.000
 4429.00    1.00122   1.01305   -1.000
 4430.00    1.00211   1.01309   -1.000
 4431.00    1.00008   1.01036   -1.000
 4432.00    1.00814   1.00391  327.311
 4433.00    0.99248   0.99508  338.639
 4434.00    0.97504   0.98863   -1.000
 4435.00    0.96219   0.99043   -1.000
 4436.00    0.97060   1.00263   -1.000
 4437.00    1.01005   1.02012   -1.000
 4438.00    1.02920   1.03337  309.319
 4439.00    1.03426   1.03455  308.787
 4440.00    1.01461   1.02268  318.950
 4441.00    0.99507   1.00427   -1.000
 4442.00    0.96672   0.98974   -1.000
 4443.00    0.94646   0.98761   -1.000
 4444.00    0.96960   0.99859   -1.000
 4445.00    0.99570   1.01623   -1.000
 4446.00    0.99780   1.03168   -1.000
 4447.00    1.00282   1.03989   -1.000
 4448.00    1.00596   1.04126   -1.000
 4449.00    1.00036   1.03886   -1.000
 4450.00    0.99472   1.03472   -1.000
 4451.00    0.99646   1.02819   -1.000
 4452.00    1.00331   1.01741   -1.000
 4453.00    0.99564   1.00232  335.321
 4454.00    0.97277   0.98669   -1.000
 4455.00    0.96129   0.97636   -1.000
 4456.00    0.96908   0.97395  351.569
 4457.00    0.98678   0.97731   -1.000
 4458.00    0.98849   0.98198  345.693
 4459.00    0.98233   0.98554  347.534
 4460.00    0.97376   0.98856   -1.000
 4461.00    0.96744   0.99280   -1.000
 4462.00    0.98109   0.99913   -1.000
 4463.00    0.99479   1.00654   -1.000
 4464.00    1.00516   1.01241  325.460
 4465.00    1.00330   1.01386   -1.000
 4466.00    0.99130   1.01012   -1.000
 4467.00    0.98336   1.00337   -1.000
 4468.00    0.97569   0.99813   -1.000
 4469.00    0.97429   0.99886   -1.000
 4470.00    0.98668   1.00747   -1.000
 4471.00    0.99641   1.02201   -1.000
 4472.00    1.01062   1.03822   -1.000
 4473.00    1.03181   1.05222   -1.000
 4474.00    1.03439   1.06184   -1.000
 4475.00    1.02746   1.06665   -1.000
 4476.00    1.02578   1.06665   -1.000
 4477.00    1.02983   1.06093   -1.000
 4478.00    1.03703   1.04811   -1.000
 4479.00    1.03218   1.02938  310.455
 4480.00    1.00533   1.01090  324.702
 4481.00    0.97957   1.00111   -1.000
 4482.00    0.98379   1.00555   -1.000
 4483.00    1.00721   1.02213   -1.000
 4484.00    1.02558   1.04244   -1.000
 4485.00    1.04038   1.05724   -1.000
 4486.00    1.04103   1.06095   -1.000
 4487.00    1.02786   1.05418   -1.000
 4488.00    1.01637   1.04263   -1.000
 4489.00    1.00376   1.03369   -1.000
 4490.00    1.00039   1.03162   -1.000
 4491.00    1.00851   1.03575   -1.000
 4492.00    1.01965   1.04128   -1.000
 4493.00    1.01702   1.04443   -1.000
 4494.00    1.01020   1.04505   -1.000
 4495.00    1.00294   1.04564   -1.000
 4496.00    1.00885   1.04856   -1.000
 4497.00    1.02913   1.05272   -1.000
 4498.00    1.03480   1.05550   -1.000
 4499.00    1.02985   1.05557   -1.000
 4500.00    1.01690   1.05516   -1.000
 4501.00    1.01578   1.05820   -1.000
 4502.00    1.02691   1.06713   -1.000
 4503.00    1.04511   1.08008   -1.000
 4504.00    1.05910   1.09151   -1.000
 4505.00    1.05527   1.09705   -1.000
 4506.00    1.04571   1.09598   -1.000
 4507.00    1.04326   1.09169   -1.000
 4508.00    1.04022   1.08819   -1.000
 4509.00    1.03903   1.08736   -1.000
 4510.00    1.04923   1.08762   -1.000
 4511.00    1.04381   1.08578   -1.000
 4512.00    1.03745   1.08022   -1.000
 4513.00    1.03701   1.07194   -1.000
 4514.00    1.03306   1.06375   -1.000
 4515.00    1.02595   1.05779   -1.000
 4516.00    1.02364   1.05433   -1.000
 4517.00    1.02251   1.05246   -1.000
 4518.00    1.01496   1.05104   -1.000
 4519.00    1.01798   1.04980   -1.000
 4520.00    1.03134   1.04870   -1.000
 4521.00    1.02934   1.04661   -1.000
 4522.00    1.02567   1.04252   -1.000
 4523.00    1.01583   1.03638   -1.000
 4524.00    1.00951   1.02863   -1.000
 4525.00    1.00977   1.01929   -1.000
 4526.00    1.00624   1.00791  329.821
 4527.00    0.98817   0.99587  339.129
 4528.00    0.97912   0.98650  343.067
 4529.00    0.98291   0.98263  340.412
 4530.00    0.99337   0.98380   -1.000
 4531.00    0.99401   0.98568  328.206
 4532.00    0.99079   0.98471  326.699
 4533.00    0.97567   0.98157  336.159
 4534.00    0.95817   0.98186   -1.000
 4535.00    0.96671   0.99106   -1.000
 4536.00    0.99028   1.00933   -1.000
 4537.00    1.01906   1.03081   -1.000
 4538.00    1.04533   1.04743  295.796
 4539.00    1.04534   1.05497  298.911
 4540.00    1.02716   1.05455   -1.000
 4541.00    1.02614   1.05102   -1.000
 4542.00    1.03102   1.04802   -1.000
 4543.00    1.01743   1.04579   -1.000
 4544.00    1.07013   1.04292   -1.000
 4545.00    0.47341   1.03804   -1.000
 4546.00   -0.06002   1.03063    0.000
 4547.00   -0.10476   1.02087    0.000
 4548.00    0.49284   1.01029   -1.000
 4549.00    0.49834   1.00260   -1.000
 4550.00    0.38572   1.00093   -1.000
 4551.00    1.03493   1.00426   -1.000
 4552.00    1.00159   1.00794  317.092
 4553.00    0.99124   1.00840   -1.000
 4554.00    0.98620   1.00720   -1.000
 4555.00    0.99634   1.00960   -1.000
 4556.00    1.00844   1.01851   -1.000
 4557.00    1.02835   1.03264  295.692
 4558.00    1.04172   1.04795  290.630
 4559.00    1.03845   1.06020   -1.000
 4560.00    1.03933   1.06703   -1.000
 4561.00    1.03735   1.06709   -1.000
 4562.00    1.03137   1.06067   -1.000
 4563.00    1.01558   1.05097   -1.000
 4564.00    1.00454   1.04306   -1.000
 4565.00    1.01622   1.04156   -1.000
 4566.00    1.03005   1.04685   -1.000
 4567.00    1.03801   1.05493   -1.000
 4568.00    1.04971   1.06037   -1.000
 4569.00    1.04179   1.05929   -1.000
 4570.00    1.02176   1.05260   -1.000
 4571.00    1.00613   1.04514   -1.000
 4572.00    1.00176   1.04240   -1.000
 4573.00    1.01246   1.04613   -1.000
 4574.00    1.03715   1.05360   -1.000
 4575.00    1.03914   1.05973   -1.000
 4576.00    1.03343   1.06105   -1.000
 4577.00    1.03450   1.05697   -1.000
 4578.00    1.03376   1.04799   -1.000
 4579.00    1.02645   1.03552  310.040
 4580.00    1.01836   1.02197  316.400
 4581.00    1.01159   1.01047  315.399
 4582.00    1.01106   1.00341  310.868
 4583.00    1.00786   1.00177  308.606
 4584.00    1.01061   1.00492  309.583
 4585.00    1.01386   1.01161  311.561
 4586.00    1.01969   1.01987  307.144
 4587.00    1.02793   1.02803  298.991
 4588.00    1.03499   1.03441  292.657
 4589.00    1.02917   1.03767  292.316
 4590.00    1.02718   1.03736   -1.000
 4591.00    1.02218   1.03459   -1.000
 4592.00    1.01433   1.03183   -1.000
 4593.00    1.01879   1.03131   -1.000
 4594.00    1.02508   1.03371  305.106
 4595.00    1.03719   1.03806  302.707
 4596.00    1.03206   1.04263   -1.000
 4597.00    1.03002   1.04591   -1.000
 4598.00    1.03545   1.04689   -1.000
 4599.00    1.03923   1.04533  303.327
 4600.00    1.02479   1.04207   -1.000
 4601.00    1.02083   1.03888   -1.000
 4602.00    1.02156   1.03723   -1.000
 4603.00    1.01979   1.03783   -1.000
 4604.00    1.02828   1.04050   -1.000
 4605.00    1.03270   1.04486   -1.000
 4606.00    1.03770   1.05076   -1.000
 4607.00    1.04674   1.05770   -1.000
 4608.00    1.04651   1.06440   -1.000
 4609.00    1.04926   1.06882   -1.000
 4610.00    1.05312   1.06969   -1.000
 4611.00    1.04891   1.06734   -1.000
 4612.00    1.04539   1.06347   -1.000
 4613.00    1.04319   1.06012   -1.000
 4614.00    1.04223   1.05755   -1.000
 4615.00    1.04183   1.05507   -1.000
 4616.00    1.03785   1.05170   -1.000
 4617.00    1.03597   1.04786   -1.000
 4618.00    1.03972   1.04524  290.592
 4619.00    1.03820   1.04577  290.277
 4620.00    1.04189   1.05035  287.454
 4621.00    1.05166   1.05739  282.837
 4622.00    1.04923   1.06404   -1.000
 4623.00    1.04896   1.06805   -1.000
 4624.00    1.04797   1.06857   -1.000
 4625.00    1.04129   1.06660   -1.000
 4626.00    1.03924   1.06319   -1.000
 4627.00    1.04161   1.05913   -1.000
 4628.00    1.04149   1.05571   -1.000
 4629.00    1.03304   1.05418   -1.000
 4630.00    1.03559   1.05513   -1.000
 4631.00    1.04038   1.05721   -1.000
 4632.00    1.04354   1.05798   -1.000
 4633.00    1.04329   1.05593   -1.000
 4634.00    1.04002   1.05177   -1.000
 4635.00    1.03916   1.04762  293.379
 4636.00    1.03280   1.04516   -1.000
 4637.00    1.03770   1.04481  299.779
 4638.00    1.03856   1.04656  300.961
 4639.00    1.03192   1.05059   -1.000
 4640.00    1.04589   1.05635   -1.000
 4641.00    1.05434   1.06216  288.016
 4642.00    1.05285   1.06535   -1.000
 4643.00    1.06187   1.06381  285.366
 4644.00    1.05471   1.05679  290.782
 4645.00    1.04377   1.04590  299.063
 4646.00    1.03161   1.03493  307.356
 4647.00    1.02333   1.02800  308.546
 4648.00    1.02418   1.02779  302.951
 4649.00    1.04190   1.03393  295.812
 4650.00    1.04251   1.04254  291.806
 4651.00    1.04045   1.04930  291.361
 4652.00    1.03818   1.05148   -1.000
 4653.00    1.03158   1.04906   -1.000
 4654.00    1.02885   1.04429   -1.000
 4655.00    1.01985   1.04078   -1.000
 4656.00    1.01610   1.04217   -1.000
 4657.00    1.02637   1.05013   -1.000
 4658.00    1.04614   1.06245   -1.000
 4659.00    1.06050   1.07408   -1.000
 4660.00    1.06473   1.08015   -1.000
 4661.00    1.06396   1.07845   -1.000
 4662.00    1.05057   1.07057   -1.000
 4663.00    1.04682   1.05895   -1.000
 4664.00    1.04522   1.04502  291.081
 4665.00    1.04326   1.02940   -1.000
 4666.00    1.02889   1.01384   -1.000
 4667.00    1.01056   1.00201  321.770
 4668.00    1.00655   0.99802  321.882
 4669.00    1.01449   1.00345   -1.000
 4670.00    1.02896   1.01574   -1.000
 4671.00    1.04311   1.02994   -1.000
 4672.00    1.04351   1.04224  289.023
 4673.00    1.05154   1.05103  289.287
 4674.00    1.05264   1.05701  288.974
 4675.00    1.05148   1.06032  285.140
 4676.00    1.05739   1.06014  280.821
 4677.00    1.05421   1.05535  282.344
 4678.00    1.05063   1.04662  288.599
 4679.00    1.03926   1.03706  294.305
 4680.00    1.02844   1.02989  299.155
 4681.00    1.03107   1.02705  302.012
 4682.00    1.03572   1.02827  298.124
 4683.00    1.03671   1.03202  290.496
 4684.00    1.04635   1.03650  286.751
 4685.00    1.05797   1.04014   -1.000
 4686.00    1.05441   1.04239   -1.000
 4687.00    1.05313   1.04344  289.603
 4688.00    1.05447   1.04379   -1.000
 4689.00    1.04932   1.04356  289.614
 4690.00    1.04954   1.04301  291.751
 4691.00    1.03818   1.04293  292.329
 4692.00    1.04427   1.04403  288.777
 4693.00    1.05150   1.04647  284.450
 4694.00    1.05634   1.04920  278.052
 4695.00    1.06344   1.05036   -1.000
 4696.00    1.06830   1.04825   -1.000
 4697.00    1.05769   1.04255   -1.000
 4698.00    1.04551   1.03403   -1.000
 4699.00    1.03930   1.02440   -1.000
 4700.00    1.04407   1.01536   -1.000
 4701.00    1.04530   1.00782   -1.000
 4702.00    1.02970   1.00309   -1.000
 4703.00    1.02626   1.00219   -1.000
 4704.00    1.02587   1.00468   -1.000
 4705.00    1.04363   1.00801   -1.000
 4706.00    1.03653   1.00925   -1.000
 4707.00    1.02767   1.00800   -1.000
 4708.00    1.02195   1.00695   -1.000
 4709.00    1.02150   1.00891   -1.000
 4710.00    1.03537   1.01453   -1.000
 4711.00    1.03997   1.02148   -1.000
 4712.00    1.04812   1.02676   -1.000
 4713.00    1.04348   1.02936   -1.000
 4714.00    1.04629   1.03048   -1.000
 4715.00    1.03998   1.03295  292.189
 4716.00    1.04338   1.03813  286.263
 4717.00    1.04742   1.04504  280.754
 4718.00    1.05130   1.05131  279.089
 4719.00    1.05926   1.05509  278.115
 4720.00    1.05758   1.05658  277.163
 4721.00    1.05698   1.05679  279.597
 4722.00    1.05430   1.05695  281.582
 4723.00    1.05570   1.05715  279.863
 4724.00    1.06122   1.05634  276.790
 4725.00    1.06297   1.05269  277.282
 4726.00    1.05450   1.04515  284.161
 4727.00    1.04399   1.03477  295.100
 4728.00    1.04012   1.02430   -1.000
 4729.00    1.04412   1.01667   -1.000
 4730.00    1.04380   1.01334   -1.000
 4731.00    1.03935   1.01412   -1.000
 4732.00    1.04371   1.01752   -1.000
 4733.00    1.04702   1.02168   -1.000
 4734.00    1.04318   1.02469   -1.000
 4735.00    1.04087   1.02572   -1.000
 4736.00    1.03994   1.02564   -1.000
 4737.00    1.03574   1.02609  289.110
 4738.00    1.04505   1.02799   -1.000
 4739.00    1.05563   1.03098   -1.000
 4740.00    1.04714   1.03418   -1.000
 4741.00    1.04281   1.03705  287.527
 4742.00    1.04561   1.03975  285.167
 4743.00    1.05811   1.04252   -1.000
 4744.00    1.05748   1.04511   -1.000
 4745.00    1.04979   1.04740  282.914
 4746.00    1.05461   1.04975  280.753
 4747.00    1.05547   1.05258  277.887
 4748.00    1.05423   1.05598  277.344
 4749.00    1.05464   1.05929  277.790
 4750.00    1.05432   1.06115  277.969
 4751.00    1.05234   1.06046  280.033
 4752.00    1.05237   1.05657  283.245
 4753.00    1.04645   1.05045  285.607
 4754.00    1.04656   1.04438  287.556
 4755.00    1.04371   1.04075  287.004
 4756.00    1.04318   1.04062  288.154
 4757.00    1.03714   1.04330  290.320
 4758.00    1.04320   1.04691  290.605
 4759.00    1.04682   1.04873  288.136
 4760.00    1.04511   1.04638  287.646
 4761.00    1.03756   1.03866  292.242
 4762.00    1.02498   1.02723  299.643
 4763.00    1.01971   1.01585  303.442
 4764.00    1.02543   1.00843   -1.000
 4765.00    1.02326   1.00722   -1.000
 4766.00    1.03257   1.01193   -1.000
 4767.00    1.04079   1.02102   -1.000
 4768.00    1.04505   1.03174   -1.000
 4769.00    1.04452   1.04099  286.024
 4770.00    1.04977   1.04663  286.581
 4771.00    1.04768   1.04890  289.056
 4772.00    1.04240   1.05011  291.624
 4773.00    1.04273   1.05288  288.150
 4774.00    1.04414   1.05749   -1.000
 4775.00    1.05505   1.06239  280.052
 4776.00    1.05848   1.06512  280.310
 4777.00    1.05484   1.06453  281.148
 4778.00    1.05070   1.06130   -1.000
 4779.00    1.04167   1.05715   -1.000
 4780.00    1.03652   1.05360   -1.000
 4781.00    1.03919   1.05083   -1.000
 4782.00    1.04503   1.04824  290.020
 4783.00    1.04265   1.04504  292.384
 4784.00    1.03362   1.04128  292.223
 4785.00    1.03358   1.03750  293.226
 4786.00    1.03188   1.03451  296.191
 4787.00    1.02624   1.03321  297.881
 4788.00    1.02932   1.03409  297.550
 4789.00    1.03211   1.03726  296.064
 4790.00    1.04020   1.04243  294.230
 4791.00    1.04585   1.04953  291.136
 4792.00    1.04320   1.05813   -1.000
 4793.00    1.05062   1.06708   -1.000
 4794.00    1.05197   1.07443   -1.000
 4795.00    1.05393   1.07796   -1.000
 4796.00    1.05725   1.07668   -1.000
 4797.00    1.05679   1.07138   -1.000
 4798.00    1.04490   1.06483   -1.000
 4799.00    1.04152   1.06022   -1.000
 4800.00    1.04364   1.05925   -1.000
 4801.00    1.04668   1.06127   -1.000
 4802.00    1.05453   1.06368  278.747
 4803.00    1.05376   1.06399  279.225
 4804.00    1.03969   1.06148   -1.000
 4805.00    1.03874   1.05768   -1.000
 4806.00    1.04316   1.05461   -1.000
 4807.00    1.04560   1.05365  289.133
 4808.00    1.04853   1.05470  288.395
 4809.00    1.04347   1.05673   -1.000
 4810.00    1.04852   1.05877  284.459
 4811.00    1.04790   1.06054   -1.000
 4812.00    1.04887   1.06250   -1.000
 4813.00    1.05717   1.06536  280.731
 4814.00    1.05337   1.06925   -1.000
 4815.00    1.06009   1.07342   -1.000
 4816.00    1.05467   1.07699   -1.000
 4817.00    1.05534   1.07932   -1.000
 4818.00    1.05745   1.08018   -1.000
 4819.00    1.05546   1.07914   -1.000
 4820.00    1.05650   1.07519   -1.000
 4821.00    1.05053   1.06732   -1.000
 4822.00    1.03968   1.05604   -1.000
 4823.00    1.03038   1.04473   -1.000
 4824.00    1.02446   1.03788   -1.000
 4825.00    1.03606   1.03755  283.817
 4826.00    1.05474   1.04204   -1.000
 4827.00    1.05062   1.04699  280.662
 4828.00    1.04729   1.04925  284.026
 4829.00    1.04565   1.04828  285.777
 4830.00    1.03968   1.04499  285.678
 4831.00    1.03987   1.04104  288.367
 4832.00    1.03955   1.03775  288.833
 4833.00    1.04021   1.03630  284.138
 4834.00    1.04470   1.03683  280.368
 4835.00    1.04662   1.03810  279.361
 4836.00    1.04233   1.03837  279.839
 4837.00    1.03698   1.03624  281.191
 4838.00    1.03262   1.03141  285.077
 4839.00    1.02549   1.02494  290.216
 4840.00    1.02161   1.01869  290.339
 4841.00    1.02253   1.01448  289.711
 4842.00    1.02440   1.01284   -1.000
 4843.00    1.02965   1.01329   -1.000
 4844.00    1.03421   1.01471   -1.000
 4845.00    1.03043   1.01555   -1.000
 4846.00    1.02541   1.01421   -1.000
 4847.00    1.02624   1.01007   -1.000
 4848.00    1.01369   1.00423  287.272
 4849.00    1.00758   0.99888  287.210
 4850.00    1.01623   0.99468   -1.000
 4851.00    1.00920   0.98952   -1.000
 4852.00    0.99802   0.98015   -1.000
 4853.00    0.99138   0.96431   -1.000
 4854.00    0.97538   0.94273   -1.000
 4855.00    0.96064   0.91793   -1.000
 4856.00    0.93935   0.89159   -1.000
 4857.00    0.92908   0.86188   -1.000
 4858.00    0.90597   0.82439   -1.000
 4859.00    0.83050   0.77904   -1.000
 4860.00    0.73819   0.73412  374.564
 4861.00    0.68394   0.70491   -1.000
 4862.00    0.71572   0.70321   -1.000
 4863.00    0.80060   0.72914   -1.000
 4864.00    0.87301   0.77261   -1.000
 4865.00    0.91800   0.81969   -1.000
 4866.00    0.94010   0.86123   -1.000
 4867.00    0.96220   0.89259   -1.000
 4868.00    0.97160   0.91272   -1.000
 4869.00    0.97527   0.92212   -1.000
 4870.00    0.96561   0.92361   -1.000
 4871.00    0.95323   0.92273   -1.000
 4872.00    0.95448   0.92541   -1.000
 4873.00    0.97880   0.93440   -1.000
 4874.00    0.99686   0.94782   -1.000
 4875.00    1.00569   0.96098   -1.000
 4876.00    1.00759   0.97163   -1.000
 4877.00    1.00011   0.98058   -1.000
 4878.00    1.00634   0.98994   -1.000
 4879.00    1.01975   0.99976   -1.000
 4880.00    1.02196   1.00767   -1.000
 4881.00    1.01803   1.01132  291.011
 4882.00    1.01562   1.01057  292.752
 4883.00    1.01547   1.00685  291.751
 4884.00    1.01464   1.00225   -1.000
 4885.00    1.00921   0.99781   -1.000
 4886.00    1.00949   0.99401   -1.000
 4887.00    1.01824   0.99051   -1.000
 4888.00    1.01703   0.98628   -1.000
 4889.00    1.00548   0.98125   -1.000
 4890.00    0.98445   0.97773  308.623
 4891.00    0.97515   0.98018  306.604
 4892.00    0.99937   0.99222  294.291
 4893.00    1.02782   1.01256   -1.000
 4894.00    1.04786   1.03547   -1.000
 4895.00    1.05539   1.05441  267.125
 4896.00    1.05862   1.06542  265.827
 4897.00    1.05506   1.06859   -1.000
 4898.00    1.04521   1.06572   -1.000
 4899.00    1.03685   1.05980   -1.000
 4900.00    1.03437   1.05332   -1.000
 4901.00    1.03387   1.04804   -1.000
 4902.00    1.03267   1.04444   -1.000
 4903.00    1.02898   1.04319   -1.000
 4904.00    1.02709   1.04501   -1.000
 4905.00    1.03979   1.04939  275.148
 4906.00    1.05291   1.05351  272.983
 4907.00    1.04771   1.05340  275.492
 4908.00    1.03606   1.04703   -1.000
 4909.00    1.02960   1.03643  290.366
 4910.00    1.02276   1.02616  294.099
 4911.00    1.02470   1.02127  290.264
 4912.00    1.03384   1.02363  284.988
 4913.00    1.04297   1.03160   -1.000
 4914.00    1.04693   1.04046  277.407
 4915.00    1.04688   1.04469  274.943
 4916.00    1.04757   1.03963  276.224
 4917.00    1.03446   1.02377  285.867
 4918.00    1.00585   1.00010  301.595
 4919.00    0.98681   0.97592   -1.000
 4920.00    0.97436   0.95888   -1.000
 4921.00    0.98120   0.95303   -1.000
 4922.00    0.99573   0.95713   -1.000
 4923.00    0.99994   0.96709   -1.000
 4924.00    1.00250   0.98006   -1.000
 4925.00    1.01482   0.99499   -1.000
 4926.00    1.02951   1.01160   -1.000
 4927.00    1.04228   1.02817   -1.000
 4928.00    1.04752   1.04199  274.448
 4929.00    1.04958   1.05067  272.563
 4930.00    1.05560   1.05238  270.914
 4931.00    1.05116   1.04684  273.550
 4932.00    1.03372   1.03573  280.998
 4933.00    1.01321   1.02320  291.266
 4934.00    1.00545   1.01352  292.107
 4935.00    1.01704   1.00830  286.878
 4936.00    1.02662   1.00512   -1.000
 4937.00    1.02406   1.00155   -1.000
 4938.00    1.00932   0.99830   -1.000
 4939.00    1.00205   0.99927  300.726
 4940.00    1.01649   1.00749  290.501
 4941.00    1.02969   1.02131  281.150
 4942.00    1.04314   1.03594  275.912
 4943.00    1.05050   1.04666  273.360
 4944.00    1.04754   1.05176  273.531
 4945.00    1.04185   1.05286   -1.000
 4946.00    1.03870   1.05292   -1.000
 4947.00    1.04407   1.05442  273.631
 4948.00    1.04504   1.05759   -1.000
 4949.00    1.04213   1.06097   -1.000
 4950.00    1.04406   1.06247   -1.000
 4951.00    1.04430   1.06133   -1.000
 4952.00    1.04918   1.05781  271.636
 4953.00    1.04613   1.05198  274.777
 4954.00    1.04469   1.04244  278.207
 4955.00    1.03368   1.02763  285.616
 4956.00    1.00561   1.00947  300.359
 4957.00    0.97371   0.99459   -1.000
 4958.00    0.98134   0.99059  306.536
 4959.00    1.01242   1.00010   -1.000
 4960.00    1.03730   1.01767   -1.000
 4961.00    1.04196   1.03493  276.701
 4962.00    1.04221   1.04550  277.961
 4963.00    1.04410   1.04804  280.178
 4964.00    1.03689   1.04427  283.490
 4965.00    1.02826   1.03708  289.505
 4966.00    1.02965   1.02938  293.307
 4967.00    1.03107   1.02341  293.426
 4968.00    1.03156   1.02049   -1.000
 4969.00    1.03282   1.02101   -1.000
 4970.00    1.03419   1.02466  287.323
 4971.00    1.03372   1.03062  284.239
 4972.00    1.04124   1.03751  280.839
 4973.00    1.04757   1.04379  278.178
 4974.00    1.04604   1.04792  277.024
 4975.00    1.04899   1.04898  278.918
 4976.00    1.04449   1.04661  281.853
 4977.00    1.03847   1.04118  285.681
 4978.00    1.03568   1.03301  290.344
 4979.00    1.02809   1.02192  293.942
 4980.00    1.02168   1.00731   -1.000
 4981.00    1.00487   0.98963   -1.000
 4982.00    0.98700   0.97200   -1.000
 4983.00    0.98361   0.95984   -1.000
 4984.00    0.98418   0.95794   -1.000
 4985.00    0.99930   0.96694   -1.000
 4986.00    1.01817   0.98270   -1.000
 4987.00    1.02724   0.99870   -1.000
 4988.00    1.03025   1.00948   -1.000
 4989.00    1.02138   1.01326  290.786
 4990.00    1.01574   1.01165  293.811
 4991.00    1.00750   1.00846  293.986
 4992.00    1.01795   1.00682   -1.000
 4993.00    1.02063   1.00806   -1.000
 4994.00    1.01622   1.01145  289.988
 4995.00    1.02185   1.01523  288.508
 4996.00    1.02720   1.01729  287.068
 4997.00    1.02783   1.01571   -1.000
 4998.00    1.02302   1.00951   -1.000
 4999.00    1.01625   0.99966   -1.000
 5000.00    1.00600   0.98900   -1.000
 5001.00    1.00368   0.98088   -1.000
 5002.00    1.00559   0.97649   -1.000
 5003.00    1.02068   0.97412   -1.000
 5004.00    1.00884   0.97100   -1.000
 5005.00    0.99641   0.96667   -1.000
 5006.00    0.98375   0.96418   -1.000
 5007.00    0.98855   0.96684   -1.000
 5008.00    1.00767   0.97446   -1.000
 5009.00    1.02560   0.98237   -1.000
 5010.00    1.02076   0.98470   -1.000
 5011.00    1.01062   0.97899   -1.000
 5012.00    0.99194   0.96740   -1.000
 5013.00    0.97779   0.95552   -1.000
 5014.00    0.97628   0.94768   -1.000
 5015.00    0.98001   0.94494   -1.000
 5016.00    0.98955   0.94512   -1.000
 5017.00    0.99676   0.94617   -1.000
 5018.00    0.99362   0.94825   -1.000
 5019.00    0.99300   0.95256   -1.000
 5020.00    1.00344   0.95919   -1.000
 5021.00    1.01353   0.96670   -1.000
 5022.00    1.01108   0.97360   -1.000
 5023.00    1.00983   0.97994   -1.000
 5024.00    1.01437   0.98580   -1.000
 5025.00    1.02165   0.99039   -1.000
 5026.00    1.02292   0.99283   -1.000
 5027.00    1.01324   0.99365   -1.000
 5028.00    1.01684   0.99478   -1.000
 5029.00    1.02841   0.99799   -1.000
 5030.00    1.03077   1.00352   -1.000
 5031.00    1.03151   1.01016   -1.000
 5032.00    1.03650   1.01548   -1.000
 5033.00    1.04162   1.01672   -1.000
 5034.00    1.02861   1.01218   -1.000
 5035.00    1.01394   1.00282   -1.000
 5036.00    1.00094   0.99098   -1.000
 5037.00    1.00251   0.97860   -1.000
 5038.00    1.00096   0.96525   -1.000
 5039.00    0.98424   0.95091   -1.000
 5040.00    0.96618   0.93876   -1.000
 5041.00    0.95472   0.93470   -1.000
 5042.00    0.97109   0.94323   -1.000
 5043.00    1.00101   0.96284   -1.000
 5044.00    1.02489   0.98669   -1.000
 5045.00    1.03167   1.00681   -1.000
 5046.00    1.04765   1.01752   -1.000
 5047.00    0.91008   1.01758   -1.000
 5048.00    0.14767   1.00903   -1.000
 5049.00    0.02381   0.99667   -1.000
 5050.00    0.81086   0.98576   -1.000
 5051.00    1.02013   0.98079   -1.000
 5052.00    1.01122   0.98351   -1.000
 5053.00    1.02793   0.99260   -1.000
 5054.00    1.03642   1.00412   -1.000
 5055.00    1.04034   1.01467   -1.000
 5056.00    1.04482   1.02263   -1.000
 5057.00    1.04484   1.02858   -1.000
 5058.00    1.04074   1.03323  278.282
 5059.00    1.03544   1.03671  278.179
 5060.00    1.03626   1.03833  276.294
 5061.00    1.03527   1.03698  276.428
 5062.00    1.03740   1.03154  280.130
 5063.00    1.03493   1.02186   -1.000
 5064.00    1.01828   1.01016  298.589
 5065.00    1.00946   0.99974  302.110
 5066.00    1.01440   0.99354   -1.000
 5067.00    1.01739   0.99160   -1.000
 5068.00    1.01976   0.99233   -1.000
 5069.00    1.01769   0.99359   -1.000
 5070.00    1.02609   0.99401   -1.000
 5071.00    1.02961   0.99313   -1.000
 5072.00    1.02026   0.99149   -1.000
 5073.00    1.02531   0.99040   -1.000
 5074.00    1.02502   0.99059   -1.000
 5075.00    1.02346   0.99126   -1.000
 5076.00    1.02164   0.98994   -1.000
 5077.00    1.02242   0.98447   -1.000
 5078.00    1.00931   0.97473   -1.000
 5079.00    0.99253   0.96373   -1.000
 5080.00    0.98240   0.95585   -1.000
 5081.00    0.99064   0.95398   -1.000
 5082.00    1.00139   0.95823   -1.000
 5083.00    1.00655   0.96643   -1.000
 5084.00    1.01909   0.97650   -1.000
 5085.00    1.03425   0.98667   -1.000
 5086.00    1.03232   0.99576   -1.000
 5087.00    1.03285   1.00306   -1.000
 5088.00    1.03710   1.00856   -1.000
 5089.00    1.03230   1.01287   -1.000
 5090.00    1.03328   1.01668   -1.000
 5091.00    1.04245   1.02035   -1.000
 5092.00    1.04225   1.02354   -1.000
 5093.00    1.04357   1.02484   -1.000
 5094.00    1.03947   1.02223   -1.000
 5095.00    1.03544   1.01427   -1.000
 5096.00    1.03068   1.00175   -1.000
 5097.00    1.01755   0.98780   -1.000
 5098.00    1.00643   0.97700   -1.000
 5099.00    1.00464   0.97279   -1.000
 5100.00    1.01901   0.97599   -1.000
 5101.00    1.03349   0.98411   -1.000
 5102.00    1.03445   0.99271   -1.000
 5103.00    1.03451   0.99795   -1.000
 5104.00    1.03192   0.99789   -1.000
 5105.00    1.02484   0.99314   -1.000
 5106.00    1.01034   0.98574   -1.000
 5107.00    1.00456   0.97847   -1.000
 5108.00    1.00048   0.97384   -1.000
 5109.00    0.99939   0.97352   -1.000
 5110.00    1.00567   0.97771   -1.000
 5111.00    1.01727   0.98549   -1.000
 5112.00    1.03234   0.99479   -1.000
 5113.00    1.03918   1.00384   -1.000
 5114.00    1.04302   1.01138   -1.000
 5115.00    1.04514   1.01735   -1.000
 5116.00    1.04186   1.02183   -1.000
 5117.00    1.04199   1.02441   -1.000
 5118.00    1.04502   1.02423   -1.000
 5119.00    1.04410   1.02041   -1.000
 5120.00    1.03801   1.01304   -1.000
 5121.00    1.02746   1.00293   -1.000
 5122.00    1.01363   0.99168   -1.000
 5123.00    1.00238   0.98084   -1.000
 5124.00    0.99753   0.97215   -1.000
 5125.00    1.00746   0.96641   -1.000
 5126.00    1.01421   0.96358   -1.000
 5127.00    1.00628   0.96268   -1.000
 5128.00    1.00580   0.96312   -1.000
 5129.00    1.00154   0.96489   -1.000
 5130.00    1.01107   0.96832   -1.000
 5131.00    1.01807   0.97319   -1.000
 5132.00    1.02665   0.97860   -1.000
 5133.00    1.02379   0.98352   -1.000
 5134.00    1.02388   0.98679   -1.000
 5135.00    1.02687   0.98740   -1.000
 5136.00    1.02063   0.98446   -1.000
 5137.00    1.00350   0.97844   -1.000
 5138.00    0.99684   0.97096   -1.000
 5139.00    0.99127   0.96447   -1.000
 5140.00    0.99393   0.96051   -1.000
 5141.00    0.99895   0.95923   -1.000
 5142.00    0.99866   0.95995   -1.000
 5143.00    0.99920   0.96187   -1.000
 5144.00    1.00997   0.96412   -1.000
 5145.00    1.01481   0.96574   -1.000
 5146.00    1.01239   0.96615   -1.000
 5147.00    1.00782   0.96584   -1.000
 5148.00    1.00932   0.96573   -1.000
 5149.00    1.01787   0.96563   -1.000
 5150.00    1.00938   0.96459   -1.000
 5151.00    0.99812   0.96215   -1.000
 5152.00    1.00061   0.95937   -1.000
 5153.00    1.00610   0.95867   -1.000
 5154.00    1.01165   0.96196   -1.000
 5155.00    1.01897   0.96987   -1.000
 5156.00    1.03107   0.98069   -1.000
 5157.00    1.03913   0.99183   -1.000
 5158.00    1.04205   1.00051   -1.000
 5159.00    1.04230   1.00523   -1.000
 5160.00    1.03548   1.00546   -1.000
 5161.00    1.03167   1.00123   -1.000
 5162.00    1.02877   0.99209   -1.000
 5163.00    1.03002   0.97662   -1.000
 5164.00    1.02175   0.95304   -1.000
 5165.00    0.98804   0.92127   -1.000
 5166.00    0.93375   0.88654   -1.000
 5167.00    0.90309   0.85710   -1.000
 5168.00    0.89992   0.84049   -1.000
 5169.00    0.93057   0.83654   -1.000
 5170.00    0.95091   0.83820   -1.000
 5171.00    0.94090   0.84037   -1.000
 5172.00    0.91277   0.84400   -1.000
 5173.00    0.92072   0.85648   -1.000
 5174.00    0.96581   0.88146   -1.000
 5175.00    1.01200   0.91427   -1.000
 5176.00    1.03644   0.94594   -1.000
 5177.00    1.03985   0.96810   -1.000
 5178.00    1.03436   0.97734   -1.000
 5179.00    1.03530   0.97291   -1.000
 5180.00    1.03284   0.95471   -1.000
 5181.00    1.00540   0.92556   -1.000
 5182.00    0.96423   0.89231   -1.000
 5183.00    0.92171   0.86696   -1.000
 5184.00    0.92369   0.85967   -1.000
 5185.00    0.96675   0.87240   -1.000
 5186.00    1.00458   0.89798   -1.000
 5187.00    1.01242   0.92436   -1.000
 5188.00    1.01400   0.94352   -1.000
 5189.00    1.01520   0.95284   -1.000
 5190.00    1.01001   0.95405   -1.000
 5191.00    0.99545   0.95019   -1.000
 5192.00    0.97896   0.94513   -1.000
 5193.00    0.97934   0.94179   -1.000
 5194.00    0.98974   0.94203   -1.000
 5195.00    0.99632   0.94551   -1.000
 5196.00    1.00405   0.95153   -1.000
 5197.00    1.01709   0.95966   -1.000
 5198.00    1.02479   0.96925   -1.000
 5199.00    1.02597   0.97843   -1.000
 5200.00    1.02654   0.98438   -1.000
 5201.00    1.02322   0.98426   -1.000
 5202.00    1.01990   0.97699   -1.000
 5203.00    1.01028   0.96351   -1.000
 5204.00    0.98809   0.94699   -1.000
 5205.00    0.97534   0.93130   -1.000
 5206.00    0.97421   0.91988   -1.000
 5207.00    0.97702   0.91458   -1.000
 5208.00    0.98044   0.91596   -1.000
 5209.00    0.99028   0.92412   -1.000
 5210.00    1.00538   0.93810   -1.000
 5211.00    1.01825   0.95576   -1.000
 5212.00    1.03397   0.97254   -1.000
 5213.00    1.04379   0.98387   -1.000
 5214.00    1.03119   0.98724   -1.000
 5215.00    1.01777   0.98439   -1.000
 5216.00    1.00444   0.98065   -1.000
 5217.00    1.00836   0.98095   -1.000
 5218.00    1.02520   0.98741   -1.000
 5219.00    1.04041   0.99757   -1.000
 5220.00    1.04544   1.00720   -1.000
 5221.00    1.04671   1.01190   -1.000
 5222.00    1.04805   1.00886   -1.000
 5223.00    1.03439   0.99681   -1.000
 5224.00    1.01311   0.97695   -1.000
 5225.00    0.98579   0.95352   -1.000
 5226.00    0.96283   0.93454   -1.000
 5227.00    0.95588   0.92672   -1.000
 5228.00    0.98195   0.93250   -1.000
 5229.00    1.01453   0.94658   -1.000
 5230.00    1.02770   0.96069   -1.000
 5231.00    1.02446   0.96846   -1.000
 5232.00    1.01870   0.96890   -1.000
 5233.00    1.01130   0.96619   -1.000
 5234.00    1.00946   0.96581   -1.000
 5235.00    1.01945   0.97132   -1.000
 5236.00    1.03307   0.98187   -1.000
 5237.00    1.04316   0.99426   -1.000
 5238.00    1.04399   1.00467   -1.000
 5239.00    1.04335   1.01140   -1.000
 5240.00    1.04754   1.01467   -1.000
 5241.00    1.04594   1.01586   -1.000
 5242.00    1.04315   1.01636   -1.000
 5243.00    1.04464   1.01661   -1.000
 5244.00    1.04068   1.01576   -1.000
 5245.00    1.04037   1.01215   -1.000
 5246.00    1.03614   1.00534   -1.000
 5247.00    1.01923   0.99642   -1.000
 5248.00    1.01093   0.98792   -1.000
 5249.00    1.00832   0.98177   -1.000
 5250.00    0.99962   0.97881   -1.000
 5251.00    1.00011   0.97873   -1.000
 5252.00    1.01561   0.98050   -1.000
 5253.00    1.02400   0.98316   -1.000
 5254.00    1.01907   0.98651   -1.000
 5255.00    1.02786   0.99159   -1.000
 5256.00    1.03429   0.99855   -1.000
 5257.00    1.04262   1.00599   -1.000
 5258.00    1.04805   1.01022   -1.000
 5259.00    1.04043   1.00750   -1.000
 5260.00    1.02752   0.99586   -1.000
 5261.00    1.01058   0.97618   -1.000
 5262.00    0.99151   0.95208   -1.000
 5263.00    0.97432   0.92854   -1.000
 5264.00    0.97081   0.91013   -1.000
 5265.00    0.96836   0.89931   -1.000
 5266.00    0.97236   0.89508   -1.000
 5267.00    0.98332   0.89352   -1.000
 5268.00    0.97492   0.89204   -1.000
 5269.00    0.94855   0.89081   -1.000
 5270.00    0.94486   0.89370   -1.000
 5271.00    0.97009   0.90321   -1.000
 5272.00    1.00715   0.91713   -1.000
 5273.00    1.01250   0.93166   -1.000
 5274.00    1.00964   0.94378   -1.000
 5275.00    1.01184   0.95447   -1.000
 5276.00    1.01726   0.96604   -1.000
 5277.00    1.02773   0.97849   -1.000
 5278.00    1.04575   0.98916   -1.000
 5279.00    1.04187   0.99382   -1.000
 5280.00    1.03250   0.99114   -1.000
 5281.00    1.02369   0.98315   -1.000
 5282.00    1.01190   0.97486   -1.000
 5283.00    1.00307   0.97121   -1.000
 5284.00    1.00697   0.97541   -1.000
 5285.00    1.02444   0.98679   -1.000
 5286.00    1.03783   1.00177   -1.000
 5287.00    1.04913   1.01577   -1.000
 5288.00    1.05402   1.02578   -1.000
 5289.00    1.05368   1.03154   -1.000
 5290.00    1.05348   1.03398   -1.000
 5291.00    1.04751   1.03399   -1.000
 5292.00    1.04298   1.03199  266.730
 5293.00    1.04517   1.02734   -1.000
 5294.00    1.04044   1.01917   -1.000
 5295.00    1.02921   1.00739   -1.000
 5296.00    1.02063   0.99342   -1.000
 5297.00    1.01260   0.98087   -1.000
 5298.00    1.00936   0.97364   -1.000
 5299.00    1.01614   0.97297   -1.000
 5300.00    1.02076   0.97795   -1.000
 5301.00    1.02605   0.98583   -1.000
 5302.00    1.02854   0.99471   -1.000
 5303.00    1.02744   1.00373   -1.000
 5304.00    1.03440   1.01140   -1.000
 5305.00    1.04015   1.01669   -1.000
 5306.00    1.03627   1.01931   -1.000
 5307.00    1.03389   1.02037   -1.000
 5308.00    1.03541   1.02201   -1.000
 5309.00    1.04577   1.02489   -1.000
 5310.00    1.05099   1.02820   -1.000
 5311.00    1.05153   1.03002   -1.000
 5312.00    1.04387   1.02858   -1.000
 5313.00    1.04236   1.02337   -1.000
 5314.00    1.03764   1.01523   -1.000
 5315.00    1.03046   1.00621   -1.000
 5316.00    1.01967   0.99946   -1.000
 5317.00    1.02181   0.99736   -1.000
 5318.00    1.03261   1.00011   -1.000
 5319.00    1.03492   1.00494   -1.000
 5320.00    1.03662   1.00763   -1.000
 5321.00    1.03723   1.00555   -1.000
 5322.00    1.02823   0.99804   -1.000
 5323.00    1.01289   0.98688   -1.000
 5324.00    1.00580   0.97368   -1.000
 5325.00    1.00727   0.95925   -1.000
 5326.00    1.00071   0.94433   -1.000
 5327.00    0.97276   0.93055   -1.000
 5328.00    0.95045   0.92317   -1.000
 5329.00    0.96872   0.92570   -1.000
 5330.00    1.00633   0.93841   -1.000
 5331.00    1.02530   0.95646   -1.000
 5332.00    1.02556   0.97344   -1.000
 5333.00    1.02745   0.98600   -1.000
 5334.00    1.03232   0.99349   -1.000
 5335.00    1.03540   0.99667   -1.000
 5336.00    1.02950   0.99624   -1.000
 5337.00    1.02070   0.99226   -1.000
 5338.00    1.02023   0.98554   -1.000
 5339.00    1.01052   0.97773   -1.000
 5340.00    1.00104   0.97216   -1.000
 5341.00    0.99946   0.97121   -1.000
 5342.00    1.01391   0.97552   -1.000
 5343.00    1.03211   0.98220   -1.000
 5344.00    1.03289   0.98735   -1.000
 5345.00    1.02337   0.98886   -1.000
 5346.00    1.02281   0.98692   -1.000
 5347.00    1.02213   0.98403   -1.000
 5348.00    1.02014   0.98246   -1.000
 5349.00    1.01936   0.98382   -1.000
 5350.00    1.02620   0.98832   -1.000
 5351.00    1.03358   0.99517   -1.000
 5352.00    1.03755   1.00287   -1.000
 5353.00    1.03440   1.01023   -1.000
 5354.00    1.03987   1.01706   -1.000
 5355.00    1.04747   1.02305   -1.000
 5356.00    1.04894   1.02795   -1.000
 5357.00    1.04485   1.03097   -1.000
 5358.00    1.04631   1.03131   -1.000
 5359.00    1.05294   1.02861   -1.000
 5360.00    1.04586   1.02266   -1.000
 5361.00    1.03676   1.01392   -1.000
 5362.00    1.02758   1.00382   -1.000
 5363.00    1.02696   0.99420   -1.000
 5364.00    1.02469   0.98681   -1.000
 5365.00    1.01848   0.98196   -1.000
 5366.00    1.02051   0.97870   -1.000
 5367.00    1.02826   0.97476   -1.000
 5368.00    1.02074   0.96849   -1.000
 5369.00    1.00191   0.95996   -1.000
 5370.00    0.98886   0.95184   -1.000
 5371.00    0.98712   0.94882   -1.000
 5372.00    1.00234   0.95374   -1.000
 5373.00    1.02021   0.96666   -1.000
 5374.00    1.03719   0.98305   -1.000
 5375.00    1.04797   0.99789   -1.000
 5376.00    1.04937   1.00752   -1.000
 5377.00    1.05064   1.01107   -1.000
 5378.00    1.04625   1.00982   -1.000
 5379.00    1.03658   1.00555   -1.000
 5380.00    1.03392   1.00011   -1.000
 5381.00    1.02385   0.99506   -1.000
 5382.00    1.02206   0.99181   -1.000
 5383.00    1.02642   0.99149   -1.000
 5384.00    1.02939   0.99426   -1.000
 5385.00    1.03712   0.99911   -1.000
 5386.00    1.04505   1.00365   -1.000
 5387.00    1.04029   1.00573   -1.000
 5388.00    1.03589   1.00424   -1.000
 5389.00    1.03903   0.99945   -1.000
 5390.00    1.03350   0.99274   -1.000
 5391.00    1.02792   0.98565   -1.000
 5392.00    1.01977   0.97902   -1.000
 5393.00    1.01252   0.97322   -1.000
 5394.00    1.00896   0.96755   -1.000
 5395.00    1.00584   0.96134   -1.000
 5396.00    0.99791   0.95573   -1.000
 5397.00    0.98901   0.95252   -1.000
 5398.00    1.00465   0.95399   -1.000
 5399.00    1.02290   0.95969   -1.000
 5400.00    1.02820   0.96634   -1.000
 5401.00    1.03558   0.96997   -1.000
 5402.00    1.02798   0.96757   -1.000
 5403.00    1.01184   0.95911   -1.000
 5404.00    0.99090   0.94792   -1.000
 5405.00    0.97915   0.93891   -1.000
 5406.00    0.98674   0.93498   -1.000
 5407.00    1.00314   0.93665   -1.000
 5408.00    1.00911   0.94102   -1.000
 5409.00    1.00430   0.94591   -1.000
 5410.00    1.00348   0.95130   -1.000
 5411.00    1.01358   0.95747   -1.000
 5412.00    1.02836   0.96470   -1.000
 5413.00    1.03031   0.97168   -1.000
 5414.00    1.02032   0.97743   -1.000
 5415.00    1.01913   0.98252   -1.000
 5416.00    1.02469   0.98716   -1.000
 5417.00    1.02735   0.99131   -1.000
 5418.00    1.03144   0.99419   -1.000
 5419.00    1.03024   0.99491   -1.000
 5420.00    1.02876   0.99366   -1.000
 5421.00    1.02622   0.99077   -1.000
 5422.00    1.02621   0.98668   -1.000
 5423.00    1.02383   0.98291   -1.000
 5424.00    1.01167   0.98070   -1.000
 5425.00    1.01815   0.98098   -1.000
 5426.00    1.03335   0.98258   -1.000
 5427.00    1.03415   0.98183   -1.000
 5428.00    1.01533   0.97765   -1.000
 5429.00    0.99580   0.97090   -1.000
 5430.00    0.99390   0.96472   -1.000
 5431.00    1.00292   0.96136   -1.000
 5432.00    1.00618   0.95967   -1.000
 5433.00    0.99698   0.95894   -1.000
 5434.00    0.99237   0.95944   -1.000
 5435.00    0.99295   0.96300   -1.000
 5436.00    1.01151   0.97145   -1.000
 5437.00    1.02345   0.98346   -1.000
 5438.00    1.03559   0.99647   -1.000
 5439.00    1.04514   1.00703   -1.000
 5440.00    1.03824   1.01355   -1.000
 5441.00    1.03493   1.01545   -1.000
 5442.00    1.03817   1.01229   -1.000
 5443.00    1.03016   1.00416   -1.000
 5444.00    1.01416   0.99140   -1.000
 5445.00    0.99931   0.97712   -1.000
 5446.00    0.98730   0.96592   -1.000
 5447.00    0.98356   0.96196   -1.000
 5448.00    1.00209   0.96681   -1.000
 5449.00    1.02442   0.97709   -1.000
 5450.00    1.03228   0.98804   -1.000
 5451.00    1.03439   0.99466   -1.000
 5452.00    1.03288   0.99434   -1.000
 5453.00    1.02443   0.98764   -1.000
 5454.00    1.00260   0.97823   -1.000
 5455.00    0.98535   0.97081   -1.000
 5456.00    0.99247   0.97003   -1.000
 5457.00    1.01698   0.97595   -1.000
 5458.00    1.03412   0.98512   -1.000
 5459.00    1.03482   0.99254   -1.000
 5460.00    1.03023   0.99454   -1.000
 5461.00    1.01947   0.99117   -1.000
 5462.00    1.01873   0.98523   -1.000
 5463.00    1.01724   0.98071   -1.000
 5464.00    1.02284   0.97993   -1.000
 5465.00    1.02253   0.98306   -1.000
 5466.00    1.02489   0.98816   -1.000
 5467.00    1.02655   0.99323   -1.000
 5468.00    1.03193   0.99686   -1.000
 5469.00    1.02843   0.99823   -1.000
 5470.00    1.02889   0.99725   -1.000
 5471.00    1.02736   0.99408   -1.000
 5472.00    1.02638   0.98865   -1.000
 5473.00    1.02372   0.98108   -1.000
 5474.00    1.01579   0.97179   -1.000
 5475.00    1.00047   0.96202   -1.000
 5476.00    0.98490   0.95476   -1.000
 5477.00    0.98785   0.95240   -1.000
 5478.00    0.99879   0.95560   -1.000
 5479.00    1.02003   0.96240   -1.000
 5480.00    1.01769   0.96920   -1.000
 5481.00    1.01241   0.97495   -1.000
 5482.00    1.01223   0.97964   -1.000
 5483.00    1.01484   0.98430   -1.000
 5484.00    1.02565   0.98906   -1.000
 5485.00    1.02522   0.99228   -1.000
 5486.00    1.02381   0.99310   -1.000
 5487.00    1.02089   0.99172   -1.000
 5488.00    1.01879   0.98992   -1.000
 5489.00    1.02221   0.98927   -1.000
 5490.00    1.02614   0.99001   -1.000
 5491.00    1.02199   0.99170   -1.000
 5492.00    1.02281   0.99316   -1.000
 5493.00    1.02421   0.99378   -1.000
 5494.00    1.02381   0.99336   -1.000
 5495.00    1.02317   0.99167   -1.000
 5496.00    1.01441   0.98923   -1.000
 5497.00    1.00445   0.98676   -1.000
 5498.00    1.01075   0.98462   -1.000
 5499.00    1.01533   0.98284   -1.000
 5500.00    1.00827   0.98051   -1.000
 5501.00    1.00226   0.97749   -1.000
 5502.00    1.00219   0.97496   -1.000
 5503.00    1.01099   0.97288   -1.000
 5504.00    1.01259   0.97119   -1.000
 5505.00    1.00894   0.96949   -1.000
 5506.00    1.00059   0.96776   -1.000
 5507.00    0.99926   0.96754   -1.000
 5508.00    1.00265   0.96885   -1.000
 5509.00    1.01555   0.97074   -1.000
 5510.00    1.01806   0.97155   -1.000
 5511.00    1.00753   0.97011   -1.000
 5512.00    1.00435   0.96747   -1.000
 5513.00    1.00980   0.96569   -1.000
 5514.00    1.01174   0.96687   -1.000
 5515.00    1.01351   0.97137   -1.000
 5516.00    1.02407   0.97835   -1.000
 5517.00    1.02852   0.98610   -1.000
 5518.00    1.03568   0.99309   -1.000
 5519.00    1.02443   0.99811   -1.000
 5520.00    1.02206   1.00080   -1.000
 5521.00    1.02291   1.00119   -1.000
 5522.00    1.03055   0.99948   -1.000
 5523.00    1.02530   0.99557   -1.000
 5524.00    1.02358   0.98881   -1.000
 5525.00    1.01262   0.97936   -1.000
 5526.00    1.00058   0.96839   -1.000
 5527.00    0.98911   0.95917   -1.000
 5528.00    0.98321   0.95484   -1.000
 5529.00    0.99352   0.95712   -1.000
 5530.00    1.01246   0.96446   -1.000
 5531.00    1.01881   0.97261   -1.000
 5532.00    1.01581   0.97829   -1.000
 5533.00    1.01012   0.98006   -1.000
 5534.00    1.00532   0.97939   -1.000
 5535.00    1.00724   0.97885   -1.000
 5536.00    1.00963   0.98020   -1.000
 5537.00    1.02369   0.98341   -1.000
 5538.00    1.02268   0.98745   -1.000
 5539.00    1.01631   0.99129   -1.000
 5540.00    1.02091   0.99396   -1.000
 5541.00    1.01913   0.99459   -1.000
 5542.00    1.01537   0.99333   -1.000
 5543.00    1.01681   0.99102   -1.000
 5544.00    1.01933   0.98910   -1.000
 5545.00    1.01942   0.98886   -1.000
 5546.00    1.01842   0.99050   -1.000
 5547.00    1.01861   0.99369   -1.000
 5548.00    1.02296   0.99758   -1.000
 5549.00    1.02613   1.00084   -1.000
 5550.00    1.02628   1.00264   -1.000
 5551.00    1.02068   1.00261   -1.000
 5552.00    1.02036   1.00084   -1.000
 5553.00    1.01982   0.99835   -1.000
 5554.00    1.01656   0.99629   -1.000
 5555.00    1.01668   0.99550   -1.000
 5556.00    1.01618   0.99589   -1.000
 5557.00    1.01951   0.99687   -1.000
 5558.00    1.02146   0.99770   -1.000
 5559.00    1.01752   0.99752   -1.000
 5560.00    1.01945   0.99590   -1.000
 5561.00    1.02316   0.99283   -1.000
 5562.00    1.01813   0.98882   -1.000
 5563.00    1.00819   0.98483   -1.000
 5564.00    1.00722   0.98147   -1.000
 5565.00    1.01079   0.97900   -1.000
 5566.00    1.00993   0.97722   -1.000
 5567.00    1.00533   0.97571   -1.000
 5568.00    0.99956   0.97414   -1.000
 5569.00    0.99319   0.97246   -1.000
 5570.00    0.99331   0.97073   -1.000
 5571.00    0.99601   0.96918   -1.000
 5572.00    0.99587   0.96824   -1.000
 5573.00    1.00001   0.96863   -1.000
 5574.00    1.00789   0.97062   -1.000
 5575.00    1.03015   0.97347   -1.000
 5576.00    1.11616   0.97695   -1.000
 5577.00    1.18627   0.98066   -1.000
 5578.00    1.09525   0.98392   -1.000
 5579.00    0.89826   0.98637   -1.000
 5580.00    0.82057   0.98755   -1.000
 5581.00    0.89932   0.98743   -1.000
 5582.00    0.97559   0.98602  278.560
 5583.00    0.99798   0.98264   -1.000
 5584.00    1.00397   0.97653   -1.000
 5585.00    0.99823   0.96677   -1.000
 5586.00    0.98204   0.95425   -1.000
 5587.00    0.96788   0.94251   -1.000
 5588.00    0.96576   0.93463   -1.000
 5589.00    0.97668   0.93292   -1.000
 5590.00    0.98743   0.93681   -1.000
 5591.00    0.99049   0.94371   -1.000
 5592.00    0.99624   0.95054   -1.000
 5593.00    0.99728   0.95581   -1.000
 5594.00    0.99399   0.95963   -1.000
 5595.00    0.99941   0.96224   -1.000
 5596.00    1.00306   0.96376   -1.000
 5597.00    1.00379   0.96316   -1.000
 5598.00    0.99271   0.96047   -1.000
 5599.00    0.98849   0.95688   -1.000
 5600.00    0.99230   0.95301   -1.000
 5601.00    0.98524   0.95066   -1.000
 5602.00    0.97950   0.95218   -1.000
 5603.00    0.98492   0.95827   -1.000
 5604.00    1.00252   0.96865   -1.000
 5605.00    1.01395   0.98119   -1.000
 5606.00    1.01790   0.99272   -1.000
 5607.00    1.01491   1.00153   -1.000
 5608.00    1.01538   1.00692  272.014
 5609.00    1.01643   1.00936  272.579
 5610.00    1.01625   1.00938  272.251
 5611.00    1.01757   1.00659   -1.000
 5612.00    1.01881   0.99987   -1.000
 5613.00    1.01094   0.98912   -1.000
 5614.00    0.99342   0.97652   -1.000
 5615.00    0.97655   0.96555   -1.000
 5616.00    0.97710   0.96075   -1.000
 5617.00    0.98936   0.96252   -1.000
 5618.00    1.00442   0.96874   -1.000
 5619.00    1.00886   0.97643   -1.000
 5620.00    1.00982   0.98229   -1.000
 5621.00    1.01320   0.98484   -1.000
 5622.00    1.00937   0.98400   -1.000
 5623.00    1.00327   0.98052   -1.000
 5624.00    0.99309   0.97688   -1.000
 5625.00    0.98995   0.97541   -1.000
 5626.00    0.99873   0.97727   -1.000
 5627.00    1.00468   0.98241   -1.000
 5628.00    1.01012   0.98889   -1.000
 5629.00    1.01576   0.99495   -1.000
 5630.00    1.01627   0.99914   -1.000
 5631.00    1.01397   1.00053   -1.000
 5632.00    1.01373   0.99930   -1.000
 5633.00    1.01281   0.99623   -1.000
 5634.00    1.01068   0.99200   -1.000
 5635.00    1.00824   0.98766   -1.000
 5636.00    1.00554   0.98388   -1.000
 5637.00    1.00979   0.98092   -1.000
 5638.00    1.00917   0.97898   -1.000
 5639.00    1.00120   0.97776   -1.000
 5640.00    0.99941   0.97691   -1.000
 5641.00    0.99978   0.97678   -1.000
 5642.00    1.00342   0.97754   -1.000
 5643.00    1.00897   0.97899   -1.000
 5644.00    1.00735   0.98102   -1.000
 5645.00    1.00840   0.98323   -1.000
 5646.00    1.00781   0.98492   -1.000
 5647.00    1.01169   0.98581   -1.000
 5648.00    1.01408   0.98594   -1.000
 5649.00    1.01005   0.98544   -1.000
 5650.00    1.00827   0.98493   -1.000
 5651.00    1.01002   0.98427   -1.000
 5652.00    1.01459   0.98293   -1.000
 5653.00    1.01203   0.98030   -1.000
 5654.00    1.00646   0.97552   -1.000
 5655.00    1.00292   0.96861   -1.000
 5656.00    1.00249   0.96017   -1.000
 5657.00    0.98500   0.95165   -1.000
 5658.00    0.97521   0.94584   -1.000
 5659.00    0.97747   0.94430   -1.000
 5660.00    0.99182   0.94636   -1.000
 5661.00    0.99537   0.95096   -1.000
 5662.00    0.99405   0.95640   -1.000
 5663.00    0.99765   0.96181   -1.000
 5664.00    1.00515   0.96704   -1.000
 5665.00    1.00611   0.97101   -1.000
 5666.00    1.00186   0.97327   -1.000
 5667.00    0.99696   0.97419   -1.000
 5668.00    0.99412   0.97452   -1.000
 5669.00    0.99904   0.97556   -1.000
 5670.00    1.00081   0.97795   -1.000
 5671.00    1.00199   0.98136   -1.000
 5672.00    1.00849   0.98490   -1.000
 5673.00    1.01048   0.98781   -1.000
 5674.00    1.00474   0.98956   -1.000
 5675.00    1.00708   0.99031   -1.000
 5676.00    1.01002   0.99040   -1.000
 5677.00    1.00717   0.98965   -1.000
 5678.00    1.00420   0.98783   -1.000
 5679.00    1.00462   0.98455   -1.000
 5680.00    1.00439   0.97958   -1.000
 5681.00    0.99810   0.97354   -1.000
 5682.00    0.99814   0.96769   -1.000
 5683.00    0.99798   0.96321   -1.000
 5684.00    0.99510   0.96087   -1.000
 5685.00    0.99354   0.96021   -1.000
 5686.00    0.99141   0.96009   -1.000
 5687.00    0.99563   0.96036   -1.000
 5688.00    0.99163   0.96129   -1.000
 5689.00    0.99407   0.96371   -1.000
 5690.00    1.00213   0.96787   -1.000
 5691.00    1.00830   0.97293   -1.000
 5692.00    1.00691   0.97790   -1.000
 5693.00    1.00129   0.98179   -1.000
 5694.00    1.00255   0.98426   -1.000
 5695.00    1.00608   0.98507   -1.000
 5696.00    1.00447   0.98434   -1.000
 5697.00    1.00629   0.98200   -1.000
 5698.00    1.00559   0.97824   -1.000
 5699.00    0.99735   0.97389   -1.000
 5700.00    0.98948   0.96971   -1.000
 5701.00    0.98803   0.96669   -1.000
 5702.00    0.99082   0.96506   -1.000
 5703.00    0.99379   0.96434   -1.000
 5704.00    0.99897   0.96324   -1.000
 5705.00    0.99533   0.96039   -1.000
 5706.00    0.99136   0.95560   -1.000
 5707.00    0.98352   0.94913   -1.000
 5708.00    0.97262   0.94228   -1.000
 5709.00    0.96496   0.93735   -1.000
 5710.00    0.96993   0.93603   -1.000
 5711.00    0.97405   0.93899   -1.000
 5712.00    0.98405   0.94602   -1.000
 5713.00    0.99574   0.95524   -1.000
 5714.00    1.00128   0.96440   -1.000
 5715.00    1.00206   0.97182   -1.000
 5716.00    1.00031   0.97734   -1.000
 5717.00    1.00187   0.98140   -1.000
 5718.00    1.00013   0.98472   -1.000
 5719.00    1.00226   0.98805   -1.000
 5720.00    1.00589   0.99122   -1.000
 5721.00    1.00334   0.99391  270.275
 5722.00    1.00478   0.99575  269.873
 5723.00    1.00627   0.99627  269.554
 5724.00    1.00453   0.99541  270.285
 5725.00    1.00273   0.99314  272.711
 5726.00    0.99580   0.99016  275.642
 5727.00    0.99191   0.98750  277.766
 5728.00    0.99596   0.98568  275.953
 5729.00    1.00034   0.98502   -1.000
 5730.00    1.00562   0.98495   -1.000
 5731.00    1.00423   0.98532   -1.000
 5732.00    1.00097   0.98635   -1.000
 5733.00    1.00940   0.98799   -1.000
 5734.00    1.01222   0.99016   -1.000
 5735.00    1.00656   0.99214   -1.000
 5736.00    1.00812   0.99349   -1.000
 5737.00    1.00542   0.99403   -1.000
 5738.00    0.99696   0.99388  272.747
 5739.00    0.99679   0.99337  273.391
 5740.00    1.00190   0.99260  273.772
 5741.00    1.00512   0.99167   -1.000
 5742.00    1.00170   0.99100   -1.000
 5743.00    1.00365   0.99071   -1.000
 5744.00    1.00448   0.99074   -1.000
 5745.00    1.00356   0.99060   -1.000
 5746.00    1.00093   0.99002   -1.000
 5747.00    0.99373   0.98915  274.394
 5748.00    0.99451   0.98814  275.274
 5749.00    0.99906   0.98699   -1.000
 5750.00    0.99978   0.98479   -1.000
 5751.00    0.98827   0.98120  275.101
 5752.00    0.98851   0.97710   -1.000
 5753.00    0.98394   0.97391  281.267
 5754.00    0.98861   0.97362   -1.000
 5755.00    0.99329   0.97648   -1.000
 5756.00    1.00008   0.98138   -1.000
 5757.00    0.99891   0.98616   -1.000
 5758.00    1.00198   0.98881   -1.000
 5759.00    1.00500   0.98855   -1.000
 5760.00    1.00034   0.98584   -1.000
 5761.00    0.99555   0.98218   -1.000
 5762.00    0.98975   0.97986  281.740
 5763.00    0.98598   0.98034  278.342
 5764.00    0.99156   0.98367  273.223
 5765.00    0.99736   0.98863  270.038
 5766.00    1.00197   0.99314  269.391
 5767.00    1.00248   0.99603  269.141
 5768.00    1.00514   0.99685  268.662
 5769.00    1.00222   0.99583  269.305
 5770.00    1.00110   0.99370  270.218
 5771.00    1.00203   0.99097   -1.000
 5772.00    1.00028   0.98812   -1.000
 5773.00    0.99787   0.98580   -1.000
 5774.00    0.99669   0.98424   -1.000
 5775.00    0.99461   0.98342   -1.000
 5776.00    0.99257   0.98285  272.296
 5777.00    0.99226   0.98121   -1.000
 5778.00    0.99078   0.97752   -1.000
 5779.00    0.98313   0.97206   -1.000
 5780.00    0.98272   0.96584   -1.000
 5781.00    0.98610   0.96061   -1.000
 5782.00    0.98431   0.95752   -1.000
 5783.00    0.98651   0.95689   -1.000
 5784.00    0.98994   0.95832   -1.000
 5785.00    0.99335   0.96109   -1.000
 5786.00    0.99513   0.96501   -1.000
 5787.00    0.99944   0.96915   -1.000
 5788.00    1.00211   0.97240   -1.000
 5789.00    0.99937   0.97441   -1.000
 5790.00    0.99733   0.97521   -1.000
 5791.00    0.99765   0.97594   -1.000
 5792.00    1.00072   0.97749   -1.000
 5793.00    0.99809   0.97987   -1.000
 5794.00    0.99628   0.98261   -1.000
 5795.00    0.99668   0.98480   -1.000
 5796.00    0.99628   0.98574  271.189
 5797.00    0.99226   0.98585  272.922
 5798.00    0.99652   0.98628  271.386
 5799.00    1.00203   0.98737   -1.000
 5800.00    1.00750   0.98886   -1.000
 5801.00    1.00814   0.99019   -1.000
 5802.00    1.00594   0.99042   -1.000
 5803.00    1.00422   0.98928   -1.000
 5804.00    1.00012   0.98732   -1.000
 5805.00    0.99827   0.98561   -1.000
 5806.00    0.99723   0.98492   -1.000
 5807.00    1.00117   0.98541   -1.000
 5808.00    1.00288   0.98675   -1.000
 5809.00    1.00125   0.98848   -1.000
 5810.00    1.00243   0.99007   -1.000
 5811.00    1.00620   0.99091   -1.000
 5812.00    1.00649   0.99070   -1.000
 5813.00    1.01015   0.98955   -1.000
 5814.00    1.00747   0.98777   -1.000
 5815.00    1.00544   0.98616   -1.000
 5816.00    1.00456   0.98577   -1.000
 5817.00    1.00657   0.98705   -1.000
 5818.00    1.00810   0.98942   -1.000
 5819.00    1.01079   0.99206   -1.000
 5820.00    1.01229   0.99425   -1.000
 5821.00    1.00857   0.99568   -1.000
 5822.00    1.00577   0.99650  265.432
 5823.00    1.00927   0.99696   -1.000
 5824.00    1.01176   0.99718   -1.000
 5825.00    1.00917   0.99734   -1.000
 5826.00    1.01076   0.99752   -1.000
 5827.00    1.01409   0.99776   -1.000
 5828.00    1.00955   0.99796   -1.000
 5829.00    1.00434   0.99798  263.778
 5830.00    1.00923   0.99774   -1.000
 5831.00    1.00929   0.99710   -1.000
 5832.00    1.00539   0.99610  264.114
 5833.00    1.00823   0.99497   -1.000
 5834.00    1.00605   0.99406   -1.000
 5835.00    1.00498   0.99374   -1.000
 5836.00    1.01441   0.99416   -1.000
 5837.00    1.01712   0.99495   -1.000
 5838.00    1.01445   0.99580   -1.000
 5839.00    1.01390   0.99649   -1.000
 5840.00    1.00907   0.99693   -1.000
 5841.00    1.01288   0.99693   -1.000
 5842.00    1.01286   0.99631   -1.000
 5843.00    1.00790   0.99504   -1.000
 5844.00    1.00487   0.99309   -1.000
 5845.00    1.00699   0.99065   -1.000
 5846.00    1.00964   0.98829   -1.000
 5847.00    1.01162   0.98646   -1.000
 5848.00    1.00829   0.98516   -1.000
 5849.00    1.00069   0.98367   -1.000
 5850.00    1.00837   0.98138   -1.000
 5851.00    0.99545   0.97782   -1.000
 5852.00    0.99314   0.97322   -1.000
 5853.00    0.99328   0.96813   -1.000
 5854.00    0.99105   0.96295   -1.000
 5855.00    0.99288   0.95788   -1.000
 5856.00    0.99313   0.95279   -1.000
 5857.00    0.98149   0.94915   -1.000
 5858.00    0.98206   0.94855   -1.000
 5859.00    0.99473   0.95085   -1.000
 5860.00    0.99490   0.95557   -1.000
 5861.00    0.99946   0.96118   -1.000
 5862.00    1.00136   0.96615   -1.000
 5863.00    0.99806   0.96996   -1.000
 5864.00    0.99909   0.97191   -1.000
 5865.00    0.99815   0.97229   -1.000
 5866.00    0.99928   0.97219   -1.000
 5867.00    1.00244   0.97244   -1.000
 5868.00    0.99888   0.97399   -1.000
 5869.00    1.00123   0.97670   -1.000
 5870.00    1.00116   0.97950   -1.000
 5871.00    1.00376   0.98138   -1.000
 5872.00    1.00148   0.98171   -1.000
 5873.00    1.00377   0.98062   -1.000
 5874.00    1.00227   0.97869   -1.000
 5875.00    0.99901   0.97649   -1.000
 5876.00    0.99895   0.97445   -1.000
 5877.00    0.99934   0.97249   -1.000
 5878.00    0.99756   0.97045   -1.000
 5879.00    1.00133   0.96815   -1.000
 5880.00    0.99972   0.96550   -1.000
 5881.00    0.99181   0.96238   -1.000
 5882.00    0.98998   0.95866   -1.000
 5883.00    0.98736   0.95417   -1.000
 5884.00    0.98567   0.94814   -1.000
 5885.00    0.98313   0.93899   -1.000
 5886.00    0.97730   0.92408   -1.000
 5887.00    0.96317   0.90232   -1.000
 5888.00    0.93458   0.87636   -1.000
 5889.00    0.90650   0.85247   -1.000
 5890.00    0.90025   0.83865   -1.000
 5891.00    0.89731   0.83561   -1.000
 5892.00    0.88395   0.83928   -1.000
 5893.00    0.89445   0.84391   -1.000
 5894.00    0.91084   0.84532   -1.000
 5895.00    0.91058   0.84524   -1.000
 5896.00    0.91025   0.84843   -1.000
 5897.00    0.91285   0.85881   -1.000
 5898.00    0.92288   0.87508   -1.000
 5899.00    0.93906   0.89410   -1.000
 5900.00    0.96684   0.91284   -1.000
 5901.00    0.97996   0.92837   -1.000
 5902.00    0.97965   0.93965   -1.000
 5903.00    0.98385   0.94735   -1.000
 5904.00    0.99080   0.95219   -1.000
 5905.00    0.99280   0.95523   -1.000
 5906.00    0.99317   0.95742   -1.000
 5907.00    0.99107   0.95924   -1.000
 5908.00    0.99082   0.96071   -1.000
 5909.00    0.98623   0.96160   -1.000
 5910.00    0.98250   0.96150   -1.000
 5911.00    0.98817   0.96004   -1.000
 5912.00    0.99423   0.95699   -1.000
 5913.00    0.98415   0.95313   -1.000
 5914.00    0.97858   0.94974   -1.000
 5915.00    0.97410   0.94783   -1.000
 5916.00    0.97624   0.94797   -1.000
 5917.00    0.97595   0.94994   -1.000
 5918.00    0.97289   0.95294   -1.000
 5919.00    0.97270   0.95579   -1.000
 5920.00    0.97593   0.95794   -1.000
 5921.00    0.98343   0.95924   -1.000
 5922.00    0.97920   0.96007   -1.000
 5923.00    0.97775   0.96086   -1.000
 5924.00    0.98181   0.96179   -1.000
 5925.00    0.98805   0.96252   -1.000
 5926.00    0.99204   0.96232   -1.000
 5927.00    0.98569   0.96074   -1.000
 5928.00    0.98874   0.95817   -1.000
 5929.00    0.98300   0.95568   -1.000
 5930.00    0.97519   0.95434   -1.000
 5931.00    0.97943   0.95461   -1.000
 5932.00    0.98611   0.95569   -1.000
 5933.00    0.98321   0.95690   -1.000
 5934.00    0.97697   0.95826   -1.000
 5935.00    0.97644   0.95970   -1.000
 5936.00    0.98372   0.96118   -1.000
 5937.00    0.98288   0.96236   -1.000
 5938.00    0.98297   0.96259   -1.000
 5939.00    0.98322   0.96166   -1.000
 5940.00    0.97549   0.95988   -1.000
 5941.00    0.97087   0.95828   -1.000
 5942.00    0.97051   0.95743   -1.000
 5943.00    0.97434   0.95740   -1.000
 5944.00    0.97908   0.95772   -1.000
 5945.00    0.97611   0.95769   -1.000
 5946.00    0.97207   0.95686   -1.000
 5947.00    0.97535   0.95537   -1.000
 5948.00    0.97381   0.95401   -1.000
 5949.00    0.96522   0.95325   -1.000
 5950.00    0.96574   0.95314   -1.000
 5951.00    0.97120   0.95309   -1.000
 5952.00    0.97583   0.95284   -1.000
 5953.00    0.98012   0.95272   -1.000
 5954.00    0.98005   0.95240   -1.000
 5955.00    0.97629   0.95187   -1.000
 5956.00    0.96428   0.95183   -1.000
 5957.00    0.96331   0.95259   -1.000
 5958.00    0.97229   0.95444   -1.000
 5959.00    0.97919   0.95727   -1.000
 5960.00    0.97901   0.96029   -1.000
 5961.00    0.97926   0.96278   -1.000
 5962.00    0.98182   0.96414   -1.000
 5963.00    0.98067   0.96420   -1.000
 5964.00    0.97882   0.96327   -1.000
 5965.00    0.97665   0.96206   -1.000
 5966.00    0.97078   0.96123  278.108
 5967.00    0.97148   0.96120  277.272
 5968.00    0.97347   0.96196   -1.000
 5969.00    0.97786   0.96334   -1.000
 5970.00    0.98340   0.96481   -1.000
 5971.00    0.98219   0.96561   -1.000
 5972.00    0.97764   0.96528   -1.000
 5973.00    0.97554   0.96343   -1.000
 5974.00    0.97645   0.96031   -1.000
 5975.00    0.97021   0.95672   -1.000
 5976.00    0.96949   0.95379   -1.000
 5977.00    0.96994   0.95251   -1.000
 5978.00    0.97353   0.95295   -1.000
 5979.00    0.97747   0.95442   -1.000
 5980.00    0.97058   0.95561   -1.000
 5981.00    0.96903   0.95534   -1.000
 5982.00    0.97059   0.95332   -1.000
 5983.00    0.96503   0.95041   -1.000
 5984.00    0.96636   0.94807   -1.000
 5985.00    0.96660   0.94732   -1.000
 5986.00    0.96579   0.94836   -1.000
 5987.00    0.96980   0.95049   -1.000
 5988.00    0.96825   0.95286   -1.000
 5989.00    0.97082   0.95470   -1.000
 5990.00    0.97360   0.95600   -1.000
 5991.00    0.97244   0.95713   -1.000
 5992.00    0.97049   0.95854   -1.000
 5993.00    0.96950   0.95992  273.925
 5994.00    0.97279   0.96046   -1.000
 5995.00    0.97580   0.95999   -1.000
 5996.00    0.97429   0.95861   -1.000
 5997.00    0.97803   0.95697   -1.000
 5998.00    0.97065   0.95559   -1.000
 5999.00    0.96573   0.95468   -1.000
 6000.00    0.96777   0.95396   -1.000
 6001.00    0.96916   0.95308   -1.000
 6002.00    0.96538   0.95197   -1.000
 6003.00    0.96346   0.95075   -1.000
 6004.00    0.96505   0.94939   -1.000
 6005.00    0.96420   0.94752   -1.000
 6006.00    0.95612   0.94517   -1.000
 6007.00    0.95559   0.94321   -1.000
 6008.00    0.95528   0.94250   -1.000
 6009.00    0.95395   0.94349   -1.000
 6010.00    0.96396   0.94548   -1.000
 6011.00    0.96399   0.94712   -1.000
 6012.00    0.96125   0.94791   -1.000
 6013.00    0.96302   0.94777   -1.000
 6014.00    0.96347   0.94709   -1.000
 6015.00    0.96461   0.94630   -1.000
 6016.00    0.95903   0.94547   -1.000
 6017.00    0.96293   0.94444   -1.000
 6018.00    0.96460   0.94296   -1.000
 6019.00    0.95457   0.94104   -1.000
 6020.00    0.95192   0.93926   -1.000
 6021.00    0.94871   0.93842   -1.000
 6022.00    0.94736   0.93866  282.199
 6023.00    0.95147   0.94000   -1.000
 6024.00    0.95268   0.94265  281.378
 6025.00    0.95345   0.94613  279.539
 6026.00    0.95485   0.94977  278.831
 6027.00    0.96014   0.95337  276.933
 6028.00    0.95958   0.95677  275.814
 6029.00    0.96205   0.95957  275.505
 6030.00    0.96576   0.96175  275.616
 6031.00    0.96200   0.96343  276.320
 6032.00    0.96099   0.96473  275.683
 6033.00    0.96418   0.96571  274.394
 6034.00    0.96127   0.96638  273.767
 6035.00    0.96337   0.96658  273.697
 6036.00    0.96809   0.96621  273.130
 6037.00    0.96572   0.96517  273.530
 6038.00    0.96078   0.96346  275.222
 6039.00    0.95700   0.96135  275.645
 6040.00    0.95869   0.95933  276.584
 6041.00    0.95697   0.95792  275.818
 6042.00    0.95908   0.95751  275.503
 6043.00    0.95834   0.95825  273.958
 6044.00    0.95861   0.95980  271.708
 6045.00    0.95872   0.96167  272.128
 6046.00    0.96187   0.96367  272.136
 6047.00    0.96019   0.96542  271.643
 6048.00    0.96034   0.96657  271.996
 6049.00    0.95685   0.96704  273.015
 6050.00    0.95897   0.96678  273.577
 6051.00    0.95514   0.96566  273.794
 6052.00    0.95579   0.96356  274.354
 6053.00    0.95748   0.96081  275.539
 6054.00    0.95452   0.95796  276.339
 6055.00    0.95407   0.95581  277.964
 6056.00    0.95211   0.95498  278.714
 6057.00    0.95616   0.95556  278.120
 6058.00    0.96096   0.95693  276.556
 6059.00    0.95982   0.95821  275.156
 6060.00    0.95875   0.95845  275.659
 6061.00    0.95845   0.95699  276.286
 6062.00    0.95702   0.95378  280.610
 6063.00    0.96172   0.94948   -1.000
 6064.00    0.95367   0.94555  275.223
 6065.00    0.90746   0.94380   -1.000
 6066.00    0.59366   0.94495   -1.000
 6067.00    0.76476   0.94834   -1.000
 6068.00    0.96333   0.95303   -1.000
 6069.00    0.96154   0.95763  276.186
 6070.00    0.99673   0.96123   -1.000
 6071.00    0.30546   0.96363   -1.000
 6072.00    0.55758   0.96501   -1.000
 6073.00    0.98650   0.96542   -1.000
 6074.00    0.95319   0.96480   -1.000
 6075.00    0.95691   0.96308  274.212
 6076.00    0.95035   0.96041  275.678
 6077.00    0.94528   0.95711   -1.000
 6078.00    0.94606   0.95400  279.482
 6079.00    0.95024   0.95165  281.135
 6080.00    0.94952   0.94982  281.150
 6081.00    0.94447   0.94827  281.438
 6082.00    0.94222   0.94701  282.299
 6083.00    0.94140   0.94602  282.191
 6084.00    0.93825   0.94559  281.981
 6085.00    0.93968   0.94604  281.673
 6086.00    0.94233   0.94720  280.806
 6087.00    0.94415   0.94838  279.648
 6088.00    0.94542   0.94901  280.359
 6089.00    0.94054   0.94900  282.152
 6090.00    0.93715   0.94862   -1.000
 6091.00    0.93769   0.94846  283.029
 6092.00    0.93981   0.94893  281.069
 6093.00    0.94127   0.95020  279.727
 6094.00    0.94238   0.95202  278.113
 6095.00    0.94502   0.95392  276.947
 6096.00    0.94244   0.95535   -1.000
 6097.00    0.94268   0.95551   -1.000
 6098.00    0.94127   0.95360   -1.000
 6099.00    0.93483   0.94897   -1.000
 6100.00    0.93377   0.94185  281.665
 6101.00    0.92630   0.93387  288.886
 6102.00    0.92140   0.92783  293.268
 6103.00    0.92106   0.92614  290.603
 6104.00    0.92830   0.92880  284.815
 6105.00    0.93560   0.93438  280.653
 6106.00    0.93417   0.94098  279.946
 6107.00    0.92979   0.94692   -1.000
 6108.00    0.93144   0.95140   -1.000
 6109.00    0.92911   0.95428   -1.000
 6110.00    0.92851   0.95590   -1.000
 6111.00    0.93172   0.95673   -1.000
 6112.00    0.93537   0.95716   -1.000
 6113.00    0.93216   0.95738   -1.000
 6114.00    0.93601   0.95737   -1.000
 6115.00    0.93947   0.95695   -1.000
 6116.00    0.93901   0.95587   -1.000
 6117.00    0.93272   0.95360   -1.000
 6118.00    0.92749   0.94941   -1.000
 6119.00    0.92351   0.94306   -1.000
 6120.00    0.91748   0.93520   -1.000
 6121.00    0.90763   0.92774   -1.000
 6122.00    0.90777   0.92300   -1.000
 6123.00    0.91130   0.92218  287.925
 6124.00    0.91760   0.92500  284.357
 6125.00    0.92168   0.92980  284.549
 6126.00    0.92283   0.93481   -1.000
 6127.00    0.92606   0.93882   -1.000
 6128.00    0.92777   0.94211   -1.000
 6129.00    0.92330   0.94534   -1.000
 6130.00    0.92924   0.94841   -1.000
 6131.00    0.92744   0.95059   -1.000
 6132.00    0.92808   0.95053   -1.000
 6133.00    0.92009   0.94662   -1.000
 6134.00    0.91399   0.93841   -1.000
 6135.00    0.89982   0.92741   -1.000
 6136.00    0.88813   0.91690   -1.000
 6137.00    0.88235   0.91014   -1.000
 6138.00    0.88900   0.90784   -1.000
 6139.00    0.90426   0.90914  289.480
 6140.00    0.90940   0.91319  286.692
 6141.00    0.91057   0.91900  287.449
 6142.00    0.90951   0.92559   -1.000
 6143.00    0.90995   0.93190   -1.000
 6144.00    0.91910   0.93684   -1.000
 6145.00    0.92583   0.93967   -1.000
 6146.00    0.92683   0.94023   -1.000
 6147.00    0.92440   0.93913   -1.000
 6148.00    0.91944   0.93750   -1.000
 6149.00    0.91424   0.93635   -1.000
 6150.00    0.91667   0.93607   -1.000
 6151.00    0.92047   0.93646   -1.000
 6152.00    0.91818   0.93680   -1.000
 6153.00    0.91948   0.93634   -1.000
 6154.00    0.91870   0.93493   -1.000
 6155.00    0.91460   0.93277   -1.000
 6156.00    0.91405   0.92985   -1.000
 6157.00    0.91508   0.92567   -1.000
 6158.00    0.91427   0.91935  293.186
 6159.00    0.90617   0.91017  298.996
 6160.00    0.89423   0.89888  308.369
 6161.00    0.88196   0.88804  317.249
 6162.00    0.87594   0.88089  319.787
 6163.00    0.88132   0.87912  314.451
 6164.00    0.89287   0.88207   -1.000
 6165.00    0.90362   0.88751   -1.000
 6166.00    0.90044   0.89251  300.109
 6167.00    0.89472   0.89513  301.046
 6168.00    0.89618   0.89569  305.255
 6169.00    0.89445   0.89646  308.219
 6170.00    0.89194   0.89896  305.491
 6171.00    0.90031   0.90349  299.282
 6172.00    0.90164   0.90942  295.295
 6173.00    0.89937   0.91554   -1.000
 6174.00    0.90650   0.92068   -1.000
 6175.00    0.90597   0.92440   -1.000
 6176.00    0.90691   0.92703   -1.000
 6177.00    0.90799   0.92898   -1.000
 6178.00    0.90642   0.93057   -1.000
 6179.00    0.90917   0.93210   -1.000
 6180.00    0.91159   0.93375   -1.000
 6181.00    0.91351   0.93536   -1.000
 6182.00    0.91182   0.93648   -1.000
 6183.00    0.91283   0.93666   -1.000
 6184.00    0.91229   0.93568   -1.000
 6185.00    0.90672   0.93346   -1.000
 6186.00    0.90894   0.93012   -1.000
 6187.00    0.90795   0.92586   -1.000
 6188.00    0.89955   0.92085   -1.000
 6189.00    0.89461   0.91544   -1.000
 6190.00    0.88766   0.91094   -1.000
 6191.00    0.88367   0.90920   -1.000
 6192.00    0.88348   0.91078   -1.000
 6193.00    0.89547   0.91494   -1.000
 6194.00    0.90479   0.92046   -1.000
 6195.00    0.90774   0.92575   -1.000
 6196.00    0.90830   0.92942   -1.000
 6197.00    0.90748   0.93091   -1.000
 6198.00    0.89710   0.93072   -1.000
 6199.00    0.89326   0.93000   -1.000
 6200.00    0.89507   0.92998   -1.000
 6201.00    0.89353   0.93122   -1.000
 6202.00    0.90281   0.93369   -1.000
 6203.00    0.90203   0.93685   -1.000
 6204.00    0.90008   0.93993   -1.000
 6205.00    0.90044   0.94231   -1.000
 6206.00    0.90420   0.94372   -1.000
 6207.00    0.90364   0.94400   -1.000
 6208.00    0.90057   0.94300   -1.000
 6209.00    0.90044   0.94048   -1.000
 6210.00    0.90205   0.93632   -1.000
 6211.00    0.89379   0.93076   -1.000
 6212.00    0.89631   0.92463   -1.000
 6213.00    0.91108   0.91903  306.276
 6214.00    0.90726   0.91484  309.158
 6215.00    0.91012   0.91228  309.770
 6216.00    0.91342   0.91097  305.231
 6217.00    0.91109   0.91032  304.114
 6218.00    0.90697   0.91016  306.775
 6219.00    0.90871   0.91069  305.213
 6220.00    0.90561   0.91220  302.907
 6221.00    0.91134   0.91443  305.232
 6222.00    0.88781   0.91687   -1.000
 6223.00    0.85236   0.91896   -1.000
 6224.00    0.88494   0.92010   -1.000
 6225.00    0.89247   0.91979   -1.000
 6226.00    0.89406   0.91761   -1.000
 6227.00    0.89441   0.91338   -1.000
 6228.00    0.88247   0.90749   -1.000
 6229.00    0.87310   0.90133   -1.000
 6230.00    0.86147   0.89678   -1.000
 6231.00    0.86914   0.89533   -1.000
 6232.00    0.87715   0.89725   -1.000
 6233.00    0.88037   0.90142   -1.000
 6234.00    0.88438   0.90590   -1.000
 6235.00    0.89282   0.90895   -1.000
 6236.00    0.88813   0.90974   -1.000
 6237.00    0.88714   0.90861   -1.000
 6238.00    0.87941   0.90643   -1.000
 6239.00    0.87678   0.90404   -1.000
 6240.00    0.87332   0.90163   -1.000
 6241.00    0.87457   0.89899   -1.000
 6242.00    0.87646   0.89579   -1.000
 6243.00    0.87169   0.89225   -1.000
 6244.00    0.86943   0.88913   -1.000
 6245.00    0.86404   0.88761   -1.000
 6246.00    0.87133   0.88864   -1.000
 6247.00    0.87175   0.89205   -1.000
 6248.00    0.87535   0.89634   -1.000
 6249.00    0.87730   0.89947   -1.000
 6250.00    0.87066   0.89997   -1.000
 6251.00    0.86475   0.89759   -1.000
 6252.00    0.86244   0.89347   -1.000
 6253.00    0.85865   0.88914   -1.000
 6254.00    0.84979   0.88582   -1.000
 6255.00    0.85219   0.88398   -1.000
 6256.00    0.85654   0.88363   -1.000
 6257.00    0.86009   0.88469   -1.000
 6258.00    0.86151   0.88713   -1.000
 6259.00    0.85928   0.89092   -1.000
 6260.00    0.86262   0.89572   -1.000
 6261.00    0.86551   0.90093   -1.000
 6262.00    0.86545   0.90565   -1.000
 6263.00    0.86780   0.90925   -1.000
 6264.00    0.86959   0.91170   -1.000
 6265.00    0.86037   0.91335   -1.000
 6266.00    0.86548   0.91441   -1.000
 6267.00    0.86799   0.91474   -1.000
 6268.00    0.87017   0.91432   -1.000
 6269.00    0.86961   0.91342   -1.000
 6270.00    0.86568   0.91232   -1.000
 6271.00    0.86729   0.91098   -1.000
 6272.00    0.86748   0.90892   -1.000
 6273.00    0.86619   0.90549   -1.000
 6274.00    0.86806   0.90047   -1.000
 6275.00    0.86021   0.89424   -1.000
 6276.00    0.84347   0.88775   -1.000
 6277.00    0.82636   0.88209   -1.000
 6278.00    0.81575   0.87833   -1.000
 6279.00    0.80728   0.87731   -1.000
 6280.00    0.81289   0.87926   -1.000
 6281.00    0.82009   0.88375   -1.000
 6282.00    0.82780   0.88982   -1.000
 6283.00    0.83650   0.89632   -1.000
 6284.00    0.84330   0.90222   -1.000
 6285.00    0.85415   0.90682   -1.000
 6286.00    0.85424   0.90983   -1.000
 6287.00    0.85723   0.91109   -1.000
 6288.00    0.85767   0.91075   -1.000
 6289.00    0.84968   0.90931   -1.000
 6290.00    0.85223   0.90745   -1.000
 6291.00    0.85089   0.90568   -1.000
 6292.00    0.84812   0.90421   -1.000
 6293.00    0.84860   0.90286   -1.000
 6294.00    0.84798   0.90116   -1.000
 6295.00    0.85244   0.89875   -1.000
 6296.00    0.85152   0.89578   -1.000
 6297.00    0.84666   0.89269   -1.000
 6298.00    0.84987   0.88987   -1.000
 6299.00    0.86392   0.88759   -1.000
 6300.00    0.87074   0.88637   -1.000
 6301.00    0.85307   0.88698   -1.000
 6302.00    0.81820   0.88982   -1.000
 6303.00    0.80324   0.89443   -1.000
 6304.00    0.82416   0.89983   -1.000
 6305.00    0.84938   0.90498   -1.000
 6306.00    0.85441   0.90896   -1.000
 6307.00    0.85368   0.91131   -1.000
 6308.00    0.85648   0.91218   -1.000
 6309.00    0.85430   0.91192   -1.000
 6310.00    0.85164   0.91080   -1.000
 6311.00    0.84908   0.90893   -1.000
 6312.00    0.85223   0.90631   -1.000
 6313.00    0.84979   0.90309   -1.000
 6314.00    0.84335   0.89963   -1.000
 6315.00    0.84658   0.89638   -1.000
 6316.00    0.84746   0.89396   -1.000
 6317.00    0.84295   0.89309   -1.000
 6318.00    0.84284   0.89424   -1.000
 6319.00    0.84737   0.89720   -1.000
 6320.00    0.85314   0.90122   -1.000
 6321.00    0.85611   0.90567   -1.000
 6322.00    0.85001   0.91017   -1.000
 6323.00    0.84728   0.91417   -1.000
 6324.00    0.85547   0.91724   -1.000
 6325.00    0.86104   0.91920   -1.000
 6326.00    0.85853   0.92019   -1.000
 6327.00    0.85942   0.92041   -1.000
 6328.00    0.86093   0.92012   -1.000
 6329.00    0.85854   0.91957   -1.000
 6330.00    0.86221   0.91876   -1.000
 6331.00    0.85994   0.91732   -1.000
 6332.00    0.85982   0.91472   -1.000
 6333.00    0.85541   0.91079   -1.000
 6334.00    0.84293   0.90621   -1.000
 6335.00    0.83128   0.90236   -1.000
 6336.00    0.84532   0.90044   -1.000
 6337.00    0.85125   0.90091   -1.000
 6338.00    0.85934   0.90345   -1.000
 6339.00    0.86362   0.90709   -1.000
 6340.00    0.86410   0.91050   -1.000
 6341.00    0.86491   0.91261   -1.000
 6342.00    0.86538   0.91310   -1.000
 6343.00    0.85488   0.91234   -1.000
 6344.00    0.86013   0.91112   -1.000
 6345.00    0.86264   0.91043   -1.000
 6346.00    0.86179   0.91117   -1.000
 6347.00    0.86680   0.91351   -1.000
 6348.00    0.86494   0.91684   -1.000
 6349.00    0.86701   0.92015   -1.000
 6350.00    0.86702   0.92249   -1.000
 6351.00    0.86103   0.92324   -1.000
 6352.00    0.86482   0.92231   -1.000
 6353.00    0.86395   0.92018   -1.000
 6354.00    0.85914   0.91754   -1.000
 6355.00    0.86135   0.91485   -1.000
 6356.00    0.85588   0.91221   -1.000
 6357.00    0.85075   0.90971   -1.000
 6358.00    0.84955   0.90746   -1.000
 6359.00    0.85285   0.90542   -1.000
 6360.00    0.85456   0.90361   -1.000
 6361.00    0.86221   0.90228   -1.000
 6362.00    0.86534   0.90175   -1.000
 6363.00    0.86881   0.90220   -1.000
 6364.00    0.87038   0.90352   -1.000
 6365.00    0.85989   0.90545   -1.000
 6366.00    0.84284   0.90746   -1.000
 6367.00    0.84006   0.90899   -1.000
 6368.00    0.85218   0.90978   -1.000
 6369.00    0.85537   0.91018   -1.000
 6370.00    0.85534   0.91078   -1.000
 6371.00    0.85612   0.91195   -1.000
 6372.00    0.85662   0.91359   -1.000
 6373.00    0.85762   0.91519   -1.000
 6374.00    0.85944   0.91616   -1.000
 6375.00    0.85748   0.91613   -1.000
 6376.00    0.85363   0.91514   -1.000
 6377.00    0.85194   0.91356   -1.000
 6378.00    0.84804   0.91182   -1.000
 6379.00    0.84540   0.91028   -1.000
 6380.00    0.84533   0.90914   -1.000
 6381.00    0.83864   0.90851   -1.000
 6382.00    0.83658   0.90846   -1.000
 6383.00    0.83491   0.90905   -1.000
 6384.00    0.83343   0.91023   -1.000
 6385.00    0.83362   0.91170   -1.000
 6386.00    0.83222   0.91299   -1.000
 6387.00    0.82958   0.91370   -1.000
 6388.00    0.82290   0.91346   -1.000
 6389.00    0.81899   0.91192   -1.000
 6390.00    0.81706   0.90899   -1.000
 6391.00    0.80805   0.90528   -1.000
 6392.00    0.79762   0.90197   -1.000
 6393.00    0.79328   0.90019   -1.000
 6394.00    0.79781   0.90022   -1.000
 6395.00    0.80111   0.90129   -1.000
 6396.00    0.79646   0.90203   -1.000
 6397.00    0.79276   0.90146   -1.000
 6398.00    0.78586   0.89982   -1.000
 6399.00    0.77524   0.89838   -1.000
 6400.00    0.76961   0.89841   -1.000
 6401.00    0.77087   0.90035   -1.000
 6402.00    0.77362   0.90350   -1.000
 6403.00    0.77417   0.90651   -1.000
 6404.00    0.77456   0.90805   -1.000
 6405.00    0.77038   0.90760   -1.000
 6406.00    0.75785   0.90573   -1.000
 6407.00    0.75319   0.90350   -1.000
 6408.00    0.75318   0.90168   -1.000
 6409.00    0.74601   0.90051   -1.000
 6410.00    0.74294   0.90012   -1.000
 6411.00    0.73901   0.90055   -1.000
 6412.00    0.73093   0.90153   -1.000
 6413.00    0.73309   0.90267   -1.000
 6414.00    0.72789   0.90376   -1.000
 6415.00    0.72458   0.90456   -1.000
 6416.00    0.71665   0.90463   -1.000
 6417.00    0.70762   0.90368   -1.000
 6418.00    0.70706   0.90194   -1.000
 6419.00    0.70108   0.90024   -1.000
 6420.00    0.68528   0.89979   -1.000
 6421.00    0.67652   0.90139   -1.000
 6422.00    0.66995   0.90486   -1.000
 6423.00    0.67285   0.90942   -1.000
 6424.00    0.67384   0.91395   -1.000
 6425.00    0.66759   0.91729   -1.000
 6426.00    0.66225   0.91852   -1.000
 6427.00    0.65762   0.91715   -1.000
 6428.00    0.64461   0.91351   -1.000
