###################################################################
## OUTPUT of StarlightChains_v04.for    [Cid@UFSC - 01/Apr/2007] ##
###################################################################

## Some input info
NGC7078_a_2.cxt                          [arq_obs]
Base.BC03.N                              [arq_base]
NGC7078_a_2.msk                          [arq_masks]
StCv04.C11.config                        [arq_config]
   45                                    [N_base]
    0                                    [N_YAV_components = # of components with extra extinction!]
    0                                    [i_FitPowerLaw (1/0 = Yes/No)]
-9.99                                    [alpha_PowerLaw]
CCM                                      [red_law_option]
 1.458241                                [q_norm = A(l_norm)/A(V)]

## (Re)Sampling Parameters
 3359.00                                 [l_ini (A)]
 6428.00                                 [l_fin (A)]
    1.00                                 [dl    (A)]     (OBS: dl_cushion =    50.00 A)

## Normalization info
 4020.00                                 [l_norm (A) - for base]
 4010.00                                 [llow_norm (A) - window for f_obs]
 4060.00                                 [lupp_norm (A) - window for f_obs]
1.263103E-13                             [fobs_norm (in input units)]

## S/N
 4730.00                                 [llow_SN (A) - window for S/N]
 4780.00                                 [lupp_SN (A) - window for S/N]
 205.831                                 [S/N in S/N window]
 202.695                                 [S/N in norm. window]
 485.220                                 [S/N_err in S/N window]
 477.827                                 [S/N_err in norm. window]
  1.0000                                 [fscale_chi2]

## etc...
  2147483587                             [idum_orig]
  3067                                   [NOl_eff]
   681                                   [Nl_eff]
  2386    NSIGMA                         [Ntot_cliped & clip_method]
  2108680                                [Nglobal_steps]
   7                                     [N_chains]
   7                                     [NEX0s_base = N_base in EX0s-fits]
 0   1   1      254   2.0   1.005E+03    [Clip-Bug, RC-Crash & Burn-In warning-flags, n_censored_weights, wei_nsig_threshold & wei_limit]
    21     21.106     21.106      0.000  [idt_all, wdt_TotTime, wdt_UsrTime & wdt_SysTime (sec)]

## Synthesis Results - Best model ##

 2.58195E+00                             [chi2/Nl_eff]
     0.35126                             [adev (%)]

   104.53817                             [sum-of-x (%)]
 6.21395E-13                             [Flux_tot (units of input spectrum!)]
 1.23832E-09                             [Mini_tot (???)]
 7.17674E-10                             [Mcor_tot (???)]

 -55.04                                  [v0_min  (km/s)]
 138.15                                  [vd_min  (km/s)]
 1.1532                                  [AV_min  (mag)]
 0.0000                                  [YAV_min (mag)]

# j     x_j(%)      Mini_j(%)     Mcor_j(%)     age_j(yr)     Z_j      (L/M)_j    YAV?  Mstars   component_j        a/Fe...       SSP_chi2r SSP_adev(%)   SSP_AV   SSP_x(%)
  1      0.0000     0.0000E+00    0.0000E+00    1.000000E+06  0.00400  1.114E-02    0   1.0000   age020_m42            0.0000     3.9821E+03     9.7467   3.3984    78.4875
  2     28.4810     3.3566E-01    5.7911E-01    3.160000E+06  0.00400  4.073E-02    0   0.9999   age045_m42            0.0000     5.3042E+02     3.5351   2.3857    95.1376
  3      0.0000     0.0000E+00    0.0000E+00    5.010000E+06  0.00400  2.534E-02    0   0.9488   age055_m42            0.0000     1.8380E+03     6.6514   2.8137    87.4378
  4      9.3299     3.5236E-01    5.3880E-01    1.000000E+07  0.00400  1.271E-02    0   0.8862   age070_m42            0.0000     1.4777E+03     6.4117   2.0089    91.3701
  5      0.0000     0.0000E+00    0.0000E+00    2.512000E+07  0.00400  5.070E-03    0   0.8174   age090_m42            0.0000     1.2763E+03     5.8691   1.8810    92.8705
  6      0.0000     0.0000E+00    0.0000E+00    4.000000E+07  0.00400  3.505E-03    0   0.7851   age104_m42            0.0000     6.4223E+02     3.9369   1.5589    96.2931
  7     27.7524     5.8738E+00    7.3043E+00    1.015200E+08  0.00400  2.268E-03    0   0.7207   age116_m42            0.0000     1.2061E+03     4.8111   1.5284   108.6590
  8      0.0000     0.0000E+00    0.0000E+00    2.861200E+08  0.00400  1.079E-03    0   0.6613   age125_m42            0.0000     1.4722E+03     5.6044   1.0391   110.8168
  9      0.0000     0.0000E+00    0.0000E+00    6.405400E+08  0.00400  5.077E-04    0   0.6197   age132_m42            0.0000     1.7366E+03     6.0169   0.6634   115.6580
 10     25.8869     3.5152E+01    3.6538E+01    9.047900E+08  0.00400  3.535E-04    0   0.6024   age135_m42            0.0000     1.0166E+03     5.0039   0.4321   114.2656
 11      4.5772     1.1503E+01    1.1346E+01    1.434000E+09  0.00400  1.910E-04    0   0.5716   age139_m42            0.0000     8.4369E+02     5.1240  -0.0741   111.5521
 12      7.5321     3.6826E+01    3.4713E+01    2.500000E+09  0.00400  9.818E-05    0   0.5463   age150_m42            0.0000     1.1291E+03     4.6693  -0.3236   105.3230
 13      0.9786     9.9569E+00    8.9818E+00    5.000000E+09  0.00400  4.718E-05    0   0.5228   age161_m42            0.0000     1.5955E+03     4.8018  -0.4755   101.0052
 14      0.0000     0.0000E+00    0.0000E+00    1.100000E+10  0.00400  2.205E-05    0   0.4980   age185_m42            0.0000     2.6009E+03     6.1180  -0.7209    98.0242
 15      0.0000     0.0000E+00    0.0000E+00    1.300000E+10  0.00400  1.883E-05    0   0.4927   age193_m42            0.0000     2.7574E+03     6.2567  -0.7360    97.7271
 16      0.0000     0.0000E+00    0.0000E+00    1.000000E+06  0.02000  1.989E-02    0   1.0000   age020_m62            0.0000     4.0871E+03     9.7986   3.3600    79.2083
 17      0.0000     0.0000E+00    0.0000E+00    3.160000E+06  0.02000  3.772E-02    0   0.9858   age045_m62            0.0000     3.5585E+03     9.1660   3.2107    81.6058
 18      0.0000     0.0000E+00    0.0000E+00    5.010000E+06  0.02000  3.227E-02    0   0.9342   age055_m62            0.0000     1.0203E+03     4.8707   2.6644    90.9078
 19      0.0000     0.0000E+00    0.0000E+00    1.000000E+07  0.02000  1.011E-02    0   0.8751   age070_m62            0.0000     4.1352E+03    10.6969   2.0473    85.9953
 20      0.0000     0.0000E+00    0.0000E+00    2.512000E+07  0.02000  4.206E-03    0   0.8099   age090_m62            0.0000     2.9378E+03     8.7062   1.9815    87.3831
 21      0.0000     0.0000E+00    0.0000E+00    4.000000E+07  0.02000  3.373E-03    0   0.7799   age104_m62            0.0000     3.9976E+02     3.2778   1.7709    98.0496
 22      0.0000     0.0000E+00    0.0000E+00    1.015200E+08  0.02000  1.878E-03    0   0.7221   age116_m62            0.0000     7.3854E+02     3.4415   1.5589   108.4214
 23      0.0000     0.0000E+00    0.0000E+00    2.861200E+08  0.02000  8.869E-04    0   0.6700   age125_m62            0.0000     2.9987E+03     7.6279   1.0281   116.8535
 24      0.0000     0.0000E+00    0.0000E+00    6.405400E+08  0.02000  3.657E-04    0   0.6322   age132_m62            0.0000     2.2558E+03     7.8100   0.3511   120.2152
 25      0.0000     0.0000E+00    0.0000E+00    9.047900E+08  0.02000  2.312E-04    0   0.6152   age135_m62            0.0000     1.5814E+03     7.0399  -0.0093   118.2913
 26      0.0000     0.0000E+00    0.0000E+00    1.434000E+09  0.02000  1.168E-04    0   0.5865   age139_m62            0.0000     1.3470E+03     5.5711  -0.3913   110.1462
 27      0.0000     0.0000E+00    0.0000E+00    2.500000E+09  0.02000  5.505E-05    0   0.5610   age150_m62            0.0000     2.2404E+03     6.4444  -0.7434   105.9671
 28      0.0000     0.0000E+00    0.0000E+00    5.000000E+09  0.02000  2.596E-05    0   0.5353   age161_m62            0.0000     3.7782E+03     7.8765  -1.0000   103.4716
 29      0.0000     0.0000E+00    0.0000E+00    1.100000E+10  0.02000  1.169E-05    0   0.5103   age185_m62            0.0000     6.9491E+03    10.8939  -1.0000    93.8419
 30      0.0000     0.0000E+00    0.0000E+00    1.300000E+10  0.02000  9.691E-06    0   0.5047   age193_m62            0.0000     7.5822E+03    11.4898  -1.0000    92.5917
 31      0.0000     0.0000E+00    0.0000E+00    1.000000E+06  0.05000  2.651E-02    0   0.9998   age020_m72            0.0000     3.8096E+03     9.2732   3.3673    80.1468
 32      0.0000     0.0000E+00    0.0000E+00    3.160000E+06  0.05000  4.817E-02    0   0.9577   age045_m72            0.0000     2.3606E+03     7.1654   3.0652    85.4828
 33      0.0000     0.0000E+00    0.0000E+00    5.010000E+06  0.05000  3.101E-02    0   0.9147   age055_m72            0.0000     2.1408E+03     7.1203   2.6963    88.2477
 34      0.0000     0.0000E+00    0.0000E+00    1.000000E+07  0.05000  8.954E-03    0   0.8524   age070_m72            0.0000     2.4088E+03     7.1923   2.9549    86.4149
 35      0.0000     0.0000E+00    0.0000E+00    2.512000E+07  0.05000  4.207E-03    0   0.7902   age090_m72            0.0000     9.2252E+02     4.3983   2.5004    92.9094
 36      0.0000     0.0000E+00    0.0000E+00    4.000000E+07  0.05000  3.198E-03    0   0.7618   age104_m72            0.0000     2.2870E+02     2.1844   1.9527   103.0182
 37      0.0000     0.0000E+00    0.0000E+00    1.015200E+08  0.05000  1.716E-03    0   0.7092   age116_m72            0.0000     1.0941E+03     4.3334   1.6444   108.8676
 38      0.0000     0.0000E+00    0.0000E+00    2.861200E+08  0.05000  7.047E-04    0   0.6618   age125_m72            0.0000     3.0983E+03     8.2019   0.8195   117.3909
 39      0.0000     0.0000E+00    0.0000E+00    6.405400E+08  0.05000  2.633E-04    0   0.6253   age132_m72            0.0000     2.1351E+03     7.9932  -0.0231   119.0953
 40      0.0000     0.0000E+00    0.0000E+00    9.047900E+08  0.05000  1.484E-04    0   0.6088   age135_m72            0.0000     1.8428E+03     7.0025  -0.4695   111.7410
 41      0.0000     0.0000E+00    0.0000E+00    1.434000E+09  0.05000  7.827E-05    0   0.5847   age139_m72            0.0000     2.8397E+03     7.7284  -0.8293   106.5490
 42      0.0000     0.0000E+00    0.0000E+00    2.500000E+09  0.05000  3.759E-05    0   0.5583   age150_m72            0.0000     4.2100E+03     8.2729  -1.0000   100.9046
 43      0.0000     0.0000E+00    0.0000E+00    5.000000E+09  0.05000  1.548E-05    0   0.5320   age161_m72            0.0000     8.2315E+03    12.5705  -1.0000    88.0793
 44      0.0000     0.0000E+00    0.0000E+00    1.100000E+10  0.05000  6.532E-06    0   0.5070   age185_m72            0.0000     1.4240E+04    16.7129  -1.0000    76.8377
 45      0.0000     0.0000E+00    0.0000E+00    1.300000E+10  0.05000  5.316E-06    0   0.5018   age193_m72            0.0000     1.6496E+04    17.8891  -1.0000    73.5841


## Synthesis Results - Average & Chains ##

# j      x_j: min, <> & last-chain-values for 1 ...  7 chains
  1      0.0000      0.0041      0.0000      0.0031      0.0000      0.0031      0.0000      0.0000      0.0000
  2     28.4810     27.3422     27.4196     27.2737     27.4819     27.4368     27.4032     27.6258     28.1737
  3      0.0000      0.0330      0.0000      0.0076      0.0000      0.0000      0.0000      0.0026      0.0185
  4      9.3299      8.9337      8.9613      9.0340      8.9592      8.8089      9.0596      8.8184      8.8124
  5      0.0000      0.2218      0.4138      0.2700      0.2937      0.3058      0.2544      0.2663      0.1558
  6      0.0000      0.4131      0.4215      0.1387      0.2800      0.2886      0.1819      0.5507      0.3695
  7     27.7524     26.9768     27.1038     27.1599     27.0565     27.1006     26.9718     26.9655     26.9550
  8      0.0000      0.1636      0.0575      0.2807      0.1648      0.0373      0.2429      0.1175      0.0747
  9      0.0000      0.0559      0.0573      0.0144      0.0000      0.0000      0.0000      0.0303      0.0000
 10     25.8869     26.0635     26.0151     26.0323     25.9919     26.1095     26.1260     25.7924     26.1838
 11      4.5772      4.6054      4.6350      4.5554      4.5542      4.7526      4.5598      4.6475      4.6828
 12      7.5321      7.4532      7.4086      7.4779      7.4569      7.5106      7.4453      7.5451      7.1391
 13      0.9786      0.9546      0.9916      0.9110      0.9830      0.9571      0.9454      1.0244      0.9507
 14      0.0000      0.0188      0.0059      0.0219      0.0155      0.0000      0.0779      0.0000      0.0000
 15      0.0000      0.0116      0.0000      0.0266      0.0000      0.0052      0.0000      0.0056      0.0000
 16      0.0000      0.0196      0.0000      0.0000      0.0000      0.0000      0.0000      0.0000      0.0034
 17      0.0000      0.0106      0.0000      0.0000      0.0000      0.0000      0.0000      0.0000      0.0000
 18      0.0000      0.0358      0.0614      0.0228      0.0000      0.0000      0.0000      0.0046      0.0000
 19      0.0000      0.0911      0.0000      0.2714      0.1521      0.0755      0.0000      0.0406      0.0251
 20      0.0000      0.1606      0.1417      0.2193      0.1127      0.2391      0.3927      0.2155      0.2042
 21      0.0000      0.1758      0.2436      0.0504      0.1344      0.1904      0.1778      0.1267      0.0942
 22      0.0000      0.0648      0.0073      0.0119      0.0000      0.0451      0.0500      0.0631      0.0259
 23      0.0000      0.0642      0.0641      0.0000      0.0283      0.0000      0.0651      0.1075      0.0000
 24      0.0000      0.0357      0.0318      0.0000      0.0000      0.0102      0.0234      0.0000      0.2011
 25      0.0000      0.0198      0.0000      0.0000      0.0395      0.0000      0.0000      0.0000      0.0000
 26      0.0000      0.0157      0.0000      0.0439      0.0000      0.0000      0.0000      0.0106      0.0000
 27      0.0000      0.0034      0.0067      0.0000      0.0000      0.0000      0.0000      0.0025      0.0000
 28      0.0000      0.0034      0.0000      0.0000      0.0000      0.0000      0.0000      0.0000      0.0000
 29      0.0000      0.0067      0.0000      0.0000      0.0000      0.0000      0.0000      0.0000      0.0133
 30      0.0000      0.0030      0.0000      0.0000      0.0018      0.0000      0.0000      0.0000      0.0000
 31      0.0000      0.0202      0.0091      0.0000      0.0099      0.0000      0.0000      0.0000      0.0000
 32      0.0000      0.0219      0.0491      0.0440      0.0000      0.0000      0.0000      0.0351      0.0482
 33      0.0000      0.0284      0.0000      0.0000      0.0903      0.0901      0.0269      0.0000      0.0000
 34      0.0000      0.0152      0.0000      0.0723      0.0438      0.0000      0.0000      0.0000      0.0000
 35      0.0000      0.0627      0.0317      0.0713      0.0385      0.1615      0.1454      0.0000      0.0406
 36      0.0000      0.0633      0.0000      0.1095      0.0351      0.1122      0.0000      0.1378      0.0037
 37      0.0000      0.1606      0.1520      0.1147      0.2966      0.1046      0.1701      0.2509      0.1991
 38      0.0000      0.1666      0.2299      0.2590      0.2321      0.2027      0.2026      0.1757      0.1569
 39      0.0000      0.0402      0.0000      0.0230      0.0172      0.0000      0.0000      0.0000      0.0000
 40      0.0000      0.0106      0.0023      0.0000      0.0597      0.0000      0.0180      0.0031      0.0000
 41      0.0000      0.0118      0.0000      0.0154      0.0000      0.0000      0.0000      0.0000      0.0327
 42      0.0000      0.0052      0.0261      0.0000      0.0000      0.0000      0.0000      0.0000      0.0000
 43      0.0000      0.0019      0.0000      0.0180      0.0000      0.0000      0.0000      0.0000      0.0000
 44      0.0000      0.0078      0.0000      0.0000      0.0560      0.0000      0.0255      0.0000      0.0000
 45      0.0000      0.0105      0.0380      0.0112      0.0000      0.0319      0.0163      0.0143      0.0152

# j      m_j: min, <> & last-chain-values for 1 ...  7 chains
  1  0.0000E+00  2.9828E-04  0.0000E+00  2.2706E-04  0.0000E+00  2.1980E-04  0.0000E+00  0.0000E+00  0.0000E+00
  2  5.7911E-01  5.4021E-01  5.3743E-01  5.4183E-01  5.3525E-01  5.4004E-01  5.3373E-01  5.4959E-01  5.6769E-01
  3  0.0000E+00  9.9464E-04  0.0000E+00  2.2979E-04  0.0000E+00  0.0000E+00  0.0000E+00  7.9413E-05  5.6774E-04
  4  5.3880E-01  5.0131E-01  4.9886E-01  5.0974E-01  4.9559E-01  4.9245E-01  5.0115E-01  4.9827E-01  5.0432E-01
  5  0.0000E+00  2.8779E-02  5.3259E-02  3.5227E-02  3.7566E-02  3.9531E-02  3.2538E-02  3.4794E-02  2.0622E-02
  6  0.0000E+00  7.4463E-02  7.5384E-02  2.5135E-02  4.9763E-02  5.1838E-02  3.2321E-02  9.9954E-02  6.7931E-02
  7  7.3043E+00  6.8990E+00  6.8764E+00  6.9842E+00  6.8210E+00  6.9046E+00  6.7998E+00  6.9439E+00  7.0304E+00
  8  0.0000E+00  8.0675E-02  2.8113E-02  1.3921E-01  8.0125E-02  1.8342E-02  1.1812E-01  5.8364E-02  3.7561E-02
  9  0.0000E+00  5.4944E-02  5.5882E-02  1.4208E-02  0.0000E+00  0.0000E+00  0.0000E+00  3.0014E-02  0.0000E+00
 10  3.6538E+01  3.5745E+01  3.5395E+01  3.5900E+01  3.5140E+01  3.5673E+01  3.5322E+01  3.5618E+01  3.6623E+01
 11  1.1346E+01  1.1092E+01  1.1075E+01  1.1032E+01  1.0813E+01  1.1403E+01  1.0826E+01  1.1271E+01  1.1503E+01
 12  3.4713E+01  3.3376E+01  3.2913E+01  3.3672E+01  3.2918E+01  3.3507E+01  3.2868E+01  3.4022E+01  3.2605E+01
 13  8.9818E+00  8.5130E+00  8.7726E+00  8.1689E+00  8.6417E+00  8.5032E+00  8.3111E+00  9.1990E+00  8.6465E+00
 14  0.0000E+00  3.4157E-01  1.0688E-01  3.9979E-01  2.7736E-01  0.0000E+00  1.3959E+00  0.0000E+00  0.0000E+00
 15  0.0000E+00  2.4420E-01  0.0000E+00  5.6386E-01  0.0000E+00  1.0896E-01  0.0000E+00  1.1957E-01  0.0000E+00
 16  0.0000E+00  7.9381E-04  0.0000E+00  0.0000E+00  0.0000E+00  0.0000E+00  0.0000E+00  0.0000E+00  1.4094E-04
 17  0.0000E+00  2.2215E-04  0.0000E+00  0.0000E+00  0.0000E+00  0.0000E+00  0.0000E+00  0.0000E+00  0.0000E+00
 18  0.0000E+00  8.3448E-04  1.4189E-03  5.3398E-04  0.0000E+00  0.0000E+00  0.0000E+00  1.0843E-04  0.0000E+00
 19  0.0000E+00  6.3464E-03  0.0000E+00  1.9008E-02  1.0445E-02  5.2369E-03  0.0000E+00  2.8480E-03  1.7859E-03
 20  0.0000E+00  2.4889E-02  2.1792E-02  3.4177E-02  1.7220E-02  3.6907E-02  5.9986E-02  3.3627E-02  3.2274E-02
 21  0.0000E+00  3.2707E-02  4.4969E-02  9.4395E-03  2.4653E-02  3.5303E-02  3.2623E-02  2.3736E-02  1.7876E-02
 22  0.0000E+00  2.0058E-02  2.2430E-03  3.6972E-03  0.0000E+00  1.3899E-02  1.5254E-02  1.9661E-02  8.1815E-03
 23  0.0000E+00  3.9007E-02  3.8675E-02  0.0000E+00  1.6983E-02  0.0000E+00  3.9011E-02  6.5816E-02  0.0000E+00
 24  0.0000E+00  4.9630E-02  4.3822E-02  0.0000E+00  0.0000E+00  1.4173E-02  3.2056E-02  0.0000E+00  2.8528E-01
 25  0.0000E+00  4.2331E-02  0.0000E+00  0.0000E+00  8.3297E-02  0.0000E+00  0.0000E+00  0.0000E+00  0.0000E+00
 26  0.0000E+00  6.3246E-02  0.0000E+00  1.7852E-01  0.0000E+00  0.0000E+00  0.0000E+00  4.3231E-02  0.0000E+00
 27  0.0000E+00  2.8085E-02  5.4369E-02  0.0000E+00  0.0000E+00  0.0000E+00  0.0000E+00  2.0432E-02  0.0000E+00
 28  0.0000E+00  5.6397E-02  0.0000E+00  0.0000E+00  0.0000E+00  0.0000E+00  0.0000E+00  0.0000E+00  0.0000E+00
 29  0.0000E+00  2.3404E-01  0.0000E+00  0.0000E+00  0.0000E+00  0.0000E+00  0.0000E+00  0.0000E+00  4.7482E-01
 30  0.0000E+00  1.2454E-01  0.0000E+00  0.0000E+00  7.2863E-02  0.0000E+00  0.0000E+00  0.0000E+00  0.0000E+00
 31  0.0000E+00  6.1188E-04  2.7533E-04  0.0000E+00  2.9544E-04  0.0000E+00  0.0000E+00  0.0000E+00  0.0000E+00
 32  0.0000E+00  3.5075E-04  7.8000E-04  7.0849E-04  0.0000E+00  0.0000E+00  0.0000E+00  5.6491E-04  7.8620E-04
 33  0.0000E+00  6.7375E-04  0.0000E+00  0.0000E+00  2.1137E-03  2.1298E-03  6.3037E-04  0.0000E+00  0.0000E+00
 34  0.0000E+00  1.1610E-03  0.0000E+00  5.5694E-03  3.3071E-03  0.0000E+00  0.0000E+00  0.0000E+00  0.0000E+00
 35  0.0000E+00  9.4848E-03  4.7604E-03  1.0843E-02  5.7436E-03  2.4316E-02  2.1662E-02  0.0000E+00  6.2658E-03
 36  0.0000E+00  1.2135E-02  0.0000E+00  2.1100E-02  6.6359E-03  2.1425E-02  0.0000E+00  2.6594E-02  7.2902E-04
 37  0.0000E+00  5.3403E-02  5.0142E-02  3.8374E-02  9.7242E-02  3.4661E-02  5.5767E-02  8.4033E-02  6.7527E-02
 38  0.0000E+00  1.2591E-01  1.7240E-01  1.9685E-01  1.7293E-01  1.5265E-01  1.5092E-01  1.3369E-01  1.2097E-01
 39  0.0000E+00  7.6889E-02  0.0000E+00  4.4124E-02  3.2415E-02  0.0000E+00  0.0000E+00  0.0000E+00  0.0000E+00
 40  0.0000E+00  3.5133E-02  7.6530E-03  0.0000E+00  1.9418E-01  0.0000E+00  5.8466E-02  1.0234E-02  0.0000E+00
 41  0.0000E+00  7.0867E-02  0.0000E+00  9.3101E-02  0.0000E+00  0.0000E+00  0.0000E+00  0.0000E+00  2.0027E-01
 42  0.0000E+00  6.2670E-02  3.0983E-01  0.0000E+00  0.0000E+00  0.0000E+00  0.0000E+00  0.0000E+00  0.0000E+00
 43  0.0000E+00  5.2999E-02  0.0000E+00  5.0161E-01  0.0000E+00  0.0000E+00  0.0000E+00  0.0000E+00  0.0000E+00
 44  0.0000E+00  4.8777E-01  0.0000E+00  0.0000E+00  3.4511E+00  0.0000E+00  1.5717E+00  0.0000E+00  0.0000E+00
 45  0.0000E+00  7.9422E-01  2.8602E+00  8.5607E-01  0.0000E+00  2.4165E+00  1.2213E+00  1.0908E+00  1.1771E+00

# AV, chi2 & Mass for <> & i_chain = 1 ...  7 solutions
AV       1.1532      1.1415      1.1423      1.1437      1.1416      1.1415      1.1414      1.1434      1.1509
chi2 2.5819E+00  2.6102E+00  2.6035E+00  2.5983E+00  2.5978E+00  2.6061E+00  2.6076E+00  2.6028E+00  2.5846E+00
Mass 7.1767E-10  7.2704E-10  7.3366E-10  7.2527E-10  7.3770E-10  7.2982E-10  7.3749E-10  7.2391E-10  7.2194E-10
 -55.04                                  [v0_min (km/s) before EX0s...]
 138.15                                  [vd_min (km/s) before EX0s...]


## Synthetic spectrum (Best Model) ##l_obs f_obs f_syn wei
 3070    [Nl_obs]
 3359.00    0.00000   0.58796   -2.000
 3360.00    0.06202   0.58326   -1.000
 3361.00    0.28549   0.58412   -1.000
 3362.00    0.30063   0.58950   -1.000
 3363.00    0.31659   0.59530   -1.000
 3364.00    0.32920   0.59762   -1.000
 3365.00    0.33428   0.59490   -1.000
 3366.00    0.33999   0.58845   -1.000
 3367.00    0.34684   0.58155   -1.000
 3368.00    0.34642   0.57672   -1.000
 3369.00    0.33569   0.57431   -1.000
 3370.00    0.32721   0.57346   -1.000
 3371.00    0.33024   0.57360   -1.000
 3372.00    0.33938   0.57608   -1.000
 3373.00    0.34832   0.58246   -1.000
 3374.00    0.36334   0.59117   -1.000
 3375.00    0.38447   0.59822   -1.000
 3376.00    0.39570   0.59953   -1.000
 3377.00    0.40565   0.59551   -1.000
 3378.00    0.40280   0.59054   -1.000
 3379.00    0.39684   0.58895   -1.000
 3380.00    0.39700   0.59261   -1.000
 3381.00    0.40183   0.59952   -1.000
 3382.00    0.40826   0.60703   -1.000
 3383.00    0.42049   0.61291   -1.000
 3384.00    0.41798   0.61688   -1.000
 3385.00    0.42224   0.61936   -1.000
 3386.00    0.42584   0.62051   -1.000
 3387.00    0.43701   0.62057   -1.000
 3388.00    0.44308   0.62011   -1.000
 3389.00    0.44890   0.61935   -1.000
 3390.00    0.45456   0.61835   -1.000
 3391.00    0.45180   0.61713   -1.000
 3392.00    0.45055   0.61666   -1.000
 3393.00    0.45661   0.61813   -1.000
 3394.00    0.46158   0.62176   -1.000
 3395.00    0.46585   0.62595   -1.000
 3396.00    0.47496   0.62853   -1.000
 3397.00    0.47426   0.62773   -1.000
 3398.00    0.48595   0.62361   -1.000
 3399.00    0.49021   0.61728   -1.000
 3400.00    0.48739   0.61089   -1.000
 3401.00    0.47926   0.60597   -1.000
 3402.00    0.47663   0.60258   -1.000
 3403.00    0.47900   0.60051   -1.000
 3404.00    0.47622   0.59877   -1.000
 3405.00    0.46542   0.59684   -1.000
 3406.00    0.46606   0.59511   -1.000
 3407.00    0.46917   0.59482   -1.000
 3408.00    0.46056   0.59644   -1.000
 3409.00    0.45878   0.59919   -1.000
 3410.00    0.46883   0.60204   -1.000
 3411.00    0.47304   0.60424   -1.000
 3412.00    0.47849   0.60606   -1.000
 3413.00    0.47365   0.60768   -1.000
 3414.00    0.47431   0.60959   -1.000
 3415.00    0.48524   0.61229   -1.000
 3416.00    0.48987   0.61647   -1.000
 3417.00    0.49071   0.62181   -1.000
 3418.00    0.50214   0.62695   -1.000
 3419.00    0.51209   0.63027   -1.000
 3420.00    0.50344   0.63089   -1.000
 3421.00    0.50293   0.62934   -1.000
 3422.00    0.50354   0.62703   -1.000
 3423.00    0.50484   0.62507   -1.000
 3424.00    0.50108   0.62435   -1.000
 3425.00    0.51112   0.62527   -1.000
 3426.00    0.51831   0.62820   -1.000
 3427.00    0.51427   0.63219   -1.000
 3428.00    0.51791   0.63560   -1.000
 3429.00    0.53194   0.63638   -1.000
 3430.00    0.53412   0.63420   -1.000
 3431.00    0.52561   0.63063   -1.000
 3432.00    0.52308   0.62745   -1.000
 3433.00    0.51402   0.62617   -1.000
 3434.00    0.52253   0.62632   -1.000
 3435.00    0.53407   0.62662   -1.000
 3436.00    0.53138   0.62468   -1.000
 3437.00    0.52251   0.61922   -1.000
 3438.00    0.51981   0.61002   -1.000
 3439.00    0.50686   0.59923   -1.000
 3440.00    0.49841   0.58975   -1.000
 3441.00    0.50095   0.58464   -1.000
 3442.00    0.49897   0.58435   -1.000
 3443.00    0.50039   0.58767   -1.000
 3444.00    0.51680   0.59277   -1.000
 3445.00    0.52187   0.59935   -1.000
 3446.00    0.52250   0.60743   -1.000
 3447.00    0.53409   0.61533   -1.000
 3448.00    0.54045   0.61999   -1.000
 3449.00    0.54741   0.61906   -1.000
 3450.00    0.54305   0.61261   -1.000
 3451.00    0.54166   0.60447   -1.000
 3452.00    0.54090   0.59805   -1.000
 3453.00    0.54061   0.59540   -1.000
 3454.00    0.54469   0.59576   -1.000
 3455.00    0.55294   0.59667   -1.000
 3456.00    0.56296   0.59618   -1.000
 3457.00    0.55924   0.59362   -1.000
 3458.00    0.55467   0.59016   -1.000
 3459.00    0.55289   0.58750   -1.000
 3460.00    0.55260   0.58728   -1.000
 3461.00    0.55083   0.59028   -1.000
 3462.00    0.55969   0.59533   -1.000
 3463.00    0.56860   0.60090   -1.000
 3464.00    0.57040   0.60465   -1.000
 3465.00    0.56544   0.60725   -1.000
 3466.00    0.57441   0.60904   -1.000
 3467.00    0.57786   0.61075   -1.000
 3468.00    0.57630   0.61228   -1.000
 3469.00    0.58969   0.61302   -1.000
 3470.00    0.59195   0.61215   -1.000
 3471.00    0.59172   0.60883   -1.000
 3472.00    0.57906   0.60321   -1.000
 3473.00    0.57318   0.59634   -1.000
 3474.00    0.56313   0.58996   -1.000
 3475.00    0.55414   0.58608   -1.000
 3476.00    0.55925   0.58540   -1.000
 3477.00    0.57079   0.58742  133.420
 3478.00    0.57953   0.59056  158.117
 3479.00    0.58909   0.59360   -1.000
 3480.00    0.59493   0.59529 1005.331
 3481.00    0.58784   0.59551   -1.000
 3482.00    0.58623   0.59527   -1.000
 3483.00    0.58449   0.59665   -1.000
 3484.00    0.59143   0.60087   -1.000
 3485.00    0.59363   0.60687   -1.000
 3486.00    0.59591   0.61173   -1.000
 3487.00    0.60012   0.61279   -1.000
 3488.00    0.59348   0.61000   -1.000
 3489.00    0.58051   0.60526   -1.000
 3490.00    0.57293   0.60144   -1.000
 3491.00    0.57169   0.59946   -1.000
 3492.00    0.58220   0.59833   -1.000
 3493.00    0.58590   0.59654   -1.000
 3494.00    0.58679   0.59427   -1.000
 3495.00    0.59392   0.59335 1005.331
 3496.00    0.58820   0.59516   -1.000
 3497.00    0.58290   0.59908   -1.000
 3498.00    0.58597   0.60295   -1.000
 3499.00    0.59506   0.60472   -1.000
 3500.00    0.59766   0.60485   -1.000
 3501.00    0.59544   0.60446   -1.000
 3502.00    0.59515   0.60379   -1.000
 3503.00    0.59525   0.60200   -1.000
 3504.00    0.60361   0.59883   -1.000
 3505.00    0.59556   0.59545 1005.331
 3506.00    0.59818   0.59332   -1.000
 3507.00    0.60429   0.59271   -1.000
 3508.00    0.60388   0.59259   -1.000
 3509.00    0.59861   0.59163   -1.000
 3510.00    0.59247   0.58937   -1.000
 3511.00    0.58699   0.58629 1005.331
 3512.00    0.58610   0.58427 1005.331
 3513.00    0.58549   0.58469 1005.331
 3514.00    0.58301   0.58865   -1.000
 3515.00    0.59310   0.59506 1005.331
 3516.00    0.60662   0.60154   -1.000
 3517.00    0.60635   0.60594 1005.331
 3518.00    0.60309   0.60673   -1.000
 3519.00    0.60125   0.60428 1005.331
 3520.00    0.59469   0.59977   -1.000
 3521.00    0.59082   0.59473   -1.000
 3522.00    0.57962   0.59024   -1.000
 3523.00    0.57356   0.58666   -1.000
 3524.00    0.56922   0.58500   -1.000
 3525.00    0.56638   0.58585  128.804
 3526.00    0.56445   0.58976   -1.000
 3527.00    0.57234   0.59554   -1.000
 3528.00    0.58942   0.60138   -1.000
 3529.00    0.60252   0.60552 1005.331
 3530.00    0.60439   0.60766 1005.331
 3531.00    0.60914   0.60866 1005.331
 3532.00    0.61040   0.60936 1005.331
 3533.00    0.60679   0.61043   -1.000
 3534.00    0.61362   0.61149 1005.331
 3535.00    0.61559   0.61272   -1.000
 3536.00    0.60330   0.61425   -1.000
 3537.00    0.60554   0.61627   -1.000
 3538.00    0.61560   0.61885 1005.331
 3539.00    0.61665   0.62114   -1.000
 3540.00    0.60832   0.62302   -1.000
 3541.00    0.60980   0.62431   -1.000
 3542.00    0.61342   0.62567   -1.000
 3543.00    0.61377   0.62686   -1.000
 3544.00    0.60990   0.62772   -1.000
 3545.00    0.60525   0.62801   -1.000
 3546.00    0.60529   0.62792   -1.000
 3547.00    0.60771   0.62785   -1.000
 3548.00    0.60983   0.62787   -1.000
 3549.00    0.61207   0.62782   -1.000
 3550.00    0.60945   0.62729   -1.000
 3551.00    0.60466   0.62591   -1.000
 3552.00    0.60800   0.62354   -1.000
 3553.00    0.59920   0.62085   -1.000
 3554.00    0.59798   0.61848   -1.000
 3555.00    0.59630   0.61711   -1.000
 3556.00    0.59630   0.61649   -1.000
 3557.00    0.59438   0.61638   -1.000
 3558.00    0.59788   0.61691   -1.000
 3559.00    0.59857   0.61856   -1.000
 3560.00    0.60233   0.62104   -1.000
 3561.00    0.59979   0.62290   -1.000
 3562.00    0.60493   0.62136   -1.000
 3563.00    0.60227   0.61584   -1.000
 3564.00    0.58177   0.60751   -1.000
 3565.00    0.56871   0.59985   -1.000
 3566.00    0.56758   0.59445   -1.000
 3567.00    0.57577   0.59045  134.337
 3568.00    0.57340   0.58610  132.860
 3569.00    0.56580   0.58044  133.021
 3570.00    0.56079   0.57531  137.275
 3571.00    0.55736   0.57219  138.568
 3572.00    0.56382   0.57183  133.821
 3573.00    0.57037   0.57293  152.050
 3574.00    0.57583   0.57421 1005.331
 3575.00    0.57835   0.57489   -1.000
 3576.00    0.57665   0.57462 1005.331
 3577.00    0.58401   0.57277   -1.000
 3578.00    0.58352   0.56934   -1.000
 3579.00    0.58238   0.56477   -1.000
 3580.00    0.57316   0.56063  135.325
 3581.00    0.56491   0.55798  145.625
 3582.00    0.56814   0.55676  152.383
 3583.00    0.56694   0.55596  153.238
 3584.00    0.55466   0.55472  154.407
 3585.00    0.54736   0.55347  158.553
 3586.00    0.54237   0.55358  163.306
 3587.00    0.55024   0.55606  163.713
 3588.00    0.56327   0.56103  155.250
 3589.00    0.56588   0.56726  147.100
 3590.00    0.58359   0.57349  138.899
 3591.00    0.58853   0.57851  150.782
 3592.00    0.59033   0.58253   -1.000
 3593.00    0.58741   0.58646 1005.331
 3594.00    0.58408   0.59104   -1.000
 3595.00    0.58761   0.59632   -1.000
 3596.00    0.59065   0.60145   -1.000
 3597.00    0.59951   0.60541   -1.000
 3598.00    0.60689   0.60733  997.574
 3599.00    0.60479   0.60655  973.112
 3600.00    0.60292   0.60330  961.834
 3601.00    0.59656   0.59824  979.351
 3602.00    0.59302   0.59297 1005.331
 3603.00    0.59198   0.58890   -1.000
 3604.00    0.58293   0.58669   -1.000
 3605.00    0.58399   0.58599 1005.331
 3606.00    0.59033   0.58577   -1.000
 3607.00    0.58658   0.58540 1005.331
 3608.00    0.58010   0.58519   -1.000
 3609.00    0.57813   0.58535   -1.000
 3610.00    0.57402   0.58634   -1.000
 3611.00    0.57833   0.58763   -1.000
 3612.00    0.58037   0.58935   -1.000
 3613.00    0.57775   0.59130   -1.000
 3614.00    0.58507   0.59313   -1.000
 3615.00    0.59466   0.59352 1005.331
 3616.00    0.59884   0.59213   -1.000
 3617.00    0.59044   0.58950 1005.331
 3618.00    0.57826   0.58837   -1.000
 3619.00    0.57689   0.59027   -1.000
 3620.00    0.58542   0.59561  148.461
 3621.00    0.59345   0.60248   -1.000
 3622.00    0.59575   0.60939   -1.000
 3623.00    0.59990   0.61557   -1.000
 3624.00    0.59756   0.62138   -1.000
 3625.00    0.60180   0.62680   -1.000
 3626.00    0.61217   0.63008   -1.000
 3627.00    0.61568   0.62898   -1.000
 3628.00    0.60406   0.62285   -1.000
 3629.00    0.59557   0.61341   -1.000
 3630.00    0.58050   0.60488   -1.000
 3631.00    0.57495   0.60004   -1.000
 3632.00    0.58402   0.59988   -1.000
 3633.00    0.59609   0.60201   -1.000
 3634.00    0.60294   0.60420 1005.331
 3635.00    0.61094   0.60565   -1.000
 3636.00    0.61083   0.60700   -1.000
 3637.00    0.61040   0.60960 1005.331
 3638.00    0.61324   0.61218  994.703
 3639.00    0.61374   0.61339  951.778
 3640.00    0.61420   0.61167  924.851
 3641.00    0.60568   0.60744  927.956
 3642.00    0.59800   0.60212   -1.000
 3643.00    0.59348   0.59732   -1.000
 3644.00    0.59303   0.59387 1005.331
 3645.00    0.59670   0.59187   -1.000
 3646.00    0.59521   0.59094   -1.000
 3647.00    0.59308   0.59128 1005.331
 3648.00    0.59462   0.59317 1005.331
 3649.00    0.59811   0.59685 1005.331
 3650.00    0.59931   0.60172 1005.331
 3651.00    0.60939   0.60713 1005.331
 3652.00    0.61730   0.61201   -1.000
 3653.00    0.61975   0.61613   -1.000
 3654.00    0.62231   0.61949   -1.000
 3655.00    0.62648   0.62242   -1.000
 3656.00    0.62932   0.62507   -1.000
 3657.00    0.63119   0.62686   -1.000
 3658.00    0.62790   0.62709  890.481
 3659.00    0.62318   0.62542  877.595
 3660.00    0.61994   0.62226  878.681
 3661.00    0.61896   0.61868  880.061
 3662.00    0.61970   0.61576   -1.000
 3663.00    0.62898   0.61397   -1.000
 3664.00    0.62491   0.61325   -1.000
 3665.00    0.62882   0.61280   -1.000
 3666.00    0.62565   0.61219   -1.000
 3667.00    0.62143   0.61166   -1.000
 3668.00    0.62145   0.61185   -1.000
 3669.00    0.61732   0.61344   -1.000
 3670.00    0.61933   0.61606   -1.000
 3671.00    0.62351   0.61843   -1.000
 3672.00    0.62737   0.61950   -1.000
 3673.00    0.62799   0.61827   -1.000
 3674.00    0.63089   0.61502   -1.000
 3675.00    0.63137   0.61037   -1.000
 3676.00    0.62933   0.60554   -1.000
 3677.00    0.61721   0.60197   -1.000
 3678.00    0.61022   0.60036   -1.000
 3679.00    0.61196   0.60096   -1.000
 3680.00    0.61266   0.60261   -1.000
 3681.00    0.61587   0.60410   -1.000
 3682.00    0.61556   0.60403   -1.000
 3683.00    0.61601   0.60177   -1.000
 3684.00    0.61301   0.59816   -1.000
 3685.00    0.60543   0.59516   -1.000
 3686.00    0.60188   0.59566   -1.000
 3687.00    0.61044   0.60047   -1.000
 3688.00    0.62571   0.60829   -1.000
 3689.00    0.63393   0.61579   -1.000
 3690.00    0.63292   0.62160   -1.000
 3691.00    0.63484   0.62548   -1.000
 3692.00    0.64333   0.62824   -1.000
 3693.00    0.64854   0.62966   -1.000
 3694.00    0.64768   0.62886   -1.000
 3695.00    0.64080   0.62757   -1.000
 3696.00    0.63026   0.62858  916.351
 3697.00    0.63013   0.63448   -1.000
 3698.00    0.65174   0.64356   -1.000
 3699.00    0.67440   0.64999   -1.000
 3700.00    0.68321   0.64753   -1.000
 3701.00    0.66926   0.63402   -1.000
 3702.00    0.64084   0.61392   -1.000
 3703.00    0.61623   0.59558   -1.000
 3704.00    0.60624   0.58621   -1.000
 3705.00    0.61893   0.58779   -1.000
 3706.00    0.63197   0.59638   -1.000
 3707.00    0.64888   0.60467   -1.000
 3708.00    0.65684   0.60776   -1.000
 3709.00    0.64076   0.60511   -1.000
 3710.00    0.61780   0.60138   -1.000
 3711.00    0.60615   0.60366   -1.000
 3712.00    0.62736   0.61563   -1.000
 3713.00    0.66258   0.63610   -1.000
 3714.00    0.69818   0.65888   -1.000
 3715.00    0.71424   0.67615   -1.000
 3716.00    0.72531   0.68093   -1.000
 3717.00    0.71867   0.66986   -1.000
 3718.00    0.68275   0.64459   -1.000
 3719.00    0.63073   0.61275   -1.000
 3720.00    0.58799   0.58599   -1.000
 3721.00    0.56954   0.57508  577.439
 3722.00    0.58540   0.58443  147.846
 3723.00    0.62901   0.61041   -1.000
 3724.00    0.67634   0.64403   -1.000
 3725.00    0.71331   0.67569   -1.000
 3726.00    0.72315   0.69889   -1.000
 3727.00    0.72989   0.71182   -1.000
 3728.00    0.73457   0.71265   -1.000
 3729.00    0.72688   0.69943   -1.000
 3730.00    0.71062   0.67132   -1.000
 3731.00    0.67308   0.63223   -1.000
 3732.00    0.61005   0.59119   -1.000
 3733.00    0.55898   0.56029  550.907
 3734.00    0.54149   0.54872  129.415
 3735.00    0.56029   0.56073  143.749
 3736.00    0.60115   0.59312  147.283
 3737.00    0.65739   0.63785  138.856
 3738.00    0.70792   0.68403   -1.000
 3739.00    0.74321   0.72252   -1.000
 3740.00    0.76162   0.74666   -1.000
 3741.00    0.76200   0.75532   -1.000
 3742.00    0.75704   0.74974   -1.000
 3743.00    0.74287   0.73239   -1.000
 3744.00    0.71777   0.70529   -1.000
 3745.00    0.69111   0.66990   -1.000
 3746.00    0.66416   0.62905   -1.000
 3747.00    0.62837   0.58900   -1.000
 3748.00    0.57402   0.55874  130.395
 3749.00    0.54497   0.54734  137.992
 3750.00    0.56411   0.55972  157.248
 3751.00    0.62161   0.59281   -1.000
 3752.00    0.67494   0.63770   -1.000
 3753.00    0.72549   0.68333   -1.000
 3754.00    0.75742   0.72022   -1.000
 3755.00    0.77770   0.74310   -1.000
 3756.00    0.77312   0.75211   -1.000
 3757.00    0.76281   0.75144   -1.000
 3758.00    0.74880   0.74794 1005.331
 3759.00    0.74911   0.74664   -1.000
 3760.00    0.76982   0.74905   -1.000
 3761.00    0.78096   0.75250   -1.000
 3762.00    0.78364   0.75323   -1.000
 3763.00    0.78297   0.74658   -1.000
 3764.00    0.77011   0.73031   -1.000
 3765.00    0.75170   0.70401   -1.000
 3766.00    0.72319   0.66971   -1.000
 3767.00    0.68838   0.63166   -1.000
 3768.00    0.65050   0.59660   -1.000
 3769.00    0.60256   0.57326   -1.000
 3770.00    0.58313   0.56855   -1.000
 3771.00    0.61378   0.58462   -1.000
 3772.00    0.66857   0.61689   -1.000
 3773.00    0.71482   0.65728   -1.000
 3774.00    0.74482   0.69877   -1.000
 3775.00    0.76448   0.73835   -1.000
 3776.00    0.79450   0.77454   -1.000
 3777.00    0.81552   0.80690   -1.000
 3778.00    0.83842   0.83429   -1.000
 3779.00    0.85785   0.85578  862.505
 3780.00    0.86678   0.87117   -1.000
 3781.00    0.86767   0.88045   -1.000
 3782.00    0.86363   0.88409   -1.000
 3783.00    0.85865   0.88200   -1.000
 3784.00    0.85445   0.87468   -1.000
 3785.00    0.84920   0.86299   -1.000
 3786.00    0.83846   0.84893   -1.000
 3787.00    0.82618   0.83478   -1.000
 3788.00    0.82104   0.82156  986.740
 3789.00    0.81922   0.80773   -1.000
 3790.00    0.81935   0.79043   -1.000
 3791.00    0.80317   0.76622   -1.000
 3792.00    0.77891   0.73280   -1.000
 3793.00    0.74827   0.69065   -1.000
 3794.00    0.70242   0.64303   -1.000
 3795.00    0.65321   0.59669   -1.000
 3796.00    0.60238   0.56122   -1.000
 3797.00    0.56255   0.54552   -1.000
 3798.00    0.57478   0.55546   -1.000
 3799.00    0.63340   0.58948   -1.000
 3800.00    0.69604   0.63904   -1.000
 3801.00    0.74663   0.69281   -1.000
 3802.00    0.78824   0.74159   -1.000
 3803.00    0.81336   0.78039   -1.000
 3804.00    0.82352   0.80905   -1.000
 3805.00    0.82738   0.83033  899.874
 3806.00    0.84012   0.84817   -1.000
 3807.00    0.85259   0.86581   -1.000
 3808.00    0.86988   0.88332   -1.000
 3809.00    0.88221   0.89722   -1.000
 3810.00    0.88760   0.90337   -1.000
 3811.00    0.87987   0.89954   -1.000
 3812.00    0.87111   0.88736   -1.000
 3813.00    0.86091   0.87353   -1.000
 3814.00    0.85631   0.86345   -1.000
 3815.00    0.85782   0.85952 1005.331
 3816.00    0.87298   0.85886   -1.000
 3817.00    0.87825   0.85705   -1.000
 3818.00    0.87790   0.85199   -1.000
 3819.00    0.86359   0.84489   -1.000
 3820.00    0.84552   0.83834   -1.000
 3821.00    0.85295   0.83271   -1.000
 3822.00    0.85818   0.82554   -1.000
 3823.00    0.85163   0.81397   -1.000
 3824.00    0.82405   0.79804   -1.000
 3825.00    0.80064   0.78049   -1.000
 3826.00    0.79708   0.76295   -1.000
 3827.00    0.79027   0.74477   -1.000
 3828.00    0.78427   0.72296   -1.000
 3829.00    0.77177   0.69464   -1.000
 3830.00    0.75287   0.65842   -1.000
 3831.00    0.70671   0.61549   -1.000
 3832.00    0.65375   0.57094   -1.000
 3833.00    0.60762   0.53262   -1.000
 3834.00    0.56098   0.50899   -1.000
 3835.00    0.55441   0.50580   -1.000
 3836.00    0.59188   0.52316   -1.000
 3837.00    0.64682   0.55706   -1.000
 3838.00    0.69146   0.60106   -1.000
 3839.00    0.72549   0.64942   -1.000
 3840.00    0.75928   0.69806   -1.000
 3841.00    0.79109   0.74366   -1.000
 3842.00    0.82301   0.78386   -1.000
 3843.00    0.84864   0.81756   -1.000
 3844.00    0.86671   0.84415   -1.000
 3845.00    0.88079   0.86448   -1.000
 3846.00    0.88568   0.87876   -1.000
 3847.00    0.88861   0.88825 1005.331
 3848.00    0.88911   0.89416   -1.000
 3849.00    0.88935   0.89913   -1.000
 3850.00    0.89007   0.90437   -1.000
 3851.00    0.90264   0.90973   -1.000
 3852.00    0.91979   0.91323   -1.000
 3853.00    0.92039   0.91314   -1.000
 3854.00    0.90947   0.91000 1005.331
 3855.00    0.90484   0.90542 1005.331
 3856.00    0.90499   0.90131   -1.000
 3857.00    0.89548   0.89916   -1.000
 3858.00    0.88273   0.89943   -1.000
 3859.00    0.87742   0.90194   -1.000
 3860.00    0.89491   0.90601  134.408
 3861.00    0.92307   0.90992  144.808
 3862.00    0.94431   0.91263   -1.000
 3863.00    0.94237   0.91366   -1.000
 3864.00    0.93043   0.91467   -1.000
 3865.00    0.93138   0.91620   -1.000
 3866.00    0.93238   0.91804   -1.000
 3867.00    0.93461   0.91879   -1.000
 3868.00    0.93412   0.91612   -1.000
 3869.00    0.92206   0.90889   -1.000
 3870.00    0.90289   0.89877   -1.000
 3871.00    0.88294   0.88922   -1.000
 3872.00    0.86497   0.88366  141.000
 3873.00    0.87202   0.88218   -1.000
 3874.00    0.88500   0.88159   -1.000
 3875.00    0.88641   0.87723   -1.000
 3876.00    0.87108   0.86754   -1.000
 3877.00    0.84714   0.85443   -1.000
 3878.00    0.83758   0.84078 1005.331
 3879.00    0.83552   0.82714   -1.000
 3880.00    0.82823   0.81139   -1.000
 3881.00    0.81994   0.79029   -1.000
 3882.00    0.80506   0.76197   -1.000
 3883.00    0.78903   0.72561   -1.000
 3884.00    0.76546   0.68147   -1.000
 3885.00    0.71810   0.63283   -1.000
 3886.00    0.66011   0.58662   -1.000
 3887.00    0.60120   0.55313   -1.000
 3888.00    0.56713   0.54112   -1.000
 3889.00    0.58935   0.55377   -1.000
 3890.00    0.65490   0.58732   -1.000
 3891.00    0.71621   0.63261   -1.000
 3892.00    0.76017   0.67948   -1.000
 3893.00    0.78331   0.72168   -1.000
 3894.00    0.79853   0.75725   -1.000
 3895.00    0.80600   0.78622   -1.000
 3896.00    0.82913   0.80958   -1.000
 3897.00    0.84303   0.82800   -1.000
 3898.00    0.84828   0.84293   -1.000
 3899.00    0.84927   0.85614   -1.000
 3900.00    0.85743   0.86887   -1.000
 3901.00    0.87723   0.88031  844.785
 3902.00    0.88471   0.88912   -1.000
 3903.00    0.89023   0.89516   -1.000
 3904.00    0.88281   0.90063   -1.000
 3905.00    0.87382   0.90890   -1.000
 3906.00    0.89160   0.92118   -1.000
 3907.00    0.91425   0.93664   -1.000
 3908.00    0.93211   0.95178   -1.000
 3909.00    0.93636   0.96209   -1.000
 3910.00    0.94543   0.96610   -1.000
 3911.00    0.93836   0.96448   -1.000
 3912.00    0.93073   0.95972   -1.000
 3913.00    0.93115   0.95480   -1.000
 3914.00    0.93072   0.95192   -1.000
 3915.00    0.93728   0.95121   -1.000
 3916.00    0.93486   0.95111   -1.000
 3917.00    0.93169   0.95002   -1.000
 3918.00    0.92756   0.94772   -1.000
 3919.00    0.91803   0.94474   -1.000
 3920.00    0.92523   0.94226   -1.000
 3921.00    0.92189   0.94087   -1.000
 3922.00    0.91639   0.93957   -1.000
 3923.00    0.92667   0.93660   -1.000
 3924.00    0.93849   0.92994   -1.000
 3925.00    0.92485   0.91787   -1.000
 3926.00    0.90216   0.89971 1001.478
 3927.00    0.87756   0.87536 1005.331
 3928.00    0.84509   0.84480  732.498
 3929.00    0.79944   0.80816  143.442
 3930.00    0.73601   0.76721   -1.000
 3931.00    0.64280   0.72833   -1.000
 3932.00    0.53001   0.70096   -1.000
 3933.00    0.45316   0.69393   -1.000
 3934.00    0.48509   0.71116   -1.000
 3935.00    0.59806   0.74678   -1.000
 3936.00    0.71887   0.79000   -1.000
 3937.00    0.81798   0.83196  197.238
 3938.00    0.87055   0.86651  162.322
 3939.00    0.89233   0.89224  149.994
 3940.00    0.90601   0.90889   -1.000
 3941.00    0.90758   0.91736   -1.000
 3942.00    0.90503   0.92056   -1.000
 3943.00    0.89914   0.92130   -1.000
 3944.00    0.90825   0.92226   -1.000
 3945.00    0.92802   0.92446   -1.000
 3946.00    0.93488   0.92702   -1.000
 3947.00    0.93323   0.92854   -1.000
 3948.00    0.92675   0.92834  871.560
 3949.00    0.92733   0.92688  863.034
 3950.00    0.92716   0.92507  830.997
 3951.00    0.92287   0.92361  806.469
 3952.00    0.92127   0.92215  811.527
 3953.00    0.92028   0.91969  821.492
 3954.00    0.92297   0.91473   -1.000
 3955.00    0.91445   0.90665   -1.000
 3956.00    0.90224   0.89612   -1.000
 3957.00    0.89586   0.88358   -1.000
 3958.00    0.89332   0.86784   -1.000
 3959.00    0.87994   0.84711   -1.000
 3960.00    0.85369   0.82052   -1.000
 3961.00    0.82399   0.78804   -1.000
 3962.00    0.80454   0.75026   -1.000
 3963.00    0.78014   0.70570   -1.000
 3964.00    0.73762   0.65246   -1.000
 3965.00    0.65615   0.59235   -1.000
 3966.00    0.54854   0.53110   -1.000
 3967.00    0.43054   0.47940   -1.000
 3968.00    0.35349   0.44860   -1.000
 3969.00    0.36414   0.44571   -1.000
 3970.00    0.45127   0.47065   -1.000
 3971.00    0.56779   0.51697   -1.000
 3972.00    0.66960   0.57486   -1.000
 3973.00    0.73912   0.63543   -1.000
 3974.00    0.78383   0.69247   -1.000
 3975.00    0.82345   0.74284   -1.000
 3976.00    0.84987   0.78586   -1.000
 3977.00    0.86403   0.82118   -1.000
 3978.00    0.88230   0.84935   -1.000
 3979.00    0.90136   0.87062   -1.000
 3980.00    0.91131   0.88617   -1.000
 3981.00    0.90657   0.89815   -1.000
 3982.00    0.91071   0.90887  728.729
 3983.00    0.92236   0.91973  741.657
 3984.00    0.93669   0.93031   -1.000
 3985.00    0.94402   0.94004   -1.000
 3986.00    0.94980   0.94870  705.484
 3987.00    0.94834   0.95694   -1.000
 3988.00    0.95440   0.96582   -1.000
 3989.00    0.96802   0.97450   -1.000
 3990.00    0.96876   0.98262   -1.000
 3991.00    0.97645   0.98917   -1.000
 3992.00    0.98368   0.99313   -1.000
 3993.00    0.97815   0.99378   -1.000
 3994.00    0.96697   0.99149   -1.000
 3995.00    0.96656   0.98809   -1.000
 3996.00    0.96308   0.98561   -1.000
 3997.00    0.96389   0.98559   -1.000
 3998.00    0.96431   0.98799   -1.000
 3999.00    0.97737   0.99111   -1.000
 4000.00    0.99130   0.99292  649.760
 4001.00    0.99350   0.99213  628.816
 4002.00    0.99969   0.98858   -1.000
 4003.00    0.98846   0.98411  611.832
 4004.00    0.98105   0.98151  626.592
 4005.00    0.97427   0.98238   -1.000
 4006.00    0.98277   0.98797   -1.000
 4007.00    0.99185   0.99617   -1.000
 4008.00    0.99744   1.00382   -1.000
 4009.00    0.99991   1.00915   -1.000
 4010.00    0.98496   1.01196   -1.000
 4011.00    0.99956   1.01336   -1.000
 4012.00    0.99370   1.01473   -1.000
 4013.00    0.99298   1.01711   -1.000
 4014.00    0.99745   1.02077   -1.000
 4015.00    0.99727   1.02509   -1.000
 4016.00    1.00207   1.02971   -1.000
 4017.00    1.00668   1.03385   -1.000
 4018.00    1.00918   1.03662   -1.000
 4019.00    1.00690   1.03698   -1.000
 4020.00    0.99880   1.03390   -1.000
 4021.00    0.99826   1.02726   -1.000
 4022.00    1.00335   1.01871   -1.000
 4023.00    1.00000   1.01090   -1.000
 4024.00    0.99839   1.00630   -1.000
 4025.00    1.00301   1.00584  628.572
 4026.00    1.00453   1.00832  611.871
 4027.00    1.00787   1.01080  590.397
 4028.00    1.00451   1.01110   -1.000
 4029.00    0.98995   1.01001   -1.000
 4030.00    0.98439   1.00914   -1.000
 4031.00    0.98274   1.01018   -1.000
 4032.00    0.97442   1.01412   -1.000
 4033.00    0.98026   1.02058   -1.000
 4034.00    0.98736   1.02896   -1.000
 4035.00    0.99864   1.03779   -1.000
 4036.00    1.00934   1.04566   -1.000
 4037.00    1.01367   1.05133   -1.000
 4038.00    1.01149   1.05357   -1.000
 4039.00    1.00272   1.05211   -1.000
 4040.00    1.00202   1.04761   -1.000
 4041.00    1.00291   1.03990   -1.000
 4042.00    1.00006   1.02972   -1.000
 4043.00    0.99473   1.01907   -1.000
 4044.00    0.97464   1.01109   -1.000
 4045.00    0.95347   1.00954   -1.000
 4046.00    0.97211   1.01488   -1.000
 4047.00    0.99371   1.02460   -1.000
 4048.00    1.00257   1.03386   -1.000
 4049.00    1.01092   1.03909   -1.000
 4050.00    1.00665   1.03955   -1.000
 4051.00    1.00897   1.03660   -1.000
 4052.00    1.00622   1.03252   -1.000
 4053.00    0.99583   1.02908   -1.000
 4054.00    0.99765   1.02780   -1.000
 4055.00    1.00245   1.02863   -1.000
 4056.00    0.99890   1.03048   -1.000
 4057.00    0.99740   1.03202   -1.000
 4058.00    1.00208   1.03152   -1.000
 4059.00    1.00601   1.02798   -1.000
 4060.00    1.00155   1.02025   -1.000
 4061.00    0.98894   1.00933   -1.000
 4062.00    0.96728   0.99830   -1.000
 4063.00    0.96901   0.98961   -1.000
 4064.00    0.97377   0.98491   -1.000
 4065.00    0.98060   0.98427  693.734
 4066.00    0.98675   0.98650  659.667
 4067.00    0.98772   0.98819  644.003
 4068.00    0.99057   0.98769  626.304
 4069.00    0.98961   0.98466  606.618
 4070.00    0.97856   0.97991  600.973
 4071.00    0.97152   0.97542  626.098
 4072.00    0.97275   0.97205  653.209
 4073.00    0.98077   0.96857   -1.000
 4074.00    0.98035   0.96324   -1.000
 4075.00    0.96656   0.95648   -1.000
 4076.00    0.95553   0.95136   -1.000
 4077.00    0.94689   0.95111  709.848
 4078.00    0.95168   0.95659   -1.000
 4079.00    0.96578   0.96528  700.665
 4080.00    0.97098   0.97269  651.619
 4081.00    0.97637   0.97540  608.020
 4082.00    0.96772   0.97340   -1.000
 4083.00    0.96626   0.96880  603.257
 4084.00    0.95162   0.96447   -1.000
 4085.00    0.95005   0.96197   -1.000
 4086.00    0.95605   0.96082  621.322
 4087.00    0.95957   0.95916  599.715
 4088.00    0.95340   0.95509  576.711
 4089.00    0.95150   0.94772  559.337
 4090.00    0.93968   0.93666  563.014
 4091.00    0.93262   0.92226   -1.000
 4092.00    0.91960   0.90377   -1.000
 4093.00    0.90917   0.88020   -1.000
 4094.00    0.89603   0.85095   -1.000
 4095.00    0.88042   0.81555   -1.000
 4096.00    0.85311   0.77417   -1.000
 4097.00    0.82796   0.72725   -1.000
 4098.00    0.78363   0.67792   -1.000
 4099.00    0.72259   0.63293   -1.000
 4100.00    0.64333   0.60167   -1.000
 4101.00    0.60469   0.59297   -1.000
 4102.00    0.64103   0.60994   -1.000
 4103.00    0.72162   0.64810   -1.000
 4104.00    0.78719   0.69698   -1.000
 4105.00    0.82387   0.74566   -1.000
 4106.00    0.85415   0.78763   -1.000
 4107.00    0.87286   0.82145   -1.000
 4108.00    0.88314   0.84828   -1.000
 4109.00    0.89366   0.87057   -1.000
 4110.00    0.90716   0.89054   -1.000
 4111.00    0.92329   0.90941   -1.000
 4112.00    0.94004   0.92715   -1.000
 4113.00    0.95215   0.94284   -1.000
 4114.00    0.95777   0.95543  615.377
 4115.00    0.95950   0.96376  606.107
 4116.00    0.95484   0.96782   -1.000
 4117.00    0.95632   0.96872   -1.000
 4118.00    0.95305   0.96848   -1.000
 4119.00    0.95370   0.96884   -1.000
 4120.00    0.95542   0.97080   -1.000
 4121.00    0.95897   0.97412   -1.000
 4122.00    0.96839   0.97803   -1.000
 4123.00    0.97748   0.98175  630.857
 4124.00    0.98032   0.98403  623.608
 4125.00    0.98423   0.98369  612.720
 4126.00    0.98249   0.98063  611.408
 4127.00    0.98233   0.97623   -1.000
 4128.00    0.98169   0.97239   -1.000
 4129.00    0.97502   0.97036  638.426
 4130.00    0.96915   0.97051  641.773
 4131.00    0.96408   0.97305   -1.000
 4132.00    0.95813   0.97867   -1.000
 4133.00    0.96424   0.98788   -1.000
 4134.00    0.97118   0.99968   -1.000
 4135.00    0.97709   1.01188   -1.000
 4136.00    0.99127   1.02262   -1.000
 4137.00    1.00026   1.02992   -1.000
 4138.00    0.99907   1.03262   -1.000
 4139.00    1.00160   1.02984   -1.000
 4140.00    0.99588   1.02212   -1.000
 4141.00    0.98023   1.01191   -1.000
 4142.00    0.96387   1.00313   -1.000
 4143.00    0.95526   0.99879   -1.000
 4144.00    0.96984   1.00035   -1.000
 4145.00    0.98850   1.00607   -1.000
 4146.00    0.99421   1.01223   -1.000
 4147.00    0.99374   1.01658   -1.000
 4148.00    0.98660   1.01880   -1.000
 4149.00    0.98826   1.01980   -1.000
 4150.00    0.99083   1.02016   -1.000
 4151.00    0.99384   1.01982   -1.000
 4152.00    0.99046   1.01869   -1.000
 4153.00    0.97482   1.01743   -1.000
 4154.00    1.05169   1.01732   -1.000
 4155.00    1.13794   1.01924   -1.000
 4156.00    0.95202   1.02299   -1.000
 4157.00    0.86028   1.02732   -1.000
 4158.00    0.96111   1.03101   -1.000
 4159.00    1.00630   1.03319   -1.000
 4160.00    1.00293   1.03403   -1.000
 4161.00    1.00741   1.03460   -1.000
 4162.00    1.00121   1.03587   -1.000
 4163.00    0.99561   1.03740   -1.000
 4164.00    0.99502   1.03836   -1.000
 4165.00    1.00129   1.03810   -1.000
 4166.00    0.99730   1.03555   -1.000
 4167.00    0.99446   1.03025   -1.000
 4168.00    0.99813   1.02235   -1.000
 4169.00    1.00292   1.01170   -1.000
 4170.00    0.99085   0.99942   -1.000
 4171.00    0.98108   0.98841   -1.000
 4172.00    0.97284   0.98184   -1.000
 4173.00    0.96504   0.98106   -1.000
 4174.00    0.97242   0.98418   -1.000
 4175.00    0.98078   0.98822   -1.000
 4176.00    0.98018   0.99116   -1.000
 4177.00    0.97664   0.99334   -1.000
 4178.00    0.98289   0.99655   -1.000
 4179.00    0.99045   1.00152   -1.000
 4180.00    0.99562   1.00705   -1.000
 4181.00    0.99221   1.01170   -1.000
 4182.00    0.99155   1.01465   -1.000
 4183.00    0.98651   1.01605   -1.000
 4184.00    0.98802   1.01605   -1.000
 4185.00    0.98619   1.01481   -1.000
 4186.00    0.97712   1.01305   -1.000
 4187.00    0.97336   1.01161   -1.000
 4188.00    0.97921   1.01183   -1.000
 4189.00    0.98528   1.01356   -1.000
 4190.00    0.98834   1.01580   -1.000
 4191.00    0.99231   1.01762   -1.000
 4192.00    0.99246   1.01784   -1.000
 4193.00    1.00002   1.01499   -1.000
 4194.00    0.99652   1.00840   -1.000
 4195.00    0.99355   0.99885   -1.000
 4196.00    0.98898   0.98847  668.506
 4197.00    0.97001   0.97956   -1.000
 4198.00    0.97074   0.97351  701.235
 4199.00    0.97480   0.97131  702.062
 4200.00    0.97129   0.97280  693.873
 4201.00    0.97572   0.97703  682.767
 4202.00    0.98031   0.98344  681.268
 4203.00    0.98502   0.99150   -1.000
 4204.00    0.97909   1.00010   -1.000
 4205.00    0.97700   1.00794   -1.000
 4206.00    0.98596   1.01434   -1.000
 4207.00    0.99352   1.01879   -1.000
 4208.00    0.99610   1.02132   -1.000
 4209.00    0.99297   1.02262   -1.000
 4210.00    0.98480   1.02317   -1.000
 4211.00    0.98962   1.02225   -1.000
 4212.00    0.99343   1.01910   -1.000
 4213.00    0.98823   1.01413   -1.000
 4214.00    0.97607   1.00916   -1.000
 4215.00    0.96386   1.00694   -1.000
 4216.00    0.96327   1.00901   -1.000
 4217.00    0.97652   1.01468   -1.000
 4218.00    0.98914   1.02080   -1.000
 4219.00    0.99334   1.02371   -1.000
 4220.00    1.00208   1.02159   -1.000
 4221.00    0.99553   1.01367   -1.000
 4222.00    0.98946   1.00039   -1.000
 4223.00    0.98148   0.98424  600.793
 4224.00    0.96384   0.96963   -1.000
 4225.00    0.94037   0.96125   -1.000
 4226.00    0.92549   0.96214   -1.000
 4227.00    0.93855   0.97193   -1.000
 4228.00    0.96727   0.98633   -1.000
 4229.00    0.98702   0.99839   -1.000
 4230.00    0.98828   1.00371   -1.000
 4231.00    0.98159   1.00211   -1.000
 4232.00    0.97372   0.99682   -1.000
 4233.00    0.97079   0.99212   -1.000
 4234.00    0.97175   0.99082   -1.000
 4235.00    0.97172   0.99280   -1.000
 4236.00    0.97039   0.99692   -1.000
 4237.00    0.96975   1.00196   -1.000
 4238.00    0.98173   1.00716   -1.000
 4239.00    0.99110   1.01177   -1.000
 4240.00    0.99165   1.01561   -1.000
 4241.00    0.99135   1.01812   -1.000
 4242.00    0.99321   1.01892   -1.000
 4243.00    0.98774   1.01762   -1.000
 4244.00    0.98726   1.01372   -1.000
 4245.00    0.97919   1.00767   -1.000
 4246.00    0.96601   1.00111   -1.000
 4247.00    0.96305   0.99639   -1.000
 4248.00    0.96035   0.99494   -1.000
 4249.00    0.95444   0.99603   -1.000
 4250.00    0.95394   0.99820   -1.000
 4251.00    0.97305   1.00060   -1.000
 4252.00    0.97247   1.00273   -1.000
 4253.00    0.97449   1.00375   -1.000
 4254.00    0.96734   1.00370   -1.000
 4255.00    0.97666   1.00277   -1.000
 4256.00    0.98184   1.00039   -1.000
 4257.00    0.98341   0.99657   -1.000
 4258.00    0.97475   0.99279   -1.000
 4259.00    0.96970   0.99179   -1.000
 4260.00    0.96268   0.99544   -1.000
 4261.00    0.96898   1.00354   -1.000
 4262.00    0.98435   1.01412   -1.000
 4263.00    0.99461   1.02340   -1.000
 4264.00    0.99571   1.02874   -1.000
 4265.00    0.99421   1.02866   -1.000
 4266.00    0.99182   1.02314   -1.000
 4267.00    0.98686   1.01300   -1.000
 4268.00    0.97663   0.99982   -1.000
 4269.00    0.96468   0.98589   -1.000
 4270.00    0.94864   0.97400   -1.000
 4271.00    0.93691   0.96646   -1.000
 4272.00    0.94200   0.96521   -1.000
 4273.00    0.95152   0.97030   -1.000
 4274.00    0.95953   0.97959   -1.000
 4275.00    0.96683   0.99059   -1.000
 4276.00    0.97846   1.00098   -1.000
 4277.00    0.98321   1.00821   -1.000
 4278.00    0.98054   1.01126   -1.000
 4279.00    0.97056   1.01091   -1.000
 4280.00    0.96491   1.00894   -1.000
 4281.00    0.96156   1.00637   -1.000
 4282.00    0.96171   1.00356   -1.000
 4283.00    0.96556   0.99978   -1.000
 4284.00    0.96459   0.99419   -1.000
 4285.00    0.96385   0.98618   -1.000
 4286.00    0.95910   0.97586   -1.000
 4287.00    0.95170   0.96512   -1.000
 4288.00    0.93493   0.95636   -1.000
 4289.00    0.92261   0.95137   -1.000
 4290.00    0.92105   0.95083   -1.000
 4291.00    0.93262   0.95335   -1.000
 4292.00    0.94221   0.95552   -1.000
 4293.00    0.94968   0.95465   -1.000
 4294.00    0.94203   0.95023   -1.000
 4295.00    0.94183   0.94320  655.444
 4296.00    0.93769   0.93357  666.555
 4297.00    0.92527   0.92196  682.098
 4298.00    0.90369   0.90961   -1.000
 4299.00    0.89445   0.89921   -1.000
 4300.00    0.88540   0.89347   -1.000
 4301.00    0.88784   0.89348   -1.000
 4302.00    0.89646   0.89782  820.541
 4303.00    0.89853   0.90382   -1.000
 4304.00    0.90613   0.90867  796.464
 4305.00    0.91054   0.91050  786.964
 4306.00    0.89147   0.90982   -1.000
 4307.00    0.87799   0.90912   -1.000
 4308.00    0.87754   0.91038   -1.000
 4309.00    0.88347   0.91414   -1.000
 4310.00    0.89888   0.91887   -1.000
 4311.00    0.90346   0.92388   -1.000
 4312.00    0.92982   0.93006  763.587
 4313.00    0.92545   0.93966   -1.000
 4314.00    0.92097   0.95351   -1.000
 4315.00    0.94538   0.97008   -1.000
 4316.00    0.96548   0.98469   -1.000
 4317.00    0.97338   0.99330   -1.000
 4318.00    0.97142   0.99431   -1.000
 4319.00    0.96557   0.98820   -1.000
 4320.00    0.95875   0.97682   -1.000
 4321.00    0.95589   0.96236   -1.000
 4322.00    0.94159   0.94712  576.147
 4323.00    0.92544   0.93377   -1.000
 4324.00    0.91250   0.92460   -1.000
 4325.00    0.90573   0.92166   -1.000
 4326.00    0.91672   0.92439   -1.000
 4327.00    0.93656   0.92924   -1.000
 4328.00    0.94158   0.93114   -1.000
 4329.00    0.93394   0.92793   -1.000
 4330.00    0.92701   0.91961   -1.000
 4331.00    0.91595   0.90653   -1.000
 4332.00    0.91080   0.88763   -1.000
 4333.00    0.90245   0.86034   -1.000
 4334.00    0.88771   0.82316   -1.000
 4335.00    0.86358   0.77641   -1.000
 4336.00    0.82374   0.72383   -1.000
 4337.00    0.77386   0.67279   -1.000
 4338.00    0.70137   0.63342   -1.000
 4339.00    0.63324   0.61388   -1.000
 4340.00    0.62027   0.61823   -1.000
 4341.00    0.67870   0.64504   -1.000
 4342.00    0.76045   0.68736   -1.000
 4343.00    0.81513   0.73564   -1.000
 4344.00    0.85146   0.78251   -1.000
 4345.00    0.87837   0.82359   -1.000
 4346.00    0.89543   0.85645   -1.000
 4347.00    0.90642   0.87986   -1.000
 4348.00    0.91534   0.89418   -1.000
 4349.00    0.92265   0.90193   -1.000
 4350.00    0.91872   0.90705   -1.000
 4351.00    0.91385   0.91412  586.416
 4352.00    0.91826   0.92569   -1.000
 4353.00    0.93291   0.94075   -1.000
 4354.00    0.94504   0.95608   -1.000
 4355.00    0.95084   0.96893   -1.000
 4356.00    0.96338   0.97862   -1.000
 4357.00    0.96694   0.98579   -1.000
 4358.00    0.96071   0.99182   -1.000
 4359.00    0.95971   0.99818   -1.000
 4360.00    0.97079   1.00536   -1.000
 4361.00    0.98045   1.01248   -1.000
 4362.00    0.98108   1.01800   -1.000
 4363.00    0.97906   1.02082   -1.000
 4364.00    0.98306   1.02000   -1.000
 4365.00    0.97876   1.01531   -1.000
 4366.00    0.97579   1.00772   -1.000
 4367.00    0.97203   0.99938   -1.000
 4368.00    0.97118   0.99219   -1.000
 4369.00    0.97795   0.98641   -1.000
 4370.00    0.98071   0.98112  567.355
 4371.00    0.98611   0.97550   -1.000
 4372.00    0.98033   0.96987   -1.000
 4373.00    0.96644   0.96586  569.605
 4374.00    0.95144   0.96575   -1.000
 4375.00    0.95540   0.97063   -1.000
 4376.00    0.97042   0.97887   -1.000
 4377.00    0.97598   0.98605   -1.000
 4378.00    0.98508   0.98783  560.075
 4379.00    0.98982   0.98171   -1.000
 4380.00    0.98832   0.96826   -1.000
 4381.00    0.97431   0.95035   -1.000
 4382.00    0.95437   0.93292   -1.000
 4383.00    0.94199   0.92132   -1.000
 4384.00    0.94693   0.91939   -1.000
 4385.00    0.96179   0.92634   -1.000
 4386.00    0.97555   0.93771   -1.000
 4387.00    0.98467   0.94911   -1.000
 4388.00    0.98178   0.95800   -1.000
 4389.00    0.98111   0.96364   -1.000
 4390.00    0.98645   0.96614   -1.000
 4391.00    0.97863   0.96648   -1.000
 4392.00    0.98136   0.96568   -1.000
 4393.00    0.97707   0.96428   -1.000
 4394.00    0.96465   0.96365  576.572
 4395.00    0.96591   0.96509  589.901
 4396.00    0.97998   0.96791   -1.000
 4397.00    0.98795   0.96994   -1.000
 4398.00    0.98430   0.96999   -1.000
 4399.00    0.97892   0.96900   -1.000
 4400.00    0.97707   0.96862   -1.000
 4401.00    0.98480   0.96929   -1.000
 4402.00    0.98998   0.96979   -1.000
 4403.00    0.98329   0.96940   -1.000
 4404.00    0.97235   0.96921  592.725
 4405.00    0.97032   0.97062  628.313
 4406.00    0.98493   0.97376   -1.000
 4407.00    0.98940   0.97795   -1.000
 4408.00    0.98971   0.98266   -1.000
 4409.00    0.99286   0.98723   -1.000
 4410.00    0.99756   0.99003   -1.000
 4411.00    0.99763   0.98899   -1.000
 4412.00    1.00374   0.98329   -1.000
 4413.00    0.99403   0.97411   -1.000
 4414.00    0.97420   0.96463   -1.000
 4415.00    0.96503   0.95929   -1.000
 4416.00    0.96693   0.96072   -1.000
 4417.00    0.97943   0.96837   -1.000
 4418.00    0.98910   0.97917   -1.000
 4419.00    0.99314   0.98944  541.471
 4420.00    0.99760   0.99619  526.505
 4421.00    0.99103   0.99901   -1.000
 4422.00    0.99031   0.99979   -1.000
 4423.00    0.99350   1.00019   -1.000
 4424.00    0.99323   1.00059   -1.000
 4425.00    0.98571   1.00089   -1.000
 4426.00    0.98256   1.00115   -1.000
 4427.00    0.98279   1.00163   -1.000
 4428.00    0.98317   1.00210   -1.000
 4429.00    0.98343   1.00208   -1.000
 4430.00    0.98906   1.00115   -1.000
 4431.00    0.98990   0.99940   -1.000
 4432.00    0.98988   0.99748   -1.000
 4433.00    0.98793   0.99657   -1.000
 4434.00    0.97843   0.99790   -1.000
 4435.00    0.97805   1.00227   -1.000
 4436.00    0.99043   1.00855   -1.000
 4437.00    1.00547   1.01370   -1.000
 4438.00    1.00790   1.01467   -1.000
 4439.00    0.99949   1.01027   -1.000
 4440.00    0.99381   1.00214   -1.000
 4441.00    0.98588   0.99391   -1.000
 4442.00    0.96962   0.98965   -1.000
 4443.00    0.96356   0.99146   -1.000
 4444.00    0.97876   0.99881   -1.000
 4445.00    0.99449   1.00839   -1.000
 4446.00    1.00049   1.01616   -1.000
 4447.00    0.99887   1.02027   -1.000
 4448.00    0.99667   1.02116   -1.000
 4449.00    0.99618   1.01986   -1.000
 4450.00    0.99017   1.01734   -1.000
 4451.00    0.99219   1.01410   -1.000
 4452.00    0.99700   1.01015   -1.000
 4453.00    0.98931   1.00542   -1.000
 4454.00    0.98395   1.00127   -1.000
 4455.00    0.98663   0.99935   -1.000
 4456.00    0.99255   1.00018   -1.000
 4457.00    0.99657   1.00261   -1.000
 4458.00    1.00169   1.00514  573.182
 4459.00    0.99418   1.00704   -1.000
 4460.00    0.98871   1.00796   -1.000
 4461.00    0.98668   1.00815   -1.000
 4462.00    0.99129   1.00773   -1.000
 4463.00    1.00204   1.00650  576.133
 4464.00    0.99522   1.00394   -1.000
 4465.00    0.99522   0.99973  540.270
 4466.00    0.98903   0.99432  539.861
 4467.00    0.97973   0.98912   -1.000
 4468.00    0.97372   0.98635   -1.000
 4469.00    0.98277   0.98807  557.398
 4470.00    0.99086   0.99449  560.517
 4471.00    0.99991   1.00417  552.337
 4472.00    1.00943   1.01496   -1.000
 4473.00    1.01706   1.02475   -1.000
 4474.00    1.01174   1.03153   -1.000
 4475.00    1.01311   1.03382   -1.000
 4476.00    1.01438   1.03101   -1.000
 4477.00    1.01643   1.02362   -1.000
 4478.00    1.01368   1.01319  491.859
 4479.00    1.01469   1.00272   -1.000
 4480.00    1.00062   0.99621  515.425
 4481.00    0.99266   0.99698  539.071
 4482.00    0.99372   1.00515   -1.000
 4483.00    1.00444   1.01677   -1.000
 4484.00    1.00678   1.02674   -1.000
 4485.00    1.01848   1.03158   -1.000
 4486.00    1.01605   1.03061   -1.000
 4487.00    1.00965   1.02569   -1.000
 4488.00    1.00844   1.02020   -1.000
 4489.00    1.00048   1.01711   -1.000
 4490.00    1.00246   1.01741   -1.000
 4491.00    1.00493   1.02010   -1.000
 4492.00    1.00370   1.02355   -1.000
 4493.00    1.00902   1.02656   -1.000
 4494.00    1.00037   1.02869   -1.000
 4495.00    1.00346   1.03028   -1.000
 4496.00    1.00491   1.03107   -1.000
 4497.00    1.01035   1.03067   -1.000
 4498.00    1.01337   1.02915   -1.000
 4499.00    1.00738   1.02745   -1.000
 4500.00    0.99273   1.02724   -1.000
 4501.00    0.98914   1.03001   -1.000
 4502.00    1.00429   1.03575   -1.000
 4503.00    1.01259   1.04219   -1.000
 4504.00    1.01626   1.04679   -1.000
 4505.00    1.01644   1.04822   -1.000
 4506.00    1.01220   1.04726   -1.000
 4507.00    1.01591   1.04547   -1.000
 4508.00    1.01747   1.04449   -1.000
 4509.00    1.02334   1.04473   -1.000
 4510.00    1.01879   1.04485   -1.000
 4511.00    1.01485   1.04333   -1.000
 4512.00    1.01365   1.03978   -1.000
 4513.00    1.01326   1.03492   -1.000
 4514.00    1.01227   1.02996   -1.000
 4515.00    1.01262   1.02602   -1.000
 4516.00    1.01120   1.02348   -1.000
 4517.00    1.00833   1.02156   -1.000
 4518.00    1.01102   1.01936   -1.000
 4519.00    1.01375   1.01682  512.730
 4520.00    1.01695   1.01420  503.819
 4521.00    1.00815   1.01182  493.809
 4522.00    0.99961   1.00975   -1.000
 4523.00    1.00550   1.00787  507.473
 4524.00    1.00894   1.00577  517.757
 4525.00    1.00734   1.00286  522.097
 4526.00    1.00173   0.99900  530.947
 4527.00    0.99596   0.99487  547.388
 4528.00    0.98911   0.99129  562.848
 4529.00    0.98896   0.98890  569.484
 4530.00    0.99752   0.98747   -1.000
 4531.00    1.00229   0.98633   -1.000
 4532.00    0.98992   0.98543  544.983
 4533.00    0.98002   0.98632   -1.000
 4534.00    0.98108   0.99087   -1.000
 4535.00    0.99152   0.99919   -1.000
 4536.00    1.00509   1.00903  569.165
 4537.00    1.01527   1.01705  536.391
 4538.00    1.02187   1.02128  504.658
 4539.00    1.01899   1.02144  491.218
 4540.00    1.01448   1.01923  496.165
 4541.00    1.01367   1.01676  508.296
 4542.00    1.05217   1.01530   -1.000
 4543.00    0.81660   1.01449   -1.000
 4544.00    0.04824   1.01307   -1.000
 4545.00   -0.05409   1.01008    0.000
 4546.00    0.18715   1.00537   -1.000
 4547.00    0.75784   0.99937   -1.000
 4548.00    0.21407   0.99344   -1.000
 4549.00    0.88226   0.98935   -1.000
 4550.00    0.99769   0.98829  236.798
 4551.00    0.99605   0.98953   -1.000
 4552.00    0.99895   0.99088   -1.000
 4553.00    0.99175   0.99146  526.372
 4554.00    0.98919   0.99264  534.635
 4555.00    0.99505   0.99627  539.576
 4556.00    1.00454   1.00298  531.407
 4557.00    1.01431   1.01151  511.906
 4558.00    1.01724   1.01956  491.237
 4559.00    1.01917   1.02533   -1.000
 4560.00    1.02071   1.02784   -1.000
 4561.00    1.00952   1.02687   -1.000
 4562.00    1.00563   1.02341   -1.000
 4563.00    1.00025   1.01974   -1.000
 4564.00    1.00003   1.01839   -1.000
 4565.00    1.01021   1.02009   -1.000
 4566.00    1.01707   1.02333   -1.000
 4567.00    1.02005   1.02592   -1.000
 4568.00    1.01914   1.02619   -1.000
 4569.00    1.01535   1.02395   -1.000
 4570.00    1.00087   1.02042   -1.000
 4571.00    0.99216   1.01755   -1.000
 4572.00    1.00128   1.01697   -1.000
 4573.00    1.00830   1.01910   -1.000
 4574.00    1.01551   1.02204   -1.000
 4575.00    1.01264   1.02361   -1.000
 4576.00    1.01355   1.02293   -1.000
 4577.00    1.01201   1.01964   -1.000
 4578.00    1.00976   1.01379  490.964
 4579.00    1.01233   1.00590   -1.000
 4580.00    1.01101   0.99746   -1.000
 4581.00    1.00949   0.99036   -1.000
 4582.00    1.00309   0.98621   -1.000
 4583.00    1.00263   0.98578   -1.000
 4584.00    1.00459   0.98932   -1.000
 4585.00    1.00667   0.99514   -1.000
 4586.00    1.01211   1.00083   -1.000
 4587.00    1.01657   1.00477   -1.000
 4588.00    1.01378   1.00673   -1.000
 4589.00    1.00987   1.00755  486.097
 4590.00    1.01103   1.00818  485.296
 4591.00    1.00463   1.00942  492.374
 4592.00    1.00142   1.01165   -1.000
 4593.00    1.01258   1.01489  510.402
 4594.00    1.01826   1.01870  510.971
 4595.00    1.01499   1.02224   -1.000
 4596.00    1.01382   1.02491   -1.000
 4597.00    1.01868   1.02631   -1.000
 4598.00    1.01990   1.02630   -1.000
 4599.00    1.01169   1.02517   -1.000
 4600.00    1.01108   1.02363   -1.000
 4601.00    1.00979   1.02237   -1.000
 4602.00    1.00307   1.02198   -1.000
 4603.00    1.00703   1.02274   -1.000
 4604.00    1.01010   1.02455   -1.000
 4605.00    1.01568   1.02722   -1.000
 4606.00    1.01568   1.03050   -1.000
 4607.00    1.01618   1.03370   -1.000
 4608.00    1.01853   1.03608   -1.000
 4609.00    1.01990   1.03718   -1.000
 4610.00    1.01947   1.03697   -1.000
 4611.00    1.02532   1.03565   -1.000
 4612.00    1.01912   1.03364   -1.000
 4613.00    1.01728   1.03102   -1.000
 4614.00    1.01632   1.02785   -1.000
 4615.00    1.01773   1.02399  481.870
 4616.00    1.01965   1.01994  477.579
 4617.00    1.02203   1.01687  475.629
 4618.00    1.01965   1.01579  478.751
 4619.00    1.01814   1.01738  482.323
 4620.00    1.01800   1.02141  481.928
 4621.00    1.01961   1.02680   -1.000
 4622.00    1.02511   1.03186   -1.000
 4623.00    1.02202   1.03498   -1.000
 4624.00    1.01761   1.03543   -1.000
 4625.00    1.01650   1.03353   -1.000
 4626.00    1.01417   1.03007   -1.000
 4627.00    1.01124   1.02629   -1.000
 4628.00    1.00921   1.02333   -1.000
 4629.00    1.01049   1.02201   -1.000
 4630.00    1.01003   1.02238   -1.000
 4631.00    1.01621   1.02343   -1.000
 4632.00    1.01314   1.02393   -1.000
 4633.00    1.01454   1.02353   -1.000
 4634.00    1.01904   1.02302  482.055
 4635.00    1.02291   1.02363  487.426
 4636.00    1.02184   1.02568  487.085
 4637.00    1.01932   1.02872   -1.000
 4638.00    1.02009   1.03237   -1.000
 4639.00    1.02114   1.03604   -1.000
 4640.00    1.02390   1.03908   -1.000
 4641.00    1.02390   1.04064   -1.000
 4642.00    1.02196   1.04011   -1.000
 4643.00    1.02275   1.03721   -1.000
 4644.00    1.01856   1.03259   -1.000
 4645.00    1.01356   1.02763   -1.000
 4646.00    1.00901   1.02381   -1.000
 4647.00    1.01318   1.02229   -1.000
 4648.00    1.01934   1.02351  512.184
 4649.00    1.02099   1.02659  503.304
 4650.00    1.02225   1.02990   -1.000
 4651.00    1.01971   1.03197   -1.000
 4652.00    1.01282   1.03213   -1.000
 4653.00    1.01055   1.03089   -1.000
 4654.00    1.00990   1.02945   -1.000
 4655.00    1.01049   1.02936   -1.000
 4656.00    1.01276   1.03155   -1.000
 4657.00    1.01271   1.03594   -1.000
 4658.00    1.01891   1.04104   -1.000
 4659.00    1.02451   1.04479   -1.000
 4660.00    1.02728   1.04541   -1.000
 4661.00    1.02559   1.04262   -1.000
 4662.00    1.02406   1.03706   -1.000
 4663.00    1.02851   1.02970  472.494
 4664.00    1.02597   1.02149  481.897
 4665.00    1.01748   1.01357  483.218
 4666.00    1.01341   1.00704   -1.000
 4667.00    1.00819   1.00356  511.856
 4668.00    1.00521   1.00415  533.283
 4669.00    1.01045   1.00844  534.410
 4670.00    1.01505   1.01502  518.345
 4671.00    1.02469   1.02239  496.678
 4672.00    1.02117   1.02891   -1.000
 4673.00    1.02181   1.03357   -1.000
 4674.00    1.02605   1.03591   -1.000
 4675.00    1.02181   1.03598   -1.000
 4676.00    1.02496   1.03394   -1.000
 4677.00    1.02326   1.03021   -1.000
 4678.00    1.02353   1.02582  468.610
 4679.00    1.02058   1.02195  478.646
 4680.00    1.01722   1.01943  488.175
 4681.00    1.01607   1.01833  496.290
 4682.00    1.02254   1.01822  501.186
 4683.00    1.02082   1.01872  495.239
 4684.00    1.02719   1.01948   -1.000
 4685.00    1.02790   1.02039   -1.000
 4686.00    1.02832   1.02154   -1.000
 4687.00    1.02884   1.02294  477.991
 4688.00    1.03127   1.02443   -1.000
 4689.00    1.02864   1.02580  480.768
 4690.00    1.02515   1.02692  480.804
 4691.00    1.01994   1.02780   -1.000
 4692.00    1.02422   1.02850  485.275
 4693.00    1.02642   1.02890  479.705
 4694.00    1.02718   1.02853  472.568
 4695.00    1.02918   1.02701  462.107
 4696.00    1.02820   1.02424  456.067
 4697.00    1.02905   1.02029   -1.000
 4698.00    1.02565   1.01560   -1.000
 4699.00    1.02116   1.01096   -1.000
 4700.00    1.01852   1.00683   -1.000
 4701.00    1.01460   1.00366   -1.000
 4702.00    1.00904   1.00183   -1.000
 4703.00    1.00828   1.00151   -1.000
 4704.00    1.01455   1.00226   -1.000
 4705.00    1.02076   1.00308   -1.000
 4706.00    1.01432   1.00330   -1.000
 4707.00    1.00670   1.00323  492.142
 4708.00    1.01016   1.00374   -1.000
 4709.00    1.01312   1.00544   -1.000
 4710.00    1.01645   1.00792   -1.000
 4711.00    1.02016   1.01033   -1.000
 4712.00    1.02055   1.01228   -1.000
 4713.00    1.01915   1.01390  471.596
 4714.00    1.01676   1.01578  475.821
 4715.00    1.01857   1.01840  484.746
 4716.00    1.02032   1.02165  485.112
 4717.00    1.02303   1.02488  475.769
 4718.00    1.02810   1.02737  466.570
 4719.00    1.02575   1.02906  463.464
 4720.00    1.01776   1.03012   -1.000
 4721.00    1.01748   1.03075   -1.000
 4722.00    1.02070   1.03093   -1.000
 4723.00    1.01933   1.03030   -1.000
 4724.00    1.02136   1.02840   -1.000
 4725.00    1.02374   1.02489  459.793
 4726.00    1.01734   1.01987  460.275
 4727.00    1.01414   1.01411  471.094
 4728.00    1.01603   1.00883   -1.000
 4729.00    1.01595   1.00514   -1.000
 4730.00    1.01648   1.00354   -1.000
 4731.00    1.01449   1.00387   -1.000
 4732.00    1.01103   1.00558  489.854
 4733.00    1.01837   1.00765   -1.000
 4734.00    1.00849   1.00914  479.753
 4735.00    1.00831   1.00979  476.975
 4736.00    1.01129   1.01013  474.320
 4737.00    1.01405   1.01082  479.118
 4738.00    1.01593   1.01224  479.954
 4739.00    1.01881   1.01424  473.983
 4740.00    1.01925   1.01647  473.895
 4741.00    1.01999   1.01872  476.587
 4742.00    1.01483   1.02086  477.315
 4743.00    1.01848   1.02291  473.662
 4744.00    1.02104   1.02491  468.516
 4745.00    1.01956   1.02693   -1.000
 4746.00    1.01728   1.02895   -1.000
 4747.00    1.02013   1.03092   -1.000
 4748.00    1.02479   1.03265   -1.000
 4749.00    1.02129   1.03358   -1.000
 4750.00    1.01999   1.03347   -1.000
 4751.00    1.01694   1.03221   -1.000
 4752.00    1.01920   1.03000   -1.000
 4753.00    1.01450   1.02750   -1.000
 4754.00    1.01289   1.02557   -1.000
 4755.00    1.01578   1.02480   -1.000
 4756.00    1.01667   1.02513   -1.000
 4757.00    1.02016   1.02578  478.258
 4758.00    1.02031   1.02553  481.754
 4759.00    1.01649   1.02337   -1.000
 4760.00    1.01437   1.01908  478.618
 4761.00    1.01230   1.01326  477.580
 4762.00    1.00547   1.00759  484.666
 4763.00    1.00007   1.00388  496.659
 4764.00    1.00199   1.00340  503.381
 4765.00    1.01022   1.00602  504.390
 4766.00    1.01663   1.01074  503.406
 4767.00    1.01753   1.01617  499.979
 4768.00    1.01568   1.02118  493.208
 4769.00    1.01492   1.02510   -1.000
 4770.00    1.01795   1.02779   -1.000
 4771.00    1.01588   1.02965   -1.000
 4772.00    1.01397   1.03143   -1.000
 4773.00    1.01452   1.03343   -1.000
 4774.00    1.01894   1.03542   -1.000
 4775.00    1.02275   1.03657   -1.000
 4776.00    1.02035   1.03631   -1.000
 4777.00    1.01516   1.03475   -1.000
 4778.00    1.01368   1.03246   -1.000
 4779.00    1.00965   1.03034   -1.000
 4780.00    1.01026   1.02897   -1.000
 4781.00    1.01338   1.02820   -1.000
 4782.00    1.01293   1.02730   -1.000
 4783.00    1.01416   1.02587   -1.000
 4784.00    1.01643   1.02413   -1.000
 4785.00    1.01563   1.02260   -1.000
 4786.00    1.01053   1.02187   -1.000
 4787.00    1.01357   1.02238   -1.000
 4788.00    1.01128   1.02425   -1.000
 4789.00    1.01784   1.02722   -1.000
 4790.00    1.02072   1.03096   -1.000
 4791.00    1.02427   1.03517   -1.000
 4792.00    1.01911   1.03938   -1.000
 4793.00    1.01887   1.04294   -1.000
 4794.00    1.02181   1.04508   -1.000
 4795.00    1.02054   1.04536   -1.000
 4796.00    1.01824   1.04386   -1.000
 4797.00    1.01726   1.04135   -1.000
 4798.00    1.01763   1.03896   -1.000
 4799.00    1.01746   1.03741   -1.000
 4800.00    1.01928   1.03674   -1.000
 4801.00    1.02136   1.03618   -1.000
 4802.00    1.02085   1.03502   -1.000
 4803.00    1.01808   1.03314   -1.000
 4804.00    1.01604   1.03119   -1.000
 4805.00    1.01405   1.03004   -1.000
 4806.00    1.01649   1.03016   -1.000
 4807.00    1.01999   1.03123   -1.000
 4808.00    1.01991   1.03245   -1.000
 4809.00    1.01999   1.03335   -1.000
 4810.00    1.01750   1.03398   -1.000
 4811.00    1.01889   1.03473   -1.000
 4812.00    1.02100   1.03616   -1.000
 4813.00    1.02158   1.03846   -1.000
 4814.00    1.02183   1.04125   -1.000
 4815.00    1.02089   1.04382   -1.000
 4816.00    1.01994   1.04560   -1.000
 4817.00    1.01999   1.04613   -1.000
 4818.00    1.02083   1.04511   -1.000
 4819.00    1.02006   1.04229   -1.000
 4820.00    1.02145   1.03760   -1.000
 4821.00    1.02045   1.03145   -1.000
 4822.00    1.01336   1.02502   -1.000
 4823.00    1.01124   1.01996   -1.000
 4824.00    1.01414   1.01760  480.139
 4825.00    1.01555   1.01814  479.903
 4826.00    1.01595   1.02028  471.856
 4827.00    1.01633   1.02221  464.449
 4828.00    1.01948   1.02286  465.754
 4829.00    1.01739   1.02202  471.086
 4830.00    1.01735   1.02028  474.222
 4831.00    1.01740   1.01815  474.296
 4832.00    1.01924   1.01618  478.369
 4833.00    1.01417   1.01475  479.465
 4834.00    1.01404   1.01372  472.345
 4835.00    1.01380   1.01267  465.936
 4836.00    1.00991   1.01123  463.900
 4837.00    1.00768   1.00913  464.508
 4838.00    1.01212   1.00635  466.639
 4839.00    1.00828   1.00310  472.742
 4840.00    1.00610   0.99985   -1.000
 4841.00    1.00194   0.99694  482.025
 4842.00    1.00661   0.99436   -1.000
 4843.00    1.00563   0.99160   -1.000
 4844.00    1.00436   0.98812   -1.000
 4845.00    0.99840   0.98355   -1.000
 4846.00    0.99780   0.97775   -1.000
 4847.00    0.98988   0.97087   -1.000
 4848.00    0.98430   0.96338   -1.000
 4849.00    0.98207   0.95554   -1.000
 4850.00    0.97780   0.94650   -1.000
 4851.00    0.97193   0.93466   -1.000
 4852.00    0.96643   0.91859   -1.000
 4853.00    0.95924   0.89769   -1.000
 4854.00    0.94788   0.87211   -1.000
 4855.00    0.93483   0.84231   -1.000
 4856.00    0.91462   0.80872   -1.000
 4857.00    0.88582   0.77171   -1.000
 4858.00    0.83782   0.73322   -1.000
 4859.00    0.75622   0.69771   -1.000
 4860.00    0.67808   0.67203   -1.000
 4861.00    0.66839   0.66297   -1.000
 4862.00    0.73431   0.67339   -1.000
 4863.00    0.81786   0.70096   -1.000
 4864.00    0.87489   0.73859   -1.000
 4865.00    0.90709   0.77896   -1.000
 4866.00    0.92705   0.81606   -1.000
 4867.00    0.94273   0.84651   -1.000
 4868.00    0.95304   0.86926   -1.000
 4869.00    0.95659   0.88515   -1.000
 4870.00    0.95596   0.89640   -1.000
 4871.00    0.95740   0.90552   -1.000
 4872.00    0.96261   0.91458   -1.000
 4873.00    0.97001   0.92451   -1.000
 4874.00    0.98371   0.93482   -1.000
 4875.00    0.98837   0.94489   -1.000
 4876.00    0.98752   0.95431   -1.000
 4877.00    0.98870   0.96320   -1.000
 4878.00    0.99136   0.97142   -1.000
 4879.00    0.99780   0.97819   -1.000
 4880.00    0.99999   0.98270   -1.000
 4881.00    1.00130   0.98475   -1.000
 4882.00    0.99972   0.98489   -1.000
 4883.00    1.00073   0.98420   -1.000
 4884.00    1.00269   0.98353   -1.000
 4885.00    1.00545   0.98313   -1.000
 4886.00    1.00611   0.98267   -1.000
 4887.00    1.00365   0.98183   -1.000
 4888.00    1.00112   0.98094   -1.000
 4889.00    0.99517   0.98096   -1.000
 4890.00    0.98429   0.98330  500.459
 4891.00    0.98641   0.98920  511.314
 4892.00    0.99822   0.99860  509.379
 4893.00    1.00953   1.00988  490.438
 4894.00    1.01691   1.02057  467.764
 4895.00    1.02064   1.02839   -1.000
 4896.00    1.02162   1.03260   -1.000
 4897.00    1.01647   1.03346   -1.000
 4898.00    1.01445   1.03199   -1.000
 4899.00    1.01788   1.02943   -1.000
 4900.00    1.01410   1.02717   -1.000
 4901.00    1.00978   1.02605   -1.000
 4902.00    1.01241   1.02632   -1.000
 4903.00    1.01492   1.02765   -1.000
 4904.00    1.01566   1.02949   -1.000
 4905.00    1.01923   1.03093   -1.000
 4906.00    1.01983   1.03068   -1.000
 4907.00    1.02037   1.02790   -1.000
 4908.00    1.01787   1.02315  456.930
 4909.00    1.01802   1.01796  467.330
 4910.00    1.01920   1.01436  480.716
 4911.00    1.01394   1.01359  487.690
 4912.00    1.01757   1.01558  482.542
 4913.00    1.02016   1.01850  473.960
 4914.00    1.01815   1.01980  467.232
 4915.00    1.02218   1.01731  461.121
 4916.00    1.02067   1.00999   -1.000
 4917.00    1.01493   0.99854   -1.000
 4918.00    1.00464   0.98524   -1.000
 4919.00    0.98904   0.97312   -1.000
 4920.00    0.98282   0.96476   -1.000
 4921.00    0.98933   0.96154   -1.000
 4922.00    0.99838   0.96342   -1.000
 4923.00    0.99947   0.96970   -1.000
 4924.00    1.00482   0.97935   -1.000
 4925.00    1.01301   0.99141   -1.000
 4926.00    1.01838   1.00401   -1.000
 4927.00    1.02430   1.01475   -1.000
 4928.00    1.02438   1.02207  460.791
 4929.00    1.02686   1.02510  456.042
 4930.00    1.02599   1.02396  452.805
 4931.00    1.01879   1.01964  450.033
 4932.00    1.01063   1.01374  453.660
 4933.00    1.00419   1.00803  465.192
 4934.00    1.00154   1.00389  481.761
 4935.00    1.00914   1.00168   -1.000
 4936.00    1.01460   1.00098   -1.000
 4937.00    1.01491   1.00138   -1.000
 4938.00    1.00783   1.00331  488.291
 4939.00    1.01070   1.00746  502.003
 4940.00    1.01466   1.01353  499.759
 4941.00    1.01702   1.02033  484.017
 4942.00    1.02633   1.02638  468.289
 4943.00    1.02488   1.03068  458.902
 4944.00    1.02556   1.03330   -1.000
 4945.00    1.02388   1.03480   -1.000
 4946.00    1.02249   1.03597   -1.000
 4947.00    1.02627   1.03714   -1.000
 4948.00    1.02666   1.03817   -1.000
 4949.00    1.02616   1.03854   -1.000
 4950.00    1.02475   1.03778   -1.000
 4951.00    1.02379   1.03553   -1.000
 4952.00    1.02569   1.03150  447.619
 4953.00    1.02646   1.02558  450.633
 4954.00    1.02168   1.01801  455.612
 4955.00    1.00813   1.00995  461.264
 4956.00    0.99391   1.00341   -1.000
 4957.00    0.98857   1.00074   -1.000
 4958.00    0.99737   1.00341  516.742
 4959.00    1.01168   1.01030  510.095
 4960.00    1.01945   1.01854  482.832
 4961.00    1.02649   1.02509  464.770
 4962.00    1.02955   1.02837  459.705
 4963.00    1.02390   1.02846  461.209
 4964.00    1.01959   1.02632   -1.000
 4965.00    1.02028   1.02333  470.034
 4966.00    1.02341   1.02068  479.506
 4967.00    1.02277   1.01924  486.271
 4968.00    1.02061   1.01926  487.144
 4969.00    1.02207   1.02068  485.882
 4970.00    1.02616   1.02327  482.551
 4971.00    1.02800   1.02652  477.567
 4972.00    1.02893   1.02977  472.436
 4973.00    1.02741   1.03225  466.853
 4974.00    1.02917   1.03334  462.296
 4975.00    1.02724   1.03258  460.102
 4976.00    1.02844   1.02984  462.676
 4977.00    1.02889   1.02510  467.372
 4978.00    1.02365   1.01836  473.558
 4979.00    1.02437   1.00991   -1.000
 4980.00    1.02170   1.00057   -1.000
 4981.00    1.00712   0.99172   -1.000
 4982.00    1.00334   0.98530   -1.000
 4983.00    1.00559   0.98296   -1.000
 4984.00    1.00794   0.98523   -1.000
 4985.00    1.01252   0.99107   -1.000
 4986.00    1.02005   0.99824   -1.000
 4987.00    1.02274   1.00442   -1.000
 4988.00    1.02161   1.00822   -1.000
 4989.00    1.01784   1.00945   -1.000
 4990.00    1.01205   1.00916  481.924
 4991.00    1.01389   1.00871  487.214
 4992.00    1.01755   1.00910   -1.000
 4993.00    1.01705   1.01044   -1.000
 4994.00    1.01742   1.01204  481.897
 4995.00    1.01908   1.01284  481.446
 4996.00    1.01836   1.01190  479.262
 4997.00    1.01782   1.00882   -1.000
 4998.00    1.01727   1.00398   -1.000
 4999.00    1.01557   0.99828   -1.000
 5000.00    1.01429   0.99288   -1.000
 5001.00    1.01444   0.98860   -1.000
 5002.00    1.01666   0.98556   -1.000
 5003.00    1.01668   0.98342   -1.000
 5004.00    1.01465   0.98189   -1.000
 5005.00    1.00844   0.98126   -1.000
 5006.00    1.00299   0.98200   -1.000
 5007.00    1.00294   0.98407   -1.000
 5008.00    1.01040   0.98627   -1.000
 5009.00    1.01748   0.98689   -1.000
 5010.00    1.01226   0.98481   -1.000
 5011.00    1.00523   0.98011   -1.000
 5012.00    0.99860   0.97404   -1.000
 5013.00    0.99777   0.96799   -1.000
 5014.00    1.00237   0.96299   -1.000
 5015.00    1.00603   0.95925   -1.000
 5016.00    1.00299   0.95673   -1.000
 5017.00    0.99654   0.95581   -1.000
 5018.00    0.99688   0.95723   -1.000
 5019.00    1.00254   0.96168   -1.000
 5020.00    1.01067   0.96863   -1.000
 5021.00    1.01264   0.97653   -1.000
 5022.00    1.01600   0.98399   -1.000
 5023.00    1.01712   0.99017   -1.000
 5024.00    1.02002   0.99486   -1.000
 5025.00    1.02233   0.99804   -1.000
 5026.00    1.01956   0.99982   -1.000
 5027.00    1.01902   1.00080   -1.000
 5028.00    1.01855   1.00176   -1.000
 5029.00    1.01952   1.00307   -1.000
 5030.00    1.01886   1.00471   -1.000
 5031.00    1.02245   1.00625   -1.000
 5032.00    1.02191   1.00695   -1.000
 5033.00    1.01668   1.00600   -1.000
 5034.00    1.01801   1.00288   -1.000
 5035.00    1.01188   0.99765   -1.000
 5036.00    1.01214   0.99095   -1.000
 5037.00    1.00866   0.98353   -1.000
 5038.00    1.00755   0.97652   -1.000
 5039.00    0.99790   0.97130   -1.000
 5040.00    0.98709   0.96961   -1.000
 5041.00    0.98827   0.97288   -1.000
 5042.00    0.99643   0.98090   -1.000
 5043.00    1.00490   0.99159   -1.000
 5044.00    1.05194   1.00185   -1.000
 5045.00    0.60070   1.00880   -1.000
 5046.00    0.11117   1.01112   -1.000
 5047.00   -0.03493   1.00897    0.000
 5048.00    0.38978   1.00388   -1.000
 5049.00    0.90564   0.99803   -1.000
 5050.00    0.99127   0.99373  449.192
 5051.00    1.00579   0.99244   -1.000
 5052.00    1.01638   0.99460   -1.000
 5053.00    1.02195   0.99978   -1.000
 5054.00    1.02366   1.00641   -1.000
 5055.00    1.02221   1.01280   -1.000
 5056.00    1.02082   1.01838  462.370
 5057.00    1.01961   1.02301  460.485
 5058.00    1.01936   1.02651   -1.000
 5059.00    1.01802   1.02851   -1.000
 5060.00    1.02081   1.02857   -1.000
 5061.00    1.02330   1.02648  459.112
 5062.00    1.02027   1.02246  458.864
 5063.00    1.01679   1.01718  464.221
 5064.00    1.01548   1.01168  476.759
 5065.00    1.01663   1.00707   -1.000
 5066.00    1.01771   1.00383   -1.000
 5067.00    1.01728   1.00190   -1.000
 5068.00    1.01791   1.00075   -1.000
 5069.00    1.02049   0.99990   -1.000
 5070.00    1.02380   0.99915   -1.000
 5071.00    1.02279   0.99850   -1.000
 5072.00    1.02603   0.99807   -1.000
 5073.00    1.02372   0.99796   -1.000
 5074.00    1.02428   0.99790   -1.000
 5075.00    1.02311   0.99720   -1.000
 5076.00    1.02098   0.99526   -1.000
 5077.00    1.01708   0.99202   -1.000
 5078.00    1.00903   0.98818   -1.000
 5079.00    1.00241   0.98498   -1.000
 5080.00    1.00308   0.98366   -1.000
 5081.00    1.00825   0.98483   -1.000
 5082.00    1.01220   0.98812   -1.000
 5083.00    1.01578   0.99279   -1.000
 5084.00    1.01912   0.99800   -1.000
 5085.00    1.02536   1.00318   -1.000
 5086.00    1.02970   1.00794   -1.000
 5087.00    1.02727   1.01216   -1.000
 5088.00    1.02429   1.01587   -1.000
 5089.00    1.02656   1.01902   -1.000
 5090.00    1.02892   1.02141   -1.000
 5091.00    1.02912   1.02270  470.192
 5092.00    1.03049   1.02248   -1.000
 5093.00    1.02982   1.02036   -1.000
 5094.00    1.02828   1.01615   -1.000
 5095.00    1.02540   1.01019   -1.000
 5096.00    1.02121   1.00359   -1.000
 5097.00    1.01744   0.99793   -1.000
 5098.00    1.01600   0.99459   -1.000
 5099.00    1.01978   0.99423   -1.000
 5100.00    1.02268   0.99633   -1.000
 5101.00    1.02976   0.99965   -1.000
 5102.00    1.03284   1.00265   -1.000
 5103.00    1.02987   1.00408   -1.000
 5104.00    1.02729   1.00356   -1.000
 5105.00    1.01915   1.00149   -1.000
 5106.00    1.01286   0.99888   -1.000
 5107.00    1.01079   0.99690   -1.000
 5108.00    1.00802   0.99647   -1.000
 5109.00    1.00821   0.99798   -1.000
 5110.00    1.01230   1.00124   -1.000
 5111.00    1.01849   1.00569   -1.000
 5112.00    1.02774   1.01057   -1.000
 5113.00    1.03040   1.01514   -1.000
 5114.00    1.02936   1.01897   -1.000
 5115.00    1.03225   1.02176   -1.000
 5116.00    1.03448   1.02333   -1.000
 5117.00    1.03528   1.02344   -1.000
 5118.00    1.03481   1.02184   -1.000
 5119.00    1.02947   1.01850   -1.000
 5120.00    1.02984   1.01366   -1.000
 5121.00    1.02755   1.00792   -1.000
 5122.00    1.02050   1.00202   -1.000
 5123.00    1.01380   0.99664   -1.000
 5124.00    1.01665   0.99225   -1.000
 5125.00    1.02108   0.98909   -1.000
 5126.00    1.01640   0.98712   -1.000
 5127.00    1.01364   0.98627   -1.000
 5128.00    1.01853   0.98653   -1.000
 5129.00    1.02077   0.98790   -1.000
 5130.00    1.02351   0.99017   -1.000
 5131.00    1.02243   0.99293   -1.000
 5132.00    1.02006   0.99557   -1.000
 5133.00    1.02532   0.99756   -1.000
 5134.00    1.02805   0.99846   -1.000
 5135.00    1.02597   0.99801   -1.000
 5136.00    1.02199   0.99623   -1.000
 5137.00    1.01528   0.99355   -1.000
 5138.00    1.00989   0.99073   -1.000
 5139.00    1.00807   0.98843   -1.000
 5140.00    1.01127   0.98706   -1.000
 5141.00    1.01699   0.98659   -1.000
 5142.00    1.01843   0.98670   -1.000
 5143.00    1.01680   0.98707   -1.000
 5144.00    1.01884   0.98746   -1.000
 5145.00    1.02510   0.98769   -1.000
 5146.00    1.02983   0.98769   -1.000
 5147.00    1.02936   0.98740   -1.000
 5148.00    1.02795   0.98681   -1.000
 5149.00    1.02242   0.98581   -1.000
 5150.00    1.01833   0.98444   -1.000
 5151.00    1.01332   0.98323   -1.000
 5152.00    1.01512   0.98307   -1.000
 5153.00    1.01745   0.98479   -1.000
 5154.00    1.02227   0.98877   -1.000
 5155.00    1.02645   0.99452   -1.000
 5156.00    1.03190   1.00081   -1.000
 5157.00    1.03983   1.00611   -1.000
 5158.00    1.03509   1.00925   -1.000
 5159.00    1.03427   1.00950   -1.000
 5160.00    1.03370   1.00643   -1.000
 5161.00    1.02952   0.99959   -1.000
 5162.00    1.02827   0.98849   -1.000
 5163.00    1.02790   0.97292   -1.000
 5164.00    1.01902   0.95363   -1.000
 5165.00    0.99342   0.93272   -1.000
 5166.00    0.96547   0.91341   -1.000
 5167.00    0.94694   0.89892   -1.000
 5168.00    0.95239   0.89086   -1.000
 5169.00    0.97252   0.88918   -1.000
 5170.00    0.97966   0.89261   -1.000
 5171.00    0.97088   0.90025   -1.000
 5172.00    0.96990   0.91218   -1.000
 5173.00    0.98794   0.92818   -1.000
 5174.00    1.01056   0.94687   -1.000
 5175.00    1.02598   0.96503   -1.000
 5176.00    1.03185   0.97890   -1.000
 5177.00    1.03488   0.98597   -1.000
 5178.00    1.03714   0.98504   -1.000
 5179.00    1.03582   0.97658   -1.000
 5180.00    1.03124   0.96257   -1.000
 5181.00    1.01600   0.94650   -1.000
 5182.00    0.99222   0.93280   -1.000
 5183.00    0.97778   0.92532   -1.000
 5184.00    0.98788   0.92594   -1.000
 5185.00    1.01050   0.93347   -1.000
 5186.00    1.02253   0.94442   -1.000
 5187.00    1.02399   0.95504   -1.000
 5188.00    1.02209   0.96282   -1.000
 5189.00    1.02089   0.96727   -1.000
 5190.00    1.01281   0.96903   -1.000
 5191.00    1.00430   0.96912   -1.000
 5192.00    1.00543   0.96869   -1.000
 5193.00    1.00702   0.96866   -1.000
 5194.00    1.01017   0.96949   -1.000
 5195.00    1.01737   0.97142   -1.000
 5196.00    1.02171   0.97448   -1.000
 5197.00    1.02495   0.97849   -1.000
 5198.00    1.02823   0.98282   -1.000
 5199.00    1.02690   0.98621   -1.000
 5200.00    1.02796   0.98723   -1.000
 5201.00    1.02338   0.98504   -1.000
 5202.00    1.01751   0.97974   -1.000
 5203.00    1.00794   0.97249   -1.000
 5204.00    1.00259   0.96502   -1.000
 5205.00    1.00268   0.95912   -1.000
 5206.00    1.00509   0.95605   -1.000
 5207.00    1.00457   0.95642   -1.000
 5208.00    1.00460   0.96014   -1.000
 5209.00    1.01275   0.96655   -1.000
 5210.00    1.02340   0.97446   -1.000
 5211.00    1.02782   0.98226   -1.000
 5212.00    1.03136   0.98842   -1.000
 5213.00    1.03296   0.99204   -1.000
 5214.00    1.02715   0.99343   -1.000
 5215.00    1.02255   0.99384   -1.000
 5216.00    1.02383   0.99483   -1.000
 5217.00    1.02515   0.99735   -1.000
 5218.00    1.03325   1.00105   -1.000
 5219.00    1.03888   1.00450   -1.000
 5220.00    1.03983   1.00578   -1.000
 5221.00    1.04189   1.00340   -1.000
 5222.00    1.03956   0.99677   -1.000
 5223.00    1.03332   0.98667   -1.000
 5224.00    1.02176   0.97520   -1.000
 5225.00    1.00344   0.96526   -1.000
 5226.00    0.99072   0.95949   -1.000
 5227.00    0.99627   0.95902   -1.000
 5228.00    1.01372   0.96269   -1.000
 5229.00    1.02737   0.96788   -1.000
 5230.00    1.03315   0.97188   -1.000
 5231.00    1.02630   0.97357   -1.000
 5232.00    1.01917   0.97368   -1.000
 5233.00    1.02261   0.97404   -1.000
 5234.00    1.02613   0.97633   -1.000
 5235.00    1.03017   0.98115   -1.000
 5236.00    1.03556   0.98782   -1.000
 5237.00    1.03924   0.99497   -1.000
 5238.00    1.04079   1.00143   -1.000
 5239.00    1.04118   1.00654   -1.000
 5240.00    1.04029   1.01021   -1.000
 5241.00    1.04121   1.01251   -1.000
 5242.00    1.03940   1.01345   -1.000
 5243.00    1.04038   1.01294   -1.000
 5244.00    1.03766   1.01090   -1.000
 5245.00    1.03590   1.00745   -1.000
 5246.00    1.03283   1.00309   -1.000
 5247.00    1.03038   0.99868   -1.000
 5248.00    1.02760   0.99503   -1.000
 5249.00    1.02597   0.99265   -1.000
 5250.00    1.02335   0.99161   -1.000
 5251.00    1.02699   0.99176   -1.000
 5252.00    1.03164   0.99288   -1.000
 5253.00    1.03343   0.99480   -1.000
 5254.00    1.03324   0.99740   -1.000
 5255.00    1.03090   1.00034   -1.000
 5256.00    1.03247   1.00281   -1.000
 5257.00    1.03994   1.00345   -1.000
 5258.00    1.03977   1.00088   -1.000
 5259.00    1.03621   0.99434   -1.000
 5260.00    1.03392   0.98417   -1.000
 5261.00    1.02505   0.97171   -1.000
 5262.00    1.01613   0.95892   -1.000
 5263.00    1.01300   0.94774   -1.000
 5264.00    1.01090   0.93932   -1.000
 5265.00    1.00697   0.93395   -1.000
 5266.00    1.00761   0.93114   -1.000
 5267.00    1.00735   0.93026   -1.000
 5268.00    0.99365   0.93101   -1.000
 5269.00    0.98065   0.93356   -1.000
 5270.00    0.98791   0.93804   -1.000
 5271.00    1.00778   0.94407   -1.000
 5272.00    1.02292   0.95077   -1.000
 5273.00    1.02654   0.95736   -1.000
 5274.00    1.02622   0.96380   -1.000
 5275.00    1.02906   0.97036   -1.000
 5276.00    1.03504   0.97703   -1.000
 5277.00    1.04082   0.98304   -1.000
 5278.00    1.04235   0.98717   -1.000
 5279.00    1.04092   0.98866   -1.000
 5280.00    1.03738   0.98788   -1.000
 5281.00    1.03136   0.98633   -1.000
 5282.00    1.02617   0.98596   -1.000
 5283.00    1.01943   0.98819   -1.000
 5284.00    0.99774   0.99339  483.283
 5285.00    1.02398   1.00075   -1.000
 5286.00    1.03949   1.00870   -1.000
 5287.00    1.04033   1.01572   -1.000
 5288.00    1.04183   1.02081   -1.000
 5289.00    1.04228   1.02371   -1.000
 5290.00    1.04191   1.02450   -1.000
 5291.00    1.03949   1.02333   -1.000
 5292.00    1.03953   1.02031   -1.000
 5293.00    1.04012   1.01567   -1.000
 5294.00    1.03827   1.00980   -1.000
 5295.00    1.03763   1.00352   -1.000
 5296.00    1.03355   0.99788   -1.000
 5297.00    1.03064   0.99395   -1.000
 5298.00    1.03525   0.99241   -1.000
 5299.00    1.03798   0.99329   -1.000
 5300.00    1.03349   0.99602   -1.000
 5301.00    1.03027   0.99980   -1.000
 5302.00    1.03410   1.00380   -1.000
 5303.00    1.03833   1.00741   -1.000
 5304.00    1.04169   1.01026   -1.000
 5305.00    1.03886   1.01223   -1.000
 5306.00    1.03598   1.01360   -1.000
 5307.00    1.03711   1.01476   -1.000
 5308.00    1.03828   1.01584   -1.000
 5309.00    1.04039   1.01658   -1.000
 5310.00    1.04064   1.01628   -1.000
 5311.00    1.04219   1.01428   -1.000
 5312.00    1.04220   1.01035   -1.000
 5313.00    1.03977   1.00501   -1.000
 5314.00    1.03784   0.99946   -1.000
 5315.00    1.03343   0.99520   -1.000
 5316.00    1.03077   0.99340   -1.000
 5317.00    1.03202   0.99425   -1.000
 5318.00    1.03512   0.99674   -1.000
 5319.00    1.03832   0.99903   -1.000
 5320.00    1.03788   0.99931   -1.000
 5321.00    1.03531   0.99659   -1.000
 5322.00    1.02937   0.99092   -1.000
 5323.00    1.02856   0.98312   -1.000
 5324.00    1.02710   0.97444   -1.000
 5325.00    1.02076   0.96629   -1.000
 5326.00    1.00660   0.96015   -1.000
 5327.00    0.99564   0.95737   -1.000
 5328.00    0.99243   0.95874   -1.000
 5329.00    1.00896   0.96404   -1.000
 5330.00    1.02912   0.97181   -1.000
 5331.00    1.03485   0.97992   -1.000
 5332.00    1.03661   0.98652   -1.000
 5333.00    1.03774   0.99063   -1.000
 5334.00    1.03560   0.99220   -1.000
 5335.00    1.03263   0.99173   -1.000
 5336.00    1.03081   0.98992   -1.000
 5337.00    1.03439   0.98759   -1.000
 5338.00    1.03302   0.98556   -1.000
 5339.00    1.02702   0.98462   -1.000
 5340.00    1.02268   0.98519   -1.000
 5341.00    1.02472   0.98715   -1.000
 5342.00    1.03163   0.98977   -1.000
 5343.00    1.03584   0.99207   -1.000
 5344.00    1.03426   0.99334   -1.000
 5345.00    1.03388   0.99355   -1.000
 5346.00    1.03681   0.99331   -1.000
 5347.00    1.03849   0.99343   -1.000
 5348.00    1.03821   0.99453   -1.000
 5349.00    1.03998   0.99684   -1.000
 5350.00    1.04180   1.00015   -1.000
 5351.00    1.04350   1.00408   -1.000
 5352.00    1.04437   1.00818   -1.000
 5353.00    1.04306   1.01208   -1.000
 5354.00    1.04552   1.01549   -1.000
 5355.00    1.04913   1.01808   -1.000
 5356.00    1.04760   1.01942   -1.000
 5357.00    1.04450   1.01905   -1.000
 5358.00    1.04494   1.01669   -1.000
 5359.00    1.04416   1.01238   -1.000
 5360.00    1.04410   1.00664   -1.000
 5361.00    1.04276   1.00032   -1.000
 5362.00    1.04139   0.99445   -1.000
 5363.00    1.03757   0.98974   -1.000
 5364.00    1.03583   0.98633   -1.000
 5365.00    1.03765   0.98375   -1.000
 5366.00    1.03800   0.98127   -1.000
 5367.00    1.03964   0.97841   -1.000
 5368.00    1.03544   0.97539   -1.000
 5369.00    1.02623   0.97315   -1.000
 5370.00    1.01775   0.97298   -1.000
 5371.00    1.01330   0.97576   -1.000
 5372.00    1.02525   0.98146   -1.000
 5373.00    1.03895   0.98890   -1.000
 5374.00    1.04165   0.99629   -1.000
 5375.00    1.04474   1.00195   -1.000
 5376.00    1.04691   1.00488   -1.000
 5377.00    1.04742   1.00503   -1.000
 5378.00    1.04335   1.00309   -1.000
 5379.00    1.04117   1.00016   -1.000
 5380.00    1.03947   0.99741   -1.000
 5381.00    1.03819   0.99577   -1.000
 5382.00    1.03667   0.99571   -1.000
 5383.00    1.03475   0.99714   -1.000
 5384.00    1.04022   0.99943   -1.000
 5385.00    1.04745   1.00166   -1.000
 5386.00    1.04767   1.00291   -1.000
 5387.00    1.04897   1.00264   -1.000
 5388.00    1.04951   1.00076   -1.000
 5389.00    1.04656   0.99759   -1.000
 5390.00    1.04377   0.99366   -1.000
 5391.00    1.04133   0.98940   -1.000
 5392.00    1.03764   0.98511   -1.000
 5393.00    1.03546   0.98096   -1.000
 5394.00    1.03548   0.97723   -1.000
 5395.00    1.02654   0.97435   -1.000
 5396.00    1.01799   0.97282   -1.000
 5397.00    1.02310   0.97289   -1.000
 5398.00    1.03097   0.97420   -1.000
 5399.00    1.03641   0.97577   -1.000
 5400.00    1.04030   0.97633   -1.000
 5401.00    1.04286   0.97500   -1.000
 5402.00    1.04042   0.97175   -1.000
 5403.00    1.03162   0.96744   -1.000
 5404.00    1.02004   0.96334   -1.000
 5405.00    1.01592   0.96054   -1.000
 5406.00    1.02310   0.95948   -1.000
 5407.00    1.03119   0.95993   -1.000
 5408.00    1.03044   0.96137   -1.000
 5409.00    1.03188   0.96342   -1.000
 5410.00    1.03523   0.96589   -1.000
 5411.00    1.03853   0.96879   -1.000
 5412.00    1.03995   0.97210   -1.000
 5413.00    1.04152   0.97575   -1.000
 5414.00    1.03567   0.97962   -1.000
 5415.00    1.03230   0.98345   -1.000
 5416.00    1.03417   0.98688   -1.000
 5417.00    1.03266   0.98948   -1.000
 5418.00    1.03414   0.99091   -1.000
 5419.00    1.04015   0.99108   -1.000
 5420.00    1.03923   0.99018   -1.000
 5421.00    1.03813   0.98867   -1.000
 5422.00    1.03192   0.98711   -1.000
 5423.00    1.03038   0.98600   -1.000
 5424.00    1.04111   0.98547   -1.000
 5425.00    1.03959   0.98522   -1.000
 5426.00    1.03604   0.98466   -1.000
 5427.00    1.03310   0.98333   -1.000
 5428.00    1.02394   0.98123   -1.000
 5429.00    1.01796   0.97881   -1.000
 5430.00    1.02250   0.97672   -1.000
 5431.00    1.02807   0.97549   -1.000
 5432.00    1.02900   0.97554   -1.000
 5433.00    1.02515   0.97717   -1.000
 5434.00    1.01943   0.98061   -1.000
 5435.00    1.02367   0.98576   -1.000
 5436.00    1.03450   0.99204   -1.000
 5437.00    1.04181   0.99843   -1.000
 5438.00    1.04471   1.00377   -1.000
 5439.00    1.04392   1.00708   -1.000
 5440.00    1.04298   1.00779   -1.000
 5441.00    1.04132   1.00575   -1.000
 5442.00    1.03816   1.00128   -1.000
 5443.00    1.03522   0.99524   -1.000
 5444.00    1.03065   0.98898   -1.000
 5445.00    1.02399   0.98413   -1.000
 5446.00    1.01954   0.98196   -1.000
 5447.00    1.02293   0.98287   -1.000
 5448.00    1.02975   0.98609   -1.000
 5449.00    1.03645   0.99000   -1.000
 5450.00    1.03837   0.99284   -1.000
 5451.00    1.03910   0.99348   -1.000
 5452.00    1.03619   0.99190   -1.000
 5453.00    1.02863   0.98916   -1.000
 5454.00    1.01997   0.98688   -1.000
 5455.00    1.01524   0.98636   -1.000
 5456.00    1.02036   0.98799   -1.000
 5457.00    1.03078   0.99100   -1.000
 5458.00    1.03826   0.99395   -1.000
 5459.00    1.03805   0.99560   -1.000
 5460.00    1.03595   0.99550   -1.000
 5461.00    1.03618   0.99416   -1.000
 5462.00    1.03290   0.99260   -1.000
 5463.00    1.03314   0.99182   -1.000
 5464.00    1.03555   0.99225   -1.000
 5465.00    1.03644   0.99373   -1.000
 5466.00    1.04055   0.99565   -1.000
 5467.00    1.04124   0.99733   -1.000
 5468.00    1.04160   0.99819   -1.000
 5469.00    1.04216   0.99788   -1.000
 5470.00    1.04049   0.99618   -1.000
 5471.00    1.04068   0.99312   -1.000
 5472.00    1.03941   0.98889   -1.000
 5473.00    1.03719   0.98399   -1.000
 5474.00    1.03405   0.97923   -1.000
 5475.00    1.02704   0.97557   -1.000
 5476.00    1.02190   0.97383   -1.000
 5477.00    1.02322   0.97430   -1.000
 5478.00    1.02727   0.97664   -1.000
 5479.00    1.03459   0.98008   -1.000
 5480.00    1.03871   0.98380   -1.000
 5481.00    1.03570   0.98730   -1.000
 5482.00    1.03525   0.99035   -1.000
 5483.00    1.03532   0.99280   -1.000
 5484.00    1.03517   0.99447   -1.000
 5485.00    1.03547   0.99528   -1.000
 5486.00    1.03361   0.99539   -1.000
 5487.00    1.03373   0.99515   -1.000
 5488.00    1.03194   0.99500   -1.000
 5489.00    1.03143   0.99519   -1.000
 5490.00    1.03215   0.99571   -1.000
 5491.00    1.03315   0.99636   -1.000
 5492.00    1.03292   0.99686   -1.000
 5493.00    1.03363   0.99697   -1.000
 5494.00    1.03406   0.99655   -1.000
 5495.00    1.02866   0.99562   -1.000
 5496.00    1.02310   0.99430   -1.000
 5497.00    1.02206   0.99274   -1.000
 5498.00    1.02369   0.99106   -1.000
 5499.00    1.02627   0.98925   -1.000
 5500.00    1.02402   0.98731   -1.000
 5501.00    1.02558   0.98532   -1.000
 5502.00    1.03104   0.98341   -1.000
 5503.00    1.03349   0.98172   -1.000
 5504.00    1.03268   0.98033   -1.000
 5505.00    1.02601   0.97934   -1.000
 5506.00    1.01846   0.97888   -1.000
 5507.00    1.02100   0.97896   -1.000
 5508.00    1.02552   0.97942   -1.000
 5509.00    1.03257   0.97997   -1.000
 5510.00    1.03561   0.98046   -1.000
 5511.00    1.03309   0.98102   -1.000
 5512.00    1.03258   0.98204   -1.000
 5513.00    1.03314   0.98390   -1.000
 5514.00    1.03412   0.98677   -1.000
 5515.00    1.03736   0.99044   -1.000
 5516.00    1.03716   0.99445   -1.000
 5517.00    1.03463   0.99818   -1.000
 5518.00    1.03771   1.00106   -1.000
 5519.00    1.03996   1.00263   -1.000
 5520.00    1.03697   1.00257   -1.000
 5521.00    1.03502   1.00075   -1.000
 5522.00    1.03604   0.99717   -1.000
 5523.00    1.03644   0.99206   -1.000
 5524.00    1.03464   0.98596   -1.000
 5525.00    1.02908   0.97985   -1.000
 5526.00    1.02019   0.97497   -1.000
 5527.00    1.01639   0.97238   -1.000
 5528.00    1.01915   0.97248   -1.000
 5529.00    1.02394   0.97473   -1.000
 5530.00    1.03098   0.97796   -1.000
 5531.00    1.03378   0.98086   -1.000
 5532.00    1.03029   0.98276   -1.000
 5533.00    1.02886   0.98381   -1.000
 5534.00    1.02764   0.98470   -1.000
 5535.00    1.03136   0.98610   -1.000
 5536.00    1.03265   0.98827   -1.000
 5537.00    1.03264   0.99092   -1.000
 5538.00    1.03460   0.99347   -1.000
 5539.00    1.03534   0.99537   -1.000
 5540.00    1.03652   0.99632   -1.000
 5541.00    1.03586   0.99635   -1.000
 5542.00    1.03385   0.99578   -1.000
 5543.00    1.03648   0.99517   -1.000
 5544.00    1.03528   0.99504   -1.000
 5545.00    1.03294   0.99566   -1.000
 5546.00    1.03242   0.99699   -1.000
 5547.00    1.03342   0.99872   -1.000
 5548.00    1.03604   1.00041   -1.000
 5549.00    1.03475   1.00168   -1.000
 5550.00    1.03445   1.00232   -1.000
 5551.00    1.03652   1.00230   -1.000
 5552.00    1.03534   1.00186   -1.000
 5553.00    1.03062   1.00128   -1.000
 5554.00    1.02992   1.00086   -1.000
 5555.00    1.03127   1.00071   -1.000
 5556.00    1.03176   1.00073   -1.000
 5557.00    1.03274   1.00063   -1.000
 5558.00    1.03213   1.00015   -1.000
 5559.00    1.03374   0.99914   -1.000
 5560.00    1.03541   0.99761   -1.000
 5561.00    1.03049   0.99576   -1.000
 5562.00    1.02861   0.99381   -1.000
 5563.00    1.03106   0.99198   -1.000
 5564.00    1.02972   0.99035   -1.000
 5565.00    1.02890   0.98886   -1.000
 5566.00    1.03009   0.98740   -1.000
 5567.00    1.02972   0.98591   -1.000
 5568.00    1.02716   0.98441   -1.000
 5569.00    1.02519   0.98304   -1.000
 5570.00    1.02298   0.98203   -1.000
 5571.00    1.01850   0.98157   -1.000
 5572.00    1.01870   0.98183   -1.000
 5573.00    1.02350   0.98280   -1.000
 5574.00    1.02551   0.98437   -1.000
 5575.00    1.02645   0.98626   -1.000
 5576.00    1.03767   0.98820   -1.000
 5577.00    1.06652   0.98997   -1.000
 5578.00    1.11206   0.99132   -1.000
 5579.00    1.11608   0.99202   -1.000
 5580.00    1.01325   0.99184   -1.000
 5581.00    0.91938   0.99055   -1.000
 5582.00    0.93749   0.98797   -1.000
 5583.00    0.99097   0.98396   -1.000
 5584.00    1.01481   0.97865   -1.000
 5585.00    1.01729   0.97263   -1.000
 5586.00    1.01252   0.96689   -1.000
 5587.00    1.00769   0.96262   -1.000
 5588.00    1.00694   0.96064   -1.000
 5589.00    1.01305   0.96100   -1.000
 5590.00    1.02054   0.96316   -1.000
 5591.00    1.02567   0.96624   -1.000
 5592.00    1.02293   0.96945   -1.000
 5593.00    1.01797   0.97227   -1.000
 5594.00    1.01870   0.97448   -1.000
 5595.00    1.01995   0.97589   -1.000
 5596.00    1.02004   0.97639   -1.000
 5597.00    1.01941   0.97597   -1.000
 5598.00    1.01798   0.97493   -1.000
 5599.00    1.02037   0.97389   -1.000
 5600.00    1.01995   0.97362   -1.000
 5601.00    1.01782   0.97477   -1.000
 5602.00    1.01702   0.97779   -1.000
 5603.00    1.01777   0.98266   -1.000
 5604.00    1.02068   0.98869   -1.000
 5605.00    1.02293   0.99490   -1.000
 5606.00    1.02379   1.00025   -1.000
 5607.00    1.02574   1.00408   -1.000
 5608.00    1.02675   1.00609   -1.000
 5609.00    1.02596   1.00615   -1.000
 5610.00    1.02457   1.00425   -1.000
 5611.00    1.02485   1.00053   -1.000
 5612.00    1.02547   0.99542   -1.000
 5613.00    1.01755   0.98982   -1.000
 5614.00    1.00891   0.98501   -1.000
 5615.00    1.00853   0.98218   -1.000
 5616.00    1.01202   0.98189   -1.000
 5617.00    1.01940   0.98378   -1.000
 5618.00    1.02477   0.98668   -1.000
 5619.00    1.02300   0.98937   -1.000
 5620.00    1.02100   0.99103   -1.000
 5621.00    1.02293   0.99142   -1.000
 5622.00    1.02116   0.99081   -1.000
 5623.00    1.02004   0.98989   -1.000
 5624.00    1.02064   0.98944   -1.000
 5625.00    1.01867   0.99010   -1.000
 5626.00    1.01889   0.99194   -1.000
 5627.00    1.02136   0.99453   -1.000
 5628.00    1.02342   0.99714   -1.000
 5629.00    1.02392   0.99905   -1.000
 5630.00    1.02208   0.99982   -1.000
 5631.00    1.02425   0.99938   -1.000
 5632.00    1.02372   0.99793   -1.000
 5633.00    1.02037   0.99587   -1.000
 5634.00    1.02047   0.99363   -1.000
 5635.00    1.02063   0.99146   -1.000
 5636.00    1.01927   0.98950   -1.000
 5637.00    1.02005   0.98781   -1.000
 5638.00    1.01638   0.98647   -1.000
 5639.00    1.01578   0.98559   -1.000
 5640.00    1.01754   0.98526   -1.000
 5641.00    1.01653   0.98554   -1.000
 5642.00    1.01626   0.98642   -1.000
 5643.00    1.01540   0.98767   -1.000
 5644.00    1.01719   0.98898   -1.000
 5645.00    1.01930   0.99015   -1.000
 5646.00    1.02022   0.99100   -1.000
 5647.00    1.01994   0.99143   -1.000
 5648.00    1.01788   0.99142   -1.000
 5649.00    1.01758   0.99097   -1.000
 5650.00    1.01713   0.99003   -1.000
 5651.00    1.01707   0.98845   -1.000
 5652.00    1.01584   0.98596   -1.000
 5653.00    1.01491   0.98237   -1.000
 5654.00    1.01521   0.97778   -1.000
 5655.00    1.01329   0.97267   -1.000
 5656.00    1.00902   0.96791   -1.000
 5657.00    1.00351   0.96438   -1.000
 5658.00    1.00137   0.96280   -1.000
 5659.00    1.00389   0.96333   -1.000
 5660.00    1.01011   0.96548   -1.000
 5661.00    1.01473   0.96847   -1.000
 5662.00    1.01386   0.97167   -1.000
 5663.00    1.01248   0.97465   -1.000
 5664.00    1.01451   0.97714   -1.000
 5665.00    1.01647   0.97900   -1.000
 5666.00    1.01357   0.98029   -1.000
 5667.00    1.00957   0.98141   -1.000
 5668.00    1.00718   0.98280   -1.000
 5669.00    1.00919   0.98469   -1.000
 5670.00    1.01164   0.98698   -1.000
 5671.00    1.01407   0.98933   -1.000
 5672.00    1.01318   0.99135   -1.000
 5673.00    1.01106   0.99274   -1.000
 5674.00    1.01125   0.99340   -1.000
 5675.00    1.01129   0.99331   -1.000
 5676.00    1.00995   0.99251   -1.000
 5677.00    1.00998   0.99099   -1.000
 5678.00    1.01330   0.98871   -1.000
 5679.00    1.01114   0.98575   -1.000
 5680.00    1.00897   0.98235   -1.000
 5681.00    1.00621   0.97892   -1.000
 5682.00    1.00357   0.97595   -1.000
 5683.00    1.00260   0.97385   -1.000
 5684.00    1.00257   0.97277   -1.000
 5685.00    1.00297   0.97267   -1.000
 5686.00    1.00290   0.97332   -1.000
 5687.00    1.00184   0.97459   -1.000
 5688.00    1.00209   0.97647   -1.000
 5689.00    1.00361   0.97889   -1.000
 5690.00    1.00411   0.98165   -1.000
 5691.00    1.00213   0.98435   -1.000
 5692.00    1.00322   0.98666   -1.000
 5693.00    1.00323   0.98831   -1.000
 5694.00    1.00305   0.98911   -1.000
 5695.00    1.00141   0.98899   -1.000
 5696.00    1.00200   0.98795   -1.000
 5697.00    1.00436   0.98617   -1.000
 5698.00    1.00266   0.98393   -1.000
 5699.00    0.99800   0.98156   -1.000
 5700.00    0.99673   0.97936   -1.000
 5701.00    0.99762   0.97743   -1.000
 5702.00    0.99849   0.97570   -1.000
 5703.00    0.99973   0.97384   -1.000
 5704.00    0.99991   0.97154   -1.000
 5705.00    0.99958   0.96866   -1.000
 5706.00    0.99631   0.96547   -1.000
 5707.00    0.99188   0.96253   -1.000
 5708.00    0.99049   0.96054   -1.000
 5709.00    0.99278   0.96011   -1.000
 5710.00    0.99469   0.96159   -1.000
 5711.00    0.99501   0.96486   -1.000
 5712.00    0.99815   0.96934   -1.000
 5713.00    0.99990   0.97429   -1.000
 5714.00    0.99959   0.97895   -1.000
 5715.00    1.00088   0.98292   -1.000
 5716.00    1.00052   0.98614   -1.000
 5717.00    1.00040   0.98877   -1.000
 5718.00    1.00068   0.99095   -1.000
 5719.00    0.99885   0.99276  455.383
 5720.00    0.99769   0.99419  452.564
 5721.00    0.99434   0.99512  450.243
 5722.00    0.99476   0.99544  448.962
 5723.00    0.99627   0.99515  448.214
 5724.00    0.99709   0.99431  447.649
 5725.00    0.99644   0.99313  448.355
 5726.00    0.99549   0.99185  451.580
 5727.00    0.99530   0.99078  456.239
 5728.00    0.99430   0.99011  460.175
 5729.00    0.99354   0.98988  459.059
 5730.00    0.99253   0.99007  456.153
 5731.00    0.99548   0.99058  456.497
 5732.00    0.99746   0.99141  458.731
 5733.00    0.99765   0.99248  457.969
 5734.00    0.99612   0.99359  453.970
 5735.00    0.99460   0.99453  450.659
 5736.00    0.99578   0.99512  450.374
 5737.00    0.99530   0.99533  450.986
 5738.00    0.99288   0.99521  452.157
 5739.00    0.99080   0.99491  452.762
 5740.00    0.99138   0.99456  453.559
 5741.00    0.99558   0.99424  454.336
 5742.00    0.99445   0.99397  455.271
 5743.00    0.99317   0.99374  454.694
 5744.00    0.99172   0.99346  454.035
 5745.00    0.98984   0.99306  451.387
 5746.00    0.99150   0.99243  448.634
 5747.00    0.99041   0.99157  449.992
 5748.00    0.98900   0.99046  454.194
 5749.00    0.98994   0.98909  456.640
 5750.00    0.99198   0.98748  454.869
 5751.00    0.99425   0.98581   -1.000
 5752.00    0.99508   0.98457   -1.000
 5753.00    0.99159   0.98428   -1.000
 5754.00    0.98641   0.98509  465.682
 5755.00    0.98714   0.98673  466.666
 5756.00    0.99034   0.98849  461.910
 5757.00    0.99225   0.98971  453.748
 5758.00    0.99317   0.99003  447.587
 5759.00    0.99271   0.98956  447.490
 5760.00    0.99273   0.98878  451.880
 5761.00    0.99020   0.98829  457.725
 5762.00    0.98966   0.98856  463.956
 5763.00    0.99157   0.98976  467.245
 5764.00    0.98888   0.99159  463.807
 5765.00    0.98945   0.99349  456.036
 5766.00    0.99040   0.99489  449.758
 5767.00    0.98912   0.99547  447.476
 5768.00    0.98657   0.99521   -1.000
 5769.00    0.98344   0.99421   -1.000
 5770.00    0.98533   0.99265   -1.000
 5771.00    0.98858   0.99078  448.165
 5772.00    0.98720   0.98883  450.433
 5773.00    0.98361   0.98693  453.200
 5774.00    0.98205   0.98509  454.747
 5775.00    0.98235   0.98310  455.382
 5776.00    0.98515   0.98074  454.785
 5777.00    0.98514   0.97789   -1.000
 5778.00    0.98135   0.97464   -1.000
 5779.00    0.97879   0.97145   -1.000
 5780.00    0.97717   0.96900   -1.000
 5781.00    0.97122   0.96779  467.933
 5782.00    0.96990   0.96798  475.279
 5783.00    0.97561   0.96934   -1.000
 5784.00    0.98146   0.97149   -1.000
 5785.00    0.98334   0.97400   -1.000
 5786.00    0.98445   0.97650   -1.000
 5787.00    0.98721   0.97877   -1.000
 5788.00    0.98909   0.98056   -1.000
 5789.00    0.98763   0.98183  456.036
 5790.00    0.98638   0.98280  455.627
 5791.00    0.98405   0.98368  457.433
 5792.00    0.98338   0.98465  457.483
 5793.00    0.98380   0.98563  454.368
 5794.00    0.98569   0.98651  451.001
 5795.00    0.98771   0.98719  448.221
 5796.00    0.98565   0.98773  447.310
 5797.00    0.98127   0.98825   -1.000
 5798.00    0.97811   0.98887   -1.000
 5799.00    0.97949   0.98962   -1.000
 5800.00    0.98492   0.99026  446.346
 5801.00    0.98830   0.99064  440.210
 5802.00    0.98721   0.99071  437.888
 5803.00    0.98878   0.99055  440.536
 5804.00    0.99019   0.99035  444.190
 5805.00    0.98921   0.99033  447.753
 5806.00    0.98929   0.99061  450.190
 5807.00    0.98923   0.99114  449.879
 5808.00    0.98843   0.99173  448.250
 5809.00    0.98869   0.99224  446.812
 5810.00    0.99088   0.99254  446.465
 5811.00    0.99081   0.99257  446.185
 5812.00    0.98999   0.99238  444.799
 5813.00    0.99099   0.99214  443.353
 5814.00    0.99005   0.99207  443.686
 5815.00    0.98861   0.99236  446.734
 5816.00    0.98867   0.99308  449.325
 5817.00    0.99039   0.99423  448.089
 5818.00    0.99028   0.99566  445.058
 5819.00    0.98738   0.99709   -1.000
 5820.00    0.98687   0.99834   -1.000
 5821.00    0.99091   0.99933   -1.000
 5822.00    0.99176   1.00006   -1.000
 5823.00    0.99001   1.00059   -1.000
 5824.00    0.99114   1.00097   -1.000
 5825.00    0.99105   1.00120   -1.000
 5826.00    0.99044   1.00131   -1.000
 5827.00    0.99116   1.00131   -1.000
 5828.00    0.99041   1.00120   -1.000
 5829.00    0.98913   1.00096   -1.000
 5830.00    0.99059   1.00059   -1.000
 5831.00    0.98940   1.00016   -1.000
 5832.00    0.99049   0.99972   -1.000
 5833.00    0.99428   0.99933  438.135
 5834.00    0.99306   0.99908  440.604
 5835.00    0.99029   0.99903   -1.000
 5836.00    0.98986   0.99917   -1.000
 5837.00    0.98764   0.99938   -1.000
 5838.00    0.98857   0.99946   -1.000
 5839.00    0.98983   0.99932   -1.000
 5840.00    0.98899   0.99891   -1.000
 5841.00    0.98773   0.99819   -1.000
 5842.00    0.98682   0.99713   -1.000
 5843.00    0.98707   0.99582   -1.000
 5844.00    0.98862   0.99437  436.387
 5845.00    0.98751   0.99288  438.062
 5846.00    0.98635   0.99140  440.681
 5847.00    0.98600   0.98993  443.124
 5848.00    0.98639   0.98832  445.288
 5849.00    0.98634   0.98635  445.508
 5850.00    0.98303   0.98386  445.802
 5851.00    0.97904   0.98093  447.931
 5852.00    0.97725   0.97773  450.735
 5853.00    0.97665   0.97457  454.767
 5854.00    0.97923   0.97177   -1.000
 5855.00    0.98060   0.96959   -1.000
 5856.00    0.97998   0.96819   -1.000
 5857.00    0.97978   0.96780   -1.000
 5858.00    0.98200   0.96873   -1.000
 5859.00    0.98362   0.97084   -1.000
 5860.00    0.98193   0.97350   -1.000
 5861.00    0.98074   0.97612  456.308
 5862.00    0.97981   0.97826  454.286
 5863.00    0.98162   0.97976  452.536
 5864.00    0.98431   0.98070  451.538
 5865.00    0.98469   0.98117  452.335
 5866.00    0.98409   0.98151  453.893
 5867.00    0.98416   0.98199  455.959
 5868.00    0.98492   0.98257  456.249
 5869.00    0.98323   0.98305  452.835
 5870.00    0.98209   0.98306  448.760
 5871.00    0.98233   0.98234  446.351
 5872.00    0.98304   0.98091  445.831
 5873.00    0.98248   0.97903  446.752
 5874.00    0.98486   0.97708   -1.000
 5875.00    0.98582   0.97538   -1.000
 5876.00    0.98252   0.97409   -1.000
 5877.00    0.98048   0.97311   -1.000
 5878.00    0.97849   0.97206  450.256
 5879.00    0.97503   0.97059  452.960
 5880.00    0.97298   0.96838  456.183
 5881.00    0.97280   0.96512   -1.000
 5882.00    0.96953   0.96038   -1.000
 5883.00    0.96777   0.95365   -1.000
 5884.00    0.96585   0.94446   -1.000
 5885.00    0.96066   0.93273   -1.000
 5886.00    0.95410   0.91893   -1.000
 5887.00    0.93817   0.90417   -1.000
 5888.00    0.90865   0.89047   -1.000
 5889.00    0.86883   0.88014   -1.000
 5890.00    0.83161   0.87473   -1.000
 5891.00    0.82435   0.87410   -1.000
 5892.00    0.83870   0.87598   -1.000
 5893.00    0.85036   0.87855   -1.000
 5894.00    0.85264   0.88165   -1.000
 5895.00    0.85584   0.88642   -1.000
 5896.00    0.85434   0.89422   -1.000
 5897.00    0.85792   0.90520   -1.000
 5898.00    0.87464   0.91793   -1.000
 5899.00    0.89536   0.93033   -1.000
 5900.00    0.91774   0.94120   -1.000
 5901.00    0.93344   0.95009   -1.000
 5902.00    0.94364   0.95684   -1.000
 5903.00    0.95164   0.96155   -1.000
 5904.00    0.95714   0.96472   -1.000
 5905.00    0.96246   0.96678  458.760
 5906.00    0.96704   0.96809  459.276
 5907.00    0.96988   0.96877  459.338
 5908.00    0.97020   0.96885  458.593
 5909.00    0.96545   0.96825  457.539
 5910.00    0.96341   0.96705  458.392
 5911.00    0.96222   0.96536  459.430
 5912.00    0.96170   0.96341  459.901
 5913.00    0.96195   0.96157  461.295
 5914.00    0.96304   0.96034  466.708
 5915.00    0.96414   0.96006  471.323
 5916.00    0.96342   0.96064  471.449
 5917.00    0.96275   0.96185  469.001
 5918.00    0.96209   0.96341  466.972
 5919.00    0.95569   0.96503   -1.000
 5920.00    0.94788   0.96644   -1.000
 5921.00    0.94657   0.96756   -1.000
 5922.00    0.94975   0.96836   -1.000
 5923.00    0.95378   0.96886   -1.000
 5924.00    0.95303   0.96901   -1.000
 5925.00    0.94832   0.96872   -1.000
 5926.00    0.94853   0.96797   -1.000
 5927.00    0.95467   0.96690   -1.000
 5928.00    0.96152   0.96578  458.570
 5929.00    0.96639   0.96499  461.292
 5930.00    0.96936   0.96481  464.950
 5931.00    0.96861   0.96523  465.626
 5932.00    0.96677   0.96599  461.970
 5933.00    0.96640   0.96671  459.018
 5934.00    0.96584   0.96734  461.039
 5935.00    0.96550   0.96790  464.542
 5936.00    0.96607   0.96828  465.898
 5937.00    0.96756   0.96832  463.833
 5938.00    0.96940   0.96791  460.006
 5939.00    0.97210   0.96709  457.662
 5940.00    0.97014   0.96615  458.507
 5941.00    0.96259   0.96534  462.566
 5942.00    0.95331   0.96482   -1.000
 5943.00    0.94554   0.96451   -1.000
 5944.00    0.94508   0.96424   -1.000
 5945.00    0.94873   0.96390   -1.000
 5946.00    0.95051   0.96350   -1.000
 5947.00    0.94907   0.96311   -1.000
 5948.00    0.94738   0.96282   -1.000
 5949.00    0.95010   0.96278   -1.000
 5950.00    0.95242   0.96289   -1.000
 5951.00    0.95238   0.96296   -1.000
 5952.00    0.95674   0.96286  466.402
 5953.00    0.96339   0.96269  466.853
 5954.00    0.96798   0.96263  467.033
 5955.00    0.96869   0.96271  466.196
 5956.00    0.96803   0.96310  466.021
 5957.00    0.96539   0.96397  467.495
 5958.00    0.96078   0.96529  468.591
 5959.00    0.96022   0.96681   -1.000
 5960.00    0.95900   0.96815   -1.000
 5961.00    0.96176   0.96900   -1.000
 5962.00    0.96598   0.96932  455.561
 5963.00    0.96866   0.96917  454.811
 5964.00    0.97121   0.96877  455.482
 5965.00    0.97145   0.96839  457.676
 5966.00    0.97072   0.96830  459.549
 5967.00    0.96703   0.96859  461.126
 5968.00    0.96169   0.96913   -1.000
 5969.00    0.95780   0.96967   -1.000
 5970.00    0.95798   0.96993   -1.000
 5971.00    0.96157   0.96965   -1.000
 5972.00    0.96356   0.96874  454.983
 5973.00    0.96484   0.96735  454.298
 5974.00    0.96615   0.96576  455.977
 5975.00    0.96545   0.96436  459.431
 5976.00    0.96272   0.96343  463.015
 5977.00    0.96059   0.96305  466.371
 5978.00    0.95824   0.96304  468.802
 5979.00    0.95845   0.96309  467.814
 5980.00    0.96493   0.96287  464.146
 5981.00    0.96973   0.96222   -1.000
 5982.00    0.96855   0.96127   -1.000
 5983.00    0.96767   0.96039   -1.000
 5984.00    0.96837   0.95997   -1.000
 5985.00    0.96906   0.96018   -1.000
 5986.00    0.96831   0.96091   -1.000
 5987.00    0.96602   0.96186  467.376
 5988.00    0.96503   0.96281  463.852
 5989.00    0.96506   0.96369  462.078
 5990.00    0.96545   0.96440  460.058
 5991.00    0.96599   0.96504  459.887
 5992.00    0.96653   0.96561  461.011
 5993.00    0.96691   0.96606  459.677
 5994.00    0.96733   0.96619  456.109
 5995.00    0.96918   0.96589  454.055
 5996.00    0.96889   0.96531  456.075
 5997.00    0.96712   0.96468  459.456
 5998.00    0.96837   0.96412  461.779
 5999.00    0.96869   0.96358  462.996
 6000.00    0.96731   0.96299  462.639
 6001.00    0.96819   0.96227  462.637
 6002.00    0.96770   0.96140  464.814
 6003.00    0.96571   0.96042  466.812
 6004.00    0.96748   0.95942   -1.000
 6005.00    0.96825   0.95848   -1.000
 6006.00    0.96787   0.95765   -1.000
 6007.00    0.96706   0.95708   -1.000
 6008.00    0.96567   0.95705   -1.000
 6009.00    0.96652   0.95752   -1.000
 6010.00    0.96738   0.95829   -1.000
 6011.00    0.96699   0.95893   -1.000
 6012.00    0.96563   0.95915   -1.000
 6013.00    0.96532   0.95911  466.549
 6014.00    0.96820   0.95890   -1.000
 6015.00    0.96804   0.95855   -1.000
 6016.00    0.96869   0.95799   -1.000
 6017.00    0.96787   0.95727   -1.000
 6018.00    0.96717   0.95648   -1.000
 6019.00    0.96761   0.95576   -1.000
 6020.00    0.96620   0.95531   -1.000
 6021.00    0.96559   0.95533   -1.000
 6022.00    0.96657   0.95600   -1.000
 6023.00    0.96503   0.95717   -1.000
 6024.00    0.96660   0.95875   -1.000
 6025.00    0.96693   0.96069  467.339
 6026.00    0.96652   0.96276  465.176
 6027.00    0.96819   0.96471  463.269
 6028.00    0.96829   0.96655  460.878
 6029.00    0.97080   0.96821  458.508
 6030.00    0.97261   0.96955  457.535
 6031.00    0.96873   0.97061  457.491
 6032.00    0.96404   0.97140   -1.000
 6033.00    0.96443   0.97186   -1.000
 6034.00    0.96742   0.97196  456.297
 6035.00    0.97055   0.97168  454.835
 6036.00    0.97085   0.97100  454.404
 6037.00    0.97116   0.97002  453.784
 6038.00    0.96901   0.96888  453.840
 6039.00    0.96522   0.96774  455.893
 6040.00    0.96559   0.96684  457.418
 6041.00    0.96442   0.96639  458.612
 6042.00    0.96415   0.96649  458.404
 6043.00    0.96501   0.96711  457.544
 6044.00    0.96486   0.96807  455.747
 6045.00    0.96569   0.96907  452.397
 6046.00    0.96649   0.96985  451.442
 6047.00    0.96625   0.97034  451.805
 6048.00    0.96542   0.97041  451.273
 6049.00    0.96497   0.96997  451.323
 6050.00    0.96637   0.96915  452.635
 6051.00    0.96782   0.96822  453.873
 6052.00    0.96751   0.96710  454.427
 6053.00    0.96651   0.96589  455.134
 6054.00    0.96611   0.96484  456.728
 6055.00    0.96783   0.96418  458.316
 6056.00    0.96880   0.96394  460.487
 6057.00    0.96767   0.96399  462.306
 6058.00    0.96629   0.96404  462.115
 6059.00    0.96678   0.96369  460.069
 6060.00    0.95508   0.96280   -1.000
 6061.00    0.93267   0.96142   -1.000
 6062.00    0.95599   0.95979  458.312
 6063.00    0.88494   0.95835   -1.000
 6064.00    0.56656   0.95753   -1.000
 6065.00    0.45766   0.95771   -1.000
 6066.00    0.76874   0.95909   -1.000
 6067.00    0.94881   0.96129  205.547
 6068.00    0.97158   0.96371  242.827
 6069.00    0.77111   0.96597   -1.000
 6070.00    0.40300   0.96773   -1.000
 6071.00    0.69157   0.96887   -1.000
 6072.00    0.97725   0.96933   -1.000
 6073.00    0.96465   0.96914  446.696
 6074.00    0.96545   0.96835  452.646
 6075.00    0.96277   0.96704  453.490
 6076.00    0.96019   0.96536  454.617
 6077.00    0.96110   0.96358  456.788
 6078.00    0.96271   0.96182  459.362
 6079.00    0.96117   0.96034  462.648
 6080.00    0.96066   0.95917  465.771
 6081.00    0.96038   0.95817  466.802
 6082.00    0.96070   0.95742  467.050
 6083.00    0.96159   0.95708  468.133
 6084.00    0.96107   0.95718  468.583
 6085.00    0.96049   0.95769  468.261
 6086.00    0.96259   0.95842  467.810
 6087.00    0.96123   0.95914  466.717
 6088.00    0.95942   0.95966  464.957
 6089.00    0.96113   0.96005  464.952
 6090.00    0.96036   0.96047  467.314
 6091.00    0.95790   0.96101  469.650
 6092.00    0.95902   0.96170  470.075
 6093.00    0.96236   0.96241  467.842
 6094.00    0.96124   0.96295  465.167
 6095.00    0.96111   0.96302  462.684
 6096.00    0.96057   0.96232  460.456
 6097.00    0.96030   0.96067  459.956
 6098.00    0.95830   0.95809  460.894
 6099.00    0.95527   0.95490  461.503
 6100.00    0.95318   0.95162  461.573
 6101.00    0.95281   0.94898  465.284
 6102.00    0.95152   0.94774  475.082
 6103.00    0.95372   0.94844  484.338
 6104.00    0.95603   0.95091  484.283
 6105.00    0.95641   0.95416  476.375
 6106.00    0.95293   0.95737  468.354
 6107.00    0.95185   0.96010   -1.000
 6108.00    0.95277   0.96221   -1.000
 6109.00    0.95403   0.96371   -1.000
 6110.00    0.95788   0.96460   -1.000
 6111.00    0.95594   0.96501   -1.000
 6112.00    0.95417   0.96505   -1.000
 6113.00    0.95524   0.96478   -1.000
 6114.00    0.95405   0.96412   -1.000
 6115.00    0.95222   0.96285   -1.000
 6116.00    0.95108   0.96079   -1.000
 6117.00    0.95146   0.95791   -1.000
 6118.00    0.95160   0.95434  466.239
 6119.00    0.94856   0.95036  467.833
 6120.00    0.94381   0.94653  473.219
 6121.00    0.94069   0.94349  479.835
 6122.00    0.94017   0.94187  484.894
 6123.00    0.94247   0.94191  486.630
 6124.00    0.94721   0.94321  481.276
 6125.00    0.95121   0.94524  474.170
 6126.00    0.95040   0.94732  472.151
 6127.00    0.95013   0.94932  474.213
 6128.00    0.95214   0.95095  474.854
 6129.00    0.95374   0.95260  473.775
 6130.00    0.95376   0.95424  470.856
 6131.00    0.95194   0.95452  466.461
 6132.00    0.95166   0.95291  464.322
 6133.00    0.94965   0.94960  464.762
 6134.00    0.94219   0.94492  468.051
 6135.00    0.93337   0.93971  476.727
 6136.00    0.92825   0.93501   -1.000
 6137.00    0.92812   0.93199  503.304
 6138.00    0.93285   0.93115  508.444
 6139.00    0.93740   0.93198  499.911
 6140.00    0.93657   0.93374  485.675
 6141.00    0.93346   0.93639  477.461
 6142.00    0.93442   0.93963  476.629
 6143.00    0.94112   0.94268  477.683
 6144.00    0.94661   0.94478  474.710
 6145.00    0.94762   0.94566  469.036
 6146.00    0.94602   0.94565  466.644
 6147.00    0.94458   0.94521  468.075
 6148.00    0.94512   0.94483  470.892
 6149.00    0.94669   0.94477  474.193
 6150.00    0.94542   0.94501  477.208
 6151.00    0.94401   0.94514  478.146
 6152.00    0.94595   0.94484  476.862
 6153.00    0.94681   0.94384  473.986
 6154.00    0.94521   0.94188  472.399
 6155.00    0.94433   0.93904  474.997
 6156.00    0.94377   0.93546   -1.000
 6157.00    0.94340   0.93124   -1.000
 6158.00    0.94277   0.92657   -1.000
 6159.00    0.93695   0.92182   -1.000
 6160.00    0.92852   0.91742   -1.000
 6161.00    0.92468   0.91411   -1.000
 6162.00    0.92615   0.91259   -1.000
 6163.00    0.93005   0.91307   -1.000
 6164.00    0.93451   0.91488   -1.000
 6165.00    0.93724   0.91702   -1.000
 6166.00    0.93762   0.91896   -1.000
 6167.00    0.93503   0.92050   -1.000
 6168.00    0.93219   0.92186   -1.000
 6169.00    0.93482   0.92352   -1.000
 6170.00    0.93613   0.92604   -1.000
 6171.00    0.93472   0.92913  509.071
 6172.00    0.93711   0.93230  500.815
 6173.00    0.93525   0.93526  492.630
 6174.00    0.93473   0.93781  490.751
 6175.00    0.93837   0.93989  491.534
 6176.00    0.93711   0.94158  490.809
 6177.00    0.93655   0.94303   -1.000
 6178.00    0.93831   0.94431  488.540
 6179.00    0.93675   0.94540   -1.000
 6180.00    0.93621   0.94628   -1.000
 6181.00    0.93493   0.94685   -1.000
 6182.00    0.93492   0.94697   -1.000
 6183.00    0.93410   0.94639   -1.000
 6184.00    0.93526   0.94506   -1.000
 6185.00    0.93728   0.94305  481.075
 6186.00    0.93459   0.94056  484.207
 6187.00    0.93271   0.93789  489.148
 6188.00    0.93069   0.93541  494.374
 6189.00    0.92702   0.93352   -1.000
 6190.00    0.92325   0.93246   -1.000
 6191.00    0.92145   0.93259   -1.000
 6192.00    0.92600   0.93415   -1.000
 6193.00    0.93308   0.93650  510.452
 6194.00    0.93565   0.93890  499.651
 6195.00    0.93549   0.94097  489.724
 6196.00    0.93625   0.94251   -1.000
 6197.00    0.93710   0.94357   -1.000
 6198.00    0.93519   0.94423   -1.000
 6199.00    0.93241   0.94479   -1.000
 6200.00    0.93101   0.94562   -1.000
 6201.00    0.93018   0.94689   -1.000
 6202.00    0.92941   0.94843   -1.000
 6203.00    0.92721   0.95002   -1.000
 6204.00    0.92669   0.95133   -1.000
 6205.00    0.92755   0.95215   -1.000
 6206.00    0.92737   0.95233   -1.000
 6207.00    0.92839   0.95177   -1.000
 6208.00    0.92972   0.95042   -1.000
 6209.00    0.93024   0.94831   -1.000
 6210.00    0.92903   0.94559   -1.000
 6211.00    0.92783   0.94256   -1.000
 6212.00    0.92965   0.93950   -1.000
 6213.00    0.93091   0.93679  498.563
 6214.00    0.92870   0.93475  505.307
 6215.00    0.93025   0.93349  511.475
 6216.00    0.92893   0.93285  513.960
 6217.00    0.92499   0.93270   -1.000
 6218.00    0.92812   0.93285  505.454
 6219.00    0.92695   0.93338   -1.000
 6220.00    0.92629   0.93423   -1.000
 6221.00    0.84544   0.93523   -1.000
 6222.00    0.81726   0.93592   -1.000
 6223.00    0.89899   0.93588   -1.000
 6224.00    0.93144   0.93502  534.890
 6225.00    0.92324   0.93327   -1.000
 6226.00    0.92032   0.93081   -1.000
 6227.00    0.91981   0.92796   -1.000
 6228.00    0.92069   0.92513  502.735
 6229.00    0.91673   0.92281  508.352
 6230.00    0.91218   0.92150   -1.000
 6231.00    0.91420   0.92140   -1.000
 6232.00    0.91829   0.92224  524.660
 6233.00    0.91992   0.92342  518.487
 6234.00    0.92090   0.92434  509.269
 6235.00    0.92025   0.92455  500.409
 6236.00    0.92011   0.92397  496.113
 6237.00    0.92134   0.92276  497.747
 6238.00    0.92047   0.92129  502.468
 6239.00    0.92066   0.91981  507.624
 6240.00    0.92100   0.91831  512.941
 6241.00    0.91715   0.91668  516.293
 6242.00    0.91507   0.91494  516.739
 6243.00    0.91689   0.91332  518.993
 6244.00    0.91671   0.91229  522.808
 6245.00    0.91301   0.91206  523.773
 6246.00    0.90933   0.91276  521.307
 6247.00    0.90966   0.91424  516.659
 6248.00    0.91283   0.91599  510.512
 6249.00    0.91360   0.91727  504.691
 6250.00    0.91053   0.91750   -1.000
 6251.00    0.90650   0.91675   -1.000
 6252.00    0.90427   0.91549   -1.000
 6253.00    0.90490   0.91439   -1.000
 6254.00    0.90592   0.91383   -1.000
 6255.00    0.90742   0.91396   -1.000
 6256.00    0.90962   0.91476  528.036
 6257.00    0.91080   0.91620  530.909
 6258.00    0.91035   0.91820   -1.000
 6259.00    0.91061   0.92062   -1.000
 6260.00    0.91265   0.92327   -1.000
 6261.00    0.91083   0.92578   -1.000
 6262.00    0.90735   0.92794   -1.000
 6263.00    0.90683   0.92950   -1.000
 6264.00    0.91052   0.93032   -1.000
 6265.00    0.91251   0.93056   -1.000
 6266.00    0.90956   0.93033   -1.000
 6267.00    0.90807   0.92954   -1.000
 6268.00    0.90849   0.92803   -1.000
 6269.00    0.90896   0.92581   -1.000
 6270.00    0.90750   0.92305   -1.000
 6271.00    0.90597   0.91989   -1.000
 6272.00    0.90617   0.91621   -1.000
 6273.00    0.90561   0.91196   -1.000
 6274.00    0.90430   0.90726  504.567
 6275.00    0.90000   0.90274  507.494
 6276.00    0.89335   0.89911  511.554
 6277.00    0.88098   0.89689   -1.000
 6278.00    0.86089   0.89640   -1.000
 6279.00    0.84171   0.89751   -1.000
 6280.00    0.83415   0.90011   -1.000
 6281.00    0.83998   0.90372   -1.000
 6282.00    0.85335   0.90773   -1.000
 6283.00    0.86177   0.91156   -1.000
 6284.00    0.86349   0.91490   -1.000
 6285.00    0.86745   0.91753   -1.000
 6286.00    0.87580   0.91932   -1.000
 6287.00    0.88470   0.92026   -1.000
 6288.00    0.88968   0.92041   -1.000
 6289.00    0.89225   0.91989   -1.000
 6290.00    0.89136   0.91906   -1.000
 6291.00    0.88652   0.91811   -1.000
 6292.00    0.88460   0.91706   -1.000
 6293.00    0.88487   0.91590   -1.000
 6294.00    0.88332   0.91455   -1.000
 6295.00    0.88275   0.91297   -1.000
 6296.00    0.88254   0.91130   -1.000
 6297.00    0.88117   0.90991   -1.000
 6298.00    0.88234   0.90909   -1.000
 6299.00    0.88459   0.90899   -1.000
 6300.00    0.88699   0.90960   -1.000
 6301.00    0.89235   0.91096   -1.000
 6302.00    0.89422   0.91317   -1.000
 6303.00    0.88673   0.91598   -1.000
 6304.00    0.87775   0.91874   -1.000
 6305.00    0.87607   0.92104   -1.000
 6306.00    0.88239   0.92268   -1.000
 6307.00    0.88842   0.92357   -1.000
 6308.00    0.89029   0.92371   -1.000
 6309.00    0.88944   0.92321   -1.000
 6310.00    0.88871   0.92223   -1.000
 6311.00    0.88687   0.92081   -1.000
 6312.00    0.88684   0.91912   -1.000
 6313.00    0.88817   0.91732   -1.000
 6314.00    0.88757   0.91575   -1.000
 6315.00    0.88703   0.91473   -1.000
 6316.00    0.88383   0.91445   -1.000
 6317.00    0.88227   0.91509   -1.000
 6318.00    0.88447   0.91674   -1.000
 6319.00    0.88692   0.91933   -1.000
 6320.00    0.88889   0.92237   -1.000
 6321.00    0.88688   0.92531   -1.000
 6322.00    0.88559   0.92791   -1.000
 6323.00    0.88707   0.93018   -1.000
 6324.00    0.89062   0.93192   -1.000
 6325.00    0.89402   0.93295   -1.000
 6326.00    0.89325   0.93333   -1.000
 6327.00    0.89283   0.93324   -1.000
 6328.00    0.89435   0.93274   -1.000
 6329.00    0.89378   0.93178   -1.000
 6330.00    0.89601   0.93042   -1.000
 6331.00    0.89691   0.92879   -1.000
 6332.00    0.89460   0.92700   -1.000
 6333.00    0.91331   0.92518   -1.000
 6334.00    0.91081   0.92364   -1.000
 6335.00    0.88832   0.92265   -1.000
 6336.00    0.88748   0.92263   -1.000
 6337.00    0.89085   0.92349   -1.000
 6338.00    0.89448   0.92468   -1.000
 6339.00    0.89761   0.92569   -1.000
 6340.00    0.89835   0.92619   -1.000
 6341.00    0.89703   0.92601   -1.000
 6342.00    0.89230   0.92522   -1.000
 6343.00    0.89010   0.92423   -1.000
 6344.00    0.88986   0.92341   -1.000
 6345.00    0.88990   0.92317   -1.000
 6346.00    0.89196   0.92373   -1.000
 6347.00    0.89028   0.92535   -1.000
 6348.00    0.89107   0.92779   -1.000
 6349.00    0.89357   0.93018   -1.000
 6350.00    0.89392   0.93189   -1.000
 6351.00    0.89427   0.93272   -1.000
 6352.00    0.89069   0.93270   -1.000
 6353.00    0.88743   0.93196   -1.000
 6354.00    0.88703   0.93076   -1.000
 6355.00    0.88528   0.92941   -1.000
 6356.00    0.88520   0.92807   -1.000
 6357.00    0.88572   0.92674   -1.000
 6358.00    0.88255   0.92549   -1.000
 6359.00    0.88247   0.92450   -1.000
 6360.00    0.88299   0.92381   -1.000
 6361.00    0.88072   0.92331   -1.000
 6362.00    0.88113   0.92295   -1.000
 6363.00    0.88372   0.92274   -1.000
 6364.00    0.88307   0.92263   -1.000
 6365.00    0.88004   0.92248   -1.000
 6366.00    0.88061   0.92227   -1.000
 6367.00    0.88066   0.92210   -1.000
 6368.00    0.87584   0.92196   -1.000
 6369.00    0.87424   0.92200   -1.000
 6370.00    0.87522   0.92248   -1.000
 6371.00    0.87246   0.92357   -1.000
 6372.00    0.87177   0.92511   -1.000
 6373.00    0.87259   0.92659   -1.000
 6374.00    0.86873   0.92751   -1.000
 6375.00    0.86539   0.92775   -1.000
 6376.00    0.86453   0.92743   -1.000
 6377.00    0.86311   0.92678   -1.000
 6378.00    0.86001   0.92608   -1.000
 6379.00    0.85720   0.92554   -1.000
 6380.00    0.85499   0.92528   -1.000
 6381.00    0.85251   0.92532   -1.000
 6382.00    0.85163   0.92569   -1.000
 6383.00    0.85051   0.92635   -1.000
 6384.00    0.84814   0.92717   -1.000
 6385.00    0.84628   0.92798   -1.000
 6386.00    0.84354   0.92847   -1.000
 6387.00    0.84102   0.92837   -1.000
 6388.00    0.83754   0.92771   -1.000
 6389.00    0.83242   0.92667   -1.000
 6390.00    0.82757   0.92541   -1.000
 6391.00    0.82262   0.92398   -1.000
 6392.00    0.81851   0.92260   -1.000
 6393.00    0.81583   0.92154   -1.000
 6394.00    0.81509   0.92105   -1.000
 6395.00    0.81552   0.92097   -1.000
 6396.00    0.81414   0.92086   -1.000
 6397.00    0.80796   0.92055   -1.000
 6398.00    0.79869   0.92016   -1.000
 6399.00    0.79347   0.92004   -1.000
 6400.00    0.79305   0.92052   -1.000
 6401.00    0.79033   0.92148   -1.000
 6402.00    0.78844   0.92248   -1.000
 6403.00    0.78818   0.92304   -1.000
 6404.00    0.78351   0.92294   -1.000
 6405.00    0.77788   0.92220   -1.000
 6406.00    0.77329   0.92107   -1.000
 6407.00    0.76924   0.92001   -1.000
 6408.00    0.76549   0.91924   -1.000
 6409.00    0.76018   0.91879   -1.000
 6410.00    0.75265   0.91845   -1.000
 6411.00    0.74627   0.91827   -1.000
 6412.00    0.74496   0.91832   -1.000
 6413.00    0.74320   0.91848   -1.000
 6414.00    0.73455   0.91835   -1.000
 6415.00    0.72574   0.91796   -1.000
 6416.00    0.72167   0.91809   -1.000
 6417.00    0.71646   0.91845   -1.000
 6418.00    0.70891   0.91883   -1.000
 6419.00    0.70192   0.91959   -1.000
 6420.00    0.69509   0.92086   -1.000
 6421.00    0.69081   0.92278   -1.000
 6422.00    0.68688   0.92517   -1.000
 6423.00    0.67962   0.92730   -1.000
 6424.00    0.67255   0.92856   -1.000
 6425.00    0.66734   0.92890   -1.000
 6426.00    0.66073   0.92823   -1.000
 6427.00    0.65181   0.92673   -1.000
 6428.00    0.64261   0.92469   -1.000
