###################################################################
## OUTPUT of StarlightChains_v04.for    [Cid@UFSC - 01/Apr/2007] ##
###################################################################

## Some input info
NGC5904_a_1.cxt                          [arq_obs]
Base.BC03.S                              [arq_base]
NGC5904_a_1.msk                          [arq_masks]
StCv04.C99.config                        [arq_config]
  150                                    [N_base]
    0                                    [N_YAV_components = # of components with extra extinction!]
    0                                    [i_FitPowerLaw (1/0 = Yes/No)]
-9.99                                    [alpha_PowerLaw]
CCM                                      [red_law_option]
 1.458241                                [q_norm = A(l_norm)/A(V)]

## (Re)Sampling Parameters
 3359.00                                 [l_ini (A)]
 6428.00                                 [l_fin (A)]
    1.00                                 [dl    (A)]     (OBS: dl_cushion =    50.00 A)

## Normalization info
 4020.00                                 [l_norm (A) - for base]
 4010.00                                 [llow_norm (A) - window for f_obs]
 4060.00                                 [lupp_norm (A) - window for f_obs]
5.027376E-14                             [fobs_norm (in input units)]

## S/N
 4730.00                                 [llow_SN (A) - window for S/N]
 4780.00                                 [lupp_SN (A) - window for S/N]
  94.495                                 [S/N in S/N window]
  88.383                                 [S/N in norm. window]
 203.063                                 [S/N_err in S/N window]
 189.929                                 [S/N_err in norm. window]
  1.0000                                 [fscale_chi2]

## etc...
  2147483635                             [idum_orig]
  3067                                   [NOl_eff]
  1042                                   [Nl_eff]
  2025    NSIGMA                         [Ntot_cliped & clip_method]
  2676240                                [Nglobal_steps]
   7                                     [N_chains]
  15                                     [NEX0s_base = N_base in EX0s-fits]
 0   0   1      257   2.0   3.991E+02    [Clip-Bug, RC-Crash & Burn-In warning-flags, n_censored_weights, wei_nsig_threshold & wei_limit]
   121    120.533    120.517      0.016  [idt_all, wdt_TotTime, wdt_UsrTime & wdt_SysTime (sec)]

## Synthesis Results - Best model ##

 2.73093E+00                             [chi2/Nl_eff]
     0.91714                             [adev (%)]

   102.16311                             [sum-of-x (%)]
 6.27579E-14                             [Flux_tot (units of input spectrum!)]
 6.03092E-10                             [Mini_tot (???)]
 3.19741E-10                             [Mcor_tot (???)]

 -14.43                                  [v0_min  (km/s)]
  61.24                                  [vd_min  (km/s)]
 0.1492                                  [AV_min  (mag)]
 0.0000                                  [YAV_min (mag)]

# j     x_j(%)      Mini_j(%)     Mcor_j(%)     age_j(yr)     Z_j      (L/M)_j    YAV?  Mstars   component_j        a/Fe...       SSP_chi2r SSP_adev(%)   SSP_AV   SSP_x(%)
  1      0.0000     0.0000E+00    0.0000E+00    1.000000E+06  0.00010  8.160E-03    0   1.0000   age020_m22            0.0000     8.5379E+02    14.5931   3.6186    77.9408
  2     16.3615     3.5019E-02    6.6052E-02    3.160000E+06  0.00010  4.759E-02    0   1.0000   age045_m22            0.0000     1.3385E+02     5.9675   1.5891    96.6547
  3      0.0000     0.0000E+00    0.0000E+00    5.010000E+06  0.00010  1.932E-02    0   0.9582   age055_m22            0.0000     7.5465E+02    13.9435   1.9202    84.1471
  4      0.0000     0.0000E+00    0.0000E+00    6.610000E+06  0.00010  9.973E-03    0   0.9297   age061_m22            0.0000     8.3516E+02    14.6827   3.5802    80.8431
  5      0.0000     0.0000E+00    0.0000E+00    8.710000E+06  0.00010  7.690E-03    0   0.9030   age067_m22            0.0000     7.9094E+02    14.3208   3.5720    81.2412
  6      0.0000     0.0000E+00    0.0000E+00    1.000000E+07  0.00010  6.375E-03    0   0.8902   age070_m22            0.0000     7.5510E+02    14.0098   3.5875    81.3700
  7      0.0000     0.0000E+00    0.0000E+00    1.445000E+07  0.00010  4.874E-03    0   0.8589   age078_m22            0.0000     5.6372E+02    12.2920   3.3998    84.0639
  8      0.0000     0.0000E+00    0.0000E+00    2.512000E+07  0.00010  4.103E-03    0   0.8174   age090_m22            0.0000     2.6567E+02     8.8261   2.9823    90.0536
  9      0.0000     0.0000E+00    0.0000E+00    4.000000E+07  0.00010  3.654E-03    0   0.7830   age104_m22            0.0000     1.6977E+02     6.3278   2.6776    94.3946
 10      0.0000     0.0000E+00    0.0000E+00    5.500000E+07  0.00010  3.093E-03    0   0.7597   age110_m22            0.0000     1.5374E+02     5.5067   2.5675    96.0138
 11      0.0000     0.0000E+00    0.0000E+00    1.015200E+08  0.00010  2.431E-03    0   0.7138   age116_m22            0.0000     1.8350E+02     5.1629   2.2135    98.9483
 12      0.0000     0.0000E+00    0.0000E+00    1.609000E+08  0.00010  1.319E-03    0   0.6775   age120_m22            0.0000     1.8262E+02     4.7303   1.7198   101.6377
 13      0.0000     0.0000E+00    0.0000E+00    2.861200E+08  0.00010  1.075E-03    0   0.6412   age125_m22            0.0000     4.9739E+02     7.3934   1.7613   105.5123
 14      0.0000     0.0000E+00    0.0000E+00    5.088000E+08  0.00010  7.183E-04    0   0.6083   age130_m22            0.0000     6.3238E+02     8.6433   1.5202   107.4612
 15      0.0000     0.0000E+00    0.0000E+00    9.047900E+08  0.00010  4.524E-04    0   0.5785   age135_m22            0.0000     6.4366E+02     8.8230   1.3172   108.7272
 16      0.0000     0.0000E+00    0.0000E+00    1.278050E+09  0.00010  3.018E-04    0   0.5588   age138_m22            0.0000     2.7453E+02     5.6608   0.7938   106.6587
 17      0.0000     0.0000E+00    0.0000E+00    1.434000E+09  0.00010  2.691E-04    0   0.5532   age139_m22            0.0000     2.1371E+02     5.0126   0.6385   106.0344
 18      0.0000     0.0000E+00    0.0000E+00    2.500000E+09  0.00010  1.582E-04    0   0.5296   age150_m22            0.0000     1.8106E+02     4.6865   0.5358   106.5415
 19      0.0000     0.0000E+00    0.0000E+00    4.250000E+09  0.00010  1.007E-04    0   0.5110   age158_m22            0.0000     8.3966E+01     3.3215   0.3862   104.8050
 20      0.0000     0.0000E+00    0.0000E+00    6.250000E+09  0.00010  6.869E-05    0   0.4985   age166_m22            0.0000     3.2372E+01     2.2340   0.3300   102.0517
 21      0.0000     0.0000E+00    0.0000E+00    7.500000E+09  0.00010  5.873E-05    0   0.4931   age171_m22            0.0000     3.3220E+01     2.3770   0.3224   101.4605
 22      0.0000     0.0000E+00    0.0000E+00    1.000000E+10  0.00010  4.481E-05    0   0.4854   age181_m22            0.0000     3.0588E+01     2.2851   0.2831   101.1185
 23      0.0052     1.5097E-02    1.3643E-02    1.300000E+10  0.00010  3.489E-05    0   0.4791   age193_m22            0.0000     2.5043E+01     2.1017   0.2241   100.5995
 24      0.0000     0.0000E+00    0.0000E+00    1.500000E+10  0.00010  3.035E-05    0   0.4766   age201_m22            0.0000     2.2726E+01     2.0331   0.1840   100.4167
 25      0.0000     0.0000E+00    0.0000E+00    1.800000E+10  0.00010  2.510E-05    0   0.4735   age213_m22            0.0000     1.9409E+01     1.9527   0.1138    99.8218
 26      0.0000     0.0000E+00    0.0000E+00    1.000000E+06  0.00040  8.458E-03    0   1.0000   age020_m32            0.0000     8.3724E+02    14.5205   3.6341    78.6410
 27      0.0000     0.0000E+00    0.0000E+00    3.160000E+06  0.00040  3.973E-02    0   1.0000   age045_m32            0.0000     2.9877E+02     9.2717   2.8818    90.0266
 28      0.0000     0.0000E+00    0.0000E+00    5.010000E+06  0.00040  1.935E-02    0   0.9532   age055_m32            0.0000     6.4052E+02    13.1828   3.1266    84.3809
 29      0.0000     0.0000E+00    0.0000E+00    6.610000E+06  0.00040  1.204E-02    0   0.9243   age061_m32            0.0000     6.9950E+02    13.5775   3.4368    82.6830
 30      0.0000     0.0000E+00    0.0000E+00    8.710000E+06  0.00040  9.433E-03    0   0.9001   age067_m32            0.0000     6.2812E+02    12.9334   3.4080    83.5146
 31      0.0000     0.0000E+00    0.0000E+00    1.000000E+07  0.00040  8.053E-03    0   0.8877   age070_m32            0.0000     6.0029E+02    12.6718   3.3710    83.9536
 32      0.0000     0.0000E+00    0.0000E+00    1.445000E+07  0.00040  7.027E-03    0   0.8578   age078_m32            0.0000     3.7786E+02    10.4416   2.8457    88.7201
 33      0.0000     0.0000E+00    0.0000E+00    2.512000E+07  0.00040  4.707E-03    0   0.8166   age090_m32            0.0000     2.3541E+02     8.3446   2.5388    92.5355
 34      0.0000     0.0000E+00    0.0000E+00    4.000000E+07  0.00040  3.714E-03    0   0.7827   age104_m32            0.0000     1.6326E+02     6.3798   2.3296    95.7107
 35      0.0000     0.0000E+00    0.0000E+00    5.500000E+07  0.00040  2.982E-03    0   0.7593   age110_m32            0.0000     1.5384E+02     5.7176   2.2632    96.9056
 36      0.0000     0.0000E+00    0.0000E+00    1.015200E+08  0.00040  2.188E-03    0   0.7143   age116_m32            0.0000     2.4406E+02     5.3050   1.9727   101.4921
 37      0.3001     1.8085E-02    2.3387E-02    1.609000E+08  0.00040  1.690E-03    0   0.6856   age120_m32            0.0000     3.7883E+02     6.3683   1.7531   104.3757
 38      0.0000     0.0000E+00    0.0000E+00    2.861200E+08  0.00040  1.152E-03    0   0.6509   age125_m32            0.0000     5.2891E+02     7.7126   1.5109   106.7212
 39      0.0000     0.0000E+00    0.0000E+00    5.088000E+08  0.00040  7.331E-04    0   0.6182   age130_m32            0.0000     5.8287E+02     8.3442   1.3387   107.6044
 40      0.0000     0.0000E+00    0.0000E+00    9.047900E+08  0.00040  3.960E-04    0   0.5890   age135_m32            0.0000     2.8644E+02     5.9792   0.8760   106.1032
 41      0.0000     0.0000E+00    0.0000E+00    1.278050E+09  0.00040  2.854E-04    0   0.5687   age138_m32            0.0000     2.1316E+02     5.0428   0.5977   107.5950
 42      0.0000     0.0000E+00    0.0000E+00    1.434000E+09  0.00040  2.531E-04    0   0.5632   age139_m32            0.0000     2.0575E+02     4.9657   0.5375   107.5447
 43     10.0590     6.8856E+00    6.9951E+00    2.500000E+09  0.00040  1.488E-04    0   0.5386   age150_m32            0.0000     1.2174E+02     3.8582   0.2789   105.8247
 44     27.3864     3.0715E+01    3.0120E+01    4.250000E+09  0.00040  9.082E-05    0   0.5199   age158_m32            0.0000     2.1339E+01     1.7532   0.1814   102.4409
 45      0.1132     1.8123E-01    1.7352E-01    6.250000E+09  0.00040  6.362E-05    0   0.5076   age166_m32            0.0000     2.4857E+01     2.2517   0.1450    98.9634
 46      0.8244     1.5876E+00    1.5053E+00    7.500000E+09  0.00040  5.289E-05    0   0.5027   age171_m32            0.0000     3.0898E+01     2.4356   0.1057    97.7665
 47      8.2410     2.1133E+01    1.9723E+01    1.000000E+10  0.00040  3.972E-05    0   0.4948   age181_m32            0.0000     3.5041E+01     2.4492   0.0388    96.4919
 48      0.0024     7.4723E-03    6.8639E-03    1.300000E+10  0.00040  3.283E-05    0   0.4870   age193_m32            0.0000     1.1276E+01     1.4823  -0.0086    99.2026
 49      0.0000     0.0000E+00    0.0000E+00    1.500000E+10  0.00040  2.925E-05    0   0.4854   age201_m32            0.0000     8.9032E+00     1.2694  -0.0284   100.7826
 50      0.0000     0.0000E+00    0.0000E+00    1.800000E+10  0.00040  2.469E-05    0   0.4819   age213_m32            0.0000     9.8579E+00     1.2817  -0.0709   101.3096
 51      0.0000     0.0000E+00    0.0000E+00    1.000000E+06  0.00400  1.114E-02    0   1.0000   age020_m42            0.0000     8.0037E+02    14.1533   3.5587    79.1106
 52      0.0000     0.0000E+00    0.0000E+00    3.160000E+06  0.00400  4.073E-02    0   0.9999   age045_m42            0.0000     1.9686E+02     7.5212   2.5721    92.6846
 53      0.0000     0.0000E+00    0.0000E+00    5.010000E+06  0.00400  2.534E-02    0   0.9488   age055_m42            0.0000     4.3152E+02    10.8539   2.9882    86.5831
 54      0.0000     0.0000E+00    0.0000E+00    6.610000E+06  0.00400  2.583E-02    0   0.9220   age061_m42            0.0000     1.6992E+02     6.8033   2.3866    93.2959
 55      0.0000     0.0000E+00    0.0000E+00    8.710000E+06  0.00400  1.706E-02    0   0.8983   age067_m42            0.0000     2.7411E+02     8.9368   2.2195    91.3664
 56      0.0000     0.0000E+00    0.0000E+00    1.000000E+07  0.00400  1.271E-02    0   0.8862   age070_m42            0.0000     3.8797E+02    10.6537   2.2107    89.8683
 57      0.0000     0.0000E+00    0.0000E+00    1.445000E+07  0.00400  7.666E-03    0   0.8571   age078_m42            0.0000     4.9396E+02    11.6638   2.6091    87.0143
 58      0.0000     0.0000E+00    0.0000E+00    2.512000E+07  0.00400  5.070E-03    0   0.8174   age090_m42            0.0000     3.2336E+02     9.8117   2.0642    91.7397
 59      0.0000     0.0000E+00    0.0000E+00    4.000000E+07  0.00400  3.505E-03    0   0.7851   age104_m42            0.0000     1.8803E+02     7.5336   1.7243    94.9440
 60      0.0000     0.0000E+00    0.0000E+00    5.500000E+07  0.00400  3.059E-03    0   0.7629   age110_m42            0.0000     1.0632E+02     4.4371   1.7649    99.6041
 61      0.0261     1.1708E-03    1.5915E-03    1.015200E+08  0.00400  2.268E-03    0   0.7207   age116_m42            0.0000     3.1605E+02     5.5637   1.6557   105.0752
 62      1.6289     9.6464E-02    1.2609E-01    1.609000E+08  0.00400  1.720E-03    0   0.6930   age120_m42            0.0000     3.5243E+02     6.0633   1.5050   106.9394
 63      0.0000     0.0000E+00    0.0000E+00    2.861200E+08  0.00400  1.079E-03    0   0.6613   age125_m42            0.0000     3.8233E+02     6.6186   1.1478   107.5267
 64      0.0000     0.0000E+00    0.0000E+00    5.088000E+08  0.00400  6.261E-04    0   0.6313   age130_m42            0.0000     4.5218E+02     7.1737   0.9573   110.2880
 65      0.0000     0.0000E+00    0.0000E+00    9.047900E+08  0.00400  3.535E-04    0   0.6024   age135_m42            0.0000     2.3361E+02     5.3534   0.5521   110.4012
 66      0.0000     0.0000E+00    0.0000E+00    1.278050E+09  0.00400  2.677E-04    0   0.5837   age138_m42            0.0000     9.4252E+01     4.6423  -0.1681   107.9200
 67      0.0000     0.0000E+00    0.0000E+00    1.434000E+09  0.00400  1.910E-04    0   0.5716   age139_m42            0.0000     9.9179E+01     4.4534   0.0056   108.8295
 68     29.1854     3.0278E+01    3.1200E+01    2.500000E+09  0.00400  9.818E-05    0   0.5463   age150_m42            0.0000     6.2411E+01     3.8776  -0.2748   103.9875
 69      0.0000     0.0000E+00    0.0000E+00    4.250000E+09  0.00400  5.491E-05    0   0.5269   age158_m42            0.0000     9.7876E+01     4.2482  -0.3985   101.1146
 70      0.0000     0.0000E+00    0.0000E+00    6.250000E+09  0.00400  3.857E-05    0   0.5151   age166_m42            0.0000     1.5274E+02     5.1246  -0.5329    99.7538
 71      0.0000     0.0000E+00    0.0000E+00    7.500000E+09  0.00400  3.243E-05    0   0.5110   age171_m42            0.0000     1.9077E+02     5.6711  -0.6166    99.2021
 72      0.0000     0.0000E+00    0.0000E+00    1.000000E+10  0.00400  2.424E-05    0   0.5028   age181_m42            0.0000     2.4848E+02     6.3950  -0.7032    98.6236
 73      0.0000     0.0000E+00    0.0000E+00    1.300000E+10  0.00400  1.883E-05    0   0.4927   age193_m42            0.0000     2.9782E+02     6.9302  -0.7465    98.3534
 74      0.0000     0.0000E+00    0.0000E+00    1.500000E+10  0.00400  1.685E-05    0   0.4919   age201_m42            0.0000     2.8384E+02     6.7558  -0.7410    98.3683
 75      0.0000     0.0000E+00    0.0000E+00    1.800000E+10  0.00400  1.452E-05    0   0.4874   age213_m42            0.0000     2.5887E+02     6.4484  -0.7233    98.6078
 76      0.0000     0.0000E+00    0.0000E+00    1.000000E+06  0.00800  1.286E-02    0   1.0000   age020_m52            0.0000     7.0282E+02    13.3666   3.5359    80.8907
 77      0.0000     0.0000E+00    0.0000E+00    3.160000E+06  0.00800  3.147E-02    0   0.9966   age045_m52            0.0000     6.7283E+02    13.1635   3.4427    82.4306
 78      0.0000     0.0000E+00    0.0000E+00    5.010000E+06  0.00800  2.664E-02    0   0.9443   age055_m52            0.0000     4.9144E+02    11.3600   3.1054    85.7395
 79      0.0000     0.0000E+00    0.0000E+00    6.610000E+06  0.00800  2.151E-02    0   0.9177   age061_m52            0.0000     3.0188E+02     8.9340   1.7813    91.9980
 80      0.0000     0.0000E+00    0.0000E+00    8.710000E+06  0.00800  1.628E-02    0   0.8948   age067_m52            0.0000     3.0180E+02     9.3622   2.1610    92.1049
 81      0.0000     0.0000E+00    0.0000E+00    1.000000E+07  0.00800  1.215E-02    0   0.8827   age070_m52            0.0000     3.7566E+02    10.3857   2.5040    90.2834
 82      0.0000     0.0000E+00    0.0000E+00    1.445000E+07  0.00800  8.739E-03    0   0.8552   age078_m52            0.0000     3.0902E+02     9.4280   2.5433    91.5079
 83      0.0000     0.0000E+00    0.0000E+00    2.512000E+07  0.00800  5.676E-03    0   0.8162   age090_m52            0.0000     2.1767E+02     7.6194   2.1382    95.9996
 84      0.0000     0.0000E+00    0.0000E+00    4.000000E+07  0.00800  3.939E-03    0   0.7841   age104_m52            0.0000     1.6806E+02     6.0169   1.9668    98.6782
 85      0.0000     0.0000E+00    0.0000E+00    5.500000E+07  0.00800  3.155E-03    0   0.7627   age110_m52            0.0000     1.6515E+02     5.0816   1.9276   100.5659
 86      0.0000     0.0000E+00    0.0000E+00    1.015200E+08  0.00800  2.206E-03    0   0.7226   age116_m52            0.0000     2.3427E+02     4.8150   1.7198   104.7385
 87      0.0000     0.0000E+00    0.0000E+00    1.609000E+08  0.00800  1.596E-03    0   0.6963   age120_m52            0.0000     2.9365E+02     5.4173   1.4945   106.6303
 88      0.0000     0.0000E+00    0.0000E+00    2.861200E+08  0.00800  1.002E-03    0   0.6665   age125_m52            0.0000     4.9050E+02     7.8068   1.1738   109.9396
 89      0.0000     0.0000E+00    0.0000E+00    5.088000E+08  0.00800  5.759E-04    0   0.6377   age130_m52            0.0000     5.3057E+02     8.7786   0.8020   114.2657
 90      0.0000     0.0000E+00    0.0000E+00    9.047900E+08  0.00800  2.972E-04    0   0.6086   age135_m52            0.0000     2.6812E+02     7.0817   0.2481   113.1870
 91      0.0000     0.0000E+00    0.0000E+00    1.278050E+09  0.00800  2.242E-04    0   0.5907   age138_m52            0.0000     1.4386E+02     5.8102  -0.3722   111.3626
 92      0.0000     0.0000E+00    0.0000E+00    1.434000E+09  0.00800  1.645E-04    0   0.5787   age139_m52            0.0000     1.0911E+02     5.0584  -0.2184   110.7341
 93      0.0000     0.0000E+00    0.0000E+00    2.500000E+09  0.00800  7.723E-05    0   0.5519   age150_m52            0.0000     1.4971E+02     5.6671  -0.5639   106.7773
 94      0.1837     4.5065E-01    4.5221E-01    4.250000E+09  0.00800  4.151E-05    0   0.5320   age158_m52            0.0000     1.7753E+02     5.8315  -0.6305   104.0756
 95      0.0000     0.0000E+00    0.0000E+00    6.250000E+09  0.00800  3.010E-05    0   0.5197   age166_m52            0.0000     2.7493E+02     7.0041  -0.8359   102.7206
 96      0.0000     0.0000E+00    0.0000E+00    7.500000E+09  0.00800  2.467E-05    0   0.5139   age171_m52            0.0000     3.0327E+02     7.3295  -0.8811   102.3429
 97      0.0000     0.0000E+00    0.0000E+00    1.000000E+10  0.00800  1.862E-05    0   0.5054   age181_m52            0.0000     3.9124E+02     8.2557  -1.0000   101.6188
 98      0.0000     0.0000E+00    0.0000E+00    1.300000E+10  0.00800  1.433E-05    0   0.4988   age193_m52            0.0000     5.1916E+02     9.1018  -1.0000   100.2997
 99      0.0000     0.0000E+00    0.0000E+00    1.500000E+10  0.00800  1.244E-05    0   0.4936   age201_m52            0.0000     5.7583E+02     9.4321  -1.0000   100.1351
100      0.0000     0.0000E+00    0.0000E+00    1.800000E+10  0.00800  1.070E-05    0   0.4888   age213_m52            0.0000     6.2591E+02     9.6787  -1.0000    99.2372
101      0.0000     0.0000E+00    0.0000E+00    1.000000E+06  0.02000  1.989E-02    0   1.0000   age020_m62            0.0000     7.8807E+02    13.9301   3.5108    80.0952
102      0.0000     0.0000E+00    0.0000E+00    3.160000E+06  0.02000  3.772E-02    0   0.9858   age045_m62            0.0000     7.1637E+02    13.4241   3.3637    82.2154
103      0.0000     0.0000E+00    0.0000E+00    5.010000E+06  0.02000  3.227E-02    0   0.9342   age055_m62            0.0000     3.0278E+02     9.2171   2.8329    89.3957
104      0.0000     0.0000E+00    0.0000E+00    6.610000E+06  0.02000  2.387E-02    0   0.9090   age061_m62            0.0000     4.6466E+02    11.4599   2.5862    88.7192
105      0.0000     0.0000E+00    0.0000E+00    8.710000E+06  0.02000  1.102E-02    0   0.8861   age067_m62            0.0000     1.2044E+03    18.1861   2.2071    84.1367
106      0.0000     0.0000E+00    0.0000E+00    1.000000E+07  0.02000  1.011E-02    0   0.8751   age070_m62            0.0000     8.5418E+02    15.4030   2.2217    86.7240
107      0.0000     0.0000E+00    0.0000E+00    1.445000E+07  0.02000  7.331E-03    0   0.8472   age078_m62            0.0000     6.1085E+02    13.0486   2.2313    88.3473
108      0.0000     0.0000E+00    0.0000E+00    2.512000E+07  0.02000  4.206E-03    0   0.8099   age090_m62            0.0000     6.1283E+02    12.9290   2.1300    88.0312
109      0.0000     0.0000E+00    0.0000E+00    4.000000E+07  0.02000  3.373E-03    0   0.7799   age104_m62            0.0000     1.9366E+02     7.3631   1.9134    96.8649
110      0.0000     0.0000E+00    0.0000E+00    5.500000E+07  0.02000  2.747E-03    0   0.7595   age110_m62            0.0000     1.6312E+02     5.4819   1.8381   100.4382
111      0.0000     0.0000E+00    0.0000E+00    1.015200E+08  0.02000  1.878E-03    0   0.7221   age116_m62            0.0000     3.0285E+02     5.5253   1.6845   105.4938
112      0.0000     0.0000E+00    0.0000E+00    1.609000E+08  0.02000  1.378E-03    0   0.6978   age120_m62            0.0000     4.5236E+02     6.6841   1.5196   108.3556
113      0.0000     0.0000E+00    0.0000E+00    2.861200E+08  0.02000  8.869E-04    0   0.6700   age125_m62            0.0000     7.3139E+02     9.0696   1.1272   113.0770
114      0.0000     0.0000E+00    0.0000E+00    5.088000E+08  0.02000  4.834E-04    0   0.6430   age130_m62            0.0000     6.0936E+02     9.3122   0.6622   115.9015
115      0.0000     0.0000E+00    0.0000E+00    9.047900E+08  0.02000  2.312E-04    0   0.6152   age135_m62            0.0000     2.2728E+02     6.6989   0.0452   115.0558
116      0.0000     0.0000E+00    0.0000E+00    1.278050E+09  0.02000  1.387E-04    0   0.5927   age138_m62            0.0000     1.0520E+02     5.0442  -0.3410   110.3670
117      0.0000     0.0000E+00    0.0000E+00    1.434000E+09  0.02000  1.168E-04    0   0.5865   age139_m62            0.0000     1.0264E+02     4.9377  -0.3669   108.7065
118      0.0000     0.0000E+00    0.0000E+00    2.500000E+09  0.02000  5.505E-05    0   0.5610   age150_m62            0.0000     2.0903E+02     6.5182  -0.7608   105.7650
119      0.0000     0.0000E+00    0.0000E+00    4.250000E+09  0.02000  3.070E-05    0   0.5407   age158_m62            0.0000     4.0510E+02     8.5603  -1.0000   104.3564
120      0.0000     0.0000E+00    0.0000E+00    6.250000E+09  0.02000  2.104E-05    0   0.5277   age166_m62            0.0000     5.8477E+02     9.5304  -1.0000   102.0000
121      0.0000     0.0000E+00    0.0000E+00    7.500000E+09  0.02000  1.770E-05    0   0.5223   age171_m62            0.0000     7.1363E+02    10.3875  -1.0000   100.4336
122      0.0000     0.0000E+00    0.0000E+00    1.000000E+10  0.02000  1.297E-05    0   0.5121   age181_m62            0.0000     1.0298E+03    12.7765  -1.0000    97.2819
123      0.0000     0.0000E+00    0.0000E+00    1.300000E+10  0.02000  9.691E-06    0   0.5047   age193_m62            0.0000     1.2518E+03    14.2367  -1.0000    95.6491
124      0.0000     0.0000E+00    0.0000E+00    1.500000E+10  0.02000  8.360E-06    0   0.4999   age201_m62            0.0000     1.4536E+03    15.4430  -1.0000    94.1588
125      0.0000     0.0000E+00    0.0000E+00    1.800000E+10  0.02000  6.911E-06    0   0.4946   age213_m62            0.0000     1.6953E+03    16.7420  -1.0000    92.5558
126      0.0000     0.0000E+00    0.0000E+00    1.000000E+06  0.05000  2.651E-02    0   0.9998   age020_m72            0.0000     7.3129E+02    13.2760   3.5071    81.0591
127      0.0000     0.0000E+00    0.0000E+00    3.160000E+06  0.05000  4.817E-02    0   0.9577   age045_m72            0.0000     5.1762E+02    11.4497   3.2136    85.3416
128      0.0000     0.0000E+00    0.0000E+00    5.010000E+06  0.05000  3.101E-02    0   0.9147   age055_m72            0.0000     4.8702E+02    11.3293   2.8485    87.9319
129      0.0000     0.0000E+00    0.0000E+00    6.610000E+06  0.05000  1.472E-02    0   0.8877   age061_m72            0.0000     9.6462E+02    15.9460   2.3990    86.0185
130      0.0000     0.0000E+00    0.0000E+00    8.710000E+06  0.05000  1.050E-02    0   0.8638   age067_m72            0.0000     6.6881E+02    13.1030   2.7909    86.7636
131      0.0000     0.0000E+00    0.0000E+00    1.000000E+07  0.05000  8.954E-03    0   0.8524   age070_m72            0.0000     4.9042E+02    11.0092   3.0700    86.9841
132      0.0000     0.0000E+00    0.0000E+00    1.445000E+07  0.05000  6.392E-03    0   0.8262   age078_m72            0.0000     4.1682E+02    10.1610   3.0111    88.0760
133      0.0000     0.0000E+00    0.0000E+00    2.512000E+07  0.05000  4.207E-03    0   0.7902   age090_m72            0.0000     2.4630E+02     8.0322   2.6105    92.6305
134      0.0000     0.0000E+00    0.0000E+00    4.000000E+07  0.05000  3.198E-03    0   0.7618   age104_m72            0.0000     1.8199E+02     4.7079   2.0568   101.0060
135      0.0000     0.0000E+00    0.0000E+00    5.500000E+07  0.05000  2.593E-03    0   0.7432   age110_m72            0.0000     2.3775E+02     5.0319   1.9572   103.0267
136      0.0000     0.0000E+00    0.0000E+00    1.015200E+08  0.05000  1.716E-03    0   0.7092   age116_m72            0.0000     3.7165E+02     6.1268   1.7548   105.9585
137      0.0000     0.0000E+00    0.0000E+00    1.609000E+08  0.05000  1.218E-03    0   0.6876   age120_m72            0.0000     5.3477E+02     7.3740   1.4767   108.9916
138      0.0000     0.0000E+00    0.0000E+00    2.861200E+08  0.05000  7.047E-04    0   0.6618   age125_m72            0.0000     6.7117E+02     9.2707   0.8929   113.7591
139      0.0000     0.0000E+00    0.0000E+00    5.088000E+08  0.05000  3.590E-04    0   0.6356   age130_m72            0.0000     4.7215E+02     8.8343   0.2840   116.9492
140      0.0000     0.0000E+00    0.0000E+00    9.047900E+08  0.05000  1.484E-04    0   0.6088   age135_m72            0.0000     1.7708E+02     6.6117  -0.4647   110.2254
141      7.2804     7.8597E+00    8.7823E+00    1.278050E+09  0.05000  9.435E-05    0   0.5924   age138_m72            0.0000     2.8948E+02     8.0457  -0.8979   107.3391
142      0.5655     7.3587E-01    8.1156E-01    1.434000E+09  0.05000  7.827E-05    0   0.5847   age139_m72            0.0000     2.9290E+02     7.9294  -0.8801   106.6172
143      0.0000     0.0000E+00    0.0000E+00    2.500000E+09  0.05000  3.759E-05    0   0.5583   age150_m72            0.0000     5.5616E+02     9.4535  -1.0000   101.4791
144      0.0000     0.0000E+00    0.0000E+00    4.250000E+09  0.05000  1.842E-05    0   0.5374   age158_m72            0.0000     1.0909E+03    13.4811  -1.0000    94.0064
145      0.0000     0.0000E+00    0.0000E+00    6.250000E+09  0.05000  1.207E-05    0   0.5242   age166_m72            0.0000     1.7204E+03    17.1806  -1.0000    88.0609
146      0.0000     0.0000E+00    0.0000E+00    7.500000E+09  0.05000  9.993E-06    0   0.5183   age171_m72            0.0000     1.8411E+03    17.7970  -1.0000    86.9579
147      0.0000     0.0000E+00    0.0000E+00    1.000000E+10  0.05000  7.291E-06    0   0.5081   age181_m72            0.0000     2.2650E+03    19.7069  -1.0000    83.8429
148      0.0000     0.0000E+00    0.0000E+00    1.300000E+10  0.05000  5.316E-06    0   0.5018   age193_m72            0.0000     2.9650E+03    22.3557  -1.0000    79.2068
149      0.0000     0.0000E+00    0.0000E+00    1.500000E+10  0.05000  4.497E-06    0   0.4972   age201_m72            0.0000     3.2803E+03    23.3973  -1.0000    77.5785
150      0.0000     0.0000E+00    0.0000E+00    1.800000E+10  0.05000  3.739E-06    0   0.4924   age213_m72            0.0000     3.7309E+03    24.7755  -1.0000    75.0986


## Synthesis Results - Average & Chains ##

# j      x_j: min, <> & last-chain-values for 1 ...  7 chains
  1      0.0000      0.0005      0.0000      0.0000      0.0000      0.0000      0.0000      0.0000      0.0000
  2     16.3615     15.9763     16.6107     16.0512     16.3607     16.5457     16.0847     16.0431     16.1968
  3      0.0000      0.0018      0.0000      0.0000      0.0000      0.0000      0.0000      0.0000      0.0000
  4      0.0000      0.0003      0.0000      0.0000      0.0000      0.0000      0.0000      0.0000      0.0000
  5      0.0000      0.0006      0.0000      0.0000      0.0000      0.0000      0.0000      0.0000      0.0000
  6      0.0000      0.0004      0.0000      0.0000      0.0000      0.0000      0.0000      0.0000      0.0096
  7      0.0000      0.0005      0.0000      0.0000      0.0000      0.0000      0.0000      0.0000      0.0000
  8      0.0000      0.0020      0.0000      0.0000      0.0000      0.0000      0.0000      0.0000      0.0000
  9      0.0000      0.0096      0.0000      0.0000      0.0000      0.0000      0.0000      0.0000      0.0000
 10      0.0000      0.0104      0.0000      0.0000      0.0000      0.0000      0.0000      0.0000      0.0466
 11      0.0000      0.0295      0.0000      0.0000      0.0000      0.0000      0.0000      0.1381      0.0000
 12      0.0000      0.0191      0.0000      0.0000      0.0000      0.0316      0.0000      0.0000      0.0000
 13      0.0000      0.0132      0.0000      0.0000      0.0000      0.0000      0.0000      0.0000      0.0000
 14      0.0000      0.0132      0.0000      0.0000      0.0000      0.0000      0.0000      0.0000      0.0000
 15      0.0000      0.0206      0.0220      0.0000      0.0000      0.0000      0.0000      0.0000      0.0000
 16      0.0000      0.0240      0.0000      0.0000      0.0000      0.0000      0.0000      0.0317      0.0000
 17      0.0000      0.0293      0.0209      0.0000      0.0000      0.0000      0.0000      0.0295      0.0000
 18      0.0000      0.0293      0.0000      0.0000      0.1299      0.0000      0.1505      0.0000      0.0321
 19      0.0000      0.0735      0.0965      0.0048      0.0000      0.0000      0.2038      0.2344      0.0370
 20      0.0000      0.2155      0.0000      0.0000      0.2950      0.1372      0.0000      0.0000      0.0348
 21      0.0000      0.1695      0.1374      0.2170      0.0000      0.0000      0.0000      0.0000      0.0000
 22      0.0000      0.2147      0.0616      0.2205      0.0892      0.0419      0.2634      0.1250      0.0000
 23      0.0052      0.2374      0.0000      0.0000      0.7255      0.0000      0.0000      0.3217      0.8788
 24      0.0000      0.2246      0.2157      0.0376      0.0000      0.0000      0.2742      0.1667      0.0000
 25      0.0000      0.4067      0.0000      0.4839      0.2330      0.4519      0.4295      0.0743      0.0000
 26      0.0000      0.0006      0.0000      0.0000      0.0000      0.0000      0.0000      0.0000      0.0000
 27      0.0000      0.0029      0.0000      0.0000      0.0000      0.0000      0.0000      0.0000      0.0000
 28      0.0000      0.0011      0.0000      0.0000      0.0000      0.0000      0.0000      0.0000      0.0000
 29      0.0000      0.0007      0.0000      0.0000      0.0000      0.0000      0.0000      0.0000      0.0000
 30      0.0000      0.0006      0.0000      0.0000      0.0000      0.0000      0.0000      0.0000      0.0000
 31      0.0000      0.0007      0.0000      0.0000      0.0000      0.0000      0.0000      0.0000      0.0000
 32      0.0000      0.0018      0.0000      0.0000      0.0000      0.0000      0.0000      0.0000      0.0000
 33      0.0000      0.0028      0.0000      0.0000      0.0000      0.0000      0.0000      0.0000      0.0000
 34      0.0000      0.0097      0.0000      0.0000      0.0000      0.0000      0.0000      0.0000      0.0000
 35      0.0000      0.0089      0.0000      0.0000      0.0000      0.0000      0.0000      0.0414      0.0000
 36      0.0000      0.0898      0.0000      0.0000      0.2019      0.0000      0.7901      0.0000      0.0000
 37      0.3001      0.1130      0.2429      0.2140      0.1808      0.0653      0.1842      0.0362      0.2203
 38      0.0000      0.0225      0.0000      0.0000      0.0786      0.0678      0.0000      0.0000      0.0000
 39      0.0000      0.0178      0.0000      0.0000      0.0000      0.0000      0.0000      0.0000      0.0000
 40      0.0000      0.0237      0.0000      0.0000      0.0000      0.0927      0.0000      0.0000      0.0319
 41      0.0000      0.0460      0.1326      0.2855      0.0189      0.0000      0.0000      0.0586      0.0000
 42      0.0000      0.0477      0.0000      0.0000      0.0000      0.0000      0.0000      0.0000      0.0000
 43     10.0590     11.9734     12.8032     11.9211     12.0172     12.4355     11.1332     12.2279     12.1800
 44     27.3864     24.4841     25.0838     24.8605     24.4096     24.6516     25.4563     24.7874     25.8023
 45      0.1132      0.5865      0.5649      0.0000      0.8093      0.4116      0.0000      1.6205      0.3270
 46      0.8244      0.5338      0.3470      1.4032      0.7276      1.4407      1.8130      0.0000      0.5686
 47      8.2410      8.0849      7.0647      8.1434      8.0304      7.3132      7.2188      8.2499      8.3835
 48      0.0024      0.3383      1.2987      0.0000      0.0000      0.0000      0.0000      0.0000      0.2653
 49      0.0000      0.3674      0.1012      0.7871      0.0000      0.4463      0.4562      0.0000      0.0000
 50      0.0000      0.2519      0.0528      0.0628      0.0588      0.1137      0.3542      0.2421      0.0902
 51      0.0000      0.0004      0.0000      0.0000      0.0000      0.0000      0.0000      0.0000      0.0000
 52      0.0000      0.0068      0.0000      0.0000      0.0000      0.0000      0.0000      0.0000      0.0000
 53      0.0000      0.0013      0.0000      0.0000      0.0000      0.0000      0.0000      0.0000      0.0000
 54      0.0000      0.0158      0.0000      0.0000      0.0025      0.0000      0.0000      0.0000      0.0000
 55      0.0000      0.0059      0.0000      0.0000      0.0000      0.0000      0.0000      0.0036      0.0000
 56      0.0000      0.0037      0.0000      0.0000      0.0000      0.0000      0.0000      0.0000      0.0000
 57      0.0000      0.0012      0.0000      0.0000      0.0000      0.0000      0.0000      0.0000      0.0000
 58      0.0000      0.0033      0.0000      0.0000      0.0000      0.0000      0.0000      0.0000      0.0000
 59      0.0000      0.0062      0.0000      0.0000      0.0000      0.0000      0.0155      0.0000      0.0000
 60      0.0000      0.0159      0.0275      0.0000      0.0000      0.0000      0.0000      0.0000      0.0000
 61      0.0261      0.0868      0.2152      0.3862      0.0000      0.0000      0.0000      0.0000      0.1620
 62      1.6289      0.1055      0.0000      0.0000      0.1995      0.4308      0.0000      0.4551      0.2242
 63      0.0000      0.0185      0.0000      0.0615      0.0000      0.0000      0.0000      0.0000      0.0000
 64      0.0000      0.0343      0.0000      0.0000      0.0000      0.0000      0.0000      0.0000      0.0287
 65      0.0000      0.1058      0.0000      0.0000      0.0000      0.0087      0.1026      0.0000      0.0000
 66      0.0000      0.0788      0.0553      0.0000      0.0193      0.1781      0.0070      0.0888      0.1157
 67      0.0000      0.2867      0.0000      0.8526      1.3631      0.1632      0.7028      0.2009      0.0100
 68     29.1854     27.4034     28.6125     27.4595     27.4974     28.3519     27.9437     27.8000     27.8392
 69      0.0000      0.0953      0.1681      0.0000      0.0607      0.0000      0.0938      0.0000      0.0000
 70      0.0000      0.0761      0.1119      0.0000      0.0000      0.0432      0.2867      0.0000      0.0107
 71      0.0000      0.0525      0.0000      0.2173      0.1133      0.0558      0.0398      0.0000      0.0054
 72      0.0000      0.0316      0.0000      0.0000      0.0000      0.2201      0.0000      0.0000      0.0000
 73      0.0000      0.0177      0.0064      0.0000      0.0051      0.0000      0.0000      0.0000      0.0000
 74      0.0000      0.0179      0.0000      0.0000      0.0000      0.0000      0.0000      0.0000      0.0000
 75      0.0000      0.0136      0.0000      0.0000      0.0000      0.0000      0.0000      0.0000      0.0000
 76      0.0000      0.0007      0.0000      0.0000      0.0000      0.0000      0.0000      0.0000      0.0000
 77      0.0000      0.0007      0.0019      0.0000      0.0000      0.0000      0.0000      0.0000      0.0000
 78      0.0000      0.0011      0.0000      0.0000      0.0000      0.0000      0.0000      0.0000      0.0000
 79      0.0000      0.0037      0.0000      0.0000      0.0048      0.0000      0.0000      0.0127      0.0000
 80      0.0000      0.0032      0.0000      0.0000      0.0000      0.0000      0.0000      0.0000      0.0000
 81      0.0000      0.0018      0.0000      0.0000      0.0000      0.0000      0.0000      0.0000      0.0000
 82      0.0000      0.0038      0.0000      0.0000      0.0000      0.0000      0.0000      0.0000      0.0000
 83      0.0000      0.0126      0.0000      0.0000      0.0000      0.0000      0.0000      0.0000      0.0000
 84      0.0000      0.0135      0.0000      0.0965      0.0000      0.0000      0.0000      0.0000      0.0000
 85      0.0000      0.0167      0.0000      0.0000      0.0000      0.0000      0.0000      0.0000      0.0000
 86      0.0000      0.0583      0.0000      0.0271      0.0000      0.0688      0.0000      0.4058      0.0000
 87      0.0000      0.0298      0.0000      0.0000      0.0000      0.1279      0.0224      0.0000      0.0000
 88      0.0000      0.0194      0.0000      0.0000      0.0000      0.0000      0.0000      0.0000      0.0000
 89      0.0000      0.0136      0.0000      0.0000      0.0000      0.0000      0.0000      0.0000      0.0000
 90      0.0000      0.0209      0.0000      0.0000      0.0000      0.0000      0.0000      0.0000      0.0000
 91      0.0000      0.0319      0.0000      0.0000      0.0000      0.0000      0.0000      0.0000      0.0000
 92      0.0000      0.0505      0.0000      0.0000      0.0000      0.0056      0.0000      0.0000      0.0000
 93      0.0000      0.2493      0.2685      0.0485      0.0000      0.0000      0.0930      0.4177      0.0000
 94      0.1837      0.1049      0.0000      0.0000      0.3991      0.0994      0.1397      0.0000      0.6961
 95      0.0000      0.0552      0.0292      0.0000      0.1093      0.0203      0.0142      0.2727      0.0745
 96      0.0000      0.0657      0.2104      0.3841      0.0000      0.0000      0.0000      0.0936      0.0000
 97      0.0000      0.0392      0.2055      0.1097      0.0781      0.0000      0.0000      0.0732      0.0000
 98      0.0000      0.0530      0.0000      0.0000      0.0000      0.0000      0.0000      0.2071      0.1220
 99      0.0000      0.0338      0.0341      0.1055      0.0122      0.0000      0.0000      0.0000      0.1029
100      0.0000      0.0343      0.0006      0.0000      0.1012      0.0165      0.0000      0.0000      0.0000
101      0.0000      0.0004      0.0000      0.0000      0.0000      0.0000      0.0000      0.0000      0.0000
102      0.0000      0.0006      0.0000      0.0000      0.0000      0.0000      0.0000      0.0000      0.0000
103      0.0000      0.0026      0.0000      0.0000      0.0249      0.0000      0.0000      0.0000      0.0000
104      0.0000      0.0022      0.0000      0.0000      0.0000      0.0000      0.0000      0.0000      0.0000
105      0.0000      0.0005      0.0000      0.0000      0.0000      0.0000      0.0000      0.0000      0.0000
106      0.0000      0.0009      0.0000      0.0000      0.0000      0.0000      0.0000      0.0000      0.0000
107      0.0000      0.0012      0.0000      0.0000      0.0000      0.0000      0.0000      0.0000      0.0000
108      0.0000      0.0010      0.0000      0.0000      0.0000      0.0000      0.0000      0.0000      0.0000
109      0.0000      0.0018      0.0000      0.0000      0.0000      0.0000      0.0035      0.0000      0.0000
110      0.0000      0.0046      0.0000      0.0000      0.0000      0.0000      0.0000      0.0000      0.0000
111      0.0000      0.0127      0.0000      0.0000      0.0048      0.0000      0.0000      0.0000      0.0000
112      0.0000      0.0114      0.0000      0.0000      0.0000      0.0000      0.0000      0.0000      0.0000
113      0.0000      0.0122      0.0804      0.0000      0.0000      0.0000      0.0000      0.0484      0.0000
114      0.0000      0.0121      0.0000      0.0000      0.0000      0.0000      0.0117      0.0275      0.0000
115      0.0000      0.0382      0.0000      0.0000      0.0000      0.0000      0.0000      0.0374      0.0000
116      0.0000      0.0255      0.0000      0.0000      0.0000      0.0000      0.0000      0.0000      0.0078
117      0.0000      0.0318      0.0000      0.0000      0.1686      0.0000      0.0000      0.0000      0.1619
118      0.0000      0.0253      0.0000      0.0000      0.0000      0.0000      0.0000      0.0000      0.0000
119      0.0000      0.0167      0.0000      0.0000      0.0000      0.0000      0.0000      0.0000      0.0000
120      0.0000      0.0133      0.0000      0.0000      0.0000      0.0000      0.0000      0.0000      0.0000
121      0.0000      0.0172      0.1385      0.0000      0.0000      0.0000      0.0000      0.0000      0.0000
122      0.0000      0.0064      0.0000      0.0000      0.0000      0.0000      0.0000      0.0000      0.0000
123      0.0000      0.0068      0.0030      0.0000      0.0000      0.0000      0.0000      0.0000      0.0000
124      0.0000      0.0043      0.0000      0.0000      0.0000      0.0000      0.0000      0.0000      0.0000
125      0.0000      0.0039      0.0000      0.0000      0.0000      0.0000      0.0000      0.0000      0.0072
126      0.0000      0.0005      0.0000      0.0000      0.0000      0.0000      0.0000      0.0000      0.0000
127      0.0000      0.0010      0.0000      0.0000      0.0000      0.0000      0.0000      0.0000      0.0000
128      0.0000      0.0022      0.0000      0.0000      0.0000      0.0000      0.0000      0.0000      0.0000
129      0.0000      0.0008      0.0000      0.0000      0.0000      0.0159      0.0000      0.0000      0.0000
130      0.0000      0.0009      0.0000      0.0000      0.0000      0.0000      0.0000      0.0000      0.0000
131      0.0000      0.0005      0.0000      0.0000      0.0000      0.0000      0.0000      0.0000      0.0000
132      0.0000      0.0013      0.0000      0.0000      0.0000      0.0000      0.0000      0.0000      0.0000
133      0.0000      0.0014      0.0000      0.0000      0.0000      0.0000      0.0000      0.0000      0.0000
134      0.0000      0.0059      0.0000      0.0000      0.0000      0.0000      0.0000      0.0000      0.0021
135      0.0000      0.0072      0.0000      0.0000      0.0000      0.0000      0.0000      0.0000      0.0000
136      0.0000      0.0102      0.0000      0.0000      0.0000      0.0000      0.0000      0.0000      0.0000
137      0.0000      0.0131      0.0000      0.0000      0.0000      0.0000      0.0000      0.0000      0.0000
138      0.0000      0.0137      0.0000      0.0000      0.0000      0.0000      0.0000      0.0000      0.0000
139      0.0000      0.0350      0.0000      0.0000      0.0000      0.0684      0.0363      0.0282      0.1283
140      0.0000      0.0561      0.0000      0.0000      0.0205      0.0000      0.0000      0.0459      0.0101
141      7.2804      7.1615      7.1054      7.1910      7.3086      7.5578      7.6185      7.1173      6.8334
142      0.5655      0.4249      0.0521      0.5194      0.3111      0.5032      0.2252      0.4440      0.5015
143      0.0000      0.0338      0.0000      0.0000      0.0000      0.0000      0.0000      0.0000      0.0000
144      0.0000      0.0036      0.0000      0.0000      0.0000      0.0000      0.0000      0.0000      0.0000
145      0.0000      0.0022      0.0000      0.0000      0.0000      0.0000      0.0000      0.0000      0.0000
146      0.0000      0.0017      0.0000      0.0000      0.0000      0.0000      0.0000      0.0000      0.0000
147      0.0000      0.0015      0.0000      0.0000      0.0000      0.0000      0.0000      0.0000      0.0000
148      0.0000      0.0014      0.0000      0.0000      0.0000      0.0000      0.0000      0.0000      0.0000
149      0.0000      0.0012      0.0000      0.0000      0.0000      0.0000      0.0000      0.0000      0.0000
150      0.0000      0.0014      0.0000      0.0000      0.0000      0.0000      0.0000      0.0000      0.0000

# j      m_j: min, <> & last-chain-values for 1 ...  7 chains
  1  0.0000E+00  1.0579E-05  0.0000E+00  0.0000E+00  0.0000E+00  0.0000E+00  0.0000E+00  0.0000E+00  0.0000E+00
  2  6.6052E-02  6.0579E-02  6.4643E-02  6.0993E-02  6.3742E-02  6.5226E-02  6.2522E-02  6.2283E-02  6.2396E-02
  3  0.0000E+00  1.5758E-05  0.0000E+00  0.0000E+00  0.0000E+00  0.0000E+00  0.0000E+00  0.0000E+00  0.0000E+00
  4  0.0000E+00  5.4267E-06  0.0000E+00  0.0000E+00  0.0000E+00  0.0000E+00  0.0000E+00  0.0000E+00  0.0000E+00
  5  0.0000E+00  1.2967E-05  0.0000E+00  0.0000E+00  0.0000E+00  0.0000E+00  0.0000E+00  0.0000E+00  0.0000E+00
  6  0.0000E+00  1.1057E-05  0.0000E+00  0.0000E+00  0.0000E+00  0.0000E+00  0.0000E+00  0.0000E+00  2.4599E-04
  7  0.0000E+00  1.4684E-05  0.0000E+00  0.0000E+00  0.0000E+00  0.0000E+00  0.0000E+00  0.0000E+00  0.0000E+00
  8  0.0000E+00  7.3632E-05  0.0000E+00  0.0000E+00  0.0000E+00  0.0000E+00  0.0000E+00  0.0000E+00  0.0000E+00
  9  0.0000E+00  3.7272E-04  0.0000E+00  0.0000E+00  0.0000E+00  0.0000E+00  0.0000E+00  0.0000E+00  0.0000E+00
 10  0.0000E+00  4.5877E-04  0.0000E+00  0.0000E+00  0.0000E+00  0.0000E+00  0.0000E+00  0.0000E+00  2.0981E-03
 11  0.0000E+00  1.5624E-03  0.0000E+00  0.0000E+00  0.0000E+00  0.0000E+00  0.0000E+00  7.4909E-03  0.0000E+00
 12  0.0000E+00  1.7704E-03  0.0000E+00  0.0000E+00  0.0000E+00  3.0460E-03  0.0000E+00  0.0000E+00  0.0000E+00
 13  0.0000E+00  1.4213E-03  0.0000E+00  0.0000E+00  0.0000E+00  0.0000E+00  0.0000E+00  0.0000E+00  0.0000E+00
 14  0.0000E+00  2.0184E-03  0.0000E+00  0.0000E+00  0.0000E+00  0.0000E+00  0.0000E+00  0.0000E+00  0.0000E+00
 15  0.0000E+00  4.7605E-03  5.2028E-03  0.0000E+00  0.0000E+00  0.0000E+00  0.0000E+00  0.0000E+00  0.0000E+00
 16  0.0000E+00  8.0133E-03  0.0000E+00  0.0000E+00  0.0000E+00  0.0000E+00  0.0000E+00  1.0836E-02  0.0000E+00
 17  0.0000E+00  1.0853E-02  7.9509E-03  0.0000E+00  0.0000E+00  0.0000E+00  0.0000E+00  1.1209E-02  0.0000E+00
 18  0.0000E+00  1.7697E-02  0.0000E+00  0.0000E+00  8.0650E-02  0.0000E+00  9.3228E-02  0.0000E+00  1.9695E-02
 19  0.0000E+00  6.7318E-02  9.0698E-02  4.4097E-03  0.0000E+00  0.0000E+00  1.9129E-01  2.1979E-01  3.4384E-02
 20  0.0000E+00  2.8227E-01  0.0000E+00  0.0000E+00  3.9693E-01  1.8673E-01  0.0000E+00  0.0000E+00  4.6246E-02
 21  0.0000E+00  2.5676E-01  2.1358E-01  3.2954E-01  0.0000E+00  0.0000E+00  0.0000E+00  0.0000E+00  0.0000E+00
 22  0.0000E+00  4.1970E-01  1.2356E-01  4.3194E-01  1.7920E-01  8.5164E-02  5.2775E-01  2.5011E-01  0.0000E+00
 23  1.3643E-02  5.8815E-01  0.0000E+00  0.0000E+00  1.8471E+00  0.0000E+00  0.0000E+00  8.1617E-01  2.2124E+00
 24  0.0000E+00  6.3634E-01  6.2723E-01  1.0691E-01  0.0000E+00  0.0000E+00  7.9656E-01  4.8374E-01  0.0000E+00
 25  0.0000E+00  1.3845E+00  0.0000E+00  1.6509E+00  8.1508E-01  1.5992E+00  1.4986E+00  2.5897E-01  0.0000E+00
 26  0.0000E+00  1.2082E-05  0.0000E+00  0.0000E+00  0.0000E+00  0.0000E+00  0.0000E+00  0.0000E+00  0.0000E+00
 27  0.0000E+00  1.3271E-05  0.0000E+00  0.0000E+00  0.0000E+00  0.0000E+00  0.0000E+00  0.0000E+00  0.0000E+00
 28  0.0000E+00  9.8694E-06  0.0000E+00  0.0000E+00  0.0000E+00  0.0000E+00  0.0000E+00  0.0000E+00  0.0000E+00
 29  0.0000E+00  9.7058E-06  0.0000E+00  0.0000E+00  0.0000E+00  0.0000E+00  0.0000E+00  0.0000E+00  0.0000E+00
 30  0.0000E+00  9.9729E-06  0.0000E+00  0.0000E+00  0.0000E+00  0.0000E+00  0.0000E+00  0.0000E+00  0.0000E+00
 31  0.0000E+00  1.4335E-05  0.0000E+00  0.0000E+00  0.0000E+00  0.0000E+00  0.0000E+00  0.0000E+00  0.0000E+00
 32  0.0000E+00  3.9683E-05  0.0000E+00  0.0000E+00  0.0000E+00  0.0000E+00  0.0000E+00  0.0000E+00  0.0000E+00
 33  0.0000E+00  8.7062E-05  0.0000E+00  0.0000E+00  0.0000E+00  0.0000E+00  0.0000E+00  0.0000E+00  0.0000E+00
 34  0.0000E+00  3.6929E-04  0.0000E+00  0.0000E+00  0.0000E+00  0.0000E+00  0.0000E+00  0.0000E+00  0.0000E+00
 35  0.0000E+00  4.1012E-04  0.0000E+00  0.0000E+00  0.0000E+00  0.0000E+00  0.0000E+00  1.9472E-03  0.0000E+00
 36  0.0000E+00  5.2897E-03  0.0000E+00  0.0000E+00  1.2220E-02  0.0000E+00  4.7716E-02  0.0000E+00  0.0000E+00
 37  2.3387E-02  8.2703E-03  1.8247E-02  1.5697E-02  1.3599E-02  4.9722E-03  1.3820E-02  2.7125E-03  1.6385E-02
 38  0.0000E+00  2.2981E-03  0.0000E+00  0.0000E+00  8.2370E-03  7.1888E-03  0.0000E+00  0.0000E+00  0.0000E+00
 39  0.0000E+00  2.7095E-03  0.0000E+00  0.0000E+00  0.0000E+00  0.0000E+00  0.0000E+00  0.0000E+00  0.0000E+00
 40  0.0000E+00  6.3709E-03  0.0000E+00  0.0000E+00  0.0000E+00  2.5867E-02  0.0000E+00  0.0000E+00  8.7009E-03
 41  0.0000E+00  1.6525E-02  4.8943E-02  1.0289E-01  6.9691E-03  0.0000E+00  0.0000E+00  2.1559E-02  0.0000E+00
 42  0.0000E+00  1.9160E-02  0.0000E+00  0.0000E+00  0.0000E+00  0.0000E+00  0.0000E+00  0.0000E+00  0.0000E+00
 43  6.9951E+00  7.8206E+00  8.5828E+00  7.8031E+00  8.0651E+00  8.4445E+00  7.4546E+00  8.1774E+00  8.0827E+00
 44  3.0120E+01  2.5292E+01  2.6594E+01  2.5736E+01  2.5908E+01  2.6475E+01  2.6957E+01  2.6216E+01  2.7080E+01
 45  1.7352E-01  8.4439E-01  8.3473E-01  0.0000E+00  1.1973E+00  6.1613E-01  0.0000E+00  2.3888E+00  4.7834E-01
 46  1.5053E+00  9.1557E-01  6.1090E-01  2.4117E+00  1.2823E+00  2.5689E+00  3.1877E+00  0.0000E+00  9.9079E-01
 47  1.9723E+01  1.8174E+01  1.6299E+01  1.8345E+01  1.8548E+01  1.7091E+01  1.6635E+01  1.8988E+01  1.9147E+01
 48  6.8639E-03  9.0567E-01  3.5678E+00  0.0000E+00  0.0000E+00  0.0000E+00  0.0000E+00  0.0000E+00  7.2159E-01
 49  0.0000E+00  1.1001E+00  3.1092E-01  2.3621E+00  0.0000E+00  1.3893E+00  1.4005E+00  0.0000E+00  0.0000E+00
 50  0.0000E+00  8.8718E-01  1.9086E-01  2.2157E-01  2.1285E-01  4.1649E-01  1.2789E+00  8.7294E-01  3.2271E-01
 51  0.0000E+00  6.9288E-06  0.0000E+00  0.0000E+00  0.0000E+00  0.0000E+00  0.0000E+00  0.0000E+00  0.0000E+00
 52  0.0000E+00  3.0143E-05  0.0000E+00  0.0000E+00  0.0000E+00  0.0000E+00  0.0000E+00  0.0000E+00  0.0000E+00
 53  0.0000E+00  8.8249E-06  0.0000E+00  0.0000E+00  0.0000E+00  0.0000E+00  0.0000E+00  0.0000E+00  0.0000E+00
 54  0.0000E+00  1.0193E-04  0.0000E+00  0.0000E+00  1.6405E-05  0.0000E+00  0.0000E+00  0.0000E+00  0.0000E+00
 55  0.0000E+00  5.5819E-05  0.0000E+00  0.0000E+00  0.0000E+00  0.0000E+00  0.0000E+00  3.4600E-05  0.0000E+00
 56  0.0000E+00  4.6761E-05  0.0000E+00  0.0000E+00  0.0000E+00  0.0000E+00  0.0000E+00  0.0000E+00  0.0000E+00
 57  0.0000E+00  2.4294E-05  0.0000E+00  0.0000E+00  0.0000E+00  0.0000E+00  0.0000E+00  0.0000E+00  0.0000E+00
 58  0.0000E+00  9.7208E-05  0.0000E+00  0.0000E+00  0.0000E+00  0.0000E+00  0.0000E+00  0.0000E+00  0.0000E+00
 59  0.0000E+00  2.5138E-04  0.0000E+00  0.0000E+00  0.0000E+00  0.0000E+00  6.4336E-04  0.0000E+00  0.0000E+00
 60  0.0000E+00  7.1622E-04  1.2724E-03  0.0000E+00  0.0000E+00  0.0000E+00  0.0000E+00  0.0000E+00  0.0000E+00
 61  1.5915E-03  4.9751E-03  1.2665E-02  2.2190E-02  0.0000E+00  0.0000E+00  0.0000E+00  0.0000E+00  9.4372E-03
 62  1.2609E-01  7.6729E-03  0.0000E+00  0.0000E+00  1.4901E-02  3.2566E-02  0.0000E+00  3.3879E-02  1.6563E-02
 63  0.0000E+00  2.0429E-03  0.0000E+00  6.8115E-03  0.0000E+00  0.0000E+00  0.0000E+00  0.0000E+00  0.0000E+00
 64  0.0000E+00  6.2492E-03  0.0000E+00  0.0000E+00  0.0000E+00  0.0000E+00  0.0000E+00  0.0000E+00  5.3140E-03
 65  0.0000E+00  3.2531E-02  0.0000E+00  0.0000E+00  0.0000E+00  2.7771E-03  3.2357E-02  0.0000E+00  0.0000E+00
 66  0.0000E+00  3.0990E-02  2.2320E-02  0.0000E+00  7.8219E-03  7.2858E-02  2.8193E-03  3.5789E-02  4.6246E-02
 67  0.0000E+00  1.5481E-01  0.0000E+00  4.6141E-01  7.5637E-01  9.1634E-02  3.8910E-01  1.1110E-01  5.4761E-03
 68  3.1200E+01  2.7515E+01  2.9486E+01  2.7631E+01  2.8369E+01  2.9596E+01  2.8763E+01  2.8579E+01  2.8399E+01
 69  0.0000E+00  1.6501E-01  2.9868E-01  0.0000E+00  1.0802E-01  0.0000E+00  1.6648E-01  0.0000E+00  0.0000E+00
 70  0.0000E+00  1.8343E-01  2.7678E-01  0.0000E+00  0.0000E+00  1.0833E-01  7.0822E-01  0.0000E+00  2.6262E-02
 71  0.0000E+00  1.4918E-01  0.0000E+00  6.1931E-01  3.3100E-01  1.6490E-01  1.1593E-01  0.0000E+00  1.5496E-02
 72  0.0000E+00  1.1837E-01  0.0000E+00  0.0000E+00  0.0000E+00  8.5644E-01  0.0000E+00  0.0000E+00  0.0000E+00
 73  0.0000E+00  8.3435E-02  3.0969E-02  0.0000E+00  2.4617E-02  0.0000E+00  0.0000E+00  0.0000E+00  0.0000E+00
 74  0.0000E+00  9.4461E-02  0.0000E+00  0.0000E+00  0.0000E+00  0.0000E+00  0.0000E+00  0.0000E+00  0.0000E+00
 75  0.0000E+00  8.2529E-02  0.0000E+00  0.0000E+00  0.0000E+00  0.0000E+00  0.0000E+00  0.0000E+00  0.0000E+00
 76  0.0000E+00  9.8554E-06  0.0000E+00  0.0000E+00  0.0000E+00  0.0000E+00  0.0000E+00  0.0000E+00  0.0000E+00
 77  0.0000E+00  3.9499E-06  1.1362E-05  0.0000E+00  0.0000E+00  0.0000E+00  0.0000E+00  0.0000E+00  0.0000E+00
 78  0.0000E+00  6.8303E-06  0.0000E+00  0.0000E+00  0.0000E+00  0.0000E+00  0.0000E+00  0.0000E+00  0.0000E+00
 79  0.0000E+00  2.8733E-05  0.0000E+00  0.0000E+00  3.7832E-05  0.0000E+00  0.0000E+00  1.0050E-04  0.0000E+00
 80  0.0000E+00  3.1843E-05  0.0000E+00  0.0000E+00  0.0000E+00  0.0000E+00  0.0000E+00  0.0000E+00  0.0000E+00
 81  0.0000E+00  2.4013E-05  0.0000E+00  0.0000E+00  0.0000E+00  0.0000E+00  0.0000E+00  0.0000E+00  0.0000E+00
 82  0.0000E+00  6.7470E-05  0.0000E+00  0.0000E+00  0.0000E+00  0.0000E+00  0.0000E+00  0.0000E+00  0.0000E+00
 83  0.0000E+00  3.2730E-04  0.0000E+00  0.0000E+00  0.0000E+00  0.0000E+00  0.0000E+00  0.0000E+00  0.0000E+00
 84  0.0000E+00  4.8396E-04  0.0000E+00  3.4734E-03  0.0000E+00  0.0000E+00  0.0000E+00  0.0000E+00  0.0000E+00
 85  0.0000E+00  7.2937E-04  0.0000E+00  0.0000E+00  0.0000E+00  0.0000E+00  0.0000E+00  0.0000E+00  0.0000E+00
 86  0.0000E+00  3.4462E-03  0.0000E+00  1.6076E-03  0.0000E+00  4.2283E-03  0.0000E+00  2.4560E-02  0.0000E+00
 87  0.0000E+00  2.3479E-03  0.0000E+00  0.0000E+00  0.0000E+00  1.0471E-02  1.8051E-03  0.0000E+00  0.0000E+00
 88  0.0000E+00  2.3265E-03  0.0000E+00  0.0000E+00  0.0000E+00  0.0000E+00  0.0000E+00  0.0000E+00  0.0000E+00
 89  0.0000E+00  2.7079E-03  0.0000E+00  0.0000E+00  0.0000E+00  0.0000E+00  0.0000E+00  0.0000E+00  0.0000E+00
 90  0.0000E+00  7.7179E-03  0.0000E+00  0.0000E+00  0.0000E+00  0.0000E+00  0.0000E+00  0.0000E+00  0.0000E+00
 91  0.0000E+00  1.5146E-02  0.0000E+00  0.0000E+00  0.0000E+00  0.0000E+00  0.0000E+00  0.0000E+00  0.0000E+00
 92  0.0000E+00  3.2043E-02  0.0000E+00  0.0000E+00  0.0000E+00  3.6928E-03  0.0000E+00  0.0000E+00  0.0000E+00
 93  0.0000E+00  3.2143E-01  3.5542E-01  6.2664E-02  0.0000E+00  0.0000E+00  1.2291E-01  5.5154E-01  0.0000E+00
 94  4.5221E-01  2.4253E-01  0.0000E+00  0.0000E+00  9.4835E-01  2.3898E-01  3.3131E-01  0.0000E+00  1.6356E+00
 95  0.0000E+00  1.7210E-01  9.3499E-02  0.0000E+00  3.4995E-01  6.5703E-02  4.5455E-02  8.6976E-01  2.3596E-01
 96  0.0000E+00  2.4691E-01  8.1156E-01  1.4469E+00  0.0000E+00  0.0000E+00  0.0000E+00  3.6007E-01  0.0000E+00
 97  0.0000E+00  1.9190E-01  1.0331E+00  5.3849E-01  3.9304E-01  0.0000E+00  0.0000E+00  3.6715E-01  0.0000E+00
 98  0.0000E+00  3.3320E-01  0.0000E+00  0.0000E+00  0.0000E+00  0.0000E+00  0.0000E+00  1.3320E+00  7.7859E-01
 99  0.0000E+00  2.4191E-01  2.5032E-01  7.5727E-01  8.9601E-02  0.0000E+00  0.0000E+00  0.0000E+00  7.4875E-01
100  0.0000E+00  2.8255E-01  5.4243E-03  0.0000E+00  8.5720E-01  1.4162E-01  0.0000E+00  0.0000E+00  0.0000E+00
101  0.0000E+00  4.0063E-06  0.0000E+00  0.0000E+00  0.0000E+00  0.0000E+00  0.0000E+00  0.0000E+00  0.0000E+00
102  0.0000E+00  2.6970E-06  0.0000E+00  0.0000E+00  0.0000E+00  0.0000E+00  0.0000E+00  0.0000E+00  0.0000E+00
103  0.0000E+00  1.3595E-05  0.0000E+00  0.0000E+00  1.3388E-04  0.0000E+00  0.0000E+00  0.0000E+00  0.0000E+00
104  0.0000E+00  1.5119E-05  0.0000E+00  0.0000E+00  0.0000E+00  0.0000E+00  0.0000E+00  0.0000E+00  0.0000E+00
105  0.0000E+00  6.7838E-06  0.0000E+00  0.0000E+00  0.0000E+00  0.0000E+00  0.0000E+00  0.0000E+00  0.0000E+00
106  0.0000E+00  1.3415E-05  0.0000E+00  0.0000E+00  0.0000E+00  0.0000E+00  0.0000E+00  0.0000E+00  0.0000E+00
107  0.0000E+00  2.4682E-05  0.0000E+00  0.0000E+00  0.0000E+00  0.0000E+00  0.0000E+00  0.0000E+00  0.0000E+00
108  0.0000E+00  3.6209E-05  0.0000E+00  0.0000E+00  0.0000E+00  0.0000E+00  0.0000E+00  0.0000E+00  0.0000E+00
109  0.0000E+00  7.4416E-05  0.0000E+00  0.0000E+00  0.0000E+00  0.0000E+00  1.4945E-04  0.0000E+00  0.0000E+00
110  0.0000E+00  2.3000E-04  0.0000E+00  0.0000E+00  0.0000E+00  0.0000E+00  0.0000E+00  0.0000E+00  0.0000E+00
111  0.0000E+00  8.8447E-04  0.0000E+00  0.0000E+00  3.4519E-04  0.0000E+00  0.0000E+00  0.0000E+00  0.0000E+00
112  0.0000E+00  1.0381E-03  0.0000E+00  0.0000E+00  0.0000E+00  0.0000E+00  0.0000E+00  0.0000E+00  0.0000E+00
113  0.0000E+00  1.6646E-03  1.1249E-02  0.0000E+00  0.0000E+00  0.0000E+00  0.0000E+00  6.7592E-03  0.0000E+00
114  0.0000E+00  2.9015E-03  0.0000E+00  0.0000E+00  0.0000E+00  0.0000E+00  2.8743E-03  6.7575E-03  0.0000E+00
115  0.0000E+00  1.8339E-02  0.0000E+00  0.0000E+00  0.0000E+00  0.0000E+00  0.0000E+00  1.8393E-02  0.0000E+00
116  0.0000E+00  1.9655E-02  0.0000E+00  0.0000E+00  0.0000E+00  0.0000E+00  0.0000E+00  0.0000E+00  6.1208E-03
117  0.0000E+00  2.8790E-02  0.0000E+00  0.0000E+00  1.5701E-01  0.0000E+00  0.0000E+00  0.0000E+00  1.4905E-01
118  0.0000E+00  4.6482E-02  0.0000E+00  0.0000E+00  0.0000E+00  0.0000E+00  0.0000E+00  0.0000E+00  0.0000E+00
119  0.0000E+00  5.3024E-02  0.0000E+00  0.0000E+00  0.0000E+00  0.0000E+00  0.0000E+00  0.0000E+00  0.0000E+00
120  0.0000E+00  5.9974E-02  0.0000E+00  0.0000E+00  0.0000E+00  0.0000E+00  0.0000E+00  0.0000E+00  0.0000E+00
121  0.0000E+00  9.1596E-02  7.5706E-01  0.0000E+00  0.0000E+00  0.0000E+00  0.0000E+00  0.0000E+00  0.0000E+00
122  0.0000E+00  4.5646E-02  0.0000E+00  0.0000E+00  0.0000E+00  0.0000E+00  0.0000E+00  0.0000E+00  0.0000E+00
123  0.0000E+00  6.4312E-02  2.8708E-02  0.0000E+00  0.0000E+00  0.0000E+00  0.0000E+00  0.0000E+00  0.0000E+00
124  0.0000E+00  4.6783E-02  0.0000E+00  0.0000E+00  0.0000E+00  0.0000E+00  0.0000E+00  0.0000E+00  0.0000E+00
125  0.0000E+00  5.0951E-02  0.0000E+00  0.0000E+00  0.0000E+00  0.0000E+00  0.0000E+00  0.0000E+00  9.4681E-02
126  0.0000E+00  3.2638E-06  0.0000E+00  0.0000E+00  0.0000E+00  0.0000E+00  0.0000E+00  0.0000E+00  0.0000E+00
127  0.0000E+00  3.7496E-06  0.0000E+00  0.0000E+00  0.0000E+00  0.0000E+00  0.0000E+00  0.0000E+00  0.0000E+00
128  0.0000E+00  1.1496E-05  0.0000E+00  0.0000E+00  0.0000E+00  0.0000E+00  0.0000E+00  0.0000E+00  0.0000E+00
129  0.0000E+00  8.9409E-06  0.0000E+00  0.0000E+00  0.0000E+00  1.8016E-04  0.0000E+00  0.0000E+00  0.0000E+00
130  0.0000E+00  1.4084E-05  0.0000E+00  0.0000E+00  0.0000E+00  0.0000E+00  0.0000E+00  0.0000E+00  0.0000E+00
131  0.0000E+00  9.2383E-06  0.0000E+00  0.0000E+00  0.0000E+00  0.0000E+00  0.0000E+00  0.0000E+00  0.0000E+00
132  0.0000E+00  3.0494E-05  0.0000E+00  0.0000E+00  0.0000E+00  0.0000E+00  0.0000E+00  0.0000E+00  0.0000E+00
133  0.0000E+00  4.7143E-05  0.0000E+00  0.0000E+00  0.0000E+00  0.0000E+00  0.0000E+00  0.0000E+00  0.0000E+00
134  0.0000E+00  2.5450E-04  0.0000E+00  0.0000E+00  0.0000E+00  0.0000E+00  0.0000E+00  0.0000E+00  9.2346E-05
135  0.0000E+00  3.7085E-04  0.0000E+00  0.0000E+00  0.0000E+00  0.0000E+00  0.0000E+00  0.0000E+00  0.0000E+00
136  0.0000E+00  7.5885E-04  0.0000E+00  0.0000E+00  0.0000E+00  0.0000E+00  0.0000E+00  0.0000E+00  0.0000E+00
137  0.0000E+00  1.3351E-03  0.0000E+00  0.0000E+00  0.0000E+00  0.0000E+00  0.0000E+00  0.0000E+00  0.0000E+00
138  0.0000E+00  2.3300E-03  0.0000E+00  0.0000E+00  0.0000E+00  0.0000E+00  0.0000E+00  0.0000E+00  0.0000E+00
139  0.0000E+00  1.1187E-02  0.0000E+00  0.0000E+00  0.0000E+00  2.2722E-02  1.1879E-02  9.2188E-03  4.1638E-02
140  0.0000E+00  4.1512E-02  0.0000E+00  0.0000E+00  1.5564E-02  0.0000E+00  0.0000E+00  3.4768E-02  7.6003E-03
141  8.7823E+00  8.1141E+00  8.2625E+00  8.1650E+00  8.5084E+00  8.9025E+00  8.8488E+00  8.2564E+00  7.8660E+00
142  8.1156E-01  5.7283E-01  7.2061E-02  7.0160E-01  4.3095E-01  7.0518E-01  3.1126E-01  6.1286E-01  6.8686E-01
143  0.0000E+00  9.0505E-02  0.0000E+00  0.0000E+00  0.0000E+00  0.0000E+00  0.0000E+00  0.0000E+00  0.0000E+00
144  0.0000E+00  1.9110E-02  0.0000E+00  0.0000E+00  0.0000E+00  0.0000E+00  0.0000E+00  0.0000E+00  0.0000E+00
145  0.0000E+00  1.7530E-02  0.0000E+00  0.0000E+00  0.0000E+00  0.0000E+00  0.0000E+00  0.0000E+00  0.0000E+00
146  0.0000E+00  1.6276E-02  0.0000E+00  0.0000E+00  0.0000E+00  0.0000E+00  0.0000E+00  0.0000E+00  0.0000E+00
147  0.0000E+00  1.8333E-02  0.0000E+00  0.0000E+00  0.0000E+00  0.0000E+00  0.0000E+00  0.0000E+00  0.0000E+00
148  0.0000E+00  2.4093E-02  0.0000E+00  0.0000E+00  0.0000E+00  0.0000E+00  0.0000E+00  0.0000E+00  0.0000E+00
149  0.0000E+00  2.4618E-02  0.0000E+00  0.0000E+00  0.0000E+00  0.0000E+00  0.0000E+00  0.0000E+00  0.0000E+00
150  0.0000E+00  3.3968E-02  0.0000E+00  0.0000E+00  0.0000E+00  0.0000E+00  0.0000E+00  0.0000E+00  0.0000E+00

# AV, chi2 & Mass for <> & i_chain = 1 ...  7 solutions
AV       0.1492      0.1381      0.1405      0.1359      0.1412      0.1403      0.1416      0.1399      0.1398
chi2 2.7309E+00  2.7655E+00  2.7475E+00  2.7494E+00  2.7488E+00  2.7488E+00  2.7473E+00  2.7488E+00  2.7477E+00
Mass 3.1974E-10  3.3536E-10  3.2785E-10  3.3367E-10  3.2774E-10  3.2355E-10  3.2871E-10  3.2836E-10  3.3084E-10
 -14.48                                  [v0_min (km/s) before EX0s...]
  60.76                                  [vd_min (km/s) before EX0s...]


## Synthetic spectrum (Best Model) ##l_obs f_obs f_syn wei
 3070    [Nl_obs]
 3359.00    0.15448   0.46322   -1.000
 3360.00    0.27405   0.44693   -1.000
 3361.00    0.27348   0.45506   -1.000
 3362.00    0.28661   0.48223   -1.000
 3363.00    0.31002   0.51464   -1.000
 3364.00    0.33095   0.53450   -1.000
 3365.00    0.34387   0.53412   -1.000
 3366.00    0.34780   0.52127   -1.000
 3367.00    0.34238   0.50551   -1.000
 3368.00    0.33999   0.49256   -1.000
 3369.00    0.33587   0.48203   -1.000
 3370.00    0.32856   0.47082   -1.000
 3371.00    0.32691   0.46283   -1.000
 3372.00    0.33144   0.46572   -1.000
 3373.00    0.34460   0.48288   -1.000
 3374.00    0.36061   0.50898   -1.000
 3375.00    0.37355   0.53470   -1.000
 3376.00    0.39041   0.54770   -1.000
 3377.00    0.40531   0.54235   -1.000
 3378.00    0.41251   0.52465   -1.000
 3379.00    0.40490   0.50858   -1.000
 3380.00    0.39434   0.50464   -1.000
 3381.00    0.39673   0.51190   -1.000
 3382.00    0.40255   0.52354   -1.000
 3383.00    0.40746   0.53370   -1.000
 3384.00    0.41402   0.54194   -1.000
 3385.00    0.42115   0.54818   -1.000
 3386.00    0.42824   0.54770   -1.000
 3387.00    0.43389   0.54176   -1.000
 3388.00    0.43499   0.53877   -1.000
 3389.00    0.43897   0.54148   -1.000
 3390.00    0.44420   0.54418   -1.000
 3391.00    0.44754   0.54057   -1.000
 3392.00    0.44568   0.53088   -1.000
 3393.00    0.44080   0.52630   -1.000
 3394.00    0.44988   0.53415   -1.000
 3395.00    0.46213   0.55115   -1.000
 3396.00    0.46931   0.57045   -1.000
 3397.00    0.48714   0.58607   -1.000
 3398.00    0.50456   0.59510   -1.000
 3399.00    0.51018   0.59468   -1.000
 3400.00    0.50922   0.58536   -1.000
 3401.00    0.50545   0.56950   -1.000
 3402.00    0.49006   0.55203   -1.000
 3403.00    0.47735   0.54111   -1.000
 3404.00    0.47352   0.53819   -1.000
 3405.00    0.47139   0.53889   -1.000
 3406.00    0.46822   0.53567   -1.000
 3407.00    0.46361   0.52767   -1.000
 3408.00    0.46384   0.52215   -1.000
 3409.00    0.46103   0.52633   -1.000
 3410.00    0.45908   0.53546   -1.000
 3411.00    0.46697   0.53845   -1.000
 3412.00    0.47159   0.53328   -1.000
 3413.00    0.46901   0.52598   -1.000
 3414.00    0.46625   0.52576   -1.000
 3415.00    0.46804   0.53442   -1.000
 3416.00    0.47663   0.54717   -1.000
 3417.00    0.49504   0.56046   -1.000
 3418.00    0.50331   0.57276   -1.000
 3419.00    0.50836   0.58211   -1.000
 3420.00    0.51692   0.58538   -1.000
 3421.00    0.52066   0.57974   -1.000
 3422.00    0.51511   0.56759   52.336
 3423.00    0.50653   0.55625   53.685
 3424.00    0.50784   0.55183   53.296
 3425.00    0.51119   0.55422   51.818
 3426.00    0.51546   0.56081   51.078
 3427.00    0.52182   0.57299   -1.000
 3428.00    0.52802   0.59055   -1.000
 3429.00    0.53337   0.60469   -1.000
 3430.00    0.54022   0.60437   -1.000
 3431.00    0.54554   0.58839   -1.000
 3432.00    0.53854   0.57054   84.085
 3433.00    0.52789   0.56440   50.978
 3434.00    0.52605   0.57249   -1.000
 3435.00    0.53305   0.58406   -1.000
 3436.00    0.53741   0.58599   -1.000
 3437.00    0.53288   0.57613   52.145
 3438.00    0.51867   0.55849   54.993
 3439.00    0.50434   0.53678   58.911
 3440.00    0.48994   0.51440   62.310
 3441.00    0.47525   0.49731   63.430
 3442.00    0.46908   0.49150   63.307
 3443.00    0.47455   0.49673   61.726
 3444.00    0.48750   0.50895   58.716
 3445.00    0.50588   0.52571   55.472
 3446.00    0.52225   0.54708   53.066
 3447.00    0.53687   0.57026   -1.000
 3448.00    0.54731   0.58907   -1.000
 3449.00    0.55296   0.59565   -1.000
 3450.00    0.55353   0.58514   -1.000
 3451.00    0.55234   0.56472   -1.000
 3452.00    0.55107   0.54770  399.128
 3453.00    0.54802   0.54294  399.128
 3454.00    0.54410   0.54875  399.128
 3455.00    0.55651   0.55726  399.128
 3456.00    0.57090   0.56037   -1.000
 3457.00    0.56575   0.55529   -1.000
 3458.00    0.55492   0.54511   83.081
 3459.00    0.54692   0.53349   51.356
 3460.00    0.54190   0.52398   51.456
 3461.00    0.53928   0.52408  104.679
 3462.00    0.54373   0.53632   -1.000
 3463.00    0.55811   0.55044   -1.000
 3464.00    0.57015   0.55616   -1.000
 3465.00    0.57475   0.55477   -1.000
 3466.00    0.57478   0.55580   -1.000
 3467.00    0.57361   0.56453   -1.000
 3468.00    0.57931   0.57758  399.128
 3469.00    0.58758   0.58811  399.128
 3470.00    0.59309   0.59061  399.128
 3471.00    0.58902   0.58412  399.128
 3472.00    0.57860   0.57036   -1.000
 3473.00    0.56826   0.55073   -1.000
 3474.00    0.55366   0.53074   83.389
 3475.00    0.53240   0.51875   52.485
 3476.00    0.52408   0.52064   52.643
 3477.00    0.53541   0.53517  106.364
 3478.00    0.55820   0.55327  399.128
 3479.00    0.58035   0.56823   -1.000
 3480.00    0.59379   0.57674   -1.000
 3481.00    0.59811   0.57681   -1.000
 3482.00    0.59482   0.57075   -1.000
 3483.00    0.59078   0.56467   -1.000
 3484.00    0.58655   0.56569   -1.000
 3485.00    0.58776   0.57655   -1.000
 3486.00    0.60143   0.58870   -1.000
 3487.00    0.61016   0.58991   -1.000
 3488.00    0.59923   0.57799   -1.000
 3489.00    0.58181   0.55986   -1.000
 3490.00    0.56590   0.54805   -1.000
 3491.00    0.56020   0.54942   -1.000
 3492.00    0.56615   0.55687   -1.000
 3493.00    0.57056   0.55931   -1.000
 3494.00    0.57048   0.55277   -1.000
 3495.00    0.56525   0.54097   -1.000
 3496.00    0.55689   0.53407   -1.000
 3497.00    0.55397   0.54058   -1.000
 3498.00    0.56977   0.55605   -1.000
 3499.00    0.59211   0.56926   -1.000
 3500.00    0.60933   0.57387   -1.000
 3501.00    0.61072   0.57454   -1.000
 3502.00    0.60684   0.57760   -1.000
 3503.00    0.61073   0.58033   -1.000
 3504.00    0.61046   0.57724   -1.000
 3505.00    0.60758   0.56952   -1.000
 3506.00    0.60010   0.56351   -1.000
 3507.00    0.59756   0.56141   -1.000
 3508.00    0.60180   0.56094   -1.000
 3509.00    0.59803   0.55912   -1.000
 3510.00    0.59095   0.55473   -1.000
 3511.00    0.58421   0.54914   -1.000
 3512.00    0.57753   0.54275   -1.000
 3513.00    0.57348   0.53811   -1.000
 3514.00    0.56978   0.54139   -1.000
 3515.00    0.57080   0.55600   -1.000
 3516.00    0.58638   0.57778   -1.000
 3517.00    0.60575   0.59448   -1.000
 3518.00    0.60981   0.59610   -1.000
 3519.00    0.60235   0.58334   -1.000
 3520.00    0.58775   0.56583   -1.000
 3521.00    0.57341   0.55214   -1.000
 3522.00    0.56503   0.54210   -1.000
 3523.00    0.55794   0.53117   81.815
 3524.00    0.54316   0.51940   51.997
 3525.00    0.53519   0.51427   52.576
 3526.00    0.53512   0.52302  108.692
 3527.00    0.54438   0.54265  399.128
 3528.00    0.56500   0.56474  399.128
 3529.00    0.59109   0.58106   -1.000
 3530.00    0.59990   0.58796   -1.000
 3531.00    0.59643   0.58797   -1.000
 3532.00    0.59558   0.58424   -1.000
 3533.00    0.59675   0.57991   -1.000
 3534.00    0.59792   0.57827   -1.000
 3535.00    0.59991   0.58144   -1.000
 3536.00    0.60027   0.59014   -1.000
 3537.00    0.60273   0.60141  399.128
 3538.00    0.60990   0.61117  399.128
 3539.00    0.61743   0.61595  399.128
 3540.00    0.61865   0.61451  399.128
 3541.00    0.61163   0.61122  399.128
 3542.00    0.60695   0.61177  399.128
 3543.00    0.60867   0.61685   -1.000
 3544.00    0.61628   0.62125  399.128
 3545.00    0.61583   0.62043  399.128
 3546.00    0.60832   0.61626   -1.000
 3547.00    0.60410   0.61296   -1.000
 3548.00    0.60244   0.61324   -1.000
 3549.00    0.60556   0.61657   -1.000
 3550.00    0.60973   0.61996   -1.000
 3551.00    0.60436   0.61943   -1.000
 3552.00    0.59106   0.61248   -1.000
 3553.00    0.58301   0.60341   -1.000
 3554.00    0.57894   0.59872   -1.000
 3555.00    0.57862   0.60026   -1.000
 3556.00    0.58123   0.60558   -1.000
 3557.00    0.58485   0.61043   -1.000
 3558.00    0.58301   0.61140   -1.000
 3559.00    0.58118   0.61033   -1.000
 3560.00    0.58609   0.61187   -1.000
 3561.00    0.58927   0.61633   -1.000
 3562.00    0.59198   0.61694   -1.000
 3563.00    0.59290   0.60503   -1.000
 3564.00    0.57500   0.58089   81.549
 3565.00    0.54371   0.55756   52.682
 3566.00    0.52781   0.54572   53.198
 3567.00    0.52700   0.54383   52.760
 3568.00    0.53092   0.54276   53.699
 3569.00    0.52727   0.53601   55.048
 3570.00    0.51650   0.52738   54.409
 3571.00    0.51730   0.52456   52.247
 3572.00    0.52630   0.52837  108.174
 3573.00    0.53566   0.53409  399.128
 3574.00    0.54568   0.53931  399.128
 3575.00    0.54997   0.54524  399.128
 3576.00    0.55276   0.55201  399.128
 3577.00    0.55412   0.55721  399.128
 3578.00    0.55075   0.55557   84.186
 3579.00    0.54332   0.54405   55.619
 3580.00    0.52475   0.52851   59.260
 3581.00    0.50882   0.51693   60.802
 3582.00    0.50374   0.51324   61.096
 3583.00    0.51012   0.51332   62.113
 3584.00    0.50788   0.50690   63.978
 3585.00    0.49013   0.49272   65.378
 3586.00    0.48214   0.48088   63.716
 3587.00    0.48381   0.48120   60.365
 3588.00    0.49474   0.49579   57.328
 3589.00    0.51255   0.51932   53.092
 3590.00    0.53234   0.54320  107.910
 3591.00    0.55412   0.56015  399.128
 3592.00    0.56893   0.56827  399.128
 3593.00    0.56991   0.57158  399.128
 3594.00    0.57310   0.57694  399.128
 3595.00    0.58008   0.58737  399.128
 3596.00    0.58729   0.59898   -1.000
 3597.00    0.59455   0.60799   -1.000
 3598.00    0.59972   0.61373   -1.000
 3599.00    0.60904   0.61529  384.861
 3600.00    0.61251   0.60922  397.805
 3601.00    0.60196   0.59414   -1.000
 3602.00    0.58353   0.57618  399.128
 3603.00    0.56576   0.56382  399.128
 3604.00    0.56043   0.56163  399.128
 3605.00    0.56471   0.56531  399.128
 3606.00    0.56761   0.56648  399.128
 3607.00    0.56477   0.56167  399.128
 3608.00    0.55300   0.55353  399.128
 3609.00    0.54283   0.54888  399.128
 3610.00    0.54405   0.55115  399.128
 3611.00    0.55573   0.55760  399.128
 3612.00    0.56064   0.56486  399.128
 3613.00    0.56001   0.57267   -1.000
 3614.00    0.56922   0.58379   -1.000
 3615.00    0.58234   0.59488   -1.000
 3616.00    0.58449   0.59375   -1.000
 3617.00    0.56807   0.57716   -1.000
 3618.00    0.54226   0.55782   79.690
 3619.00    0.53277   0.55142  108.170
 3620.00    0.54920   0.56240   -1.000
 3621.00    0.57458   0.58065  399.128
 3622.00    0.59360   0.59551  399.128
 3623.00    0.59941   0.60532  396.799
 3624.00    0.59777   0.61642   -1.000
 3625.00    0.60514   0.63378   -1.000
 3626.00    0.62106   0.65328   -1.000
 3627.00    0.63166   0.66420   -1.000
 3628.00    0.63087   0.65520   -1.000
 3629.00    0.61328   0.62570   -1.000
 3630.00    0.57991   0.58925   -1.000
 3631.00    0.55189   0.56470   -1.000
 3632.00    0.54417   0.56193   -1.000
 3633.00    0.55230   0.57485   -1.000
 3634.00    0.56731   0.58943   -1.000
 3635.00    0.57932   0.59735   -1.000
 3636.00    0.59186   0.60281   -1.000
 3637.00    0.60263   0.61285   -1.000
 3638.00    0.61229   0.62677   -1.000
 3639.00    0.62034   0.63782   -1.000
 3640.00    0.62281   0.63931   -1.000
 3641.00    0.61574   0.62981   -1.000
 3642.00    0.60278   0.61360   -1.000
 3643.00    0.58916   0.59805   -1.000
 3644.00    0.57695   0.58820   -1.000
 3645.00    0.57335   0.58329   -1.000
 3646.00    0.57531   0.58036  399.128
 3647.00    0.56910   0.57892   -1.000
 3648.00    0.56491   0.57973   -1.000
 3649.00    0.57032   0.58362   -1.000
 3650.00    0.58201   0.59186   -1.000
 3651.00    0.59335   0.60460   -1.000
 3652.00    0.60658   0.61963   -1.000
 3653.00    0.61640   0.63335   -1.000
 3654.00    0.62425   0.64417   -1.000
 3655.00    0.62925   0.65332   -1.000
 3656.00    0.63462   0.66136   -1.000
 3657.00    0.63990   0.66665   -1.000
 3658.00    0.64091   0.66813   -1.000
 3659.00    0.64264   0.66621   -1.000
 3660.00    0.64072   0.66102   -1.000
 3661.00    0.63697   0.65314   -1.000
 3662.00    0.62779   0.64491   -1.000
 3663.00    0.62110   0.63958   -1.000
 3664.00    0.62473   0.63933   -1.000
 3665.00    0.63327   0.64179  361.950
 3666.00    0.63135   0.64246   -1.000
 3667.00    0.62591   0.63828   -1.000
 3668.00    0.61652   0.63076   -1.000
 3669.00    0.60613   0.62682   -1.000
 3670.00    0.60830   0.63046   -1.000
 3671.00    0.62193   0.64008   -1.000
 3672.00    0.63017   0.64972   -1.000
 3673.00    0.63409   0.65358   -1.000
 3674.00    0.63662   0.65056   -1.000
 3675.00    0.63324   0.64138   -1.000
 3676.00    0.62512   0.62744  376.711
 3677.00    0.61323   0.61248  388.266
 3678.00    0.60050   0.60189  398.891
 3679.00    0.58926   0.59955   -1.000
 3680.00    0.58885   0.60389   -1.000
 3681.00    0.59911   0.61091   -1.000
 3682.00    0.60640   0.61673   -1.000
 3683.00    0.60734   0.61746   -1.000
 3684.00    0.60418   0.61085  395.144
 3685.00    0.59376   0.59878  399.128
 3686.00    0.58271   0.58988  399.128
 3687.00    0.57954   0.59327   -1.000
 3688.00    0.58822   0.61062   -1.000
 3689.00    0.60838   0.63302   -1.000
 3690.00    0.62615   0.64922   -1.000
 3691.00    0.63381   0.65494   -1.000
 3692.00    0.63951   0.65431   -1.000
 3693.00    0.64557   0.65341  365.035
 3694.00    0.64450   0.65309   -1.000
 3695.00    0.63755   0.65097   -1.000
 3696.00    0.63005   0.64740   -1.000
 3697.00    0.63200   0.65009   -1.000
 3698.00    0.64802   0.66577   -1.000
 3699.00    0.67161   0.68818   -1.000
 3700.00    0.68159   0.70113   -1.000
 3701.00    0.67304   0.68961   -1.000
 3702.00    0.64417   0.65374   -1.000
 3703.00    0.60282   0.60932  399.128
 3704.00    0.57128   0.57540  399.128
 3705.00    0.56391   0.56431  399.128
 3706.00    0.57458   0.57357  399.128
 3707.00    0.59083   0.59070  399.128
 3708.00    0.60218   0.60305  399.128
 3709.00    0.60808   0.60442  399.128
 3710.00    0.60489   0.59904  383.990
 3711.00    0.60367   0.59892  363.711
 3712.00    0.61475   0.61353  345.034
 3713.00    0.64342   0.64248  333.559
 3714.00    0.68050   0.67606  329.869
 3715.00    0.70315   0.70137  334.946
 3716.00    0.71107   0.71115  347.773
 3717.00    0.69935   0.70190  374.160
 3718.00    0.66389   0.66888  399.128
 3719.00    0.60944   0.61429  399.128
 3720.00    0.55224   0.55725   79.381
 3721.00    0.51886   0.52390  113.902
 3722.00    0.52392   0.52843  399.128
 3723.00    0.56575   0.56753  398.875
 3724.00    0.62369   0.62207  373.359
 3725.00    0.66974   0.66380  369.428
 3726.00    0.68400   0.68194  378.197
 3727.00    0.67905   0.68812   -1.000
 3728.00    0.67798   0.69336   -1.000
 3729.00    0.68211   0.69583   -1.000
 3730.00    0.67327   0.68347   -1.000
 3731.00    0.64450   0.64523  399.128
 3732.00    0.59483   0.58586   77.236
 3733.00    0.53419   0.52552   54.390
 3734.00    0.48856   0.48521   58.212
 3735.00    0.47758   0.47910   57.156
 3736.00    0.50034   0.50865   52.648
 3737.00    0.54800   0.56166  111.415
 3738.00    0.60933   0.62257   -1.000
 3739.00    0.66192   0.67655   -1.000
 3740.00    0.69557   0.70962   -1.000
 3741.00    0.70679   0.71691   -1.000
 3742.00    0.69878   0.70416  399.128
 3743.00    0.67932   0.68139  399.128
 3744.00    0.65166   0.65533  399.128
 3745.00    0.62540   0.62764  399.128
 3746.00    0.59867   0.59591   78.499
 3747.00    0.56481   0.55764   53.508
 3748.00    0.51962   0.51844   55.196
 3749.00    0.48646   0.49456  122.587
 3750.00    0.50101   0.50246  399.128
 3751.00    0.55262   0.54455   -1.000
 3752.00    0.61568   0.60637   -1.000
 3753.00    0.67244   0.66823  351.456
 3754.00    0.71792   0.71416  340.339
 3755.00    0.74688   0.73509   -1.000
 3756.00    0.74254   0.72767   -1.000
 3757.00    0.71047   0.70062   -1.000
 3758.00    0.67863   0.67366  399.128
 3759.00    0.67235   0.66263   -1.000
 3760.00    0.68826   0.66847   -1.000
 3761.00    0.70743   0.68217   -1.000
 3762.00    0.71655   0.69507   -1.000
 3763.00    0.71487   0.70193   -1.000
 3764.00    0.71249   0.69959   -1.000
 3765.00    0.70292   0.68724   -1.000
 3766.00    0.68245   0.66601   -1.000
 3767.00    0.65726   0.63656   -1.000
 3768.00    0.63157   0.60163   -1.000
 3769.00    0.60142   0.56953   -1.000
 3770.00    0.57927   0.55401   -1.000
 3771.00    0.58896   0.56742   -1.000
 3772.00    0.63006   0.60547   -1.000
 3773.00    0.67525   0.64920   -1.000
 3774.00    0.70148   0.68293   -1.000
 3775.00    0.72142   0.70531   -1.000
 3776.00    0.74442   0.72421   -1.000
 3777.00    0.76532   0.74699   -1.000
 3778.00    0.78751   0.77351   -1.000
 3779.00    0.80637   0.79884   -1.000
 3780.00    0.82100   0.81826  324.017
 3781.00    0.83182   0.82874  322.012
 3782.00    0.83631   0.83078  321.418
 3783.00    0.83808   0.82632   -1.000
 3784.00    0.83540   0.81459   -1.000
 3785.00    0.81702   0.79395   -1.000
 3786.00    0.78604   0.76820   -1.000
 3787.00    0.76367   0.74538   -1.000
 3788.00    0.75664   0.73275   -1.000
 3789.00    0.75479   0.73036   -1.000
 3790.00    0.74848   0.73160   -1.000
 3791.00    0.73810   0.72795   -1.000
 3792.00    0.72165   0.71311   -1.000
 3793.00    0.69213   0.68533  399.128
 3794.00    0.65737   0.64658   -1.000
 3795.00    0.61998   0.60165   -1.000
 3796.00    0.57854   0.55624   -1.000
 3797.00    0.54143   0.52071   -1.000
 3798.00    0.52735   0.51304   -1.000
 3799.00    0.55586   0.54441   -1.000
 3800.00    0.61400   0.60502   -1.000
 3801.00    0.67515   0.67176  373.413
 3802.00    0.72291   0.72516  362.366
 3803.00    0.75558   0.75825  358.226
 3804.00    0.77517   0.77302  361.059
 3805.00    0.78245   0.77389   -1.000
 3806.00    0.77657   0.77169  381.822
 3807.00    0.78067   0.77915  377.916
 3808.00    0.80199   0.79891  364.700
 3809.00    0.82395   0.82231  356.959
 3810.00    0.83551   0.83532  360.076
 3811.00    0.83254   0.82715  375.140
 3812.00    0.81238   0.79885   -1.000
 3813.00    0.78546   0.76424   -1.000
 3814.00    0.76557   0.74057   -1.000
 3815.00    0.75367   0.73817   -1.000
 3816.00    0.76201   0.75250   -1.000
 3817.00    0.78296   0.76691   -1.000
 3818.00    0.78387   0.76610   -1.000
 3819.00    0.75687   0.74914   -1.000
 3820.00    0.73249   0.73177  399.128
 3821.00    0.73875   0.72793   -1.000
 3822.00    0.75500   0.73202   -1.000
 3823.00    0.74929   0.72587   -1.000
 3824.00    0.72203   0.70351   79.699
 3825.00    0.69169   0.67801   53.938
 3826.00    0.67480   0.66157   54.044
 3827.00    0.66925   0.65383   53.299
 3828.00    0.66430   0.64841   52.423
 3829.00    0.65730   0.63951   52.535
 3830.00    0.64320   0.62191   54.318
 3831.00    0.61061   0.59142   58.015
 3832.00    0.56702   0.54847   60.861
 3833.00    0.52564   0.50204   60.706
 3834.00    0.49723   0.46840   58.649
 3835.00    0.48985   0.45791   56.972
 3836.00    0.50430   0.47022   57.317
 3837.00    0.52699   0.49807   58.675
 3838.00    0.55156   0.53241   58.493
 3839.00    0.58112   0.56910   55.903
 3840.00    0.61488   0.60972  124.802
 3841.00    0.65915   0.65423  399.128
 3842.00    0.71024   0.69818   -1.000
 3843.00    0.75289   0.73532   -1.000
 3844.00    0.77819   0.76146   -1.000
 3845.00    0.78690   0.77913   -1.000
 3846.00    0.79351   0.79321  399.128
 3847.00    0.80009   0.80315  399.128
 3848.00    0.79942   0.80503  399.128
 3849.00    0.79017   0.80168   -1.000
 3850.00    0.78606   0.80234   -1.000
 3851.00    0.79832   0.81282   -1.000
 3852.00    0.81590   0.82750   -1.000
 3853.00    0.82371   0.83483   -1.000
 3854.00    0.81874   0.83027   -1.000
 3855.00    0.80544   0.81815   -1.000
 3856.00    0.79200   0.80382   -1.000
 3857.00    0.78267   0.78988   74.927
 3858.00    0.76732   0.77809   52.407
 3859.00    0.74893   0.77491   52.804
 3860.00    0.74981   0.78639   -1.000
 3861.00    0.78011   0.80864   -1.000
 3862.00    0.81905   0.82961   -1.000
 3863.00    0.84309   0.83938  399.128
 3864.00    0.84802   0.83872   -1.000
 3865.00    0.83959   0.83489  399.128
 3866.00    0.83009   0.83394  399.128
 3867.00    0.82611   0.83705   -1.000
 3868.00    0.82637   0.83878   -1.000
 3869.00    0.81359   0.83095   -1.000
 3870.00    0.79048   0.81105   75.827
 3871.00    0.76958   0.78577  118.900
 3872.00    0.75479   0.76763   -1.000
 3873.00    0.76152   0.76690  399.128
 3874.00    0.78606   0.78089  397.737
 3875.00    0.80404   0.79238   -1.000
 3876.00    0.79590   0.78624   -1.000
 3877.00    0.76446   0.76557  399.128
 3878.00    0.73617   0.74734   -1.000
 3879.00    0.72868   0.74213   -1.000
 3880.00    0.73022   0.74417   -1.000
 3881.00    0.72031   0.74132   -1.000
 3882.00    0.70750   0.72972   -1.000
 3883.00    0.69930   0.71168   -1.000
 3884.00    0.68924   0.68507  399.128
 3885.00    0.65839   0.64480   -1.000
 3886.00    0.61748   0.59343   -1.000
 3887.00    0.57613   0.54506   -1.000
 3888.00    0.54329   0.51752   -1.000
 3889.00    0.54428   0.52295   -1.000
 3890.00    0.58711   0.56110   -1.000
 3891.00    0.64836   0.61630   -1.000
 3892.00    0.69405   0.66516   -1.000
 3893.00    0.71952   0.69576   -1.000
 3894.00    0.73018   0.71317   -1.000
 3895.00    0.74278   0.72815   -1.000
 3896.00    0.76442   0.74530   -1.000
 3897.00    0.78501   0.76046   -1.000
 3898.00    0.79024   0.76936   -1.000
 3899.00    0.78822   0.77513   -1.000
 3900.00    0.79982   0.78439   -1.000
 3901.00    0.81412   0.79609   -1.000
 3902.00    0.82216   0.80265   -1.000
 3903.00    0.82343   0.80016   -1.000
 3904.00    0.81817   0.79282   -1.000
 3905.00    0.80439   0.79018   -1.000
 3906.00    0.80224   0.79992  353.180
 3907.00    0.82332   0.82403  330.153
 3908.00    0.85460   0.85484  317.412
 3909.00    0.87537   0.87974  313.092
 3910.00    0.88827   0.89284  310.198
 3911.00    0.89515   0.89492  307.976
 3912.00    0.88986   0.88808  309.771
 3913.00    0.87401   0.87577  315.332
 3914.00    0.86343   0.86424  322.508
 3915.00    0.86403   0.85821  327.811
 3916.00    0.86230   0.85589  332.084
 3917.00    0.85638   0.85190  340.014
 3918.00    0.84723   0.84357  353.409
 3919.00    0.83334   0.83299  370.001
 3920.00    0.82125   0.82507  381.104
 3921.00    0.81562   0.82321  381.342
 3922.00    0.81732   0.82663   -1.000
 3923.00    0.82161   0.83011  374.936
 3924.00    0.82145   0.82646  388.356
 3925.00    0.80698   0.80996  399.128
 3926.00    0.77370   0.77877  399.128
 3927.00    0.73354   0.73532   82.097
 3928.00    0.68785   0.68263   62.279
 3929.00    0.63171   0.62149   72.928
 3930.00    0.56960   0.54970   85.938
 3931.00    0.49733   0.46833  100.989
 3932.00    0.42005   0.39180   -1.000
 3933.00    0.37034   0.34658   -1.000
 3934.00    0.37464   0.35408  101.577
 3935.00    0.43133   0.41172   85.192
 3936.00    0.51262   0.49550   70.081
 3937.00    0.59337   0.58222   58.489
 3938.00    0.65859   0.65841  129.655
 3939.00    0.70731   0.71717  399.128
 3940.00    0.74361   0.75657   -1.000
 3941.00    0.76684   0.77780   -1.000
 3942.00    0.77667   0.78648   -1.000
 3943.00    0.78112   0.79161   -1.000
 3944.00    0.79091   0.80039   -1.000
 3945.00    0.81463   0.81412  357.754
 3946.00    0.83772   0.82752   -1.000
 3947.00    0.84094   0.83432  345.485
 3948.00    0.83800   0.83524  336.105
 3949.00    0.84395   0.83453   -1.000
 3950.00    0.85287   0.83382   -1.000
 3951.00    0.85426   0.83334   -1.000
 3952.00    0.84992   0.83553   -1.000
 3953.00    0.85483   0.84097   -1.000
 3954.00    0.86499   0.84342   -1.000
 3955.00    0.85440   0.83703   -1.000
 3956.00    0.82998   0.82528  332.243
 3957.00    0.81505   0.81699  330.009
 3958.00    0.81676   0.81270  333.023
 3959.00    0.81590   0.80135   -1.000
 3960.00    0.78726   0.77413   -1.000
 3961.00    0.74020   0.73461  399.128
 3962.00    0.69722   0.69242  399.128
 3963.00    0.66069   0.65048   76.929
 3964.00    0.61346   0.60005   58.707
 3965.00    0.54364   0.53059   71.112
 3966.00    0.45552   0.44377   87.326
 3967.00    0.36572   0.35844  100.204
 3968.00    0.30430   0.30290   98.657
 3969.00    0.29722   0.29680   84.287
 3970.00    0.34284   0.33975   69.275
 3971.00    0.41948   0.41442   57.634
 3972.00    0.50366   0.49836  128.586
 3973.00    0.58082   0.57583  399.128
 3974.00    0.64769   0.64198  386.730
 3975.00    0.70362   0.69684  353.904
 3976.00    0.74594   0.74208  330.897
 3977.00    0.78403   0.77998  312.893
 3978.00    0.82005   0.81272  296.172
 3979.00    0.84997   0.83729   -1.000
 3980.00    0.86874   0.84924   -1.000
 3981.00    0.87405   0.85073   -1.000
 3982.00    0.87181   0.85107   -1.000
 3983.00    0.87814   0.85856   -1.000
 3984.00    0.89415   0.87288   -1.000
 3985.00    0.90625   0.88763   -1.000
 3986.00    0.91752   0.89895   -1.000
 3987.00    0.93024   0.90858   -1.000
 3988.00    0.93763   0.91791   -1.000
 3989.00    0.94259   0.92556   -1.000
 3990.00    0.94639   0.93299   -1.000
 3991.00    0.95563   0.94258   -1.000
 3992.00    0.97004   0.95259   -1.000
 3993.00    0.97202   0.95743   -1.000
 3994.00    0.96824   0.95239   -1.000
 3995.00    0.95594   0.93824   -1.000
 3996.00    0.93691   0.92260   -1.000
 3997.00    0.92770   0.91613   -1.000
 3998.00    0.93976   0.92349   -1.000
 3999.00    0.96159   0.94011   -1.000
 4000.00    0.98040   0.95717   -1.000
 4001.00    0.99378   0.96694   -1.000
 4002.00    1.00084   0.96553   -1.000
 4003.00    0.98942   0.95298   -1.000
 4004.00    0.95991   0.93361   -1.000
 4005.00    0.93426   0.91945   -1.000
 4006.00    0.93569   0.92355   -1.000
 4007.00    0.96360   0.94397   -1.000
 4008.00    0.98622   0.96709   -1.000
 4009.00    0.99640   0.98191   -1.000
 4010.00    0.99924   0.98693   -1.000
 4011.00    1.00135   0.98632   -1.000
 4012.00    0.99947   0.98464   -1.000
 4013.00    0.99476   0.98559  245.369
 4014.00    0.99868   0.98958  242.355
 4015.00    1.00815   0.99421   -1.000
 4016.00    1.01183   0.99824   -1.000
 4017.00    1.00476   1.00281  245.616
 4018.00    1.00375   1.00935  242.574
 4019.00    1.01047   1.01580  241.737
 4020.00    1.01186   1.01773  244.398
 4021.00    1.00891   1.01291  246.562
 4022.00    1.00622   1.00343  248.100
 4023.00    0.99933   0.99334  249.949
 4024.00    0.99329   0.98807  246.289
 4025.00    0.99624   0.99317  238.213
 4026.00    1.00774   1.00684  232.198
 4027.00    1.02142   1.01684  232.168
 4028.00    1.01901   1.01117  239.432
 4029.00    0.99590   0.99032  253.872
 4030.00    0.97029   0.96432  266.891
 4031.00    0.95534   0.94513  272.597
 4032.00    0.95085   0.93967   -1.000
 4033.00    0.95465   0.94708  263.879
 4034.00    0.96983   0.96437  252.079
 4035.00    0.99159   0.98888  239.567
 4036.00    1.01808   1.01637  230.080
 4037.00    1.03927   1.03840  226.966
 4038.00    1.04402   1.04642  230.070
 4039.00    1.03547   1.04112  235.467
 4040.00    1.02208   1.03154  239.017
 4041.00    1.01644   1.02312  240.593
 4042.00    1.01304   1.01119  248.846
 4043.00    0.99615   0.98667  269.338
 4044.00    0.95540   0.95362  292.291
 4045.00    0.92145   0.93236  290.835
 4046.00    0.92629   0.93850  266.930
 4047.00    0.96245   0.96808  247.605
 4048.00    1.00093   1.00136  238.152
 4049.00    1.02018   1.02204  234.210
 4050.00    1.02145   1.02819  234.509
 4051.00    1.02388   1.02387  239.498
 4052.00    1.01455   1.01229  245.903
 4053.00    0.99867   0.99906  250.531
 4054.00    0.98794   0.99029  253.096
 4055.00    0.98769   0.98626  254.883
 4056.00    0.98768   0.98477  257.263
 4057.00    0.98452   0.98705  256.009
 4058.00    0.98716   0.99622  248.521
 4059.00    1.00000   1.00855  242.255
 4060.00    1.01265   1.01075  243.648
 4061.00    1.00477   0.99505  257.256
 4062.00    0.96941   0.96854  275.704
 4063.00    0.93411   0.94530   -1.000
 4064.00    0.93456   0.93591  267.410
 4065.00    0.95756   0.94026   -1.000
 4066.00    0.97297   0.95118   -1.000
 4067.00    0.98098   0.96271   -1.000
 4068.00    0.99594   0.97087   -1.000
 4069.00    1.00706   0.96955   -1.000
 4070.00    0.99022   0.95667   -1.000
 4071.00    0.96593   0.94154   -1.000
 4072.00    0.96188   0.93701   -1.000
 4073.00    0.97423   0.94297   -1.000
 4074.00    0.98255   0.94434   -1.000
 4075.00    0.96789   0.92954   -1.000
 4076.00    0.93216   0.90450   -1.000
 4077.00    0.90834   0.88730   -1.000
 4078.00    0.91393   0.89272   -1.000
 4079.00    0.93964   0.91951   -1.000
 4080.00    0.97112   0.95048   -1.000
 4081.00    0.99216   0.96762   -1.000
 4082.00    0.98911   0.96640   -1.000
 4083.00    0.96956   0.95447   -1.000
 4084.00    0.95714   0.94377   -1.000
 4085.00    0.95825   0.94290   -1.000
 4086.00    0.96978   0.95304   -1.000
 4087.00    0.98291   0.96799   -1.000
 4088.00    0.99274   0.97853   -1.000
 4089.00    0.99011   0.97895  227.052
 4090.00    0.98074   0.97070  231.496
 4091.00    0.97161   0.95969  234.634
 4092.00    0.95708   0.94786  235.566
 4093.00    0.94632   0.93276   -1.000
 4094.00    0.93159   0.91255   -1.000
 4095.00    0.90273   0.88704   -1.000
 4096.00    0.87487   0.85822   -1.000
 4097.00    0.85329   0.82538   -1.000
 4098.00    0.82417   0.78353   -1.000
 4099.00    0.77414   0.72867   -1.000
 4100.00    0.70422   0.66897   -1.000
 4101.00    0.64465   0.62902   -1.000
 4102.00    0.64082   0.63180   -1.000
 4103.00    0.69714   0.67872   -1.000
 4104.00    0.77194   0.74671   -1.000
 4105.00    0.82991   0.80751   -1.000
 4106.00    0.86337   0.84786   -1.000
 4107.00    0.88271   0.87027   -1.000
 4108.00    0.89202   0.88171  253.308
 4109.00    0.89828   0.88933  257.470
 4110.00    0.90606   0.89856  256.340
 4111.00    0.91697   0.91187  251.215
 4112.00    0.93800   0.92892  246.458
 4113.00    0.95861   0.94773  242.549
 4114.00    0.96696   0.96553  239.777
 4115.00    0.97591   0.97719  239.919
 4116.00    0.98084   0.97847  243.905
 4117.00    0.97004   0.97038  251.320
 4118.00    0.95553   0.95945  255.997
 4119.00    0.95410   0.95290  254.558
 4120.00    0.96300   0.95329  251.681
 4121.00    0.96328   0.95726  251.094
 4122.00    0.96442   0.96185  249.299
 4123.00    0.97363   0.96848  245.334
 4124.00    0.98424   0.97709  243.432
 4125.00    0.99310   0.98232  245.534
 4126.00    0.99168   0.97972   -1.000
 4127.00    0.97945   0.97192  253.419
 4128.00    0.97129   0.96531  254.900
 4129.00    0.97054   0.96171  257.535
 4130.00    0.96420   0.95609  264.245
 4131.00    0.94955   0.94634  272.687
 4132.00    0.93710   0.93939  275.767
 4133.00    0.93545   0.94437  269.420
 4134.00    0.94519   0.96210   -1.000
 4135.00    0.96730   0.98526   -1.000
 4136.00    0.99021   1.00656   -1.000
 4137.00    1.00697   1.02311   -1.000
 4138.00    1.02035   1.03511   -1.000
 4139.00    1.02476   1.03969   -1.000
 4140.00    1.01901   1.03065   -1.000
 4141.00    0.99803   1.00737  269.024
 4142.00    0.96049   0.97895   -1.000
 4143.00    0.92904   0.96027   -1.000
 4144.00    0.93355   0.96262   -1.000
 4145.00    0.96543   0.98121   -1.000
 4146.00    0.99100   0.99982  250.915
 4147.00    0.99717   1.00748  253.591
 4148.00    0.99261   1.00588   -1.000
 4149.00    0.98479   1.00319   -1.000
 4150.00    0.98305   1.00355   -1.000
 4151.00    0.98564   1.00396   -1.000
 4152.00    0.98345   0.99972   -1.000
 4153.00    0.96801   0.99099   -1.000
 4154.00    1.01361   0.98301   -1.000
 4155.00    1.07508   0.98152   -1.000
 4156.00    0.99610   0.98813  262.303
 4157.00    0.90762   1.00000   -1.000
 4158.00    0.94322   1.01256   -1.000
 4159.00    1.00084   1.02137   -1.000
 4160.00    1.01222   1.02533   -1.000
 4161.00    1.01136   1.02734   -1.000
 4162.00    1.00849   1.03071   -1.000
 4163.00    1.00819   1.03555   -1.000
 4164.00    1.00908   1.03900   -1.000
 4165.00    1.00381   1.03771   -1.000
 4166.00    0.99777   1.03166   -1.000
 4167.00    0.99398   1.02542   -1.000
 4168.00    0.99633   1.02116   -1.000
 4169.00    0.99936   1.01324   -1.000
 4170.00    0.98295   0.99398   -1.000
 4171.00    0.95307   0.96481   -1.000
 4172.00    0.92398   0.93966   -1.000
 4173.00    0.91412   0.93318   -1.000
 4174.00    0.92729   0.94613   -1.000
 4175.00    0.94825   0.96495   -1.000
 4176.00    0.96010   0.97511   -1.000
 4177.00    0.95787   0.97648   -1.000
 4178.00    0.95704   0.97866   -1.000
 4179.00    0.97015   0.98681   -1.000
 4180.00    0.98113   0.99548   -1.000
 4181.00    0.97760   0.99768   -1.000
 4182.00    0.97306   0.99672   -1.000
 4183.00    0.97522   0.99946   -1.000
 4184.00    0.97749   1.00403   -1.000
 4185.00    0.97909   1.00353   -1.000
 4186.00    0.97290   0.99637   -1.000
 4187.00    0.95930   0.98927   -1.000
 4188.00    0.95969   0.98964   -1.000
 4189.00    0.97080   0.99595   -1.000
 4190.00    0.97659   1.00242   -1.000
 4191.00    0.98024   1.00825   -1.000
 4192.00    0.99088   1.01470   -1.000
 4193.00    1.00171   1.01847   -1.000
 4194.00    1.00068   1.01346   -1.000
 4195.00    0.98274   0.99758   -1.000
 4196.00    0.96077   0.97635   -1.000
 4197.00    0.93921   0.95756   -1.000
 4198.00    0.92586   0.94582   -1.000
 4199.00    0.92737   0.94272   -1.000
 4200.00    0.93631   0.94593  271.376
 4201.00    0.93971   0.95035  269.954
 4202.00    0.94070   0.95494   -1.000
 4203.00    0.94577   0.96300   -1.000
 4204.00    0.95189   0.97469   -1.000
 4205.00    0.95718   0.98751   -1.000
 4206.00    0.96340   0.99994   -1.000
 4207.00    0.97796   1.00945   -1.000
 4208.00    0.98617   1.01356   -1.000
 4209.00    0.98732   1.01423   -1.000
 4210.00    0.98503   1.01624   -1.000
 4211.00    0.98745   1.02095   -1.000
 4212.00    0.99480   1.02279   -1.000
 4213.00    0.98871   1.01409   -1.000
 4214.00    0.96341   0.99620   -1.000
 4215.00    0.94104   0.98046   -1.000
 4216.00    0.94079   0.97813   -1.000
 4217.00    0.96274   0.99127   -1.000
 4218.00    0.98530   1.01055   -1.000
 4219.00    0.99606   1.02534   -1.000
 4220.00    1.00266   1.03139   -1.000
 4221.00    1.00352   1.02675   -1.000
 4222.00    0.99106   1.00832   -1.000
 4223.00    0.96150   0.97453   -1.000
 4224.00    0.92533   0.93056  307.546
 4225.00    0.87372   0.89079   -1.000
 4226.00    0.83009   0.87379   -1.000
 4227.00    0.83815   0.89211   -1.000
 4228.00    0.89627   0.93861   -1.000
 4229.00    0.95457   0.98682   -1.000
 4230.00    0.98411   1.01311   -1.000
 4231.00    0.98523   1.01329   -1.000
 4232.00    0.97022   0.99851   -1.000
 4233.00    0.95843   0.98206   -1.000
 4234.00    0.95688   0.97211   -1.000
 4235.00    0.95047   0.96941   -1.000
 4236.00    0.94249   0.97063   -1.000
 4237.00    0.94457   0.97526   -1.000
 4238.00    0.94853   0.98403   -1.000
 4239.00    0.95745   0.99537   -1.000
 4240.00    0.97202   1.00714   -1.000
 4241.00    0.97919   1.01701   -1.000
 4242.00    0.98265   1.02392   -1.000
 4243.00    0.98471   1.02730   -1.000
 4244.00    0.98604   1.02499   -1.000
 4245.00    0.98286   1.01405   -1.000
 4246.00    0.96612   0.99561   -1.000
 4247.00    0.94383   0.97766   -1.000
 4248.00    0.93326   0.96752   -1.000
 4249.00    0.92862   0.96609   -1.000
 4250.00    0.92945   0.97166   -1.000
 4251.00    0.94183   0.98180   -1.000
 4252.00    0.96290   0.99040   -1.000
 4253.00    0.96614   0.99219   -1.000
 4254.00    0.95310   0.99132   -1.000
 4255.00    0.95395   0.99503   -1.000
 4256.00    0.97356   1.00126   -1.000
 4257.00    0.97844   0.99982   -1.000
 4258.00    0.96176   0.98594   -1.000
 4259.00    0.94335   0.96896   -1.000
 4260.00    0.92840   0.96377   -1.000
 4261.00    0.93339   0.97686   -1.000
 4262.00    0.96024   1.00206   -1.000
 4263.00    0.98999   1.02614   -1.000
 4264.00    1.00391   1.03926   -1.000
 4265.00    1.00818   1.04020   -1.000
 4266.00    1.00249   1.03330   -1.000
 4267.00    0.98682   1.02095   -1.000
 4268.00    0.97452   1.00245   -1.000
 4269.00    0.95998   0.97764   -1.000
 4270.00    0.93105   0.95010   -1.000
 4271.00    0.89719   0.92822   -1.000
 4272.00    0.88473   0.92037   -1.000
 4273.00    0.89532   0.92726   -1.000
 4274.00    0.90651   0.94392   -1.000
 4275.00    0.92416   0.96718   -1.000
 4276.00    0.95612   0.99343   -1.000
 4277.00    0.98370   1.01369   -1.000
 4278.00    0.98950   1.01977   -1.000
 4279.00    0.97195   1.01232   -1.000
 4280.00    0.94787   0.99977   -1.000
 4281.00    0.94175   0.99072   -1.000
 4282.00    0.94735   0.98737   -1.000
 4283.00    0.95012   0.98610   -1.000
 4284.00    0.94725   0.98326   -1.000
 4285.00    0.93537   0.97589   -1.000
 4286.00    0.92487   0.96184   -1.000
 4287.00    0.91609   0.94142   -1.000
 4288.00    0.89649   0.91777   -1.000
 4289.00    0.86692   0.89963   -1.000
 4290.00    0.85913   0.89813   -1.000
 4291.00    0.87822   0.91368   -1.000
 4292.00    0.90986   0.93249   -1.000
 4293.00    0.92619   0.94043   -1.000
 4294.00    0.92314   0.93660   -1.000
 4295.00    0.91709   0.92827  269.617
 4296.00    0.90819   0.91610  281.357
 4297.00    0.88523   0.89520   -1.000
 4298.00    0.85203   0.86580   -1.000
 4299.00    0.81748   0.83660   -1.000
 4300.00    0.80184   0.81811   -1.000
 4301.00    0.80649   0.81433  323.269
 4302.00    0.81526   0.82180  318.429
 4303.00    0.82625   0.83533  314.324
 4304.00    0.83567   0.84814   -1.000
 4305.00    0.83951   0.85106   -1.000
 4306.00    0.82853   0.84158   -1.000
 4307.00    0.80435   0.82801   -1.000
 4308.00    0.78825   0.82266   -1.000
 4309.00    0.79781   0.83216   -1.000
 4310.00    0.82154   0.85137   -1.000
 4311.00    0.84038   0.86937   -1.000
 4312.00    0.85574   0.88175   -1.000
 4313.00    0.86832   0.89527   -1.000
 4314.00    0.88354   0.91992   -1.000
 4315.00    0.92010   0.95748   -1.000
 4316.00    0.96959   0.99710   -1.000
 4317.00    0.99984   1.02366   -1.000
 4318.00    1.00595   1.03082   -1.000
 4319.00    0.99729   1.02318   -1.000
 4320.00    0.98584   1.00827   -1.000
 4321.00    0.97149   0.98910   -1.000
 4322.00    0.94852   0.96372   -1.000
 4323.00    0.91614   0.93171   -1.000
 4324.00    0.87586   0.90166   -1.000
 4325.00    0.85690   0.89015   -1.000
 4326.00    0.86958   0.90676   -1.000
 4327.00    0.90838   0.94033   -1.000
 4328.00    0.94487   0.96831   -1.000
 4329.00    0.95696   0.97875   -1.000
 4330.00    0.94813   0.97650   -1.000
 4331.00    0.94112   0.97245   -1.000
 4332.00    0.94088   0.96992   -1.000
 4333.00    0.94146   0.96389   -1.000
 4334.00    0.93863   0.94743  218.769
 4335.00    0.91818   0.91435  230.351
 4336.00    0.87826   0.86082   -1.000
 4337.00    0.81700   0.79092   -1.000
 4338.00    0.74879   0.72016   -1.000
 4339.00    0.68272   0.66884   -1.000
 4340.00    0.64329   0.65426   -1.000
 4341.00    0.66745   0.68346   -1.000
 4342.00    0.73958   0.74377  247.177
 4343.00    0.81063   0.80890  237.769
 4344.00    0.85432   0.86145  231.159
 4345.00    0.88292   0.90090   -1.000
 4346.00    0.90608   0.93241   -1.000
 4347.00    0.92631   0.95645   -1.000
 4348.00    0.94419   0.96783   -1.000
 4349.00    0.94988   0.96141  229.659
 4350.00    0.92983   0.94069  246.097
 4351.00    0.89484   0.92167   -1.000
 4352.00    0.88584   0.92057   -1.000
 4353.00    0.91104   0.93987   -1.000
 4354.00    0.94312   0.96834   -1.000
 4355.00    0.96938   0.99223   -1.000
 4356.00    0.98327   1.00524   -1.000
 4357.00    0.98334   1.00835   -1.000
 4358.00    0.97625   1.00695   -1.000
 4359.00    0.97134   1.00842   -1.000
 4360.00    0.97976   1.01694   -1.000
 4361.00    0.99550   1.02981   -1.000
 4362.00    1.00587   1.04158   -1.000
 4363.00    1.01114   1.04962   -1.000
 4364.00    1.01471   1.05221   -1.000
 4365.00    1.01303   1.04672   -1.000
 4366.00    1.00037   1.03333   -1.000
 4367.00    0.98308   1.01766   -1.000
 4368.00    0.97904   1.00644   -1.000
 4369.00    0.98235   1.00162   -1.000
 4370.00    0.98320   0.99980   -1.000
 4371.00    0.98613   0.99502  226.067
 4372.00    0.98860   0.98248  233.724
 4373.00    0.97063   0.96355  243.251
 4374.00    0.94300   0.94837  245.618
 4375.00    0.93841   0.94985  237.606
 4376.00    0.95752   0.96996  225.958
 4377.00    0.98491   0.99622  220.239
 4378.00    1.00300   1.01395  220.463
 4379.00    1.00843   1.01612  223.888
 4380.00    1.00593   1.00112  232.979
 4381.00    0.98561   0.96870   -1.000
 4382.00    0.93600   0.92523  284.605
 4383.00    0.88135   0.88917  294.461
 4384.00    0.86477   0.88038   -1.000
 4385.00    0.89748   0.90069  247.189
 4386.00    0.94017   0.93278  235.682
 4387.00    0.96766   0.95795  234.263
 4388.00    0.97788   0.97012  236.397
 4389.00    0.97370   0.97370  237.609
 4390.00    0.97222   0.97534  234.166
 4391.00    0.98014   0.97860  228.954
 4392.00    0.98879   0.98023  228.961
 4393.00    0.98589   0.97526  233.385
 4394.00    0.97042   0.96819  233.954
 4395.00    0.96350   0.97017  225.245
 4396.00    0.98153   0.98264  217.702
 4397.00    1.00248   0.99285  218.681
 4398.00    1.00269   0.99022  225.817
 4399.00    0.98069   0.97923  233.022
 4400.00    0.96302   0.97236  232.416
 4401.00    0.97078   0.97433  228.367
 4402.00    0.98681   0.97697  233.588
 4403.00    0.97963   0.97207  246.304
 4404.00    0.95678   0.96353  251.250
 4405.00    0.94631   0.96073   -1.000
 4406.00    0.95966   0.96559  240.103
 4407.00    0.96859   0.97318  237.746
 4408.00    0.96765   0.98202   -1.000
 4409.00    0.97808   0.99621   -1.000
 4410.00    1.00221   1.01480  212.458
 4411.00    1.02432   1.02837  208.939
 4412.00    1.03754   1.02797  212.838
 4413.00    1.02913   1.01141   -1.000
 4414.00    0.99797   0.98515  233.167
 4415.00    0.97112   0.96335  233.904
 4416.00    0.96451   0.95872  227.024
 4417.00    0.97226   0.97329  217.783
 4418.00    0.99160   0.99898  210.983
 4419.00    1.01406   1.02265  210.664
 4420.00    1.02559   1.03320  215.415
 4421.00    1.01704   1.03042  219.798
 4422.00    1.00969   1.02398   -1.000
 4423.00    1.01280   1.02141  218.468
 4424.00    1.01420   1.02159  218.885
 4425.00    1.01167   1.02067  219.903
 4426.00    1.00151   1.01921   -1.000
 4427.00    0.99925   1.02004   -1.000
 4428.00    1.00661   1.02290   -1.000
 4429.00    1.01163   1.02551  220.527
 4430.00    1.00759   1.02670   -1.000
 4431.00    1.01239   1.02578  216.655
 4432.00    1.01505   1.02058  221.898
 4433.00    1.00157   1.00945  232.206
 4434.00    0.97860   0.99752   -1.000
 4435.00    0.96518   0.99626   -1.000
 4436.00    0.98162   1.01196   -1.000
 4437.00    1.01665   1.03723   -1.000
 4438.00    1.04147   1.05670   -1.000
 4439.00    1.04968   1.05855  209.104
 4440.00    1.03954   1.04101  218.564
 4441.00    1.01097   1.01314  228.179
 4442.00    0.97589   0.99035   -1.000
 4443.00    0.95789   0.98580   -1.000
 4444.00    0.97116   1.00161   -1.000
 4445.00    0.99830   1.02653   -1.000
 4446.00    1.01553   1.04567   -1.000
 4447.00    1.02137   1.05318   -1.000
 4448.00    1.02311   1.05266   -1.000
 4449.00    1.01986   1.04914   -1.000
 4450.00    1.01471   1.04577   -1.000
 4451.00    1.01538   1.04264   -1.000
 4452.00    1.01701   1.03521   -1.000
 4453.00    1.00373   1.01957   -1.000
 4454.00    0.97905   1.00065   -1.000
 4455.00    0.96503   0.98965   -1.000
 4456.00    0.97294   0.99136   -1.000
 4457.00    0.98937   0.99903  228.323
 4458.00    0.99143   1.00392  229.357
 4459.00    0.98500   1.00412   -1.000
 4460.00    0.97977   1.00311   -1.000
 4461.00    0.97580   1.00538   -1.000
 4462.00    0.98471   1.01296   -1.000
 4463.00    1.00088   1.02296   -1.000
 4464.00    1.01282   1.03012   -1.000
 4465.00    1.01581   1.03113   -1.000
 4466.00    1.01230   1.02518  216.964
 4467.00    1.00346   1.01419  220.849
 4468.00    0.99064   1.00472   -1.000
 4469.00    0.98465   1.00495   -1.000
 4470.00    0.99419   1.01748   -1.000
 4471.00    1.01191   1.03724   -1.000
 4472.00    1.03187   1.05655   -1.000
 4473.00    1.04732   1.07019   -1.000
 4474.00    1.05829   1.07713   -1.000
 4475.00    1.05847   1.07966   -1.000
 4476.00    1.05738   1.08027   -1.000
 4477.00    1.06412   1.07781  197.177
 4478.00    1.06272   1.06722  203.365
 4479.00    1.04346   1.04625  212.375
 4480.00    1.01660   1.02252  219.206
 4481.00    0.99498   1.00992   -1.000
 4482.00    0.99490   1.01669   -1.000
 4483.00    1.01459   1.03886   -1.000
 4484.00    1.03750   1.06407   -1.000
 4485.00    1.05718   1.08036   -1.000
 4486.00    1.06235   1.08179   -1.000
 4487.00    1.05506   1.06969   -1.000
 4488.00    1.03386   1.05238   -1.000
 4489.00    1.01591   1.04107   -1.000
 4490.00    1.01464   1.04191   -1.000
 4491.00    1.02961   1.05108   -1.000
 4492.00    1.04321   1.05870   -1.000
 4493.00    1.03879   1.05825   -1.000
 4494.00    1.02906   1.05317   -1.000
 4495.00    1.02010   1.05152   -1.000
 4496.00    1.02189   1.05602   -1.000
 4497.00    1.03741   1.06315   -1.000
 4498.00    1.04924   1.06737   -1.000
 4499.00    1.05370   1.06492  200.747
 4500.00    1.05071   1.05873  202.180
 4501.00    1.04042   1.05844   -1.000
 4502.00    1.04798   1.06986   -1.000
 4503.00    1.07192   1.08807  187.548
 4504.00    1.08600   1.10269   -1.000
 4505.00    1.08334   1.10712   -1.000
 4506.00    1.07290   1.10220   -1.000
 4507.00    1.06547   1.09408   -1.000
 4508.00    1.06246   1.08987   -1.000
 4509.00    1.06976   1.09183   -1.000
 4510.00    1.07606   1.09549   -1.000
 4511.00    1.07379   1.09505   -1.000
 4512.00    1.06729   1.08930   -1.000
 4513.00    1.05600   1.08074   -1.000
 4514.00    1.04837   1.07249   -1.000
 4515.00    1.04702   1.06736   -1.000
 4516.00    1.04563   1.06555   -1.000
 4517.00    1.04313   1.06399   -1.000
 4518.00    1.04181   1.06105   -1.000
 4519.00    1.04614   1.05902  197.362
 4520.00    1.05107   1.05917  197.027
 4521.00    1.04992   1.05831  200.937
 4522.00    1.03779   1.05339   -1.000
 4523.00    1.02628   1.04641   -1.000
 4524.00    1.02472   1.04052   -1.000
 4525.00    1.02300   1.03427  216.464
 4526.00    1.01478   1.02425  222.749
 4527.00    0.99943   1.01074  226.162
 4528.00    0.98506   0.99948   -1.000
 4529.00    0.98627   0.99656  221.784
 4530.00    0.99673   1.00179  217.723
 4531.00    1.00463   1.00741  216.060
 4532.00    1.00561   1.00465  220.694
 4533.00    0.99168   0.99440  228.064
 4534.00    0.97105   0.98824   -1.000
 4535.00    0.97099   0.99703   -1.000
 4536.00    0.99835   1.02049   -1.000
 4537.00    1.03678   1.04813  196.494
 4538.00    1.05962   1.06750  197.007
 4539.00    1.05832   1.07285  201.302
 4540.00    1.05164   1.06843   -1.000
 4541.00    1.04212   1.06292   -1.000
 4542.00    1.08570   1.06112   -1.000
 4543.00    0.80310   1.06090   -1.000
 4544.00    0.15256   1.05834   -2.000
 4545.00   -0.01538   1.05380   -2.000
 4546.00    0.33456   1.04832   -2.000
 4547.00    0.66296   1.03870   -1.000
 4548.00    0.36828   1.02335   -1.000
 4549.00    0.81292   1.01004   -1.000
 4550.00    1.00119   1.00926  214.156
 4551.00    1.01456   1.01931  209.247
 4552.00    1.02109   1.02653  212.124
 4553.00    1.01301   1.02295  214.394
 4554.00    1.00151   1.01518  212.192
 4555.00    1.00128   1.01509  205.255
 4556.00    1.01972   1.02774  197.062
 4557.00    1.04624   1.04738  192.692
 4558.00    1.06056   1.06478  192.916
 4559.00    1.06478   1.07655  193.100
 4560.00    1.06419   1.08314   -1.000
 4561.00    1.06216   1.08259   -1.000
 4562.00    1.05556   1.07274   -1.000
 4563.00    1.03874   1.05797   -1.000
 4564.00    1.02522   1.04822   -1.000
 4565.00    1.02732   1.04994   -1.000
 4566.00    1.04253   1.06098   -1.000
 4567.00    1.05492   1.07344   -1.000
 4568.00    1.06536   1.07946  193.063
 4569.00    1.06620   1.07543  197.468
 4570.00    1.04815   1.06304  202.680
 4571.00    1.02695   1.04975   -1.000
 4572.00    1.02961   1.04626   -1.000
 4573.00    1.04556   1.05565  193.760
 4574.00    1.06131   1.06845  193.335
 4575.00    1.06252   1.07470  194.109
 4576.00    1.06170   1.07374  195.200
 4577.00    1.05663   1.06878  198.104
 4578.00    1.05068   1.06015  203.575
 4579.00    1.04153   1.04773  208.214
 4580.00    1.02862   1.03455  208.587
 4581.00    1.02369   1.02427  206.040
 4582.00    1.02486   1.01778  204.210
 4583.00    1.02530   1.01579  204.414
 4584.00    1.02419   1.01968  205.598
 4585.00    1.02930   1.02814  203.580
 4586.00    1.03838   1.03773  198.663
 4587.00    1.04647   1.04609  194.211
 4588.00    1.05349   1.05183  193.167
 4589.00    1.05472   1.05394  195.425
 4590.00    1.05114   1.05247  198.965
 4591.00    1.04219   1.04872  202.517
 4592.00    1.03521   1.04556  203.377
 4593.00    1.03517   1.04580  201.979
 4594.00    1.04042   1.04947  200.339
 4595.00    1.04739   1.05473  199.600
 4596.00    1.05127   1.05989  199.172
 4597.00    1.05309   1.06327  198.730
 4598.00    1.05605   1.06340  200.046
 4599.00    1.05516   1.05994  201.871
 4600.00    1.04829   1.05439  202.685
 4601.00    1.04155   1.04981  201.049
 4602.00    1.04019   1.04845  198.776
 4603.00    1.04445   1.05016  198.599
 4604.00    1.05008   1.05360  198.431
 4605.00    1.05404   1.05784  196.617
 4606.00    1.05932   1.06330  193.038
 4607.00    1.07049   1.07038  188.934
 4608.00    1.07844   1.07783  186.348
 4609.00    1.08077   1.08291  186.607
 4610.00    1.07831   1.08301  188.883
 4611.00    1.07276   1.07890  191.106
 4612.00    1.06654   1.07422  192.512
 4613.00    1.06131   1.07172  191.977
 4614.00    1.06379   1.07104  190.382
 4615.00    1.06586   1.06988  189.427
 4616.00    1.06114   1.06689  190.314
 4617.00    1.05941   1.06265  191.731
 4618.00    1.05813   1.05919  191.863
 4619.00    1.05582   1.05932  190.323
 4620.00    1.06219   1.06466  187.499
 4621.00    1.07328   1.07332  186.859
 4622.00    1.08189   1.08048  187.268
 4623.00    1.07995   1.08264  187.662
 4624.00    1.07590   1.08069  189.129
 4625.00    1.06961   1.07725  189.858
 4626.00    1.06959   1.07385  189.849
 4627.00    1.07225   1.07019  190.818
 4628.00    1.06603   1.06625  191.404
 4629.00    1.06023   1.06445  190.693
 4630.00    1.06310   1.06713  188.702
 4631.00    1.07148   1.07205  188.948
 4632.00    1.07215   1.07396  191.391
 4633.00    1.06630   1.07072  193.666
 4634.00    1.06308   1.06559  193.920
 4635.00    1.06317   1.06255  195.131
 4636.00    1.06001   1.06155  197.559
 4637.00    1.05756   1.06101  198.731
 4638.00    1.05459   1.06138  198.634
 4639.00    1.05624   1.06438  195.822
 4640.00    1.06592   1.07047  191.246
 4641.00    1.07570   1.07757  188.215
 4642.00    1.08188   1.08208  188.373
 4643.00    1.08004   1.08094  191.413
 4644.00    1.07205   1.07386  196.512
 4645.00    1.05947   1.06259  202.010
 4646.00    1.04695   1.05029  203.768
 4647.00    1.04313   1.04268  200.924
 4648.00    1.04740   1.04438  196.370
 4649.00    1.05831   1.05364  193.308
 4650.00    1.06584   1.06434  192.562
 4651.00    1.05907   1.07120  192.202
 4652.00    1.05508   1.07213   -1.000
 4653.00    1.05336   1.06758  198.126
 4654.00    1.04450   1.06011  200.877
 4655.00    1.03782   1.05384   -1.000
 4656.00    1.03722   1.05321  194.292
 4657.00    1.05280   1.06129  186.993
 4658.00    1.07741   1.07691  182.235
 4659.00    1.09451   1.09254  181.360
 4660.00    1.09822   1.09986  183.213
 4661.00    1.09150   1.09675  187.344
 4662.00    1.08211   1.08721  191.245
 4663.00    1.07465   1.07585  192.294
 4664.00    1.07405   1.06375  194.909
 4665.00    1.06895   1.04883   -1.000
 4666.00    1.05078   1.03104   -1.000
 4667.00    1.03004   1.01628   -1.000
 4668.00    1.01743   1.01231  207.317
 4669.00    1.02183   1.02060  198.942
 4670.00    1.04447   1.03593  193.000
 4671.00    1.06395   1.05132  191.147
 4672.00    1.06975   1.06209  191.111
 4673.00    1.07125   1.06825  190.989
 4674.00    1.07194   1.07289  188.907
 4675.00    1.07465   1.07764  186.093
 4676.00    1.08010   1.07979  186.343
 4677.00    1.08091   1.07545  189.881
 4678.00    1.07284   1.06522  193.753
 4679.00    1.05874   1.05396  197.069
 4680.00    1.04974   1.04602  199.217
 4681.00    1.04878   1.04328  197.506
 4682.00    1.05501   1.04580  192.897
 4683.00    1.06342   1.05185  189.916
 4684.00    1.07224   1.05808  190.028
 4685.00    1.07616   1.06178  190.245
 4686.00    1.07582   1.06283  191.145
 4687.00    1.07127   1.06262  191.363
 4688.00    1.07182   1.06214  191.365
 4689.00    1.07300   1.06120  192.505
 4690.00    1.07246   1.05923  193.102
 4691.00    1.06656   1.05741  191.271
 4692.00    1.06736   1.05815  188.485
 4693.00    1.07691   1.06172   -1.000
 4694.00    1.08997   1.06583   -1.000
 4695.00    1.09787   1.06816   -1.000
 4696.00    1.09603   1.06654   -1.000
 4697.00    1.08764   1.05944   -1.000
 4698.00    1.07316   1.04901   -1.000
 4699.00    1.06411   1.03937   -1.000
 4700.00    1.06133   1.03202   -1.000
 4701.00    1.05910   1.02570   -1.000
 4702.00    1.05092   1.02045   -1.000
 4703.00    1.04346   1.01942   -1.000
 4704.00    1.04909   1.02424   -1.000
 4705.00    1.05488   1.03037   -1.000
 4706.00    1.05402   1.03136   -1.000
 4707.00    1.04398   1.02631   -1.000
 4708.00    1.03487   1.02127  201.020
 4709.00    1.03588   1.02266  195.887
 4710.00    1.04930   1.03080   -1.000
 4711.00    1.06722   1.04062   -1.000
 4712.00    1.07782   1.04616   -1.000
 4713.00    1.07460   1.04552   -1.000
 4714.00    1.06359   1.04281   -1.000
 4715.00    1.06130   1.04414   -1.000
 4716.00    1.07049   1.05136   -1.000
 4717.00    1.07963   1.06051   -1.000
 4718.00    1.08217   1.06721  183.885
 4719.00    1.08607   1.07037   -1.000
 4720.00    1.08723   1.07086   -1.000
 4721.00    1.08409   1.06995  185.827
 4722.00    1.08171   1.06952  185.150
 4723.00    1.08040   1.07115  183.265
 4724.00    1.08608   1.07337  183.143
 4725.00    1.08776   1.07223   -1.000
 4726.00    1.07895   1.06512  193.637
 4727.00    1.06419   1.05337  198.553
 4728.00    1.05306   1.04172  198.674
 4729.00    1.05428   1.03418   -1.000
 4730.00    1.05808   1.03110   -1.000
 4731.00    1.05837   1.03217   -1.000
 4732.00    1.05929   1.03728   -1.000
 4733.00    1.06157   1.04373   -1.000
 4734.00    1.06928   1.04757   -1.000
 4735.00    1.07127   1.04747   -1.000
 4736.00    1.06243   1.04571   -1.000
 4737.00    1.06276   1.04554   -1.000
 4738.00    1.06839   1.04784   -1.000
 4739.00    1.06934   1.05073   -1.000
 4740.00    1.06823   1.05256   -1.000
 4741.00    1.06583   1.05402  188.720
 4742.00    1.06921   1.05661  186.725
 4743.00    1.07499   1.06013   -1.000
 4744.00    1.08022   1.06324   -1.000
 4745.00    1.07799   1.06556  185.778
 4746.00    1.07996   1.06808  183.955
 4747.00    1.07993   1.07181  183.313
 4748.00    1.08315   1.07605  183.500
 4749.00    1.08321   1.07983  183.656
 4750.00    1.08484   1.08248  184.787
 4751.00    1.08239   1.08254  186.779
 4752.00    1.07923   1.07866  188.452
 4753.00    1.07581   1.07201  189.785
 4754.00    1.07069   1.06577  189.722
 4755.00    1.06720   1.06267  190.262
 4756.00    1.06437   1.06349  191.580
 4757.00    1.06135   1.06691  192.002
 4758.00    1.06491   1.07080  190.690
 4759.00    1.07017   1.07301  190.115
 4760.00    1.06773   1.07075  192.543
 4761.00    1.06256   1.06186  197.114
 4762.00    1.05194   1.04795  200.087
 4763.00    1.04381   1.03482  200.738
 4764.00    1.03929   1.02789  200.415
 4765.00    1.04371   1.02872   -1.000
 4766.00    1.05087   1.03574   -1.000
 4767.00    1.05931   1.04695  192.407
 4768.00    1.06671   1.05987  189.433
 4769.00    1.07268   1.07037  189.279
 4770.00    1.07503   1.07438  190.708
 4771.00    1.07076   1.07250  192.403
 4772.00    1.06588   1.06983  190.824
 4773.00    1.06790   1.07140  186.991
 4774.00    1.08037   1.07728  185.239
 4775.00    1.08846   1.08329  185.183
 4776.00    1.08919   1.08614  185.678
 4777.00    1.08742   1.08526  186.787
 4778.00    1.07928   1.08096  188.756
 4779.00    1.07152   1.07501  190.050
 4780.00    1.06783   1.07092  190.621
 4781.00    1.06973   1.06994  191.474
 4782.00    1.06550   1.06926  192.928
 4783.00    1.06140   1.06672  193.125
 4784.00    1.06610   1.06303  193.637
 4785.00    1.06455   1.05901  195.371
 4786.00    1.05639   1.05509  196.649
 4787.00    1.04874   1.05298  196.661
 4788.00    1.04727   1.05360  195.802
 4789.00    1.05072   1.05632  194.625
 4790.00    1.05245   1.06088  192.725
 4791.00    1.06008   1.06791  189.733
 4792.00    1.07007   1.07735  185.661
 4793.00    1.07959   1.08774  182.307
 4794.00    1.08827   1.09632  181.248
 4795.00    1.09250   1.09968  182.693
 4796.00    1.08716   1.09617  186.115
 4797.00    1.07545   1.08758  189.673
 4798.00    1.06377   1.07822  192.140
 4799.00    1.05920   1.07279  191.085
 4800.00    1.06380   1.07394  187.516
 4801.00    1.07275   1.08018  184.621
 4802.00    1.07878   1.08613  184.430
 4803.00    1.08017   1.08601  186.577
 4804.00    1.07290   1.07921  189.011
 4805.00    1.06593   1.07120  190.845
 4806.00    1.06495   1.06728  191.078
 4807.00    1.06766   1.06808  190.648
 4808.00    1.06896   1.07145  189.847
 4809.00    1.07036   1.07522  188.256
 4810.00    1.07450   1.07779  186.840
 4811.00    1.07262   1.07911  185.826
 4812.00    1.07544   1.08095  185.523
 4813.00    1.08024   1.08452  185.121
 4814.00    1.08218   1.08901  184.486
 4815.00    1.08248   1.09302  183.398
 4816.00    1.08298   1.09610  182.253
 4817.00    1.08524   1.09802  181.450
 4818.00    1.08780   1.09847  181.281
 4819.00    1.08651   1.09757  181.284
 4820.00    1.08310   1.09467  182.627
 4821.00    1.07927   1.08734  186.962
 4822.00    1.07064   1.07440  190.794
 4823.00    1.06230   1.05987  191.061
 4824.00    1.05773   1.05168  188.110
 4825.00    1.05813   1.05389  185.103
 4826.00    1.06587   1.06199  185.294
 4827.00    1.07165   1.06824  187.304
 4828.00    1.07039   1.06912  188.655
 4829.00    1.06461   1.06651  188.788
 4830.00    1.05935   1.06300  190.242
 4831.00    1.05669   1.05937  190.816
 4832.00    1.05480   1.05666  188.270
 4833.00    1.06157   1.05647  185.652
 4834.00    1.06918   1.05857  184.688
 4835.00    1.07111   1.06075  184.853
 4836.00    1.07164   1.06127  185.656
 4837.00    1.07099   1.05969  187.942
 4838.00    1.06622   1.05565  191.209
 4839.00    1.05302   1.04970  191.861
 4840.00    1.04784   1.04427  191.502
 4841.00    1.04645   1.04159  190.623
 4842.00    1.04864   1.04142  189.266
 4843.00    1.05001   1.04230  187.443
 4844.00    1.05080   1.04375  184.655
 4845.00    1.05832   1.04562  183.383
 4846.00    1.06101   1.04515   -1.000
 4847.00    1.05233   1.03974  189.384
 4848.00    1.04047   1.03210  189.808
 4849.00    1.03540   1.02765  187.526
 4850.00    1.03523   1.02743  186.713
 4851.00    1.03288   1.02708  187.564
 4852.00    1.02913   1.02148  189.094
 4853.00    1.02022   1.00748  194.113
 4854.00    1.00039   0.98577  199.724
 4855.00    0.97541   0.96225  200.249
 4856.00    0.96310   0.94252   -1.000
 4857.00    0.95656   0.92298   -1.000
 4858.00    0.92977   0.88981   -1.000
 4859.00    0.86389   0.83219   -1.000
 4860.00    0.76798   0.76187  257.638
 4861.00    0.71240   0.71284  246.028
 4862.00    0.74173   0.71540   -1.000
 4863.00    0.82114   0.76580   -1.000
 4864.00    0.89005   0.83243   -1.000
 4865.00    0.93335   0.88851   -1.000
 4866.00    0.96177   0.92810   -1.000
 4867.00    0.97956   0.95523   -1.000
 4868.00    0.99416   0.97207   -1.000
 4869.00    1.00065   0.97728   -1.000
 4870.00    0.98961   0.97127   -1.000
 4871.00    0.97530   0.96142   -1.000
 4872.00    0.97742   0.95957   -1.000
 4873.00    0.99427   0.97067   -1.000
 4874.00    1.01438   0.98816   -1.000
 4875.00    1.02481   1.00212   -1.000
 4876.00    1.02396   1.00928   -1.000
 4877.00    1.02463   1.01382  189.934
 4878.00    1.02980   1.02123  187.771
 4879.00    1.03675   1.03208  188.858
 4880.00    1.04399   1.04167  191.794
 4881.00    1.04596   1.04432  193.282
 4882.00    1.03987   1.04001  192.895
 4883.00    1.04021   1.03345  193.649
 4884.00    1.04042   1.02819  196.357
 4885.00    1.03381   1.02501  197.747
 4886.00    1.03024   1.02377  197.007
 4887.00    1.03275   1.02325  196.594
 4888.00    1.03065   1.02042  199.004
 4889.00    1.02382   1.01259  203.234
 4890.00    1.00496   1.00233  202.839
 4891.00    1.00008   0.99905  195.695
 4892.00    1.02235   1.01139  186.700
 4893.00    1.05408   1.03695   -1.000
 4894.00    1.07689   1.06391  176.998
 4895.00    1.08511   1.08265  175.763
 4896.00    1.09119   1.09121  175.964
 4897.00    1.09188   1.09171  179.242
 4898.00    1.08397   1.08623  183.475
 4899.00    1.07418   1.07748  185.888
 4900.00    1.06349   1.06958  185.432
 4901.00    1.06438   1.06513  185.483
 4902.00    1.06048   1.06260  187.470
 4903.00    1.05359   1.06078  186.141
 4904.00    1.05719   1.06285  182.408
 4905.00    1.06911   1.07077  180.574
 4906.00    1.07700   1.07902  181.769
 4907.00    1.07519   1.08023  185.758
 4908.00    1.06650   1.07236  191.037
 4909.00    1.05610   1.05894  193.986
 4910.00    1.04621   1.04619  192.203
 4911.00    1.04815   1.04077  188.826
 4912.00    1.05693   1.04529  186.096
 4913.00    1.06467   1.05634  183.656
 4914.00    1.07115   1.06795  181.908
 4915.00    1.07664   1.07462  182.380
 4916.00    1.07629   1.07105  187.892
 4917.00    1.06111   1.05370  197.665
 4918.00    1.03277   1.02535  207.401
 4919.00    0.99945   0.99616  211.012
 4920.00    0.98319   0.97817  205.544
 4921.00    0.99237   0.97661   -1.000
 4922.00    1.01189   0.98573   -1.000
 4923.00    1.02014   0.99592   -1.000
 4924.00    1.02068   1.00529   -1.000
 4925.00    1.03494   1.01857   -1.000
 4926.00    1.05316   1.03663   -1.000
 4927.00    1.06667   1.05472  181.589
 4928.00    1.07698   1.06871  180.280
 4929.00    1.08042   1.07736  179.169
 4930.00    1.08375   1.07949  180.482
 4931.00    1.07966   1.07302  184.928
 4932.00    1.06389   1.05769  191.440
 4933.00    1.04249   1.03923  192.981
 4934.00    1.02885   1.02769  190.075
 4935.00    1.03913   1.02742  189.396
 4936.00    1.04942   1.03065   -1.000
 4937.00    1.04367   1.02717   -1.000
 4938.00    1.02405   1.01856  198.995
 4939.00    1.02055   1.01578  192.926
 4940.00    1.03523   1.02584  186.631
 4941.00    1.05688   1.04519  182.785
 4942.00    1.06984   1.06432  180.857
 4943.00    1.07432   1.07610  180.715
 4944.00    1.07855   1.07929  181.838
 4945.00    1.07380   1.07702  182.385
 4946.00    1.06733   1.07400  181.051
 4947.00    1.07403   1.07435  178.964
 4948.00    1.07716   1.07868  178.172
 4949.00    1.07928   1.08378  177.462
 4950.00    1.08218   1.08608  178.124
 4951.00    1.08124   1.08491  179.315
 4952.00    1.07929   1.08174  181.266
 4953.00    1.07506   1.07770  183.509
 4954.00    1.07472   1.07065  188.009
 4955.00    1.06159   1.05500  197.015
 4956.00    1.03223   1.02928  205.393
 4957.00    1.00473   1.00522  203.181
 4958.00    1.00409   1.00020  192.555
 4959.00    1.03287   1.01842   -1.000
 4960.00    1.06143   1.04607   -1.000
 4961.00    1.07617   1.06719  183.539
 4962.00    1.08075   1.07665  184.926
 4963.00    1.07372   1.07704  187.011
 4964.00    1.06684   1.07113  190.725
 4965.00    1.06038   1.06144  193.469
 4966.00    1.05190   1.05211  193.893
 4967.00    1.04855   1.04643  193.407
 4968.00    1.05233   1.04479  192.106
 4969.00    1.05565   1.04664  190.141
 4970.00    1.05816   1.05164  188.096
 4971.00    1.06178   1.05851  185.879
 4972.00    1.06683   1.06538  184.049
 4973.00    1.07197   1.07088  183.148
 4974.00    1.07624   1.07396  184.116
 4975.00    1.08047   1.07393  185.969
 4976.00    1.07394   1.07055  188.418
 4977.00    1.06609   1.06431  191.422
 4978.00    1.05995   1.05687  193.908
 4979.00    1.05596   1.04862  196.595
 4980.00    1.04507   1.03675  202.508
 4981.00    1.02084   1.01883  209.143
 4982.00    1.00322   0.99825  210.208
 4983.00    0.99522   0.98394  206.816
 4984.00    0.99906   0.98336   -1.000
 4985.00    1.01576   0.99637   -1.000
 4986.00    1.03238   1.01649   -1.000
 4987.00    1.04780   1.03568  189.331
 4988.00    1.05582   1.04690  191.752
 4989.00    1.04810   1.04730  193.879
 4990.00    1.03495   1.04043  194.255
 4991.00    1.03592   1.03354  192.783
 4992.00    1.04128   1.03145  191.819
 4993.00    1.04311   1.03398  191.625
 4994.00    1.04572   1.03905  190.774
 4995.00    1.05131   1.04503  189.813
 4996.00    1.05756   1.04956  190.646
 4997.00    1.05827   1.04885  193.002
 4998.00    1.04690   1.04001  196.722
 4999.00    1.03459   1.02457  199.435
 5000.00    1.02414   1.01031   -1.000
 5001.00    1.02374   1.00455   -1.000
 5002.00    1.02968   1.00679   -1.000
 5003.00    1.03290   1.00992   -1.000
 5004.00    1.02912   1.00701   -1.000
 5005.00    1.01225   0.99745   -1.000
 5006.00    0.99889   0.98933  201.532
 5007.00    1.01084   0.99208   -1.000
 5008.00    1.03265   1.00526   -1.000
 5009.00    1.04886   1.01859   -1.000
 5010.00    1.04919   1.02196   -1.000
 5011.00    1.03093   1.01305   -1.000
 5012.00    1.00872   0.99705  212.707
 5013.00    0.99058   0.98296  212.565
 5014.00    0.98689   0.97744  208.358
 5015.00    1.00007   0.98004   -1.000
 5016.00    1.01077   0.98380   -1.000
 5017.00    1.00953   0.98293   -1.000
 5018.00    1.00532   0.98034   -1.000
 5019.00    1.01068   0.98377   -1.000
 5020.00    1.02232   0.99414   -1.000
 5021.00    1.02774   1.00478   -1.000
 5022.00    1.02751   1.01155   -1.000
 5023.00    1.02994   1.01715  196.929
 5024.00    1.03699   1.02432  195.488
 5025.00    1.04119   1.03054  196.096
 5026.00    1.03946   1.03209  197.052
 5027.00    1.03108   1.03011  195.648
 5028.00    1.03429   1.02894  192.211
 5029.00    1.03978   1.03095  189.329
 5030.00    1.05177   1.03583   -1.000
 5031.00    1.05678   1.04295  184.027
 5032.00    1.05886   1.05056  183.980
 5033.00    1.06115   1.05393  189.077
 5034.00    1.05393   1.04857  196.439
 5035.00    1.03288   1.03624  200.385
 5036.00    1.01908   1.02394  201.446
 5037.00    1.01747   1.01572  203.668
 5038.00    1.01268   1.00697  210.898
 5039.00    0.99826   0.99113  219.510
 5040.00    0.97132   0.97155  220.893
 5041.00    0.95914   0.96159  211.628
 5042.00    0.97806   0.97124  198.842
 5043.00    1.01343   0.99703   -1.000
 5044.00    1.04282   1.02638   -1.000
 5045.00    1.04326   1.04844  178.954
 5046.00    1.16272   1.05850   -1.000
 5047.00    0.47202   1.05605   -1.000
 5048.00    0.58193   1.04341   -1.000
 5049.00    1.00516   1.02641   -1.000
 5050.00    1.02566   1.01174   -1.000
 5051.00    1.02073   1.00458   -1.000
 5052.00    1.03253   1.00840   -1.000
 5053.00    1.04798   1.02269   -1.000
 5054.00    1.06264   1.04006   -1.000
 5055.00    1.07105   1.05257   -1.000
 5056.00    1.07418   1.05885   -1.000
 5057.00    1.07730   1.06224   -1.000
 5058.00    1.07324   1.06525  183.824
 5059.00    1.06690   1.06821  182.726
 5060.00    1.06716   1.07036  182.637
 5061.00    1.07038   1.07040  184.788
 5062.00    1.06816   1.06592  189.802
 5063.00    1.05291   1.05484  196.441
 5064.00    1.03491   1.03975  199.370
 5065.00    1.02342   1.02760  197.550
 5066.00    1.02705   1.02314  194.602
 5067.00    1.03588   1.02441  193.667
 5068.00    1.04035   1.02707  192.801
 5069.00    1.04534   1.02933   -1.000
 5070.00    1.05080   1.03103   -1.000
 5071.00    1.05203   1.03078   -1.000
 5072.00    1.04793   1.02816   -1.000
 5073.00    1.04587   1.02568   -1.000
 5074.00    1.04709   1.02561   -1.000
 5075.00    1.04881   1.02712   -1.000
 5076.00    1.05211   1.02692   -1.000
 5077.00    1.04681   1.02112   -1.000
 5078.00    1.02323   1.00802   -1.000
 5079.00    0.99972   0.99266  210.435
 5080.00    0.99042   0.98407  206.828
 5081.00    1.00452   0.98587   -1.000
 5082.00    1.01618   0.99377   -1.000
 5083.00    1.02154   1.00298   -1.000
 5084.00    1.03075   1.01279   -1.000
 5085.00    1.04747   1.02307   -1.000
 5086.00    1.05787   1.03167   -1.000
 5087.00    1.05667   1.03703   -1.000
 5088.00    1.05352   1.04023  188.208
 5089.00    1.06127   1.04319   -1.000
 5090.00    1.06047   1.04659  186.150
 5091.00    1.05961   1.05050  184.145
 5092.00    1.07315   1.05488   -1.000
 5093.00    1.07833   1.05848   -1.000
 5094.00    1.07369   1.05832   -1.000
 5095.00    1.06762   1.05164   -1.000
 5096.00    1.05556   1.03850   -1.000
 5097.00    1.04038   1.02235   -1.000
 5098.00    1.02507   1.00895   -1.000
 5099.00    1.02061   1.00412   -1.000
 5100.00    1.03101   1.01008   -1.000
 5101.00    1.04937   1.02272   -1.000
 5102.00    1.06204   1.03428   -1.000
 5103.00    1.05875   1.03959   -1.000
 5104.00    1.05329   1.03820   -1.000
 5105.00    1.04988   1.03154   -1.000
 5106.00    1.03611   1.02116   -1.000
 5107.00    1.02033   1.01041  199.594
 5108.00    1.01619   1.00364  198.412
 5109.00    1.02074   1.00318   -1.000
 5110.00    1.02267   1.00860   -1.000
 5111.00    1.03413   1.01854   -1.000
 5112.00    1.04699   1.03028   -1.000
 5113.00    1.05602   1.04038   -1.000
 5114.00    1.06246   1.04723   -1.000
 5115.00    1.06363   1.05195  184.827
 5116.00    1.06808   1.05612  183.225
 5117.00    1.07328   1.05959  183.523
 5118.00    1.07310   1.06037  185.722
 5119.00    1.06757   1.05666  188.492
 5120.00    1.06009   1.04857  191.580
 5121.00    1.05295   1.03749   -1.000
 5122.00    1.03679   1.02493  202.159
 5123.00    1.01860   1.01292  204.131
 5124.00    1.01054   1.00458  202.658
 5125.00    1.01920   1.00151   -1.000
 5126.00    1.02092   1.00167   -1.000
 5127.00    1.01936   1.00167   -1.000
 5128.00    1.01934   1.00082   -1.000
 5129.00    1.02366   1.00139   -1.000
 5130.00    1.03020   1.00537   -1.000
 5131.00    1.03408   1.01192   -1.000
 5132.00    1.03719   1.01852   -1.000
 5133.00    1.03961   1.02390   -1.000
 5134.00    1.04704   1.02792   -1.000
 5135.00    1.05175   1.02918   -1.000
 5136.00    1.04589   1.02520   -1.000
 5137.00    1.03243   1.01586   -1.000
 5138.00    1.01419   1.00495  200.281
 5139.00    1.00452   0.99765  198.690
 5140.00    1.00764   0.99604  199.788
 5141.00    1.01029   0.99770  202.879
 5142.00    1.00637   0.99978  202.209
 5143.00    1.00811   1.00275  199.007
 5144.00    1.02160   1.00740   -1.000
 5145.00    1.02877   1.01112   -1.000
 5146.00    1.02507   1.01122   -1.000
 5147.00    1.02439   1.00936   -1.000
 5148.00    1.02919   1.00877   -1.000
 5149.00    1.03255   1.00884   -1.000
 5150.00    1.02664   1.00637   -1.000
 5151.00    1.01419   1.00093  204.039
 5152.00    1.01094   0.99587   -1.000
 5153.00    1.01790   0.99463   -1.000
 5154.00    1.02577   0.99889   -1.000
 5155.00    1.03666   1.00867   -1.000
 5156.00    1.04987   1.02162   -1.000
 5157.00    1.06160   1.03358   -1.000
 5158.00    1.06572   1.04142   -1.000
 5159.00    1.06767   1.04457   -1.000
 5160.00    1.06590   1.04366   -1.000
 5161.00    1.06243   1.03935   -1.000
 5162.00    1.05462   1.03219   -1.000
 5163.00    1.05106   1.02134   -1.000
 5164.00    1.04010   1.00200   -1.000
 5165.00    1.00550   0.96817   -1.000
 5166.00    0.94863   0.92270   -1.000
 5167.00    0.89970   0.88237   -1.000
 5168.00    0.89438   0.86607   -1.000
 5169.00    0.92497   0.87492   -1.000
 5170.00    0.94975   0.88867   -1.000
 5171.00    0.93610   0.88887   -1.000
 5172.00    0.90310   0.88117   -1.000
 5173.00    0.90831   0.88808   -1.000
 5174.00    0.95723   0.92035   -1.000
 5175.00    1.01059   0.96468   -1.000
 5176.00    1.04266   1.00067   -1.000
 5177.00    1.05395   1.02037   -1.000
 5178.00    1.05719   1.02723   -1.000
 5179.00    1.05020   1.02432   -1.000
 5180.00    1.04026   1.00885   -1.000
 5181.00    1.01499   0.97668   -1.000
 5182.00    0.96283   0.93240   -1.000
 5183.00    0.91239   0.89474   -1.000
 5184.00    0.90711   0.88575   -1.000
 5185.00    0.95383   0.91001   -1.000
 5186.00    1.00813   0.94887   -1.000
 5187.00    1.03112   0.97935   -1.000
 5188.00    1.03098   0.99370   -1.000
 5189.00    1.02917   0.99705   -1.000
 5190.00    1.02652   0.99387   -1.000
 5191.00    1.01161   0.98537   -1.000
 5192.00    0.99303   0.97606   -1.000
 5193.00    0.99434   0.97237   -1.000
 5194.00    1.00419   0.97551   -1.000
 5195.00    1.00855   0.98148   -1.000
 5196.00    1.01829   0.98782   -1.000
 5197.00    1.02868   0.99563   -1.000
 5198.00    1.04046   1.00581   -1.000
 5199.00    1.04725   1.01614   -1.000
 5200.00    1.04942   1.02277   -1.000
 5201.00    1.05157   1.02247   -1.000
 5202.00    1.04245   1.01382   -1.000
 5203.00    1.02399   0.99760   -1.000
 5204.00    1.00313   0.97760   -1.000
 5205.00    0.98825   0.96010   -1.000
 5206.00    0.98291   0.95012   -1.000
 5207.00    0.98756   0.94755   -1.000
 5208.00    0.98379   0.94972   -1.000
 5209.00    0.98857   0.95708   -1.000
 5210.00    1.00835   0.97211   -1.000
 5211.00    1.03051   0.99327   -1.000
 5212.00    1.05479   1.01354   -1.000
 5213.00    1.06802   1.02494   -1.000
 5214.00    1.06100   1.02385   -1.000
 5215.00    1.04540   1.01405   -1.000
 5216.00    1.03228   1.00512   -1.000
 5217.00    1.03130   1.00551   -1.000
 5218.00    1.04794   1.01611   -1.000
 5219.00    1.06374   1.03089   -1.000
 5220.00    1.07148   1.04287   -1.000
 5221.00    1.07370   1.04830   -1.000
 5222.00    1.07174   1.04587   -1.000
 5223.00    1.05726   1.03416   -1.000
 5224.00    1.03211   1.01174   -1.000
 5225.00    1.00339   0.98140   -1.000
 5226.00    0.97551   0.95443   -1.000
 5227.00    0.97002   0.94566   -1.000
 5228.00    0.99523   0.96000   -1.000
 5229.00    1.02668   0.98598   -1.000
 5230.00    1.04839   1.00622   -1.000
 5231.00    1.05338   1.01164   -1.000
 5232.00    1.04466   1.00482   -1.000
 5233.00    1.03135   0.99512   -1.000
 5234.00    1.02680   0.99247   -1.000
 5235.00    1.04037   1.00082   -1.000
 5236.00    1.05679   1.01602   -1.000
 5237.00    1.06756   1.03063   -1.000
 5238.00    1.07052   1.03995   -1.000
 5239.00    1.07251   1.04381   -1.000
 5240.00    1.07312   1.04440   -1.000
 5241.00    1.07222   1.04382   -1.000
 5242.00    1.07341   1.04347   -1.000
 5243.00    1.07178   1.04434   -1.000
 5244.00    1.07161   1.04539   -1.000
 5245.00    1.06893   1.04305   -1.000
 5246.00    1.05507   1.03522   -1.000
 5247.00    1.03765   1.02452  194.152
 5248.00    1.03274   1.01553   -1.000
 5249.00    1.03023   1.01013   -1.000
 5250.00    1.02383   1.00798   -1.000
 5251.00    1.02320   1.00892   -1.000
 5252.00    1.03320   1.01212   -1.000
 5253.00    1.03951   1.01496   -1.000
 5254.00    1.03805   1.01637   -1.000
 5255.00    1.03997   1.01946   -1.000
 5256.00    1.05405   1.02761   -1.000
 5257.00    1.07053   1.03907   -1.000
 5258.00    1.07748   1.04752   -1.000
 5259.00    1.07636   1.04690   -1.000
 5260.00    1.06338   1.03483   -1.000
 5261.00    1.03937   1.01310   -1.000
 5262.00    1.01154   0.98667   -1.000
 5263.00    0.98784   0.96169   -1.000
 5264.00    0.97422   0.94353   -1.000
 5265.00    0.96876   0.93547   -1.000
 5266.00    0.97661   0.93625   -1.000
 5267.00    0.99271   0.93835   -1.000
 5268.00    0.98683   0.93353   -1.000
 5269.00    0.95772   0.92343   -1.000
 5270.00    0.94833   0.92095   -1.000
 5271.00    0.97903   0.93528   -1.000
 5272.00    1.01475   0.95915   -1.000
 5273.00    1.02805   0.97775   -1.000
 5274.00    1.02651   0.98581   -1.000
 5275.00    1.02442   0.99012   -1.000
 5276.00    1.03742   0.99920   -1.000
 5277.00    1.05547   1.01445   -1.000
 5278.00    1.06906   1.02907   -1.000
 5279.00    1.07634   1.03467   -1.000
 5280.00    1.06555   1.02887   -1.000
 5281.00    1.04769   1.01605   -1.000
 5282.00    1.03392   1.00313   -1.000
 5283.00    1.02796   0.99672   -1.000
 5284.00    1.03266   1.00163   -1.000
 5285.00    1.04950   1.01740   -1.000
 5286.00    1.07046   1.03687   -1.000
 5287.00    1.08201   1.05154   -1.000
 5288.00    1.08061   1.05864   -1.000
 5289.00    1.07976   1.06112   -1.000
 5290.00    1.08104   1.06182   -1.000
 5291.00    1.08094   1.06108   -1.000
 5292.00    1.07794   1.05895   -1.000
 5293.00    1.07604   1.05571   -1.000
 5294.00    1.07258   1.04998   -1.000
 5295.00    1.06299   1.03925   -1.000
 5296.00    1.04197   1.02353   -1.000
 5297.00    1.01995   1.00811  196.348
 5298.00    1.01594   1.00048   -1.000
 5299.00    1.03171   1.00313   -1.000
 5300.00    1.04297   1.01147   -1.000
 5301.00    1.04208   1.01984   -1.000
 5302.00    1.04371   1.02729   -1.000
 5303.00    1.05709   1.03574   -1.000
 5304.00    1.06974   1.04443   -1.000
 5305.00    1.07721   1.04966   -1.000
 5306.00    1.07253   1.04997   -1.000
 5307.00    1.06636   1.04828   -1.000
 5308.00    1.07058   1.04880   -1.000
 5309.00    1.07790   1.05268   -1.000
 5310.00    1.07928   1.05731   -1.000
 5311.00    1.07948   1.05944   -1.000
 5312.00    1.08150   1.05786   -1.000
 5313.00    1.07962   1.05267   -1.000
 5314.00    1.07570   1.04411   -1.000
 5315.00    1.06588   1.03333   -1.000
 5316.00    1.05453   1.02427   -1.000
 5317.00    1.05414   1.02206   -1.000
 5318.00    1.05984   1.02792   -1.000
 5319.00    1.06701   1.03690   -1.000
 5320.00    1.06960   1.04219   -1.000
 5321.00    1.06534   1.04014   -1.000
 5322.00    1.05614   1.03121   -1.000
 5323.00    1.04358   1.01879   -1.000
 5324.00    1.03602   1.00683   -1.000
 5325.00    1.03538   0.99545   -1.000
 5326.00    1.02413   0.98008   -1.000
 5327.00    0.98852   0.95988   -1.000
 5328.00    0.96109   0.94519   -1.000
 5329.00    0.97536   0.94926   -1.000
 5330.00    1.01388   0.97197   -1.000
 5331.00    1.04332   0.99883   -1.000
 5332.00    1.05153   1.01699   -1.000
 5333.00    1.05016   1.02540   -1.000
 5334.00    1.05714   1.02910   -1.000
 5335.00    1.06308   1.03049   -1.000
 5336.00    1.05757   1.02921   -1.000
 5337.00    1.05553   1.02506   -1.000
 5338.00    1.05272   1.01789   -1.000
 5339.00    1.03964   1.00829   -1.000
 5340.00    1.02536   1.00016   -1.000
 5341.00    1.02268   0.99949   -1.000
 5342.00    1.03934   1.00784   -1.000
 5343.00    1.05939   1.01919   -1.000
 5344.00    1.06158   1.02579   -1.000
 5345.00    1.05908   1.02527   -1.000
 5346.00    1.05356   1.02063   -1.000
 5347.00    1.04790   1.01562   -1.000
 5348.00    1.04819   1.01263   -1.000
 5349.00    1.04493   1.01333   -1.000
 5350.00    1.04936   1.01865   -1.000
 5351.00    1.06384   1.02722   -1.000
 5352.00    1.07103   1.03578   -1.000
 5353.00    1.07050   1.04243   -1.000
 5354.00    1.07687   1.04809   -1.000
 5355.00    1.08313   1.05387   -1.000
 5356.00    1.08552   1.05883   -1.000
 5357.00    1.08611   1.06147   -1.000
 5358.00    1.08691   1.06145   -1.000
 5359.00    1.08615   1.05896   -1.000
 5360.00    1.07815   1.05362   -1.000
 5361.00    1.06915   1.04523   -1.000
 5362.00    1.06222   1.03512   -1.000
 5363.00    1.05573   1.02569   -1.000
 5364.00    1.04879   1.01896   -1.000
 5365.00    1.04518   1.01571   -1.000
 5366.00    1.04693   1.01498   -1.000
 5367.00    1.05095   1.01368   -1.000
 5368.00    1.04713   1.00793   -1.000
 5369.00    1.03541   0.99623   -1.000
 5370.00    1.01587   0.98250   -1.000
 5371.00    1.00518   0.97549   -1.000
 5372.00    1.01636   0.98231   -1.000
 5373.00    1.04693   1.00132   -1.000
 5374.00    1.07109   1.02292   -1.000
 5375.00    1.08176   1.03809   -1.000
 5376.00    1.08138   1.04459   -1.000
 5377.00    1.07960   1.04527   -1.000
 5378.00    1.07645   1.04294   -1.000
 5379.00    1.07287   1.03849   -1.000
 5380.00    1.06436   1.03241   -1.000
 5381.00    1.05679   1.02626   -1.000
 5382.00    1.05300   1.02218   -1.000
 5383.00    1.05460   1.02181   -1.000
 5384.00    1.05524   1.02568   -1.000
 5385.00    1.06476   1.03241   -1.000
 5386.00    1.07426   1.03861   -1.000
 5387.00    1.07142   1.04090   -1.000
 5388.00    1.06677   1.03810   -1.000
 5389.00    1.06226   1.03157   -1.000
 5390.00    1.05363   1.02376   -1.000
 5391.00    1.05043   1.01672   -1.000
 5392.00    1.04607   1.01139   -1.000
 5393.00    1.04106   1.00772   -1.000
 5394.00    1.03787   1.00396   -1.000
 5395.00    1.03009   0.99729   -1.000
 5396.00    1.01686   0.98801   -1.000
 5397.00    1.01012   0.98189   -1.000
 5398.00    1.02214   0.98488   -1.000
 5399.00    1.04057   0.99589   -1.000
 5400.00    1.05181   1.00766   -1.000
 5401.00    1.05466   1.01346   -1.000
 5402.00    1.05091   1.01008   -1.000
 5403.00    1.03885   0.99738   -1.000
 5404.00    1.01409   0.97988   -1.000
 5405.00    0.99707   0.96667   -1.000
 5406.00    1.00544   0.96490   -1.000
 5407.00    1.02190   0.97281   -1.000
 5408.00    1.03065   0.98172   -1.000
 5409.00    1.02596   0.98596   -1.000
 5410.00    1.02576   0.98864   -1.000
 5411.00    1.03363   0.99522   -1.000
 5412.00    1.05003   1.00494   -1.000
 5413.00    1.05937   1.01250   -1.000
 5414.00    1.05210   1.01574   -1.000
 5415.00    1.04843   1.01776   -1.000
 5416.00    1.05610   1.02165   -1.000
 5417.00    1.06464   1.02632   -1.000
 5418.00    1.06221   1.02891   -1.000
 5419.00    1.06206   1.02869   -1.000
 5420.00    1.05753   1.02694   -1.000
 5421.00    1.05806   1.02429   -1.000
 5422.00    1.05852   1.02001   -1.000
 5423.00    1.04882   1.01443   -1.000
 5424.00    1.03859   1.01092   -1.000
 5425.00    1.03965   1.01317   -1.000
 5426.00    1.05039   1.01936   -1.000
 5427.00    1.05579   1.02146   -1.000
 5428.00    1.04237   1.01406   -1.000
 5429.00    1.01936   1.00185   -1.000
 5430.00    1.01215   0.99450   -1.000
 5431.00    1.02445   0.99502   -1.000
 5432.00    1.03046   0.99707   -1.000
 5433.00    1.02316   0.99456   -1.000
 5434.00    1.01340   0.98992   -1.000
 5435.00    1.01420   0.99062   -1.000
 5436.00    1.03091   1.00038   -1.000
 5437.00    1.04810   1.01601   -1.000
 5438.00    1.06271   1.03122   -1.000
 5439.00    1.07084   1.04173   -1.000
 5440.00    1.07268   1.04708   -1.000
 5441.00    1.07365   1.04879   -1.000
 5442.00    1.07314   1.04710   -1.000
 5443.00    1.06744   1.04001   -1.000
 5444.00    1.05253   1.02552   -1.000
 5445.00    1.02828   1.00575   -1.000
 5446.00    1.00806   0.98866   -1.000
 5447.00    1.00651   0.98356   -1.000
 5448.00    1.02729   0.99312   -1.000
 5449.00    1.05631   1.01053   -1.000
 5450.00    1.06700   1.02570   -1.000
 5451.00    1.06735   1.03271   -1.000
 5452.00    1.06218   1.03033   -1.000
 5453.00    1.05327   1.01944   -1.000
 5454.00    1.03345   1.00375   -1.000
 5455.00    1.01367   0.99139   -1.000
 5456.00    1.01384   0.99107   -1.000
 5457.00    1.03862   1.00390   -1.000
 5458.00    1.06162   1.02125   -1.000
 5459.00    1.07069   1.03278   -1.000
 5460.00    1.06037   1.03418   -1.000
 5461.00    1.05491   1.02750   -1.000
 5462.00    1.04419   1.01798   -1.000
 5463.00    1.03968   1.01150   -1.000
 5464.00    1.04216   1.01157   -1.000
 5465.00    1.05174   1.01694   -1.000
 5466.00    1.05269   1.02352   -1.000
 5467.00    1.05327   1.02847   -1.000
 5468.00    1.05352   1.03152   -1.000
 5469.00    1.05722   1.03285   -1.000
 5470.00    1.05601   1.03197   -1.000
 5471.00    1.05200   1.02880   -1.000
 5472.00    1.05025   1.02390   -1.000
 5473.00    1.04567   1.01715   -1.000
 5474.00    1.03570   1.00744   -1.000
 5475.00    1.01982   0.99504   -1.000
 5476.00    1.00802   0.98431   -1.000
 5477.00    1.00517   0.98184   -1.000
 5478.00    1.02194   0.98960   -1.000
 5479.00    1.04188   1.00135   -1.000
 5480.00    1.04463   1.00897   -1.000
 5481.00    1.03764   1.01111   -1.000
 5482.00    1.03571   1.01268   -1.000
 5483.00    1.04047   1.01758   -1.000
 5484.00    1.04954   1.02469   -1.000
 5485.00    1.05357   1.02970   -1.000
 5486.00    1.05149   1.02959   -1.000
 5487.00    1.04950   1.02541   -1.000
 5488.00    1.04227   1.02117   -1.000
 5489.00    1.04213   1.02003   -1.000
 5490.00    1.04607   1.02190   -1.000
 5491.00    1.04289   1.02470   -1.000
 5492.00    1.04829   1.02659   -1.000
 5493.00    1.05140   1.02694   -1.000
 5494.00    1.04961   1.02577   -1.000
 5495.00    1.04918   1.02280   -1.000
 5496.00    1.04473   1.01833   -1.000
 5497.00    1.03629   1.01460   -1.000
 5498.00    1.03398   1.01389   -1.000
 5499.00    1.04280   1.01491   -1.000
 5500.00    1.04258   1.01366   -1.000
 5501.00    1.03493   1.00919   -1.000
 5502.00    1.03349   1.00556   -1.000
 5503.00    1.03736   1.00571   -1.000
 5504.00    1.04363   1.00684   -1.000
 5505.00    1.03584   1.00479   -1.000
 5506.00    1.02434   1.00043   -1.000
 5507.00    1.02459   0.99879   -1.000
 5508.00    1.03701   1.00248   -1.000
 5509.00    1.04234   1.00803   -1.000
 5510.00    1.04443   1.01014   -1.000
 5511.00    1.03577   1.00717   -1.000
 5512.00    1.02513   1.00183   -1.000
 5513.00    1.02245   0.99835   -1.000
 5514.00    1.02278   0.99940   -1.000
 5515.00    1.03339   1.00480   -1.000
 5516.00    1.04572   1.01255   -1.000
 5517.00    1.05202   1.02064   -1.000
 5518.00    1.05681   1.02750   -1.000
 5519.00    1.06204   1.03178   -1.000
 5520.00    1.06014   1.03309   -1.000
 5521.00    1.05765   1.03254   -1.000
 5522.00    1.05645   1.03147   -1.000
 5523.00    1.05625   1.02960   -1.000
 5524.00    1.05411   1.02473   -1.000
 5525.00    1.04488   1.01477   -1.000
 5526.00    1.02918   1.00051   -1.000
 5527.00    1.01315   0.98706   -1.000
 5528.00    1.00800   0.98134   -1.000
 5529.00    1.01810   0.98675   -1.000
 5530.00    1.03562   0.99967   -1.000
 5531.00    1.04619   1.01174   -1.000
 5532.00    1.04562   1.01673   -1.000
 5533.00    1.04362   1.01467   -1.000
 5534.00    1.03847   1.01019   -1.000
 5535.00    1.03260   1.00839   -1.000
 5536.00    1.03841   1.01122   -1.000
 5537.00    1.04704   1.01676   -1.000
 5538.00    1.04968   1.02212   -1.000
 5539.00    1.05361   1.02618   -1.000
 5540.00    1.05831   1.02890   -1.000
 5541.00    1.05844   1.02954   -1.000
 5542.00    1.05350   1.02734   -1.000
 5543.00    1.04846   1.02350   -1.000
 5544.00    1.04443   1.02062   -1.000
 5545.00    1.04503   1.02036   -1.000
 5546.00    1.04723   1.02252   -1.000
 5547.00    1.04846   1.02634   -1.000
 5548.00    1.05250   1.03112   -1.000
 5549.00    1.05687   1.03536   -1.000
 5550.00    1.06194   1.03727   -1.000
 5551.00    1.05963   1.03631   -1.000
 5552.00    1.05495   1.03330   -1.000
 5553.00    1.05010   1.02969   -1.000
 5554.00    1.04927   1.02706   -1.000
 5555.00    1.04502   1.02643   -1.000
 5556.00    1.04771   1.02738   -1.000
 5557.00    1.05193   1.02864   -1.000
 5558.00    1.05225   1.02952   -1.000
 5559.00    1.05298   1.02983   -1.000
 5560.00    1.05492   1.02885   -1.000
 5561.00    1.05046   1.02589   -1.000
 5562.00    1.03991   1.02165   -1.000
 5563.00    1.03538   1.01787   -1.000
 5564.00    1.03165   1.01554   -1.000
 5565.00    1.03161   1.01408   -1.000
 5566.00    1.03265   1.01256   -1.000
 5567.00    1.03236   1.01075   -1.000
 5568.00    1.02906   1.00886   -1.000
 5569.00    1.02569   1.00728   -1.000
 5570.00    1.02611   1.00601   -1.000
 5571.00    1.02578   1.00426   -1.000
 5572.00    1.02252   1.00222   -1.000
 5573.00    1.01612   1.00196   -1.000
 5574.00    1.00379   1.00474  182.700
 5575.00    1.07965   1.00903   -1.000
 5576.00    1.21466   1.01283   -1.000
 5577.00    1.26881   1.01605   -1.000
 5578.00    1.20214   1.01912   -1.000
 5579.00    1.10148   1.02133   -1.000
 5580.00    1.06385   1.02170   -1.000
 5581.00    1.04409   1.02063   -1.000
 5582.00    1.04062   1.01941   -1.000
 5583.00    1.04008   1.01785   -1.000
 5584.00    1.03902   1.01327   -1.000
 5585.00    1.02884   1.00298   -1.000
 5586.00    1.01139   0.98800   -1.000
 5587.00    0.99168   0.97378   -1.000
 5588.00    0.98159   0.96622   -1.000
 5589.00    0.98899   0.96762   -1.000
 5590.00    1.00343   0.97579   -1.000
 5591.00    1.01352   0.98568   -1.000
 5592.00    1.01836   0.99253   -1.000
 5593.00    1.01628   0.99533   -1.000
 5594.00    1.01247   0.99707   -1.000
 5595.00    1.02001   1.00032   -1.000
 5596.00    1.03033   1.00339   -1.000
 5597.00    1.02511   1.00268   -1.000
 5598.00    1.01087   0.99800  192.881
 5599.00    1.01210   0.99233   -1.000
 5600.00    1.01390   0.98717   -1.000
 5601.00    1.00899   0.98307   -1.000
 5602.00    1.00043   0.98288   -1.000
 5603.00    1.00565   0.98986   -1.000
 5604.00    1.02291   1.00317   -1.000
 5605.00    1.04254   1.01791   -1.000
 5606.00    1.05183   1.02913   -1.000
 5607.00    1.05332   1.03525   -1.000
 5608.00    1.05508   1.03775   -1.000
 5609.00    1.05278   1.03876  179.903
 5610.00    1.04739   1.03940  179.323
 5611.00    1.05200   1.03873  180.227
 5612.00    1.05473   1.03374   -1.000
 5613.00    1.04511   1.02186   -1.000
 5614.00    1.02284   1.00516   -1.000
 5615.00    1.00420   0.99142  193.157
 5616.00    1.00390   0.98832   -1.000
 5617.00    1.02071   0.99590   -1.000
 5618.00    1.03395   1.00696   -1.000
 5619.00    1.03658   1.01537   -1.000
 5620.00    1.03927   1.02001   -1.000
 5621.00    1.04255   1.02160   -1.000
 5622.00    1.03803   1.01964   -1.000
 5623.00    1.02741   1.01404  191.853
 5624.00    1.01969   1.00778  190.863
 5625.00    1.01716   1.00544  187.532
 5626.00    1.02698   1.00876   -1.000
 5627.00    1.04067   1.01543   -1.000
 5628.00    1.04515   1.02198   -1.000
 5629.00    1.04833   1.02664   -1.000
 5630.00    1.05006   1.02937   -1.000
 5631.00    1.04961   1.03042   -1.000
 5632.00    1.05254   1.02979   -1.000
 5633.00    1.05251   1.02761   -1.000
 5634.00    1.04464   1.02428   -1.000
 5635.00    1.04173   1.02036   -1.000
 5636.00    1.03782   1.01657   -1.000
 5637.00    1.03565   1.01371   -1.000
 5638.00    1.03325   1.01209   -1.000
 5639.00    1.03208   1.01106   -1.000
 5640.00    1.03104   1.00977   -1.000
 5641.00    1.02968   1.00871   -1.000
 5642.00    1.03013   1.00927   -1.000
 5643.00    1.03348   1.01160   -1.000
 5644.00    1.03609   1.01453   -1.000
 5645.00    1.03779   1.01713   -1.000
 5646.00    1.04094   1.01893   -1.000
 5647.00    1.04180   1.01963   -1.000
 5648.00    1.04396   1.01922   -1.000
 5649.00    1.04435   1.01837   -1.000
 5650.00    1.04258   1.01814   -1.000
 5651.00    1.03953   1.01878   -1.000
 5652.00    1.04030   1.01910   -1.000
 5653.00    1.04142   1.01767   -1.000
 5654.00    1.03532   1.01382   -1.000
 5655.00    1.03133   1.00705   -1.000
 5656.00    1.02437   0.99693   -1.000
 5657.00    1.00763   0.98525   -1.000
 5658.00    0.99231   0.97732   -1.000
 5659.00    0.99292   0.97748   -1.000
 5660.00    1.00838   0.98379   -1.000
 5661.00    1.01605   0.99062   -1.000
 5662.00    1.01783   0.99562   -1.000
 5663.00    1.02144   1.00068   -1.000
 5664.00    1.02792   1.00660   -1.000
 5665.00    1.03563   1.01070   -1.000
 5666.00    1.03257   1.01052   -1.000
 5667.00    1.02606   1.00746   -1.000
 5668.00    1.02676   1.00517   -1.000
 5669.00    1.03031   1.00592   -1.000
 5670.00    1.03395   1.00946   -1.000
 5671.00    1.03776   1.01429   -1.000
 5672.00    1.04169   1.01879   -1.000
 5673.00    1.04611   1.02181   -1.000
 5674.00    1.04981   1.02309   -1.000
 5675.00    1.04631   1.02338   -1.000
 5676.00    1.04513   1.02366   -1.000
 5677.00    1.04696   1.02385   -1.000
 5678.00    1.04573   1.02287   -1.000
 5679.00    1.04422   1.01994   -1.000
 5680.00    1.04078   1.01492   -1.000
 5681.00    1.03953   1.00816   -1.000
 5682.00    1.03312   1.00117   -1.000
 5683.00    1.02470   0.99647   -1.000
 5684.00    1.02579   0.99554   -1.000
 5685.00    1.02771   0.99714   -1.000
 5686.00    1.02671   0.99847   -1.000
 5687.00    1.02469   0.99821   -1.000
 5688.00    1.02320   0.99777   -1.000
 5689.00    1.02618   0.99942   -1.000
 5690.00    1.03380   1.00390   -1.000
 5691.00    1.03997   1.00976   -1.000
 5692.00    1.03891   1.01484   -1.000
 5693.00    1.04270   1.01797   -1.000
 5694.00    1.04285   1.01934   -1.000
 5695.00    1.04087   1.01957   -1.000
 5696.00    1.03765   1.01876   -1.000
 5697.00    1.03126   1.01651   -1.000
 5698.00    1.02805   1.01250   -1.000
 5699.00    1.02441   1.00733   -1.000
 5700.00    1.01887   1.00240   -1.000
 5701.00    1.01354   0.99936   -1.000
 5702.00    1.01569   0.99924   -1.000
 5703.00    1.01865   1.00128   -1.000
 5704.00    1.02251   1.00279   -1.000
 5705.00    1.02021   1.00110   -1.000
 5706.00    1.01222   0.99576   -1.000
 5707.00    1.00517   0.98796   -1.000
 5708.00    0.99423   0.97954   -1.000
 5709.00    0.98417   0.97306  197.210
 5710.00    0.98372   0.97122  195.075
 5711.00    0.98929   0.97521   -1.000
 5712.00    1.00303   0.98392   -1.000
 5713.00    1.01639   0.99440   -1.000
 5714.00    1.02673   1.00339   -1.000
 5715.00    1.03173   1.00921   -1.000
 5716.00    1.03060   1.01247   -1.000
 5717.00    1.03177   1.01478   -1.000
 5718.00    1.03662   1.01723   -1.000
 5719.00    1.04006   1.02009   -1.000
 5720.00    1.03916   1.02300   -1.000
 5721.00    1.04050   1.02538   -1.000
 5722.00    1.04460   1.02695   -1.000
 5723.00    1.04388   1.02749   -1.000
 5724.00    1.04242   1.02651   -1.000
 5725.00    1.04021   1.02363   -1.000
 5726.00    1.03340   1.01963  183.532
 5727.00    1.02641   1.01635  182.352
 5728.00    1.02765   1.01504  181.267
 5729.00    1.03670   1.01524   -1.000
 5730.00    1.03558   1.01565   -1.000
 5731.00    1.03187   1.01578   -1.000
 5732.00    1.03085   1.01662  180.168
 5733.00    1.03417   1.01907   -1.000
 5734.00    1.03970   1.02214   -1.000
 5735.00    1.04164   1.02405   -1.000
 5736.00    1.03683   1.02428  180.133
 5737.00    1.03530   1.02372  180.224
 5738.00    1.03789   1.02326   -1.000
 5739.00    1.03911   1.02309   -1.000
 5740.00    1.03638   1.02276  181.327
 5741.00    1.03638   1.02194   -1.000
 5742.00    1.03650   1.02110   -1.000
 5743.00    1.03385   1.02118  179.239
 5744.00    1.03673   1.02215   -1.000
 5745.00    1.04010   1.02262   -1.000
 5746.00    1.03983   1.02146   -1.000
 5747.00    1.03211   1.01947  181.893
 5748.00    1.03139   1.01854  180.680
 5749.00    1.02828   1.01908  180.188
 5750.00    1.03256   1.01892  181.776
 5751.00    1.02877   1.01557  184.049
 5752.00    1.01974   1.00950  185.851
 5753.00    1.01252   1.00432  185.654
 5754.00    1.01723   1.00382  183.096
 5755.00    1.02534   1.00868   -1.000
 5756.00    1.03321   1.01611   -1.000
 5757.00    1.03859   1.02248   -1.000
 5758.00    1.04091   1.02528   -1.000
 5759.00    1.03745   1.02367  182.871
 5760.00    1.03092   1.01856  185.386
 5761.00    1.02556   1.01240  186.166
 5762.00    1.01994   1.00862  183.922
 5763.00    1.01981   1.00998  180.539
 5764.00    1.03064   1.01603   -1.000
 5765.00    1.03740   1.02317  178.007
 5766.00    1.03908   1.02792  177.841
 5767.00    1.04151   1.02939  177.525
 5768.00    1.04023   1.02867  177.951
 5769.00    1.04007   1.02697  178.554
 5770.00    1.04034   1.02489   -1.000
 5771.00    1.03926   1.02260   -1.000
 5772.00    1.03546   1.02018   -1.000
 5773.00    1.03284   1.01786   -1.000
 5774.00    1.03614   1.01610   -1.000
 5775.00    1.03446   1.01551   -1.000
 5776.00    1.03070   1.01590   -1.000
 5777.00    1.03225   1.01558   -1.000
 5778.00    1.03204   1.01256   -1.000
 5779.00    1.02508   1.00658   -1.000
 5780.00    1.01902   0.99939   -1.000
 5781.00    1.01568   0.99353   -1.000
 5782.00    1.01641   0.99069   -1.000
 5783.00    1.02003   0.99063   -1.000
 5784.00    1.02048   0.99205   -1.000
 5785.00    1.02248   0.99437   -1.000
 5786.00    1.02563   0.99786   -1.000
 5787.00    1.02992   1.00227   -1.000
 5788.00    1.03136   1.00607   -1.000
 5789.00    1.03199   1.00774   -1.000
 5790.00    1.03023   1.00746   -1.000
 5791.00    1.03127   1.00728   -1.000
 5792.00    1.03212   1.00926   -1.000
 5793.00    1.03758   1.01334   -1.000
 5794.00    1.03990   1.01763   -1.000
 5795.00    1.04021   1.01996   -1.000
 5796.00    1.03645   1.01948   -1.000
 5797.00    1.03211   1.01753   -1.000
 5798.00    1.03390   1.01686   -1.000
 5799.00    1.03733   1.01887   -1.000
 5800.00    1.04061   1.02228   -1.000
 5801.00    1.04374   1.02477   -1.000
 5802.00    1.04434   1.02494   -1.000
 5803.00    1.03864   1.02279   -1.000
 5804.00    1.03461   1.01969   -1.000
 5805.00    1.03393   1.01756   -1.000
 5806.00    1.03583   1.01747   -1.000
 5807.00    1.03793   1.01902   -1.000
 5808.00    1.03751   1.02102   -1.000
 5809.00    1.03704   1.02280  177.528
 5810.00    1.04203   1.02432   -1.000
 5811.00    1.04690   1.02536   -1.000
 5812.00    1.04949   1.02525   -1.000
 5813.00    1.05047   1.02351   -1.000
 5814.00    1.04542   1.02047   -1.000
 5815.00    1.03900   1.01756   -1.000
 5816.00    1.03814   1.01681   -1.000
 5817.00    1.04493   1.01911   -1.000
 5818.00    1.05052   1.02311   -1.000
 5819.00    1.04876   1.02652   -1.000
 5820.00    1.04863   1.02818   -1.000
 5821.00    1.05220   1.02856   -1.000
 5822.00    1.05088   1.02853   -1.000
 5823.00    1.04851   1.02845   -1.000
 5824.00    1.04929   1.02836   -1.000
 5825.00    1.04918   1.02834   -1.000
 5826.00    1.05158   1.02864   -1.000
 5827.00    1.05125   1.02930   -1.000
 5828.00    1.05159   1.03009   -1.000
 5829.00    1.05465   1.03056   -1.000
 5830.00    1.05405   1.03044   -1.000
 5831.00    1.05070   1.02971   -1.000
 5832.00    1.04962   1.02835   -1.000
 5833.00    1.04972   1.02653   -1.000
 5834.00    1.04690   1.02490   -1.000
 5835.00    1.04921   1.02432   -1.000
 5836.00    1.04697   1.02503   -1.000
 5837.00    1.04660   1.02649   -1.000
 5838.00    1.04675   1.02801   -1.000
 5839.00    1.05079   1.02933   -1.000
 5840.00    1.04977   1.03033   -1.000
 5841.00    1.05412   1.03068   -1.000
 5842.00    1.04967   1.02996   -1.000
 5843.00    1.04967   1.02816   -1.000
 5844.00    1.05264   1.02562   -1.000
 5845.00    1.04836   1.02276   -1.000
 5846.00    1.04477   1.02015   -1.000
 5847.00    1.04374   1.01853   -1.000
 5848.00    1.04210   1.01802   -1.000
 5849.00    1.04348   1.01759   -1.000
 5850.00    1.04599   1.01560   -1.000
 5851.00    1.04416   1.01125   -1.000
 5852.00    1.03442   1.00550   -1.000
 5853.00    1.02516   1.00051   -1.000
 5854.00    1.02659   0.99716   -1.000
 5855.00    1.02799   0.99373   -1.000
 5856.00    1.02354   0.98859   -1.000
 5857.00    1.01696   0.98352   -1.000
 5858.00    1.01501   0.98242   -1.000
 5859.00    1.02412   0.98655   -1.000
 5860.00    1.03255   0.99325   -1.000
 5861.00    1.03689   0.99924   -1.000
 5862.00    1.03659   1.00341   -1.000
 5863.00    1.03574   1.00611   -1.000
 5864.00    1.03870   1.00726   -1.000
 5865.00    1.03585   1.00644   -1.000
 5866.00    1.03197   1.00472   -1.000
 5867.00    1.03188   1.00435   -1.000
 5868.00    1.03653   1.00652   -1.000
 5869.00    1.04075   1.01033   -1.000
 5870.00    1.04206   1.01378   -1.000
 5871.00    1.04260   1.01536   -1.000
 5872.00    1.04500   1.01487   -1.000
 5873.00    1.04539   1.01321   -1.000
 5874.00    1.04330   1.01125   -1.000
 5875.00    1.04388   1.00939   -1.000
 5876.00    1.04517   1.00760   -1.000
 5877.00    1.04466   1.00553   -1.000
 5878.00    1.03979   1.00283   -1.000
 5879.00    1.02997   0.99975   -1.000
 5880.00    1.02539   0.99693   -1.000
 5881.00    1.02598   0.99439   -1.000
 5882.00    1.02355   0.99148   -1.000
 5883.00    1.02270   0.98796   -1.000
 5884.00    1.02197   0.98423   -1.000
 5885.00    1.01654   0.97917   -1.000
 5886.00    1.00147   0.96806   -1.000
 5887.00    0.97718   0.94520   -1.000
 5888.00    0.94309   0.91186   -1.000
 5889.00    0.92131   0.88083   -1.000
 5890.00    0.92538   0.86797   -1.000
 5891.00    0.94774   0.87678   -1.000
 5892.00    0.96783   0.89418   -1.000
 5893.00    0.97145   0.90329   -1.000
 5894.00    0.95797   0.89825   -1.000
 5895.00    0.94327   0.88781   -1.000
 5896.00    0.94673   0.88621   -1.000
 5897.00    0.96582   0.89935   -1.000
 5898.00    0.98919   0.92113   -1.000
 5899.00    0.99870   0.94238   -1.000
 5900.00    1.00902   0.95893   -1.000
 5901.00    1.02064   0.97096   -1.000
 5902.00    1.01993   0.97926   -1.000
 5903.00    1.02384   0.98435   -1.000
 5904.00    1.02266   0.98707   -1.000
 5905.00    1.02088   0.98863   -1.000
 5906.00    1.02306   0.99004   -1.000
 5907.00    1.02106   0.99169   -1.000
 5908.00    1.02169   0.99341   -1.000
 5909.00    1.02034   0.99480   -1.000
 5910.00    1.02324   0.99522   -1.000
 5911.00    1.02580   0.99386   -1.000
 5912.00    1.02357   0.99011   -1.000
 5913.00    1.01275   0.98455   -1.000
 5914.00    1.00487   0.97931   -1.000
 5915.00    1.00274   0.97669   -1.000
 5916.00    1.00506   0.97734   -1.000
 5917.00    1.00924   0.98039   -1.000
 5918.00    1.00684   0.98439   -1.000
 5919.00    1.01097   0.98789   -1.000
 5920.00    1.01387   0.98993   -1.000
 5921.00    1.01400   0.99054   -1.000
 5922.00    1.01499   0.99054   -1.000
 5923.00    1.01624   0.99101   -1.000
 5924.00    1.02123   0.99255   -1.000
 5925.00    1.02597   0.99461   -1.000
 5926.00    1.02861   0.99574   -1.000
 5927.00    1.02443   0.99463   -1.000
 5928.00    1.02058   0.99134   -1.000
 5929.00    1.01623   0.98785   -1.000
 5930.00    1.01262   0.98654   -1.000
 5931.00    1.01794   0.98786   -1.000
 5932.00    1.02245   0.98988   -1.000
 5933.00    1.02225   0.99058   -1.000
 5934.00    1.02073   0.99021   -1.000
 5935.00    1.01444   0.99052   -1.000
 5936.00    1.01581   0.99221   -1.000
 5937.00    1.02362   0.99401   -1.000
 5938.00    1.02052   0.99414   -1.000
 5939.00    1.01275   0.99209   -1.000
 5940.00    1.00843   0.98886   -1.000
 5941.00    1.00725   0.98617   -1.000
 5942.00    1.00487   0.98531   -1.000
 5943.00    1.00506   0.98642   -1.000
 5944.00    1.00884   0.98848   -1.000
 5945.00    1.01285   0.98977   -1.000
 5946.00    1.01276   0.98904   -1.000
 5947.00    1.00676   0.98671   -1.000
 5948.00    1.00224   0.98473   -1.000
 5949.00    1.00070   0.98468   -1.000
 5950.00    1.00208   0.98603   -1.000
 5951.00    1.01062   0.98702   -1.000
 5952.00    1.01138   0.98694   -1.000
 5953.00    1.01154   0.98656   -1.000
 5954.00    1.00655   0.98630   -1.000
 5955.00    1.00474   0.98554   -1.000
 5956.00    1.00078   0.98437   -1.000
 5957.00    1.00077   0.98421   -1.000
 5958.00    1.00712   0.98612   -1.000
 5959.00    1.01832   0.98971   -1.000
 5960.00    1.02235   0.99356   -1.000
 5961.00    1.02234   0.99638   -1.000
 5962.00    1.02323   0.99748   -1.000
 5963.00    1.02108   0.99674   -1.000
 5964.00    1.01596   0.99464   -1.000
 5965.00    1.01315   0.99236   -1.000
 5966.00    1.00830   0.99113   -1.000
 5967.00    1.01392   0.99145   -1.000
 5968.00    1.01546   0.99285   -1.000
 5969.00    1.02000   0.99471   -1.000
 5970.00    1.02346   0.99657   -1.000
 5971.00    1.02286   0.99790   -1.000
 5972.00    1.02530   0.99809   -1.000
 5973.00    1.02096   0.99664   -1.000
 5974.00    1.01273   0.99338   -1.000
 5975.00    1.00566   0.98898   -1.000
 5976.00    1.00132   0.98511   -1.000
 5977.00    1.00255   0.98349   -1.000
 5978.00    1.00604   0.98468   -1.000
 5979.00    1.01068   0.98766   -1.000
 5980.00    1.01461   0.99025   -1.000
 5981.00    1.01506   0.99032   -1.000
 5982.00    1.00942   0.98725   -1.000
 5983.00    1.00233   0.98266   -1.000
 5984.00    0.99685   0.97936   -1.000
 5985.00    0.99986   0.97914   -1.000
 5986.00    1.00312   0.98161   -1.000
 5987.00    1.00540   0.98496   -1.000
 5988.00    1.00514   0.98755   -1.000
 5989.00    1.00662   0.98862   -1.000
 5990.00    1.00735   0.98861   -1.000
 5991.00    1.00922   0.98898   -1.000
 5992.00    1.00814   0.99096   -1.000
 5993.00    1.00915   0.99400   -1.000
 5994.00    1.01557   0.99596   -1.000
 5995.00    1.01216   0.99536   -1.000
 5996.00    1.00638   0.99279  184.073
 5997.00    1.00567   0.99016   -1.000
 5998.00    1.00683   0.98897   -1.000
 5999.00    1.00642   0.98910   -1.000
 6000.00    1.00579   0.98922   -1.000
 6001.00    1.00695   0.98835   -1.000
 6002.00    1.00286   0.98677   -1.000
 6003.00    0.99923   0.98551   -1.000
 6004.00    0.99730   0.98470  185.507
 6005.00    0.99814   0.98308   -1.000
 6006.00    0.99835   0.97981   -1.000
 6007.00    0.99142   0.97641   -1.000
 6008.00    0.98899   0.97567  186.188
 6009.00    0.99113   0.97854  184.340
 6010.00    0.99725   0.98266   -1.000
 6011.00    1.00276   0.98488   -1.000
 6012.00    1.00297   0.98448   -1.000
 6013.00    1.00053   0.98323   -1.000
 6014.00    0.99609   0.98264  186.146
 6015.00    0.99687   0.98253   -1.000
 6016.00    0.99430   0.98207  187.342
 6017.00    0.99731   0.98093   -1.000
 6018.00    0.99566   0.97908   -1.000
 6019.00    0.98724   0.97676  188.766
 6020.00    0.98551   0.97483  187.724
 6021.00    0.98620   0.97419  186.411
 6022.00    0.98635   0.97493  186.155
 6023.00    0.99068   0.97666   -1.000
 6024.00    0.98915   0.97927  184.655
 6025.00    0.99151   0.98264  184.226
 6026.00    0.99501   0.98606  182.932
 6027.00    0.99887   0.98895  182.218
 6028.00    0.99680   0.99130  182.039
 6029.00    1.00058   0.99320  182.124
 6030.00    1.00159   0.99459  182.608
 6031.00    1.00119   0.99557  182.143
 6032.00    1.00374   0.99641  181.272
 6033.00    1.00580   0.99737  180.880
 6034.00    1.00832   0.99840  180.851
 6035.00    1.00629   0.99908  180.459
 6036.00    1.00490   0.99884  180.756
 6037.00    1.00414   0.99749  181.916
 6038.00    1.00077   0.99525  182.150
 6039.00    0.99957   0.99255  182.791
 6040.00    1.00069   0.98977  182.226
 6041.00    0.99764   0.98705  182.036
 6042.00    0.99854   0.98504  180.973
 6043.00    0.99762   0.98547  179.465
 6044.00    1.00304   0.98891   -1.000
 6045.00    0.99971   0.99333  179.820
 6046.00    0.99962   0.99653  179.478
 6047.00    1.00275   0.99815  179.741
 6048.00    0.99863   0.99858  180.436
 6049.00    1.00024   0.99820  180.790
 6050.00    1.00032   0.99741  180.923
 6051.00    1.00071   0.99636  181.305
 6052.00    0.99722   0.99475  182.110
 6053.00    0.99765   0.99239  182.624
 6054.00    0.99728   0.98959  183.728
 6055.00    0.99202   0.98720  184.191
 6056.00    0.99004   0.98613  183.753
 6057.00    0.98855   0.98674  182.686
 6058.00    0.99578   0.98849  181.770
 6059.00    0.99150   0.99034  182.170
 6060.00    1.03814   0.99108   -1.000
 6061.00    1.01905   0.98963   -1.000
 6062.00    0.98048   0.98557  189.320
 6063.00    1.00555   0.97967   -1.000
 6064.00    0.63164   0.97420   -1.000
 6065.00    0.66399   0.97224   -1.000
 6066.00    1.00505   0.97532   -1.000
 6067.00    0.97843   0.98170  182.279
 6068.00    0.98888   0.98799  182.513
 6069.00    1.00862   0.99227   -1.000
 6070.00    1.00777   0.99465  175.038
 6071.00    0.99345   0.99601  179.754
 6072.00    0.99387   0.99695  180.437
 6073.00    0.99566   0.99736  180.538
 6074.00    0.99582   0.99678  181.230
 6075.00    0.99370   0.99486  182.214
 6076.00    0.98794   0.99178  183.267
 6077.00    0.98226   0.98824  184.757
 6078.00    0.97848   0.98525  185.826
 6079.00    0.97859   0.98349  185.774
 6080.00    0.97814   0.98252  185.979
 6081.00    0.97578   0.98136  186.569
 6082.00    0.97529   0.97984  186.459
 6083.00    0.97210   0.97870  186.318
 6084.00    0.97433   0.97848  186.111
 6085.00    0.97674   0.97930  185.516
 6086.00    0.97626   0.98092  184.741
 6087.00    0.97772   0.98259  185.285
 6088.00    0.97822   0.98321  186.508
 6089.00    0.97493   0.98226  187.229
 6090.00    0.97237   0.98045  187.005
 6091.00    0.97095   0.97920  185.648
 6092.00    0.97216   0.97950  184.788
 6093.00    0.97653   0.98129  183.709
 6094.00    0.97991   0.98377  182.958
 6095.00    0.97890   0.98616  183.152
 6096.00    0.98066   0.98813  183.653
 6097.00    0.98114   0.98944  183.710
 6098.00    0.97866   0.98921  183.723
 6099.00    0.98052   0.98575  186.272
 6100.00    0.97352   0.97787  191.177
 6101.00    0.95897   0.96709  193.935
 6102.00    0.94639   0.95828  191.899
 6103.00    0.94976   0.95641  187.976
 6104.00    0.96170   0.96190  185.300
 6105.00    0.97139   0.97049  184.966
 6106.00    0.97312   0.97786  185.833
 6107.00    0.97057   0.98279  186.225
 6108.00    0.96895   0.98606  186.076
 6109.00    0.96991   0.98809  185.630
 6110.00    0.97180   0.98869  184.758
 6111.00    0.96968   0.98815  184.844
 6112.00    0.97557   0.98754  183.698
 6113.00    0.97643   0.98752  183.366
 6114.00    0.97443   0.98781  184.239
 6115.00    0.96995   0.98782  185.513
 6116.00    0.97056   0.98732  185.620
 6117.00    0.96843   0.98575  186.655
 6118.00    0.96915   0.98168  189.627
 6119.00    0.96114   0.97402  192.003
 6120.00    0.94935   0.96373  193.735
 6121.00    0.94340   0.95440  193.629
 6122.00    0.94050   0.95075  190.041
 6123.00    0.94687   0.95450  187.771
 6124.00    0.95468   0.96245  188.047
 6125.00    0.96074   0.96976  189.264
 6126.00    0.96235   0.97367  188.802
 6127.00    0.95893   0.97436  188.387
 6128.00    0.95663   0.97427  186.674
 6129.00    0.96215   0.97622  184.910
 6130.00    0.96554   0.98051  184.736
 6131.00    0.96656   0.98484  185.184
 6132.00    0.96696   0.98641   -1.000
 6133.00    0.95984   0.98267   -1.000
 6134.00    0.94839   0.97200   -1.000
 6135.00    0.93260   0.95620   -1.000
 6136.00    0.91370   0.94178   -1.000
 6137.00    0.90750   0.93571   -1.000
 6138.00    0.91949   0.93870   -1.000
 6139.00    0.93816   0.94490  189.354
 6140.00    0.94719   0.94938  189.977
 6141.00    0.94139   0.95299  190.218
 6142.00    0.94101   0.95872  187.967
 6143.00    0.94766   0.96641  185.726
 6144.00    0.95742   0.97290  185.748
 6145.00    0.96345   0.97561  186.739
 6146.00    0.95837   0.97456  187.962
 6147.00    0.95585   0.97149  189.343
 6148.00    0.95430   0.96847  190.391
 6149.00    0.95182   0.96706  190.240
 6150.00    0.94961   0.96774  189.448
 6151.00    0.94612   0.96973   -1.000
 6152.00    0.95195   0.97143   -1.000
 6153.00    0.95796   0.97133  189.869
 6154.00    0.95956   0.96933  190.698
 6155.00    0.95774   0.96672  190.736
 6156.00    0.95504   0.96462  191.665
 6157.00    0.95581   0.96257  193.903
 6158.00    0.94994   0.95845  197.869
 6159.00    0.94234   0.94956  204.205
 6160.00    0.93204   0.93550  209.987
 6161.00    0.91392   0.92075  211.339
 6162.00    0.90086   0.91233  207.490
 6163.00    0.90387   0.91376  201.477
 6164.00    0.91952   0.92218  198.847
 6165.00    0.93200   0.93171  198.281
 6166.00    0.93286   0.93775  199.002
 6167.00    0.93139   0.93851  201.898
 6168.00    0.92390   0.93535  203.744
 6169.00    0.91462   0.93253   -1.000
 6170.00    0.91867   0.93414  197.487
 6171.00    0.93026   0.94026  194.990
 6172.00    0.93555   0.94773  195.595
 6173.00    0.93533   0.95391   -1.000
 6174.00    0.93988   0.95807   -1.000
 6175.00    0.94571   0.96052  194.756
 6176.00    0.94386   0.96188  194.189
 6177.00    0.94314   0.96286   -1.000
 6178.00    0.94676   0.96370  192.521
 6179.00    0.94664   0.96446  191.906
 6180.00    0.94625   0.96553   -1.000
 6181.00    0.94692   0.96708   -1.000
 6182.00    0.94811   0.96851   -1.000
 6183.00    0.95206   0.96900  191.811
 6184.00    0.94880   0.96813   -1.000
 6185.00    0.94816   0.96590  195.688
 6186.00    0.94678   0.96259  197.674
 6187.00    0.94292   0.95844  199.525
 6188.00    0.93533   0.95304   -1.000
 6189.00    0.92988   0.94598  203.751
 6190.00    0.92276   0.93890  204.713
 6191.00    0.91215   0.93570   -1.000
 6192.00    0.91327   0.93900   -1.000
 6193.00    0.92821   0.94702   -1.000
 6194.00    0.94164   0.95560  192.745
 6195.00    0.94558   0.96188  192.597
 6196.00    0.94411   0.96492   -1.000
 6197.00    0.94141   0.96465   -1.000
 6198.00    0.93529   0.96196   -1.000
 6199.00    0.92658   0.95918   -1.000
 6200.00    0.92359   0.95882   -1.000
 6201.00    0.92738   0.96141   -1.000
 6202.00    0.93491   0.96548   -1.000
 6203.00    0.94196   0.96922   -1.000
 6204.00    0.94337   0.97177   -1.000
 6205.00    0.94247   0.97316   -1.000
 6206.00    0.94288   0.97373   -1.000
 6207.00    0.94141   0.97371   -1.000
 6208.00    0.93906   0.97294   -1.000
 6209.00    0.93922   0.97097   -1.000
 6210.00    0.93819   0.96731   -1.000
 6211.00    0.93044   0.96171   -1.000
 6212.00    0.92453   0.95479   -1.000
 6213.00    0.91712   0.94830   -1.000
 6214.00    0.90959   0.94413   -1.000
 6215.00    0.91302   0.94277   -1.000
 6216.00    0.91432   0.94294   -1.000
 6217.00    0.92123   0.94283   -1.000
 6218.00    0.91978   0.94185   -1.000
 6219.00    0.91134   0.94111   -1.000
 6220.00    0.91140   0.94213   -1.000
 6221.00    0.92434   0.94496   -1.000
 6222.00    0.92731   0.94817   -1.000
 6223.00    0.93061   0.95049   -1.000
 6224.00    0.92568   0.95180   -1.000
 6225.00    0.92357   0.95228   -1.000
 6226.00    0.92489   0.95134   -1.000
 6227.00    0.92364   0.94768   -1.000
 6228.00    0.91784   0.94066   -1.000
 6229.00    0.90517   0.93188   -1.000
 6230.00    0.89407   0.92509   -1.000
 6231.00    0.89243   0.92381   -1.000
 6232.00    0.89571   0.92859   -1.000
 6233.00    0.91164   0.93673   -1.000
 6234.00    0.92222   0.94415   -1.000
 6235.00    0.92162   0.94780   -1.000
 6236.00    0.92592   0.94704   -1.000
 6237.00    0.91898   0.94344   -1.000
 6238.00    0.91322   0.93937   -1.000
 6239.00    0.91180   0.93657   -1.000
 6240.00    0.90588   0.93515   -1.000
 6241.00    0.90421   0.93382   -1.000
 6242.00    0.89902   0.93116   -1.000
 6243.00    0.89551   0.92702   -1.000
 6244.00    0.89284   0.92273   -1.000
 6245.00    0.89386   0.92049   -1.000
 6246.00    0.89881   0.92218   -1.000
 6247.00    0.90268   0.92775   -1.000
 6248.00    0.90880   0.93459   -1.000
 6249.00    0.90935   0.93892   -1.000
 6250.00    0.90684   0.93820   -1.000
 6251.00    0.89900   0.93288   -1.000
 6252.00    0.88553   0.92604   -1.000
 6253.00    0.87960   0.92096   -1.000
 6254.00    0.87888   0.91878   -1.000
 6255.00    0.87820   0.91848   -1.000
 6256.00    0.87626   0.91865   -1.000
 6257.00    0.87611   0.91913   -1.000
 6258.00    0.87675   0.92092   -1.000
 6259.00    0.88375   0.92484   -1.000
 6260.00    0.89298   0.93055   -1.000
 6261.00    0.89836   0.93671   -1.000
 6262.00    0.90061   0.94166   -1.000
 6263.00    0.90301   0.94429   -1.000
 6264.00    0.90236   0.94492   -1.000
 6265.00    0.89692   0.94509   -1.000
 6266.00    0.89529   0.94585   -1.000
 6267.00    0.90185   0.94658   -1.000
 6268.00    0.90377   0.94611   -1.000
 6269.00    0.90085   0.94452   -1.000
 6270.00    0.90020   0.94299   -1.000
 6271.00    0.89821   0.94213   -1.000
 6272.00    0.89928   0.94098   -1.000
 6273.00    0.89525   0.93787   -1.000
 6274.00    0.88457   0.93200   -1.000
 6275.00    0.86903   0.92421   -1.000
 6276.00    0.85401   0.91635   -1.000
 6277.00    0.84755   0.91016   -1.000
 6278.00    0.84825   0.90657   -1.000
 6279.00    0.85265   0.90607   -1.000
 6280.00    0.85747   0.90897   -1.000
 6281.00    0.86219   0.91503   -1.000
 6282.00    0.87365   0.92301   -1.000
 6283.00    0.88335   0.93102   -1.000
 6284.00    0.88803   0.93748   -1.000
 6285.00    0.89383   0.94184   -1.000
 6286.00    0.89718   0.94436   -1.000
 6287.00    0.89801   0.94520   -1.000
 6288.00    0.89787   0.94414   -1.000
 6289.00    0.89497   0.94143   -1.000
 6290.00    0.88637   0.93825   -1.000
 6291.00    0.88413   0.93592   -1.000
 6292.00    0.88482   0.93477   -1.000
 6293.00    0.88324   0.93406   -1.000
 6294.00    0.88048   0.93260   -1.000
 6295.00    0.87933   0.92978   -1.000
 6296.00    0.88058   0.92622   -1.000
 6297.00    0.88178   0.92318   -1.000
 6298.00    0.88857   0.92129   -1.000
 6299.00    0.90424   0.91995  205.281
 6300.00    0.90338   0.91873  207.415
 6301.00    0.88411   0.91864   -1.000
 6302.00    0.87129   0.92127   -1.000
 6303.00    0.87810   0.92654   -1.000
 6304.00    0.88235   0.93254   -1.000
 6305.00    0.88424   0.93742   -1.000
 6306.00    0.89059   0.94067   -1.000
 6307.00    0.89629   0.94257   -1.000
 6308.00    0.89723   0.94337   -1.000
 6309.00    0.89434   0.94328   -1.000
 6310.00    0.88833   0.94242   -1.000
 6311.00    0.88679   0.94085   -1.000
 6312.00    0.88731   0.93847   -1.000
 6313.00    0.88155   0.93532   -1.000
 6314.00    0.87477   0.93180   -1.000
 6315.00    0.87345   0.92844   -1.000
 6316.00    0.87443   0.92564   -1.000
 6317.00    0.87505   0.92419   -1.000
 6318.00    0.87438   0.92526   -1.000
 6319.00    0.87953   0.92908   -1.000
 6320.00    0.88524   0.93413   -1.000
 6321.00    0.88857   0.93871   -1.000
 6322.00    0.88786   0.94258   -1.000
 6323.00    0.88820   0.94617   -1.000
 6324.00    0.89358   0.94912   -1.000
 6325.00    0.89841   0.95068   -1.000
 6326.00    0.89855   0.95084   -1.000
 6327.00    0.89719   0.95028   -1.000
 6328.00    0.89434   0.94967   -1.000
 6329.00    0.89691   0.94939   -1.000
 6330.00    0.89959   0.94954   -1.000
 6331.00    0.89738   0.94953   -1.000
 6332.00    0.90772   0.94798   -1.000
 6333.00    0.93752   0.94363  195.885
 6334.00    0.89215   0.93716   -1.000
 6335.00    0.87813   0.93145   -1.000
 6336.00    0.87417   0.92943   -1.000
 6337.00    0.88049   0.93161   -1.000
 6338.00    0.88905   0.93617   -1.000
 6339.00    0.89736   0.94091   -1.000
 6340.00    0.89795   0.94434   -1.000
 6341.00    0.90376   0.94565   -1.000
 6342.00    0.89920   0.94477   -1.000
 6343.00    0.89526   0.94252   -1.000
 6344.00    0.89333   0.94029   -1.000
 6345.00    0.89534   0.93928   -1.000
 6346.00    0.89843   0.94030   -1.000
 6347.00    0.90048   0.94345   -1.000
 6348.00    0.90327   0.94791   -1.000
 6349.00    0.90344   0.95210   -1.000
 6350.00    0.90320   0.95458   -1.000
 6351.00    0.90179   0.95468   -1.000
 6352.00    0.90203   0.95264   -1.000
 6353.00    0.89994   0.94944   -1.000
 6354.00    0.89564   0.94634   -1.000
 6355.00    0.89057   0.94397   -1.000
 6356.00    0.89079   0.94193   -1.000
 6357.00    0.88727   0.93955   -1.000
 6358.00    0.88473   0.93689   -1.000
 6359.00    0.88473   0.93444   -1.000
 6360.00    0.88756   0.93237   -1.000
 6361.00    0.89399   0.93081   -1.000
 6362.00    0.89969   0.93036   -1.000
 6363.00    0.89926   0.93167   -1.000
 6364.00    0.89818   0.93451   -1.000
 6365.00    0.89710   0.93792   -1.000
 6366.00    0.89480   0.94097   -1.000
 6367.00    0.88977   0.94288   -1.000
 6368.00    0.89460   0.94321   -1.000
 6369.00    0.89381   0.94233   -1.000
 6370.00    0.89030   0.94160   -1.000
 6371.00    0.89164   0.94225   -1.000
 6372.00    0.89317   0.94434   -1.000
 6373.00    0.88898   0.94672   -1.000
 6374.00    0.89010   0.94808   -1.000
 6375.00    0.88670   0.94793   -1.000
 6376.00    0.88884   0.94659   -1.000
 6377.00    0.88531   0.94469   -1.000
 6378.00    0.87655   0.94274   -1.000
 6379.00    0.87459   0.94107   -1.000
 6380.00    0.87462   0.93987   -1.000
 6381.00    0.86779   0.93922   -1.000
 6382.00    0.86969   0.93911   -1.000
 6383.00    0.86604   0.93961   -1.000
 6384.00    0.86442   0.94080   -1.000
 6385.00    0.86273   0.94256   -1.000
 6386.00    0.86105   0.94437   -1.000
 6387.00    0.86193   0.94552   -1.000
 6388.00    0.85310   0.94549   -1.000
 6389.00    0.84818   0.94385   -1.000
 6390.00    0.84364   0.94010   -1.000
 6391.00    0.83449   0.93443   -1.000
 6392.00    0.82645   0.92889   -1.000
 6393.00    0.81750   0.92647   -1.000
 6394.00    0.81440   0.92848   -1.000
 6395.00    0.81919   0.93295   -1.000
 6396.00    0.82387   0.93601   -1.000
 6397.00    0.81635   0.93494   -1.000
 6398.00    0.80823   0.93037   -1.000
 6399.00    0.79315   0.92599   -1.000
 6400.00    0.78632   0.92559   -1.000
 6401.00    0.78778   0.92988   -1.000
 6402.00    0.79358   0.93629   -1.000
 6403.00    0.79874   0.94136   -1.000
 6404.00    0.79872   0.94287   -1.000
 6405.00    0.78980   0.94056   -1.000
 6406.00    0.78138   0.93582   -1.000
 6407.00    0.77182   0.93118   -1.000
 6408.00    0.76826   0.92883   -1.000
 6409.00    0.76518   0.92899   -1.000
 6410.00    0.75877   0.93010   -1.000
 6411.00    0.75421   0.93104   -1.000
 6412.00    0.74785   0.93207   -1.000
 6413.00    0.74475   0.93340   -1.000
 6414.00    0.74447   0.93465   -1.000
 6415.00    0.74267   0.93566   -1.000
 6416.00    0.73537   0.93624   -1.000
 6417.00    0.72881   0.93553   -1.000
 6418.00    0.71797   0.93285   -1.000
 6419.00    0.71052   0.92915   -1.000
 6420.00    0.70004   0.92697   -1.000
 6421.00    0.69159   0.92847   -1.000
 6422.00    0.68969   0.93350   -1.000
 6423.00    0.68893   0.93978   -1.000
 6424.00    0.68676   0.94512   -1.000
 6425.00    0.68232   0.94864   -1.000
 6426.00    0.67496   0.94991   -1.000
 6427.00    0.66845   0.94817   -1.000
 6428.00    0.65825   0.94298   -1.000
